Data from c_1_hir_il_4n_023_Splice17_18.txt Node
Date: Sat Feb 29 13:19:49 EST 2020
User: sa697716
Spectrometer: FLMS03696
Trigger mode: 0
Integration Time (sec): 3.180400E-1
Scans to average: 20
Electric dark correction enabled: true
Nonlinearity correction enabled: true
Boxcar width: 5
XAxis mode: Wavelengths
Number of Pixels in Spectrum: 2048
>>>>>Begin Spectral Data<<<<<
187.83	32.72
188.298	36.45
188.766	25.23
189.233	27.53
189.701	40.7
190.169	43.85
190.636	55.05
191.104	40.85
191.571	155.62
192.039	190.04
192.506	-284.16
192.974	3484.45
193.441	-403.39
193.908	59.65
194.375	49.45
194.842	173.22
195.31	82.7
195.777	107.58
196.244	47.19
196.711	42.23
197.177	34.91
197.644	34.67
198.111	33.85
198.578	34.49
199.045	35.12
199.511	35.55
199.978	35.6
200.445	36.09
200.911	36.54
201.378	36.47
201.844	36.55
202.31	37.58
202.777	38.22
203.243	38.54
203.709	38.66
204.176	38.28
204.642	37.86
205.108	37.61
205.574	37.33
206.04	36.89
206.506	36.4
206.972	36.52
207.438	35.65
207.903	35.39
208.369	34.89
208.835	34.17
209.301	33.66
209.766	33.26
210.232	32.67
210.697	32.14
211.163	31.65
211.628	31.27
212.094	30.76
212.559	30.57
213.024	29.59
213.49	28.97
213.955	28.48
214.42	27.83
214.885	27.14
215.35	26.52
215.815	25.44
216.28	24.44
216.745	23.28
217.21	21.79
217.675	20.56
218.14	19.49
218.604	18.52
219.069	17.67
219.534	16.91
219.998	16.28
220.463	15.82
220.927	15.42
221.392	14.97
221.856	14.57
222.32	14.26
222.785	13.96
223.249	13.69
223.713	13.5
224.177	13.24
224.642	13.05
225.106	12.84
225.57	12.59
226.034	12.36
226.497	12.16
226.961	11.96
227.425	11.74
227.889	11.56
228.353	11.4
228.816	11.22
229.28	11.08
229.744	10.93
230.207	10.78
230.671	10.65
231.134	10.5
231.597	10.36
232.061	10.24
232.524	10.15
232.987	10.04
233.45	9.9
233.914	9.78
234.377	9.67
234.84	9.57
235.303	9.48
235.766	9.39
236.229	9.31
236.691	9.25
237.154	9.17
237.617	9.08
238.08	8.99
238.542	8.91
239.005	8.83
239.468	8.75
239.93	8.66
240.393	8.6
240.855	8.49
241.317	8.42
241.78	8.34
242.242	8.26
242.704	8.19
243.166	8.14
243.629	8.07
244.091	8.02
244.553	7.95
245.015	7.9
245.477	7.83
245.939	7.78
246.4	7.71
246.862	7.65
247.324	7.61
247.786	7.55
248.247	7.48
248.709	7.44
249.17	7.39
249.632	7.33
250.093	7.26
250.555	7.21
251.016	7.16
251.477	7.1
251.939	7.06
252.4	7
252.861	6.95
253.322	6.89
253.783	6.84
254.244	6.79
254.705	6.75
255.166	6.73
255.627	6.69
256.088	6.64
256.549	6.61
257.009	6.57
257.47	6.53
257.931	6.49
258.391	6.45
258.852	6.41
259.312	6.37
259.773	6.33
260.233	6.28
260.694	6.24
261.154	6.2
261.614	6.16
262.074	6.13
262.534	6.08
262.994	6.05
263.455	6.02
263.915	5.99
264.374	5.96
264.834	5.93
265.294	5.89
265.754	5.85
266.214	5.82
266.673	5.79
267.133	5.77
267.593	5.75
268.052	5.71
268.512	5.68
268.971	5.66
269.431	5.64
269.89	5.61
270.349	5.6
270.809	5.59
271.268	5.58
271.727	5.56
272.186	5.54
272.645	5.52
273.104	5.52
273.563	5.5
274.022	5.48
274.481	5.46
274.94	5.44
275.399	5.42
275.857	5.4
276.316	5.37
276.775	5.35
277.233	5.33
277.692	5.31
278.15	5.28
278.609	5.25
279.067	5.22
279.525	5.2
279.984	5.19
280.442	5.17
280.9	5.16
281.358	5.15
281.816	5.13
282.274	5.11
282.732	5.09
283.19	5.08
283.648	5.07
284.106	5.06
284.564	5.06
285.021	5.04
285.479	5.02
285.937	5.01
286.394	4.99
286.852	4.97
287.309	4.97
287.767	4.95
288.224	4.94
288.682	4.92
289.139	4.91
289.596	4.88
290.053	4.86
290.511	4.84
290.968	4.82
291.425	4.79
291.882	4.77
292.339	4.75
292.796	4.73
293.252	4.71
293.709	4.69
294.166	4.67
294.623	4.65
295.079	4.64
295.536	4.63
295.992	4.61
296.449	4.6
296.905	4.59
297.362	4.57
297.818	4.56
298.274	4.55
298.731	4.54
299.187	4.54
299.643	4.52
300.099	4.51
300.555	4.49
301.011	4.48
301.467	4.47
301.923	4.46
302.379	4.44
302.835	4.44
303.291	4.42
303.746	4.41
304.202	4.39
304.658	4.38
305.113	4.38
305.569	4.37
306.024	4.36
306.479	4.36
306.935	4.34
307.39	4.34
307.845	4.33
308.301	4.33
308.756	4.33
309.211	4.33
309.666	4.32
310.121	4.31
310.576	4.3
311.031	4.29
311.486	4.29
311.94	4.29
312.395	4.29
312.85	4.29
313.305	4.28
313.759	4.28
314.214	4.28
314.668	4.28
315.123	4.28
315.577	4.27
316.032	4.27
316.486	4.26
316.94	4.25
317.394	4.24
317.849	4.23
318.303	4.22
318.757	4.2
319.211	4.18
319.665	4.17
320.119	4.15
320.572	4.14
321.026	4.13
321.48	4.12
321.934	4.12
322.387	4.11
322.841	4.11
323.295	4.09
323.748	4.09
324.202	4.09
324.655	4.08
325.108	4.06
325.562	4.05
326.015	4.04
326.468	4.03
326.921	4.02
327.374	4.01
327.827	4.01
328.28	4
328.733	3.99
329.186	3.99
329.639	3.98
330.092	3.98
330.545	3.98
330.997	3.98
331.45	3.97
331.903	3.96
332.355	3.96
332.808	3.95
333.26	3.95
333.713	3.95
334.165	3.95
334.617	3.95
335.069	3.96
335.522	3.96
335.974	3.96
336.426	3.96
336.878	3.96
337.33	3.95
337.782	3.95
338.234	3.95
338.686	3.94
339.137	3.95
339.589	3.94
340.041	3.93
340.493	3.9
340.944	3.89
341.396	3.88
341.847	3.87
342.299	3.85
342.75	3.84
343.201	3.83
343.653	3.82
344.104	3.81
344.555	3.8
345.006	3.78
345.457	3.79
345.908	3.78
346.359	3.78
346.81	3.78
347.261	3.78
347.712	3.77
348.163	3.77
348.613	3.75
349.064	3.74
349.515	3.72
349.965	3.71
350.416	3.71
350.866	3.7
351.317	3.69
351.767	3.68
352.217	3.67
352.668	3.66
353.118	3.66
353.568	3.66
354.018	3.67
354.468	3.67
354.918	3.68
355.368	3.68
355.818	3.68
356.268	3.69
356.718	3.69
357.168	3.69
357.617	3.69
358.067	3.68
358.517	3.69
358.966	3.68
359.416	3.68
359.865	3.67
360.315	3.66
360.764	3.66
361.213	3.64
361.663	3.64
362.112	3.64
362.561	3.65
363.01	3.65
363.459	3.65
363.908	3.64
364.357	3.64
364.806	3.65
365.255	3.66
365.703	3.65
366.152	3.66
366.601	3.65
367.05	3.65
367.498	3.64
367.947	3.63
368.395	3.64
368.844	3.65
369.292	3.64
369.74	3.65
370.189	3.64
370.637	3.65
371.085	3.66
371.533	3.67
371.981	3.69
372.429	3.69
372.877	3.7
373.325	3.69
373.773	3.69
374.221	3.7
374.669	3.7
375.116	3.71
375.564	3.72
376.012	3.72
376.459	3.72
376.907	3.72
377.354	3.73
377.801	3.74
378.249	3.77
378.696	3.79
379.143	3.8
379.591	3.81
380.038	3.82
380.485	3.84
380.932	3.86
381.379	3.86
381.826	3.89
382.273	3.9
382.72	3.93
383.166	3.94
383.613	3.95
384.06	3.98
384.506	4
384.953	4.01
385.4	4.04
385.846	4.03
386.292	4.05
386.739	4.06
387.185	4.08
387.631	4.09
388.078	4.1
388.524	4.09
388.97	4.1
389.416	4.11
389.862	4.12
390.308	4.13
390.754	4.15
391.2	4.18
391.645	4.2
392.091	4.2
392.537	4.22
392.983	4.24
393.428	4.26
393.874	4.29
394.319	4.3
394.765	4.32
395.21	4.32
395.655	4.34
396.101	4.33
396.546	4.34
396.991	4.35
397.436	4.34
397.881	4.35
398.326	4.37
398.771	4.38
399.216	4.39
399.661	4.4
400.106	4.42
400.551	4.43
400.995	4.43
401.44	4.42
401.885	4.44
402.329	4.46
402.774	4.44
403.218	4.45
403.663	4.45
404.107	4.45
404.551	4.45
404.995	4.45
405.44	4.44
405.884	4.45
406.328	4.46
406.772	4.47
407.216	4.48
407.66	4.5
408.104	4.49
408.547	4.49
408.991	4.49
409.435	4.51
409.879	4.51
410.322	4.52
410.766	4.53
411.209	4.53
411.653	4.51
412.096	4.5
412.54	4.5
412.983	4.5
413.426	4.51
413.869	4.51
414.312	4.51
414.756	4.53
415.199	4.53
415.642	4.55
416.085	4.56
416.527	4.57
416.97	4.6
417.413	4.6
417.856	4.6
418.298	4.58
418.741	4.58
419.184	4.56
419.626	4.54
420.069	4.55
420.511	4.53
420.953	4.52
421.396	4.53
421.838	4.53
422.28	4.55
422.722	4.55
423.164	4.55
423.606	4.56
424.048	4.57
424.49	4.58
424.932	4.58
425.374	4.58
425.816	4.56
426.258	4.55
426.699	4.52
427.141	4.49
427.582	4.5
428.024	4.51
428.465	4.51
428.907	4.51
429.348	4.5
429.789	4.49
430.231	4.5
430.672	4.51
431.113	4.53
431.554	4.54
431.995	4.54
432.436	4.53
432.877	4.52
433.318	4.52
433.759	4.53
434.2	4.55
434.64	4.57
435.081	4.54
435.522	4.55
435.962	4.56
436.403	4.58
436.843	4.59
437.284	4.62
437.724	4.65
438.164	4.67
438.604	4.68
439.045	4.66
439.485	4.65
439.925	4.67
440.365	4.66
440.805	4.65
441.245	4.63
441.685	4.65
442.125	4.63
442.564	4.62
443.004	4.62
443.444	4.63
443.883	4.65
444.323	4.65
444.762	4.67
445.202	4.71
445.641	4.73
446.081	4.76
446.52	4.75
446.959	4.78
447.398	4.79
447.837	4.82
448.276	4.82
448.716	4.84
449.154	4.87
449.593	4.87
450.032	4.86
450.471	4.87
450.91	4.87
451.349	4.89
451.787	4.87
452.226	4.84
452.664	4.81
453.103	4.81
453.541	4.82
453.98	4.82
454.418	4.8
454.856	4.78
455.295	4.76
455.733	4.75
456.171	4.73
456.609	4.73
457.047	4.73
457.485	4.73
457.923	4.72
458.361	4.7
458.798	4.7
459.236	4.7
459.674	4.72
460.111	4.73
460.549	4.72
460.987	4.73
461.424	4.71
461.862	4.72
462.299	4.72
462.736	4.72
463.173	4.71
463.611	4.71
464.048	4.72
464.485	4.71
464.922	4.7
465.359	4.72
465.796	4.7
466.233	4.71
466.67	4.72
467.106	4.71
467.543	4.72
467.98	4.74
468.416	4.75
468.853	4.73
469.29	4.75
469.726	4.76
470.162	4.73
470.599	4.74
471.035	4.75
471.471	4.74
471.907	4.74
472.344	4.74
472.78	4.73
473.216	4.72
473.652	4.71
474.088	4.7
474.523	4.69
474.959	4.67
475.395	4.67
475.831	4.66
476.266	4.65
476.702	4.62
477.138	4.61
477.573	4.6
478.008	4.6
478.444	4.58
478.879	4.56
479.314	4.54
479.75	4.55
480.185	4.53
480.62	4.53
481.055	4.52
481.49	4.52
481.925	4.51
482.36	4.49
482.795	4.49
483.229	4.49
483.664	4.51
484.099	4.51
484.534	4.51
484.968	4.5
485.403	4.49
485.837	4.49
486.271	4.49
486.706	4.48
487.14	4.49
487.574	4.5
488.009	4.5
488.443	4.5
488.877	4.51
489.311	4.51
489.745	4.53
490.179	4.54
490.613	4.56
491.046	4.58
491.48	4.62
491.914	4.64
492.348	4.65
492.781	4.69
493.215	4.71
493.648	4.74
494.082	4.79
494.515	4.82
494.948	4.85
495.382	4.89
495.815	4.92
496.248	4.95
496.681	4.99
497.114	5.04
497.547	5.07
497.98	5.13
498.413	5.17
498.846	5.22
499.279	5.27
499.711	5.33
500.144	5.39
500.577	5.47
501.009	5.52
501.442	5.61
501.874	5.67
502.306	5.76
502.739	5.84
503.171	5.93
503.603	6.03
504.036	6.14
504.468	6.25
504.9	6.38
505.332	6.49
505.764	6.63
506.196	6.77
506.627	6.92
507.059	7.05
507.491	7.22
507.923	7.39
508.354	7.54
508.786	7.72
509.217	7.88
509.649	8.07
510.08	8.26
510.512	8.45
510.943	8.64
511.374	8.85
511.805	9.07
512.237	9.28
512.668	9.49
513.099	9.73
513.53	9.97
513.961	10.23
514.391	10.46
514.822	10.7
515.253	10.94
515.684	11.2
516.114	11.47
516.545	11.74
516.975	12.02
517.406	12.3
517.836	12.57
518.267	12.86
518.697	13.12
519.127	13.42
519.558	13.71
519.988	14
520.418	14.28
520.848	14.57
521.278	14.85
521.708	15.09
522.138	15.37
522.567	15.63
522.997	15.87
523.427	16.13
523.857	16.37
524.286	16.64
524.716	16.87
525.145	17.12
525.575	17.34
526.004	17.54
526.433	17.79
526.863	17.98
527.292	18.18
527.721	18.38
528.15	18.55
528.579	18.73
529.008	18.88
529.437	19.05
529.866	19.19
530.295	19.34
530.724	19.5
531.152	19.62
531.581	19.74
532.01	19.85
532.438	19.99
532.867	20.1
533.295	20.2
533.723	20.3
534.152	20.38
534.58	20.47
535.008	20.54
535.436	20.61
535.865	20.69
536.293	20.78
536.721	20.85
537.149	20.89
537.576	20.93
538.004	20.98
538.432	21.02
538.86	21.07
539.287	21.11
539.715	21.14
540.143	21.17
540.57	21.21
540.998	21.24
541.425	21.27
541.852	21.3
542.28	21.34
542.707	21.37
543.134	21.4
543.561	21.41
543.988	21.44
544.415	21.46
544.842	21.49
545.269	21.5
545.696	21.52
546.123	21.53
546.549	21.55
546.976	21.58
547.403	21.6
547.829	21.61
548.256	21.63
548.682	21.65
549.108	21.68
549.535	21.69
549.961	21.69
550.387	21.67
550.813	21.66
551.24	21.65
551.666	21.65
552.092	21.63
552.518	21.61
552.943	21.58
553.369	21.55
553.795	21.5
554.221	21.46
554.646	21.43
555.072	21.4
555.498	21.37
555.923	21.32
556.349	21.24
556.774	21.18
557.199	21.1
557.625	21.03
558.05	20.95
558.475	20.85
558.9	20.74
559.325	20.63
559.75	20.53
560.175	20.4
560.6	20.28
561.025	20.13
561.449	19.99
561.874	19.87
562.299	19.72
562.723	19.58
563.148	19.45
563.572	19.31
563.997	19.17
564.421	19.01
564.846	18.85
565.27	18.68
565.694	18.54
566.118	18.4
566.542	18.23
566.966	18.08
567.39	17.91
567.814	17.74
568.238	17.55
568.662	17.37
569.086	17.2
569.509	17.05
569.933	16.89
570.357	16.7
570.78	16.53
571.204	16.37
571.627	16.2
572.05	16.04
572.474	15.89
572.897	15.75
573.32	15.61
573.743	15.46
574.166	15.3
574.589	15.15
575.012	15.03
575.435	14.9
575.858	14.76
576.281	14.65
576.704	14.54
577.126	14.41
577.549	14.3
577.972	14.18
578.394	14.08
578.817	13.99
579.239	13.9
579.661	13.82
580.084	13.72
580.506	13.64
580.928	13.54
581.35	13.45
581.772	13.38
582.194	13.3
582.616	13.24
583.038	13.17
583.46	13.11
583.882	13.04
584.303	12.95
584.725	12.87
585.147	12.78
585.568	12.71
585.99	12.64
586.411	12.58
586.833	12.52
587.254	12.45
587.675	12.39
588.096	12.32
588.518	12.26
588.939	12.22
589.36	12.2
589.781	12.18
590.202	12.14
590.623	12.1
591.043	12.04
591.464	11.99
591.885	11.95
592.305	11.91
592.726	11.89
593.147	11.86
593.567	11.82
593.987	11.78
594.408	11.74
594.828	11.71
595.248	11.68
595.669	11.68
596.089	11.65
596.509	11.61
596.929	11.57
597.349	11.53
597.769	11.5
598.189	11.46
598.608	11.43
599.028	11.38
599.448	11.35
599.867	11.32
600.287	11.26
600.706	11.21
601.126	11.18
601.545	11.14
601.965	11.09
602.384	11.04
602.803	10.98
603.222	10.92
603.641	10.87
604.061	10.79
604.48	10.74
604.898	10.68
605.317	10.63
605.736	10.57
606.155	10.51
606.574	10.44
606.992	10.38
607.411	10.32
607.829	10.21
608.248	10.15
608.666	10.08
609.085	10
609.503	9.92
609.921	9.84
610.339	9.77
610.758	9.71
611.176	9.64
611.594	9.56
612.012	9.48
612.43	9.45
612.847	9.38
613.265	9.3
613.683	9.24
614.101	9.16
614.518	9.11
614.936	9.05
615.353	8.98
615.771	8.92
616.188	8.87
616.606	8.81
617.023	8.75
617.44	8.7
617.857	8.67
618.274	8.62
618.691	8.59
619.108	8.55
619.525	8.5
619.942	8.46
620.359	8.43
620.776	8.4
621.192	8.37
621.609	8.35
622.026	8.32
622.442	8.3
622.859	8.29
623.275	8.28
623.691	8.27
624.108	8.26
624.524	8.25
624.94	8.23
625.356	8.21
625.772	8.22
626.188	8.22
626.604	8.21
627.02	8.19
627.436	8.18
627.852	8.16
628.268	8.14
628.683	8.13
629.099	8.12
629.514	8.11
629.93	8.09
630.345	8.07
630.761	8.03
631.176	8.02
631.591	7.98
632.007	7.95
632.422	7.92
632.837	7.87
633.252	7.82
633.667	7.75
634.082	7.7
634.497	7.65
634.911	7.59
635.326	7.54
635.741	7.47
636.155	7.42
636.57	7.35
636.984	7.27
637.399	7.19
637.813	7.12
638.228	7.05
638.642	6.97
639.056	6.89
639.47	6.81
639.884	6.73
640.298	6.66
640.712	6.56
641.126	6.49
641.54	6.4
641.954	6.36
642.368	6.29
642.781	6.22
643.195	6.14
643.609	6.06
644.022	6
644.436	5.93
644.849	5.87
645.262	5.83
645.676	5.76
646.089	5.71
646.502	5.65
646.915	5.59
647.328	5.56
647.741	5.52
648.154	5.49
648.567	5.46
648.98	5.43
649.393	5.41
649.805	5.36
650.218	5.33
650.631	5.31
651.043	5.28
651.456	5.26
651.868	5.22
652.28	5.19
652.693	5.15
653.105	5.11
653.517	5.08
653.929	5.05
654.341	5.03
654.753	5
655.165	4.97
655.577	4.93
655.989	4.89
656.401	4.86
656.813	4.82
657.224	4.79
657.636	4.77
658.047	4.73
658.459	4.67
658.87	4.63
659.282	4.6
659.693	4.55
660.104	4.51
660.515	4.48
660.926	4.43
661.338	4.41
661.749	4.36
662.159	4.33
662.57	4.3
662.981	4.28
663.392	4.24
663.803	4.21
664.213	4.19
664.624	4.18
665.035	4.15
665.445	4.15
665.855	4.14
666.266	4.14
666.676	4.14
667.086	4.14
667.497	4.13
667.907	4.11
668.317	4.11
668.727	4.12
669.137	4.13
669.547	4.14
669.956	4.14
670.366	4.15
670.776	4.15
671.186	4.14
671.595	4.15
672.005	4.16
672.414	4.18
672.824	4.2
673.233	4.22
673.642	4.23
674.052	4.24
674.461	4.24
674.87	4.25
675.279	4.27
675.688	4.29
676.097	4.31
676.506	4.33
676.915	4.35
677.323	4.37
677.732	4.41
678.141	4.43
678.549	4.48
678.958	4.53
679.366	4.56
679.775	4.6
680.183	4.64
680.592	4.69
681	4.72
681.408	4.77
681.816	4.81
682.224	4.86
682.632	4.92
683.04	4.98
683.448	5.04
683.856	5.12
684.264	5.2
684.671	5.3
685.079	5.4
685.487	5.53
685.894	5.66
686.302	5.81
686.709	5.96
687.116	6.13
687.524	6.31
687.931	6.51
688.338	6.75
688.745	7.01
689.152	7.28
689.559	7.6
689.966	7.92
690.373	8.28
690.78	8.65
691.187	9.04
691.593	9.46
692	9.93
692.407	10.39
692.813	10.88
693.22	11.39
693.626	11.9
694.032	12.43
694.439	12.97
694.845	13.52
695.251	14.09
695.657	14.68
696.063	15.25
696.469	15.84
696.875	16.45
697.281	17.04
697.687	17.65
698.093	18.27
698.498	18.89
698.904	19.51
699.31	20.12
699.715	20.75
700.12	21.38
700.526	22.01
700.931	22.62
701.337	23.24
701.742	23.85
702.147	24.49
702.552	25.1
702.957	25.69
703.362	26.29
703.767	26.89
704.172	27.49
704.577	28.05
704.981	28.63
705.386	29.21
705.791	29.77
706.195	30.34
706.6	30.87
707.004	31.4
707.408	31.95
707.813	32.46
708.217	32.97
708.621	33.49
709.025	34.03
709.43	34.54
709.834	35.07
710.237	35.6
710.641	36.11
711.045	36.61
711.449	37.1
711.853	37.58
712.256	38.08
712.66	38.58
713.064	39.05
713.467	39.51
713.87	39.97
714.274	40.4
714.677	40.82
715.08	41.23
715.484	41.67
715.887	42.12
716.29	42.55
716.693	42.96
717.096	43.37
717.499	43.79
717.901	44.16
718.304	44.55
718.707	44.95
719.109	45.35
719.512	45.75
719.915	46.12
720.317	46.46
720.719	46.81
721.122	47.17
721.524	47.51
721.926	47.84
722.328	48.19
722.731	48.51
723.133	48.8
723.535	49.13
723.937	49.44
724.338	49.73
724.74	50.01
725.142	50.2
725.544	50.43
725.945	50.68
726.347	50.93
726.748	51.12
727.15	51.33
727.551	51.55
727.952	51.74
728.354	51.94
728.755	52.15
729.156	52.38
729.557	52.66
729.958	52.88
730.359	53.08
730.76	53.24
731.161	53.46
731.562	53.62
731.962	53.8
732.363	53.97
732.763	54.12
733.164	54.24
733.564	54.35
733.965	54.46
734.365	54.59
734.766	54.73
735.166	54.85
735.566	54.92
735.966	55.03
736.366	55.12
736.766	55.17
737.166	55.27
737.566	55.37
737.966	55.47
738.365	55.56
738.765	55.64
739.165	55.68
739.564	55.77
739.964	55.88
740.363	55.96
740.763	56.04
741.162	56.1
741.561	56.17
741.96	56.26
742.36	56.3
742.759	56.34
743.158	56.39
743.557	56.45
743.955	56.51
744.354	56.58
744.753	56.65
745.152	56.68
745.55	56.77
745.949	56.8
746.348	56.83
746.746	56.9
747.144	56.98
747.543	57.04
747.941	57.13
748.339	57.17
748.737	57.18
749.136	57.26
749.534	57.32
749.932	57.33
750.33	57.37
750.727	57.4
751.125	57.41
751.523	57.4
751.921	57.4
752.318	57.4
752.716	57.4
753.113	57.41
753.511	57.36
753.908	57.36
754.305	57.34
754.703	57.32
755.1	57.32
755.497	57.34
755.894	57.35
756.291	57.32
756.688	57.3
757.085	57.29
757.482	57.31
757.878	57.31
758.275	57.3
758.672	57.34
759.068	57.37
759.465	57.37
759.861	57.34
760.258	57.33
760.654	57.37
761.05	57.37
761.447	57.37
761.843	57.31
762.239	57.27
762.635	57.27
763.031	57.28
763.427	57.22
763.822	57.2
764.218	57.18
764.614	57.18
765.01	57.15
765.405	57.12
765.801	57.11
766.196	57.13
766.592	57.15
766.987	57.15
767.382	57.11
767.778	57.16
768.173	57.17
768.568	57.16
768.963	57.13
769.358	57.16
769.753	57.19
770.148	57.19
770.542	57.19
770.937	57.19
771.332	57.18
771.726	57.2
772.121	57.14
772.515	57.14
772.91	57.14
773.304	57.14
773.699	57.1
774.093	57.06
774.487	57.06
774.881	57.05
775.275	57.04
775.669	57.05
776.063	57.02
776.457	57.05
776.851	57.04
777.245	57.04
777.638	57.06
778.032	57.06
778.425	57.1
778.819	57.08
779.212	57.08
779.606	57.07
779.999	57.05
780.392	57.09
780.786	57.08
781.179	57.09
781.572	57.07
781.965	57.06
782.358	57.06
782.751	57.05
783.143	57.08
783.536	57.09
783.929	57.13
784.322	57.17
