Data from c_1_div_wi_4n_031_Splice17_20.txt Node
Date: Sat Feb 29 13:23:54 EST 2020
User: sa697716
Spectrometer: FLMS03696
Trigger mode: 0
Integration Time (sec): 3.180400E-1
Scans to average: 20
Electric dark correction enabled: true
Nonlinearity correction enabled: true
Boxcar width: 5
XAxis mode: Wavelengths
Number of Pixels in Spectrum: 2048
>>>>>Begin Spectral Data<<<<<
187.83	115.97
188.298	118.75
188.766	108.9
189.233	106.09
189.701	104.83
190.169	106.19
190.636	103.25
191.104	81.14
191.571	51.56
192.039	-0.68
192.506	395.8
192.974	8430.28
193.441	-596.37
193.908	123.67
194.375	133.1
194.842	51.13
195.31	79
195.777	48.84
196.244	58.85
196.711	60.7
197.177	59.3
197.644	59.49
198.111	59.41
198.578	59.68
199.045	60.34
199.511	60.75
199.978	61.52
200.445	60.97
200.911	61.34
201.378	61.27
201.844	61.74
202.31	61.83
202.777	61.94
203.243	62.05
203.709	62.2
204.176	62.03
204.642	62.03
205.108	61.27
205.574	61.34
206.04	61.12
206.506	60.54
206.972	59.63
207.438	59.42
207.903	59.05
208.369	57.57
208.835	57.11
209.301	56.47
209.766	55.19
210.232	54.65
210.697	53.66
211.163	52.47
211.628	51.3
212.094	50.61
212.559	49.32
213.024	48.12
213.49	47.38
213.955	46.02
214.42	44.48
214.885	43.06
215.35	41.36
215.815	39.3
216.28	37.02
216.745	34.74
217.21	32.29
217.675	30
218.14	27.8
218.604	25.78
219.069	24.05
219.534	22.73
219.998	21.52
220.463	20.46
220.927	19.6
221.392	18.87
221.856	18.19
222.32	17.61
222.785	17.11
223.249	16.67
223.713	16.29
224.177	15.89
224.642	15.51
225.106	15.22
225.57	14.94
226.034	14.68
226.497	14.35
226.961	14.07
227.425	13.79
227.889	13.57
228.353	13.34
228.816	13.14
229.28	12.92
229.744	12.72
230.207	12.54
230.671	12.32
231.134	12.13
231.597	11.97
232.061	11.81
232.524	11.68
232.987	11.5
233.45	11.35
233.914	11.2
234.377	11.08
234.84	10.95
235.303	10.81
235.766	10.69
236.229	10.56
236.691	10.46
237.154	10.38
237.617	10.26
238.08	10.16
238.542	10.06
239.005	9.98
239.468	9.87
239.93	9.78
240.393	9.71
240.855	9.63
241.317	9.56
241.78	9.48
242.242	9.35
242.704	9.27
243.166	9.18
243.629	9.09
244.091	9.01
244.553	8.94
245.015	8.87
245.477	8.77
245.939	8.68
246.4	8.58
246.862	8.51
247.324	8.45
247.786	8.38
248.247	8.31
248.709	8.23
249.17	8.15
249.632	8.07
250.093	7.98
250.555	7.91
251.016	7.86
251.477	7.8
251.939	7.73
252.4	7.66
252.861	7.6
253.322	7.53
253.783	7.49
254.244	7.43
254.705	7.38
255.166	7.35
255.627	7.3
256.088	7.23
256.549	7.19
257.009	7.12
257.47	7.08
257.931	7.02
258.391	6.96
258.852	6.9
259.312	6.85
259.773	6.79
260.233	6.72
260.694	6.67
261.154	6.61
261.614	6.55
262.074	6.51
262.534	6.45
262.994	6.42
263.455	6.38
263.915	6.34
264.374	6.3
264.834	6.26
265.294	6.22
265.754	6.18
266.214	6.16
266.673	6.13
267.133	6.1
267.593	6.06
268.052	6.03
268.512	5.99
268.971	5.96
269.431	5.93
269.89	5.91
270.349	5.88
270.809	5.87
271.268	5.83
271.727	5.81
272.186	5.79
272.645	5.76
273.104	5.74
273.563	5.72
274.022	5.7
274.481	5.68
274.94	5.66
275.399	5.64
275.857	5.62
276.316	5.6
276.775	5.57
277.233	5.55
277.692	5.53
278.15	5.51
278.609	5.48
279.067	5.46
279.525	5.43
279.984	5.41
280.442	5.39
280.9	5.38
281.358	5.37
281.816	5.35
282.274	5.33
282.732	5.33
283.19	5.32
283.648	5.31
284.106	5.29
284.564	5.29
285.021	5.28
285.479	5.26
285.937	5.24
286.394	5.23
286.852	5.21
287.309	5.2
287.767	5.18
288.224	5.16
288.682	5.13
289.139	5.11
289.596	5.07
290.053	5.04
290.511	5.02
290.968	5.01
291.425	4.98
291.882	4.96
292.339	4.92
292.796	4.9
293.252	4.86
293.709	4.85
294.166	4.84
294.623	4.83
295.079	4.81
295.536	4.79
295.992	4.77
296.449	4.75
296.905	4.73
297.362	4.72
297.818	4.71
298.274	4.71
298.731	4.69
299.187	4.67
299.643	4.66
300.099	4.65
300.555	4.63
301.011	4.62
301.467	4.62
301.923	4.61
302.379	4.6
302.835	4.59
303.291	4.58
303.746	4.57
304.202	4.56
304.658	4.54
305.113	4.53
305.569	4.53
306.024	4.52
306.479	4.5
306.935	4.5
307.39	4.5
307.845	4.5
308.301	4.5
308.756	4.5
309.211	4.5
309.666	4.5
310.121	4.5
310.576	4.5
311.031	4.5
311.486	4.51
311.94	4.5
312.395	4.5
312.85	4.48
313.305	4.48
313.759	4.47
314.214	4.47
314.668	4.46
315.123	4.45
315.577	4.44
316.032	4.43
316.486	4.41
316.94	4.4
317.394	4.39
317.849	4.37
318.303	4.36
318.757	4.34
319.211	4.32
319.665	4.31
320.119	4.3
320.572	4.29
321.026	4.28
321.48	4.27
321.934	4.26
322.387	4.25
322.841	4.24
323.295	4.24
323.748	4.23
324.202	4.22
324.655	4.22
325.108	4.2
325.562	4.18
326.015	4.17
326.468	4.16
326.921	4.15
327.374	4.14
327.827	4.13
328.28	4.12
328.733	4.11
329.186	4.11
329.639	4.1
330.092	4.1
330.545	4.1
330.997	4.1
331.45	4.09
331.903	4.09
332.355	4.09
332.808	4.09
333.26	4.1
333.713	4.11
334.165	4.11
334.617	4.13
335.069	4.12
335.522	4.13
335.974	4.12
336.426	4.14
336.878	4.14
337.33	4.12
337.782	4.12
338.234	4.12
338.686	4.1
339.137	4.1
339.589	4.08
340.041	4.08
340.493	4.06
340.944	4.06
341.396	4.04
341.847	4.03
342.299	4.02
342.75	4
343.201	3.99
343.653	3.97
344.104	3.95
344.555	3.94
345.006	3.92
345.457	3.91
345.908	3.9
346.359	3.89
346.81	3.88
347.261	3.88
347.712	3.87
348.163	3.86
348.613	3.86
349.064	3.84
349.515	3.84
349.965	3.84
350.416	3.83
350.866	3.82
351.317	3.81
351.767	3.8
352.217	3.79
352.668	3.79
353.118	3.79
353.568	3.8
354.018	3.81
354.468	3.81
354.918	3.81
355.368	3.81
355.818	3.81
356.268	3.82
356.718	3.82
357.168	3.82
357.617	3.82
358.067	3.81
358.517	3.8
358.966	3.8
359.416	3.81
359.865	3.81
360.315	3.81
360.764	3.81
361.213	3.81
361.663	3.81
362.112	3.82
362.561	3.82
363.01	3.84
363.459	3.84
363.908	3.83
364.357	3.82
364.806	3.82
365.255	3.83
365.703	3.83
366.152	3.83
366.601	3.83
367.05	3.83
367.498	3.83
367.947	3.83
368.395	3.85
368.844	3.86
369.292	3.87
369.74	3.88
370.189	3.87
370.637	3.88
371.085	3.9
371.533	3.9
371.981	3.91
372.429	3.9
372.877	3.9
373.325	3.89
373.773	3.89
374.221	3.89
374.669	3.9
375.116	3.91
375.564	3.9
376.012	3.91
376.459	3.92
376.907	3.94
377.354	3.94
377.801	3.95
378.249	3.97
378.696	3.98
379.143	4
379.591	4.01
380.038	4.03
380.485	4.05
380.932	4.06
381.379	4.07
381.826	4.08
382.273	4.09
382.72	4.1
383.166	4.11
383.613	4.12
384.06	4.13
384.506	4.15
384.953	4.16
385.4	4.17
385.846	4.17
386.292	4.19
386.739	4.2
387.185	4.23
387.631	4.24
388.078	4.27
388.524	4.28
388.97	4.29
389.416	4.31
389.862	4.33
390.308	4.35
390.754	4.38
391.2	4.41
391.645	4.45
392.091	4.47
392.537	4.5
392.983	4.52
393.428	4.57
393.874	4.6
394.319	4.64
394.765	4.66
395.21	4.68
395.655	4.71
396.101	4.73
396.546	4.76
396.991	4.78
397.436	4.8
397.881	4.85
398.326	4.9
398.771	4.94
399.216	4.98
399.661	5.01
400.106	5.06
400.551	5.09
400.995	5.11
401.44	5.12
401.885	5.16
402.329	5.18
402.774	5.18
403.218	5.2
403.663	5.22
404.107	5.25
404.551	5.28
404.995	5.3
405.44	5.32
405.884	5.36
406.328	5.39
406.772	5.41
407.216	5.44
407.66	5.48
408.104	5.5
408.547	5.52
408.991	5.53
409.435	5.54
409.879	5.57
410.322	5.61
410.766	5.64
411.209	5.68
411.653	5.71
412.096	5.73
412.54	5.75
412.983	5.79
413.426	5.81
413.869	5.85
414.312	5.9
414.756	5.94
415.199	5.97
415.642	6
416.085	6.03
416.527	6.05
416.97	6.08
417.413	6.09
417.856	6.08
418.298	6.09
418.741	6.1
419.184	6.1
419.626	6.1
420.069	6.11
420.511	6.12
420.953	6.11
421.396	6.12
421.838	6.16
422.28	6.2
422.722	6.25
423.164	6.26
423.606	6.29
424.048	6.29
424.49	6.31
424.932	6.31
425.374	6.32
425.816	6.32
426.258	6.31
426.699	6.29
427.141	6.26
427.582	6.26
428.024	6.27
428.465	6.27
428.907	6.29
429.348	6.29
429.789	6.3
430.231	6.3
430.672	6.32
431.113	6.34
431.554	6.36
431.995	6.39
432.436	6.42
432.877	6.41
433.318	6.42
433.759	6.44
434.2	6.45
434.64	6.47
435.081	6.48
435.522	6.52
435.962	6.54
436.403	6.57
436.843	6.57
437.284	6.57
437.724	6.62
438.164	6.66
438.604	6.68
439.045	6.69
439.485	6.71
439.925	6.73
440.365	6.72
440.805	6.73
441.245	6.71
441.685	6.73
442.125	6.74
442.564	6.74
443.004	6.75
443.444	6.74
443.883	6.75
444.323	6.76
444.762	6.8
445.202	6.83
445.641	6.85
446.081	6.89
446.52	6.9
446.959	6.91
447.398	6.94
447.837	6.97
448.276	6.99
448.716	7.03
449.154	7.05
449.593	7.04
450.032	7.04
450.471	7.04
450.91	7.04
451.349	7.04
451.787	7.05
452.226	7.02
452.664	7.01
453.103	7.01
453.541	6.99
453.98	6.97
454.418	6.96
454.856	6.93
455.295	6.91
455.733	6.9
456.171	6.9
456.609	6.9
457.047	6.89
457.485	6.88
457.923	6.87
458.361	6.87
458.798	6.86
459.236	6.86
459.674	6.87
460.111	6.9
460.549	6.89
460.987	6.9
461.424	6.89
461.862	6.89
462.299	6.89
462.736	6.9
463.173	6.9
463.611	6.9
464.048	6.92
464.485	6.93
464.922	6.91
465.359	6.91
465.796	6.9
466.233	6.92
466.67	6.95
467.106	6.96
467.543	6.94
467.98	6.95
468.416	6.96
468.853	6.95
469.29	6.96
469.726	6.97
470.162	6.97
470.599	6.97
471.035	6.97
471.471	6.92
471.907	6.9
472.344	6.91
472.78	6.9
473.216	6.9
473.652	6.88
474.088	6.88
474.523	6.86
474.959	6.84
475.395	6.84
475.831	6.82
476.266	6.83
476.702	6.83
477.138	6.8
477.573	6.77
478.008	6.75
478.444	6.73
478.879	6.7
479.314	6.69
479.75	6.69
480.185	6.67
480.62	6.65
481.055	6.65
481.49	6.63
481.925	6.61
482.36	6.6
482.795	6.59
483.229	6.6
483.664	6.59
484.099	6.57
484.534	6.56
484.968	6.56
485.403	6.55
485.837	6.53
486.271	6.54
486.706	6.53
487.14	6.55
487.574	6.54
488.009	6.54
488.443	6.56
488.877	6.56
489.311	6.57
489.745	6.58
490.179	6.6
490.613	6.62
491.046	6.64
491.48	6.67
491.914	6.69
492.348	6.71
492.781	6.72
493.215	6.73
493.648	6.77
494.082	6.8
494.515	6.83
494.948	6.86
495.382	6.89
495.815	6.93
496.248	6.96
496.681	6.98
497.114	7.02
497.547	7.07
497.98	7.11
498.413	7.15
498.846	7.21
499.279	7.26
499.711	7.3
500.144	7.36
500.577	7.42
501.009	7.49
501.442	7.56
501.874	7.63
502.306	7.71
502.739	7.79
503.171	7.87
503.603	7.96
504.036	8.06
504.468	8.17
504.9	8.28
505.332	8.39
505.764	8.51
506.196	8.62
506.627	8.76
507.059	8.89
507.491	9.03
507.923	9.16
508.354	9.33
508.786	9.46
509.217	9.6
509.649	9.76
510.08	9.94
510.512	10.09
510.943	10.3
511.374	10.47
511.805	10.67
512.237	10.86
512.668	11.05
513.099	11.25
513.53	11.47
513.961	11.68
514.391	11.88
514.822	12.09
515.253	12.33
515.684	12.53
516.114	12.77
516.545	13
516.975	13.24
517.406	13.5
517.836	13.73
518.267	13.99
518.697	14.25
519.127	14.5
519.558	14.75
519.988	15.01
520.418	15.26
520.848	15.52
521.278	15.77
521.708	16.04
522.138	16.28
522.567	16.53
522.997	16.76
523.427	16.99
523.857	17.22
524.286	17.44
524.716	17.65
525.145	17.88
525.575	18.1
526.004	18.3
526.433	18.48
526.863	18.66
527.292	18.85
527.721	19.03
528.15	19.2
528.579	19.37
529.008	19.54
529.437	19.69
529.866	19.83
530.295	19.96
530.724	20.1
531.152	20.22
531.581	20.35
532.01	20.47
532.438	20.58
532.867	20.69
533.295	20.79
533.723	20.88
534.152	20.98
534.58	21.05
535.008	21.13
535.436	21.2
535.865	21.27
536.293	21.35
536.721	21.41
537.149	21.47
537.576	21.52
538.004	21.55
538.432	21.6
538.86	21.65
539.287	21.71
539.715	21.76
540.143	21.78
540.57	21.81
540.998	21.85
541.425	21.88
541.852	21.91
542.28	21.94
542.707	21.98
543.134	22
543.561	22.01
543.988	22.02
544.415	22.06
544.842	22.09
545.269	22.12
545.696	22.13
546.123	22.15
546.549	22.16
546.976	22.2
547.403	22.22
547.829	22.24
548.256	22.26
548.682	22.27
549.108	22.29
549.535	22.29
549.961	22.29
550.387	22.29
550.813	22.28
551.24	22.27
551.666	22.27
552.092	22.25
552.518	22.22
552.943	22.21
553.369	22.18
553.795	22.15
554.221	22.11
554.646	22.09
555.072	22.05
555.498	22
555.923	21.97
556.349	21.9
556.774	21.85
557.199	21.78
557.625	21.7
558.05	21.6
558.475	21.51
558.9	21.42
559.325	21.33
559.75	21.23
560.175	21.13
560.6	21.01
561.025	20.9
561.449	20.77
561.874	20.66
562.299	20.54
562.723	20.42
563.148	20.29
563.572	20.15
563.997	20.01
564.421	19.87
564.846	19.74
565.27	19.6
565.694	19.44
566.118	19.3
566.542	19.15
566.966	19.01
567.39	18.86
567.814	18.71
568.238	18.55
568.662	18.39
569.086	18.25
569.509	18.1
569.933	17.95
570.357	17.8
570.78	17.66
571.204	17.51
571.627	17.36
572.05	17.23
572.474	17.09
572.897	16.97
573.32	16.83
573.743	16.69
574.166	16.55
574.589	16.44
575.012	16.33
575.435	16.21
575.858	16.09
576.281	15.99
576.704	15.88
577.126	15.77
577.549	15.68
577.972	15.58
578.394	15.47
578.817	15.38
579.239	15.28
579.661	15.19
580.084	15.09
580.506	15.02
580.928	14.93
581.35	14.85
581.772	14.79
582.194	14.71
582.616	14.66
583.038	14.61
583.46	14.54
583.882	14.49
584.303	14.42
584.725	14.37
585.147	14.29
585.568	14.22
585.99	14.17
586.411	14.1
586.833	14.05
587.254	13.98
587.675	13.92
588.096	13.88
588.518	13.81
588.939	13.77
589.36	13.72
589.781	13.7
590.202	13.66
590.623	13.61
591.043	13.55
591.464	13.5
591.885	13.47
592.305	13.46
592.726	13.42
593.147	13.41
593.567	13.37
593.987	13.36
594.408	13.32
594.828	13.29
595.248	13.25
595.669	13.24
596.089	13.22
596.509	13.16
596.929	13.11
597.349	13.08
597.769	13.03
598.189	13
598.608	12.95
599.028	12.92
599.448	12.9
599.867	12.87
600.287	12.82
600.706	12.79
601.126	12.76
601.545	12.72
601.965	12.67
602.384	12.63
602.803	12.58
603.222	12.53
603.641	12.48
604.061	12.42
604.48	12.36
604.898	12.31
605.317	12.25
605.736	12.19
606.155	12.14
606.574	12.08
606.992	12.01
607.411	11.95
607.829	11.85
608.248	11.78
608.666	11.71
609.085	11.64
609.503	11.57
609.921	11.5
610.339	11.45
610.758	11.38
611.176	11.31
611.594	11.24
612.012	11.17
612.43	11.16
612.847	11.11
613.265	11.06
613.683	11
614.101	10.95
614.518	10.89
614.936	10.82
615.353	10.76
615.771	10.71
616.188	10.67
616.606	10.63
617.023	10.57
617.44	10.52
617.857	10.47
618.274	10.44
618.691	10.42
619.108	10.39
619.525	10.35
619.942	10.32
620.359	10.31
620.776	10.28
621.192	10.26
621.609	10.23
622.026	10.2
622.442	10.19
622.859	10.16
623.275	10.13
623.691	10.11
624.108	10.11
624.524	10.1
624.94	10.08
625.356	10.06
625.772	10.05
626.188	10.06
626.604	10.05
627.02	10.03
627.436	10.02
627.852	10.01
628.268	10.01
628.683	9.98
629.099	9.97
629.514	9.95
629.93	9.96
630.345	9.92
630.761	9.88
631.176	9.86
631.591	9.84
632.007	9.82
632.422	9.78
632.837	9.74
633.252	9.71
633.667	9.66
634.082	9.62
634.497	9.56
634.911	9.52
635.326	9.46
635.741	9.4
636.155	9.34
636.57	9.26
636.984	9.18
637.399	9.09
637.813	9.02
638.228	8.95
638.642	8.87
639.056	8.79
639.47	8.72
639.884	8.64
640.298	8.57
640.712	8.49
641.126	8.42
641.54	8.35
641.954	8.31
642.368	8.24
642.781	8.17
643.195	8.09
643.609	8.03
644.022	7.95
644.436	7.89
644.849	7.84
645.262	7.79
645.676	7.73
646.089	7.66
646.502	7.59
646.915	7.54
647.328	7.51
647.741	7.47
648.154	7.44
648.567	7.42
648.98	7.4
649.393	7.36
649.805	7.32
650.218	7.3
650.631	7.3
651.043	7.28
651.456	7.27
651.868	7.24
652.28	7.22
652.693	7.18
653.105	7.14
653.517	7.11
653.929	7.09
654.341	7.07
654.753	7.04
655.165	7
655.577	6.97
655.989	6.92
656.401	6.87
656.813	6.84
657.224	6.8
657.636	6.77
658.047	6.73
658.459	6.69
658.87	6.64
659.282	6.61
659.693	6.57
660.104	6.53
660.515	6.5
660.926	6.49
661.338	6.45
661.749	6.41
662.159	6.38
662.57	6.35
662.981	6.31
663.392	6.29
663.803	6.26
664.213	6.23
664.624	6.22
665.035	6.19
665.445	6.16
665.855	6.14
666.266	6.14
666.676	6.12
667.086	6.11
667.497	6.09
667.907	6.08
668.317	6.06
668.727	6.07
669.137	6.06
669.547	6.06
669.956	6.07
670.366	6.08
670.776	6.08
671.186	6.09
671.595	6.12
672.005	6.15
672.414	6.16
672.824	6.19
673.233	6.22
673.642	6.24
674.052	6.25
674.461	6.26
674.87	6.29
675.279	6.32
675.688	6.35
676.097	6.37
676.506	6.39
676.915	6.43
677.323	6.47
677.732	6.51
678.141	6.55
678.549	6.59
678.958	6.65
679.366	6.68
679.775	6.72
680.183	6.76
680.592	6.82
681	6.86
681.408	6.92
681.816	6.97
682.224	7.02
682.632	7.09
683.04	7.18
683.448	7.25
683.856	7.35
684.264	7.44
684.671	7.56
685.079	7.67
685.487	7.82
685.894	7.96
686.302	8.11
686.709	8.26
687.116	8.45
687.524	8.64
687.931	8.86
688.338	9.09
688.745	9.34
689.152	9.59
689.559	9.88
689.966	10.16
690.373	10.51
690.78	10.86
691.187	11.24
691.593	11.61
692	12.01
692.407	12.44
692.813	12.9
693.22	13.38
693.626	13.86
694.032	14.35
694.439	14.89
694.845	15.39
695.251	15.92
695.657	16.46
696.063	17.03
696.469	17.59
696.875	18.13
697.281	18.66
697.687	19.24
698.093	19.8
698.498	20.39
698.904	20.96
699.31	21.54
699.715	22.13
700.12	22.69
700.526	23.27
700.931	23.83
701.337	24.43
701.742	25.01
702.147	25.55
702.552	26.13
702.957	26.69
703.362	27.23
703.767	27.78
704.172	28.32
704.577	28.89
704.981	29.44
705.386	29.98
705.791	30.53
706.195	31.07
706.6	31.59
707.004	32.11
707.408	32.61
707.813	33.12
708.217	33.62
708.621	34.11
709.025	34.6
709.43	35.08
709.834	35.59
710.237	36.04
710.641	36.54
711.045	37.01
711.449	37.45
711.853	37.93
712.256	38.39
712.66	38.86
713.064	39.31
713.467	39.75
713.87	40.19
714.274	40.63
714.677	41.07
715.08	41.47
715.484	41.92
715.887	42.37
716.29	42.78
716.693	43.18
717.096	43.61
717.499	44.02
717.901	44.4
718.304	44.77
718.707	45.15
719.109	45.54
719.512	45.92
719.915	46.28
720.317	46.62
720.719	46.97
721.122	47.29
721.524	47.6
721.926	47.94
722.328	48.27
722.731	48.6
723.133	48.87
723.535	49.13
723.937	49.42
724.338	49.68
724.74	49.95
725.142	50.16
725.544	50.44
725.945	50.69
726.347	50.94
726.748	51.15
727.15	51.36
727.551	51.61
727.952	51.84
728.354	52.07
728.755	52.3
729.156	52.53
729.557	52.77
729.958	52.94
730.359	53.12
730.76	53.25
731.161	53.44
731.562	53.63
731.962	53.82
732.363	53.97
732.763	54.1
733.164	54.23
733.564	54.33
733.965	54.47
734.365	54.59
734.766	54.72
735.166	54.84
735.566	54.92
735.966	55
736.366	55.07
736.766	55.18
737.166	55.29
737.566	55.35
737.966	55.48
738.365	55.53
738.765	55.64
739.165	55.69
739.564	55.78
739.964	55.87
740.363	55.95
740.763	56
741.162	56.05
741.561	56.12
741.96	56.21
742.36	56.27
742.759	56.33
743.158	56.38
743.557	56.47
743.955	56.56
744.354	56.63
744.753	56.7
745.152	56.75
745.55	56.78
745.949	56.81
746.348	56.86
746.746	56.87
747.144	56.96
747.543	57.02
747.941	57.03
748.339	57.08
748.737	57.12
749.136	57.17
749.534	57.21
749.932	57.22
750.33	57.25
750.727	57.27
751.125	57.32
751.523	57.3
751.921	57.32
752.318	57.35
752.716	57.33
753.113	57.32
753.511	57.29
753.908	57.29
754.305	57.32
754.703	57.32
755.1	57.3
755.497	57.3
755.894	57.31
756.291	57.29
756.688	57.29
757.085	57.27
757.482	57.27
757.878	57.32
758.275	57.31
758.672	57.35
759.068	57.37
759.465	57.4
759.861	57.38
760.258	57.37
760.654	57.38
761.05	57.36
761.447	57.39
761.843	57.38
762.239	57.35
762.635	57.38
763.031	57.37
763.427	57.34
763.822	57.3
764.218	57.3
764.614	57.28
765.01	57.25
765.405	57.23
765.801	57.19
766.196	57.17
766.592	57.16
766.987	57.16
767.382	57.16
767.778	57.19
768.173	57.22
768.568	57.18
768.963	57.21
769.358	57.21
769.753	57.27
770.148	57.29
770.542	57.28
770.937	57.28
771.332	57.23
771.726	57.19
772.121	57.17
772.515	57.16
772.91	57.21
773.304	57.18
773.699	57.19
774.093	57.16
774.487	57.16
774.881	57.19
775.275	57.2
775.669	57.26
776.063	57.25
776.457	57.23
776.851	57.21
777.245	57.18
777.638	57.2
778.032	57.17
778.425	57.2
778.819	57.2
779.212	57.16
779.606	57.14
779.999	57.11
780.392	57.14
780.786	57.16
781.179	57.18
781.572	57.16
781.965	57.14
782.358	57.13
782.751	57.14
783.143	57.13
