Data from c_1_hir_il_4n_023_Splice17_04.txt Node
Date: Sat Feb 29 13:19:20 EST 2020
User: sa697716
Spectrometer: FLMS03696
Trigger mode: 0
Integration Time (sec): 3.180400E-1
Scans to average: 20
Electric dark correction enabled: true
Nonlinearity correction enabled: true
Boxcar width: 5
XAxis mode: Wavelengths
Number of Pixels in Spectrum: 2048
>>>>>Begin Spectral Data<<<<<
187.83	34.52
188.298	31.63
188.766	22.21
189.233	26.75
189.701	47.66
190.169	62.9
190.636	57.31
191.104	42.8
191.571	271.91
192.039	413.57
192.506	-526.01
192.974	-660.57
193.441	-15.73
193.908	16.12
194.375	95
194.842	247.76
195.31	197.68
195.777	164.87
196.244	53.17
196.711	45.44
197.177	39.78
197.644	37.04
198.111	35.93
198.578	35.91
199.045	35.91
199.511	35.88
199.978	36.33
200.445	35.69
200.911	36.21
201.378	36.55
201.844	36.68
202.31	37.47
202.777	37.94
203.243	38.31
203.709	38.06
204.176	37.47
204.642	37.17
205.108	36.99
205.574	37.65
206.04	36.97
206.506	36.35
206.972	36.12
207.438	35.35
207.903	34.73
208.369	33.9
208.835	33.81
209.301	33.87
209.766	33.66
210.232	32.87
210.697	32.03
211.163	31.61
211.628	31.15
212.094	30.44
212.559	29.66
213.024	29.27
213.49	29.21
213.955	28.83
214.42	28.2
214.885	27.11
215.35	26.39
215.815	25.41
216.28	24.36
216.745	23.03
217.21	21.93
217.675	20.79
218.14	19.54
218.604	18.41
219.069	17.44
219.534	16.58
219.998	15.91
220.463	15.31
220.927	14.82
221.392	14.41
221.856	14.11
222.32	13.72
222.785	13.44
223.249	13.16
223.713	12.93
224.177	12.66
224.642	12.47
225.106	12.28
225.57	12.06
226.034	11.86
226.497	11.67
226.961	11.44
227.425	11.25
227.889	11.06
228.353	10.89
228.816	10.68
229.28	10.49
229.744	10.36
230.207	10.22
230.671	10.08
231.134	9.94
231.597	9.78
232.061	9.66
232.524	9.57
232.987	9.43
233.45	9.3
233.914	9.2
234.377	9.12
234.84	9.01
235.303	8.91
235.766	8.81
236.229	8.71
236.691	8.63
237.154	8.54
237.617	8.44
238.08	8.36
238.542	8.29
239.005	8.21
239.468	8.12
239.93	8.04
240.393	7.96
240.855	7.87
241.317	7.81
241.78	7.75
242.242	7.67
242.704	7.6
243.166	7.53
243.629	7.46
244.091	7.39
244.553	7.34
245.015	7.29
245.477	7.23
245.939	7.16
246.4	7.11
246.862	7.05
247.324	7
247.786	6.95
248.247	6.9
248.709	6.85
249.17	6.8
249.632	6.73
250.093	6.65
250.555	6.61
251.016	6.57
251.477	6.51
251.939	6.46
252.4	6.42
252.861	6.37
253.322	6.31
253.783	6.29
254.244	6.24
254.705	6.21
255.166	6.19
255.627	6.15
256.088	6.12
256.549	6.09
257.009	6.05
257.47	6.02
257.931	5.98
258.391	5.94
258.852	5.89
259.312	5.86
259.773	5.83
260.233	5.79
260.694	5.75
261.154	5.71
261.614	5.66
262.074	5.63
262.534	5.59
262.994	5.56
263.455	5.53
263.915	5.51
264.374	5.47
264.834	5.43
265.294	5.41
265.754	5.38
266.214	5.36
266.673	5.34
267.133	5.32
267.593	5.29
268.052	5.27
268.512	5.25
268.971	5.23
269.431	5.22
269.89	5.2
270.349	5.18
270.809	5.16
271.268	5.14
271.727	5.12
272.186	5.11
272.645	5.09
273.104	5.07
273.563	5.06
274.022	5.04
274.481	5.02
274.94	5
275.399	4.99
275.857	4.98
276.316	4.96
276.775	4.94
277.233	4.92
277.692	4.91
278.15	4.89
278.609	4.86
279.067	4.84
279.525	4.82
279.984	4.8
280.442	4.78
280.9	4.76
281.358	4.74
281.816	4.72
282.274	4.71
282.732	4.69
283.19	4.68
283.648	4.68
284.106	4.67
284.564	4.67
285.021	4.65
285.479	4.64
285.937	4.63
286.394	4.61
286.852	4.59
287.309	4.58
287.767	4.56
288.224	4.54
288.682	4.53
289.139	4.51
289.596	4.49
290.053	4.47
290.511	4.44
290.968	4.43
291.425	4.41
291.882	4.4
292.339	4.38
292.796	4.35
293.252	4.33
293.709	4.31
294.166	4.3
294.623	4.28
295.079	4.26
295.536	4.26
295.992	4.24
296.449	4.23
296.905	4.21
297.362	4.2
297.818	4.19
298.274	4.19
298.731	4.17
299.187	4.16
299.643	4.15
300.099	4.14
300.555	4.12
301.011	4.1
301.467	4.09
301.923	4.09
302.379	4.08
302.835	4.07
303.291	4.05
303.746	4.04
304.202	4.02
304.658	4.01
305.113	4
305.569	4
306.024	3.99
306.479	3.98
306.935	3.96
307.39	3.96
307.845	3.96
308.301	3.96
308.756	3.96
309.211	3.96
309.666	3.96
310.121	3.95
310.576	3.94
311.031	3.94
311.486	3.94
311.94	3.93
312.395	3.92
312.85	3.92
313.305	3.91
313.759	3.91
314.214	3.9
314.668	3.9
315.123	3.9
315.577	3.9
316.032	3.89
316.486	3.89
316.94	3.89
317.394	3.88
317.849	3.86
318.303	3.86
318.757	3.85
319.211	3.83
319.665	3.83
320.119	3.82
320.572	3.8
321.026	3.79
321.48	3.77
321.934	3.76
322.387	3.75
322.841	3.75
323.295	3.74
323.748	3.74
324.202	3.73
324.655	3.72
325.108	3.7
325.562	3.69
326.015	3.68
326.468	3.68
326.921	3.67
327.374	3.66
327.827	3.65
328.28	3.63
328.733	3.61
329.186	3.61
329.639	3.6
330.092	3.6
330.545	3.59
330.997	3.61
331.45	3.61
331.903	3.61
332.355	3.61
332.808	3.62
333.26	3.62
333.713	3.63
334.165	3.63
334.617	3.64
335.069	3.64
335.522	3.65
335.974	3.63
336.426	3.63
336.878	3.61
337.33	3.62
337.782	3.62
338.234	3.62
338.686	3.6
339.137	3.62
339.589	3.61
340.041	3.59
340.493	3.58
340.944	3.58
341.396	3.57
341.847	3.56
342.299	3.54
342.75	3.52
343.201	3.51
343.653	3.5
344.104	3.47
344.555	3.46
345.006	3.44
345.457	3.43
345.908	3.41
346.359	3.41
346.81	3.4
347.261	3.4
347.712	3.41
348.163	3.41
348.613	3.4
349.064	3.38
349.515	3.38
349.965	3.38
350.416	3.38
350.866	3.38
351.317	3.37
351.767	3.37
352.217	3.36
352.668	3.35
353.118	3.35
353.568	3.35
354.018	3.36
354.468	3.36
354.918	3.37
355.368	3.36
355.818	3.35
356.268	3.35
356.718	3.34
357.168	3.33
357.617	3.33
358.067	3.32
358.517	3.32
358.966	3.32
359.416	3.32
359.865	3.32
360.315	3.32
360.764	3.32
361.213	3.32
361.663	3.33
362.112	3.34
362.561	3.34
363.01	3.34
363.459	3.34
363.908	3.35
364.357	3.34
364.806	3.35
365.255	3.35
365.703	3.36
366.152	3.36
366.601	3.36
367.05	3.36
367.498	3.36
367.947	3.35
368.395	3.36
368.844	3.35
369.292	3.35
369.74	3.36
370.189	3.35
370.637	3.35
371.085	3.36
371.533	3.37
371.981	3.38
372.429	3.38
372.877	3.39
373.325	3.39
373.773	3.4
374.221	3.41
374.669	3.42
375.116	3.41
375.564	3.42
376.012	3.42
376.459	3.43
376.907	3.44
377.354	3.44
377.801	3.45
378.249	3.46
378.696	3.48
379.143	3.49
379.591	3.51
380.038	3.53
380.485	3.56
380.932	3.57
381.379	3.58
381.826	3.6
382.273	3.61
382.72	3.63
383.166	3.64
383.613	3.66
384.06	3.67
384.506	3.69
384.953	3.7
385.4	3.71
385.846	3.72
386.292	3.75
386.739	3.76
387.185	3.79
387.631	3.82
388.078	3.84
388.524	3.83
388.97	3.84
389.416	3.86
389.862	3.88
390.308	3.9
390.754	3.92
391.2	3.94
391.645	3.95
392.091	3.96
392.537	3.97
392.983	3.99
393.428	4.02
393.874	4.05
394.319	4.06
394.765	4.08
395.21	4.09
395.655	4.11
396.101	4.12
396.546	4.14
396.991	4.15
397.436	4.14
397.881	4.16
398.326	4.19
398.771	4.21
399.216	4.24
399.661	4.25
400.106	4.29
400.551	4.28
400.995	4.29
401.44	4.29
401.885	4.3
402.329	4.32
402.774	4.33
403.218	4.32
403.663	4.3
404.107	4.31
404.551	4.32
404.995	4.31
405.44	4.32
405.884	4.33
406.328	4.34
406.772	4.34
407.216	4.35
407.66	4.35
408.104	4.36
408.547	4.37
408.991	4.35
409.435	4.35
409.879	4.36
410.322	4.37
410.766	4.38
411.209	4.38
411.653	4.37
412.096	4.38
412.54	4.37
412.983	4.38
413.426	4.4
413.869	4.42
414.312	4.44
414.756	4.45
415.199	4.45
415.642	4.46
416.085	4.48
416.527	4.51
416.97	4.52
417.413	4.51
417.856	4.5
418.298	4.49
418.741	4.49
419.184	4.47
419.626	4.45
420.069	4.45
420.511	4.45
420.953	4.43
421.396	4.44
421.838	4.45
422.28	4.48
422.722	4.48
423.164	4.5
423.606	4.5
424.048	4.49
424.49	4.5
424.932	4.5
425.374	4.5
425.816	4.5
426.258	4.48
426.699	4.46
427.141	4.44
427.582	4.43
428.024	4.44
428.465	4.45
428.907	4.47
429.348	4.45
429.789	4.46
430.231	4.46
430.672	4.48
431.113	4.48
431.554	4.49
431.995	4.5
432.436	4.5
432.877	4.47
433.318	4.46
433.759	4.47
434.2	4.48
434.64	4.47
435.081	4.47
435.522	4.48
435.962	4.49
436.403	4.5
436.843	4.49
437.284	4.52
437.724	4.55
438.164	4.57
438.604	4.59
439.045	4.58
439.485	4.6
439.925	4.6
440.365	4.59
440.805	4.59
441.245	4.57
441.685	4.61
442.125	4.6
442.564	4.59
443.004	4.59
443.444	4.59
443.883	4.61
444.323	4.6
444.762	4.64
445.202	4.69
445.641	4.71
446.081	4.75
446.52	4.73
446.959	4.74
447.398	4.78
447.837	4.81
448.276	4.83
448.716	4.84
449.154	4.88
449.593	4.87
450.032	4.87
450.471	4.88
450.91	4.87
451.349	4.88
451.787	4.9
452.226	4.86
452.664	4.85
453.103	4.83
453.541	4.81
453.98	4.78
454.418	4.76
454.856	4.72
455.295	4.69
455.733	4.7
456.171	4.69
456.609	4.68
457.047	4.68
457.485	4.67
457.923	4.67
458.361	4.65
458.798	4.65
459.236	4.65
459.674	4.66
460.111	4.67
460.549	4.67
460.987	4.67
461.424	4.67
461.862	4.69
462.299	4.69
462.736	4.69
463.173	4.71
463.611	4.7
464.048	4.72
464.485	4.72
464.922	4.72
465.359	4.73
465.796	4.71
466.233	4.74
466.67	4.74
467.106	4.74
467.543	4.74
467.98	4.74
468.416	4.78
468.853	4.77
469.29	4.76
469.726	4.76
470.162	4.75
470.599	4.77
471.035	4.75
471.471	4.74
471.907	4.74
472.344	4.73
472.78	4.72
473.216	4.7
473.652	4.71
474.088	4.71
474.523	4.69
474.959	4.69
475.395	4.68
475.831	4.67
476.266	4.68
476.702	4.67
477.138	4.66
477.573	4.64
478.008	4.63
478.444	4.61
478.879	4.59
479.314	4.59
479.75	4.6
480.185	4.59
480.62	4.58
481.055	4.56
481.49	4.55
481.925	4.55
482.36	4.53
482.795	4.54
483.229	4.52
483.664	4.52
484.099	4.51
484.534	4.49
484.968	4.49
485.403	4.49
485.837	4.49
486.271	4.49
486.706	4.49
487.14	4.5
487.574	4.51
488.009	4.52
488.443	4.53
488.877	4.54
489.311	4.55
489.745	4.57
490.179	4.57
490.613	4.58
491.046	4.6
491.48	4.63
491.914	4.65
492.348	4.66
492.781	4.68
493.215	4.7
493.648	4.73
494.082	4.77
494.515	4.8
494.948	4.83
495.382	4.87
495.815	4.91
496.248	4.93
496.681	4.97
497.114	5.01
497.547	5.06
497.98	5.1
498.413	5.15
498.846	5.2
499.279	5.26
499.711	5.32
500.144	5.39
500.577	5.45
501.009	5.53
501.442	5.61
501.874	5.68
502.306	5.76
502.739	5.85
503.171	5.94
503.603	6.04
504.036	6.15
504.468	6.26
504.9	6.38
505.332	6.51
505.764	6.64
506.196	6.78
506.627	6.92
507.059	7.06
507.491	7.22
507.923	7.37
508.354	7.53
508.786	7.69
509.217	7.85
509.649	8.03
510.08	8.22
510.512	8.41
510.943	8.61
511.374	8.82
511.805	9.04
512.237	9.26
512.668	9.49
513.099	9.73
513.53	9.96
513.961	10.22
514.391	10.47
514.822	10.71
515.253	10.96
515.684	11.22
516.114	11.48
516.545	11.74
516.975	12.01
517.406	12.3
517.836	12.56
518.267	12.84
518.697	13.12
519.127	13.39
519.558	13.68
519.988	13.95
520.418	14.23
520.848	14.51
521.278	14.79
521.708	15.05
522.138	15.31
522.567	15.59
522.997	15.84
523.427	16.1
523.857	16.35
524.286	16.59
524.716	16.84
525.145	17.08
525.575	17.3
526.004	17.52
526.433	17.73
526.863	17.95
527.292	18.15
527.721	18.34
528.15	18.51
528.579	18.68
529.008	18.86
529.437	19.02
529.866	19.18
530.295	19.33
530.724	19.5
531.152	19.65
531.581	19.77
532.01	19.9
532.438	20.03
532.867	20.16
533.295	20.27
533.723	20.38
534.152	20.46
534.58	20.54
535.008	20.61
535.436	20.67
535.865	20.75
536.293	20.82
536.721	20.87
537.149	20.92
537.576	20.96
538.004	21
538.432	21.03
538.86	21.08
539.287	21.13
539.715	21.17
540.143	21.19
540.57	21.21
540.998	21.24
541.425	21.28
541.852	21.31
542.28	21.32
542.707	21.37
543.134	21.4
543.561	21.43
543.988	21.45
544.415	21.48
544.842	21.51
545.269	21.53
545.696	21.56
546.123	21.59
546.549	21.61
546.976	21.64
547.403	21.65
547.829	21.66
548.256	21.67
548.682	21.68
549.108	21.69
549.535	21.69
549.961	21.7
550.387	21.7
550.813	21.67
551.24	21.68
551.666	21.68
552.092	21.67
552.518	21.66
552.943	21.64
553.369	21.62
553.795	21.59
554.221	21.56
554.646	21.51
555.072	21.47
555.498	21.42
555.923	21.36
556.349	21.3
556.774	21.23
557.199	21.17
557.625	21.11
558.05	21.02
558.475	20.94
558.9	20.85
559.325	20.75
559.75	20.63
560.175	20.53
560.6	20.42
561.025	20.3
561.449	20.16
561.874	20.05
562.299	19.9
562.723	19.76
563.148	19.62
563.572	19.47
563.997	19.32
564.421	19.17
564.846	19.03
565.27	18.87
565.694	18.72
566.118	18.57
566.542	18.4
566.966	18.25
567.39	18.09
567.814	17.9
568.238	17.73
568.662	17.55
569.086	17.39
569.509	17.21
569.933	17.04
570.357	16.85
570.78	16.68
571.204	16.5
571.627	16.33
572.05	16.17
572.474	16.03
572.897	15.88
573.32	15.73
573.743	15.58
574.166	15.43
574.589	15.3
575.012	15.18
575.435	15.03
575.858	14.91
576.281	14.81
576.704	14.68
577.126	14.57
577.549	14.46
577.972	14.36
578.394	14.25
578.817	14.15
579.239	14.04
579.661	13.94
580.084	13.86
580.506	13.76
580.928	13.66
581.35	13.57
581.772	13.49
582.194	13.4
582.616	13.33
583.038	13.26
583.46	13.2
583.882	13.15
584.303	13.07
584.725	13
585.147	12.91
585.568	12.85
585.99	12.79
586.411	12.73
586.833	12.68
587.254	12.62
587.675	12.55
588.096	12.49
588.518	12.44
588.939	12.4
589.36	12.35
589.781	12.33
590.202	12.28
590.623	12.23
591.043	12.19
591.464	12.12
591.885	12.09
592.305	12.06
592.726	12.01
593.147	11.97
593.567	11.93
593.987	11.9
594.408	11.87
594.828	11.86
595.248	11.84
595.669	11.81
596.089	11.78
596.509	11.74
596.929	11.71
597.349	11.68
597.769	11.65
598.189	11.63
598.608	11.59
599.028	11.54
599.448	11.5
599.867	11.46
600.287	11.42
600.706	11.38
601.126	11.33
601.545	11.28
601.965	11.24
602.384	11.2
602.803	11.15
603.222	11.09
603.641	11.04
604.061	10.98
604.48	10.92
604.898	10.85
605.317	10.79
605.736	10.74
606.155	10.67
606.574	10.61
606.992	10.53
607.411	10.47
607.829	10.36
608.248	10.29
608.666	10.23
609.085	10.17
609.503	10.1
609.921	10.02
610.339	9.95
610.758	9.89
611.176	9.81
611.594	9.72
612.012	9.65
612.43	9.63
612.847	9.56
613.265	9.49
613.683	9.41
614.101	9.33
614.518	9.27
614.936	9.21
615.353	9.14
615.771	9.07
616.188	9.04
616.606	8.97
617.023	8.91
617.44	8.87
617.857	8.81
618.274	8.78
618.691	8.74
619.108	8.71
619.525	8.69
619.942	8.65
620.359	8.62
620.776	8.59
621.192	8.56
621.609	8.52
622.026	8.49
622.442	8.47
622.859	8.45
623.275	8.44
623.691	8.41
624.108	8.39
624.524	8.37
624.94	8.36
625.356	8.35
625.772	8.35
626.188	8.35
626.604	8.34
627.02	8.34
627.436	8.32
627.852	8.3
628.268	8.28
628.683	8.26
629.099	8.26
629.514	8.23
629.93	8.22
630.345	8.18
630.761	8.15
631.176	8.12
631.591	8.09
632.007	8.06
632.422	8.03
632.837	7.99
633.252	7.95
633.667	7.9
634.082	7.87
634.497	7.79
634.911	7.74
635.326	7.68
635.741	7.61
636.155	7.55
636.57	7.48
636.984	7.38
637.399	7.3
637.813	7.22
638.228	7.14
638.642	7.06
639.056	6.99
639.47	6.91
639.884	6.83
640.298	6.75
640.712	6.66
641.126	6.57
641.54	6.52
641.954	6.46
642.368	6.39
642.781	6.3
643.195	6.22
643.609	6.14
644.022	6.07
644.436	6.01
644.849	5.95
645.262	5.9
645.676	5.84
646.089	5.77
646.502	5.71
646.915	5.65
647.328	5.62
647.741	5.57
648.154	5.54
648.567	5.51
648.98	5.48
649.393	5.46
649.805	5.42
650.218	5.39
650.631	5.39
651.043	5.36
651.456	5.35
651.868	5.32
652.28	5.31
652.693	5.27
653.105	5.24
653.517	5.21
653.929	5.18
654.341	5.16
654.753	5.12
655.165	5.09
655.577	5.05
655.989	5
656.401	4.96
656.813	4.91
657.224	4.87
657.636	4.83
658.047	4.78
658.459	4.73
658.87	4.69
659.282	4.67
659.693	4.62
660.104	4.58
660.515	4.55
660.926	4.52
661.338	4.47
661.749	4.44
662.159	4.41
662.57	4.38
662.981	4.36
663.392	4.32
663.803	4.27
664.213	4.25
664.624	4.23
665.035	4.2
665.445	4.18
665.855	4.2
666.266	4.18
666.676	4.18
667.086	4.18
667.497	4.15
667.907	4.15
668.317	4.14
668.727	4.13
669.137	4.12
669.547	4.15
669.956	4.16
670.366	4.15
670.776	4.16
671.186	4.18
671.595	4.2
672.005	4.23
672.414	4.25
672.824	4.29
673.233	4.33
673.642	4.34
674.052	4.36
674.461	4.37
674.87	4.4
675.279	4.42
675.688	4.44
676.097	4.46
676.506	4.48
676.915	4.5
677.323	4.52
677.732	4.55
678.141	4.59
678.549	4.63
678.958	4.67
679.366	4.69
679.775	4.74
680.183	4.78
680.592	4.82
681	4.85
681.408	4.89
681.816	4.94
682.224	5
682.632	5.04
683.04	5.09
683.448	5.16
683.856	5.24
684.264	5.33
684.671	5.43
685.079	5.54
685.487	5.68
685.894	5.82
686.302	5.97
686.709	6.13
687.116	6.32
687.524	6.54
687.931	6.75
688.338	7
688.745	7.27
689.152	7.56
689.559	7.88
689.966	8.22
690.373	8.59
690.78	8.99
691.187	9.42
691.593	9.85
692	10.31
692.407	10.78
692.813	11.27
693.22	11.78
693.626	12.31
694.032	12.85
694.439	13.4
694.845	13.98
695.251	14.57
695.657	15.14
696.063	15.75
696.469	16.36
696.875	16.97
697.281	17.59
697.687	18.2
698.093	18.84
698.498	19.46
698.904	20.08
699.31	20.68
699.715	21.28
700.12	21.88
700.526	22.49
700.931	23.07
701.337	23.68
701.742	24.25
702.147	24.84
702.552	25.41
702.957	25.97
703.362	26.57
703.767	27.13
704.172	27.69
704.577	28.26
704.981	28.81
705.386	29.37
705.791	29.92
706.195	30.48
706.6	31.02
707.004	31.56
707.408	32.1
707.813	32.6
708.217	33.1
708.621	33.63
709.025	34.15
709.43	34.64
709.834	35.17
710.237	35.64
710.641	36.12
711.045	36.6
711.449	37.07
711.853	37.54
712.256	38.02
712.66	38.51
713.064	38.97
713.467	39.4
713.87	39.87
714.274	40.3
714.677	40.74
715.08	41.16
715.484	41.61
715.887	42.04
716.29	42.46
716.693	42.86
717.096	43.26
717.499	43.67
717.901	44.05
718.304	44.43
718.707	44.81
719.109	45.21
719.512	45.63
719.915	45.99
720.317	46.36
720.719	46.71
721.122	47.05
721.524	47.42
721.926	47.77
722.328	48.12
722.731	48.45
723.133	48.73
723.535	49.03
723.937	49.29
724.338	49.55
724.74	49.84
725.142	50.02
725.544	50.27
725.945	50.48
726.347	50.68
726.748	50.89
727.15	51.11
727.551	51.36
727.952	51.54
728.354	51.79
728.755	51.99
729.156	52.21
729.557	52.49
729.958	52.7
730.359	52.91
730.76	53.1
731.161	53.3
731.562	53.46
731.962	53.63
732.363	53.82
732.763	53.97
733.164	54.12
733.564	54.22
733.965	54.34
734.365	54.44
734.766	54.56
735.166	54.64
735.566	54.74
735.966	54.84
736.366	54.93
736.766	55.01
737.166	55.1
737.566	55.2
737.966	55.29
738.365	55.4
738.765	55.5
739.165	55.56
739.564	55.68
739.964	55.74
740.363	55.8
740.763	55.85
741.162	55.88
741.561	55.92
741.96	56
742.36	56.06
742.759	56.07
743.158	56.1
743.557	56.16
743.955	56.22
744.354	56.29
744.753	56.36
745.152	56.4
745.55	56.48
745.949	56.52
746.348	56.56
746.746	56.61
747.144	56.73
747.543	56.82
747.941	56.89
748.339	56.92
748.737	56.99
749.136	57.04
749.534	57.1
749.932	57.14
750.33	57.16
750.727	57.2
751.125	57.21
751.523	57.18
751.921	57.19
752.318	57.19
752.716	57.17
753.113	57.14
753.511	57.13
753.908	57.11
754.305	57.09
754.703	57.06
755.1	57.03
755.497	57.01
755.894	57.02
756.291	56.97
756.688	56.95
757.085	56.96
757.482	56.95
757.878	56.97
758.275	56.95
758.672	56.99
759.068	57.03
759.465	57.04
759.861	57.06
760.258	57.01
760.654	57.03
761.05	57.05
761.447	57.03
761.843	57.01
762.239	56.96
762.635	56.97
763.031	56.98
763.427	56.97
763.822	56.95
764.218	56.92
764.614	56.96
765.01	56.98
765.405	56.94
765.801	56.92
766.196	56.96
766.592	57
766.987	57.02
767.382	57.02
767.778	57.01
768.173	57.03
768.568	57.02
768.963	57
769.358	57
769.753	57.04
770.148	57.06
770.542	57.04
770.937	57.01
771.332	57
771.726	56.95
772.121	56.91
772.515	56.91
772.91	56.92
773.304	56.91
773.699	56.9
774.093	56.9
774.487	56.9
774.881	56.89
775.275	56.91
775.669	56.89
776.063	56.89
776.457	56.9
776.851	56.87
777.245	56.88
777.638	56.9
778.032	56.9
778.425	56.88
778.819	56.85
779.212	56.83
779.606	56.79
779.999	56.79
780.392	56.81
780.786	56.82
781.179	56.83
781.572	56.83
781.965	56.84
782.358	56.8
782.751	56.8
783.143	56.87
783.536	56.9
783.929	56.92
784.322	56.93
784.714	56.92
