Data from c_1_hir_wi_4n_043_Splice17_01.txt Node
Date: Sat Feb 29 13:29:08 EST 2020
User: sa697716
Spectrometer: FLMS03696
Trigger mode: 0
Integration Time (sec): 3.180400E-1
Scans to average: 20
Electric dark correction enabled: true
Nonlinearity correction enabled: true
Boxcar width: 5
XAxis mode: Wavelengths
Number of Pixels in Spectrum: 2048
>>>>>Begin Spectral Data<<<<<
187.83	43.48
188.298	53.48
188.766	64.95
189.233	60.84
189.701	57.62
190.169	70.62
190.636	78.06
191.104	89.95
191.571	274.56
192.039	168.9
192.506	-223.32
192.974	-160.36
193.441	-199.75
193.908	131.71
194.375	165.13
194.842	148.83
195.31	153.1
195.777	162.88
196.244	146.26
196.711	134.38
197.177	130.83
197.644	128.56
198.111	128.27
198.578	127.25
199.045	127.62
199.511	127.29
199.978	127.19
200.445	126.09
200.911	125.81
201.378	125.19
201.844	124.73
202.31	124.08
202.777	123.51
203.243	122.88
203.709	122.58
204.176	120.95
204.642	119.93
205.108	118.64
205.574	118.29
206.04	117.47
206.506	116.02
206.972	114.49
207.438	113.32
207.903	111.39
208.369	108.41
208.835	106.32
209.301	104.45
209.766	101.65
210.232	99.33
210.697	96.75
211.163	94.2
211.628	91.82
212.094	89.61
212.559	87.23
213.024	85.18
213.49	83.06
213.955	80.54
214.42	78.04
214.885	74.94
215.35	71.06
215.815	66.04
216.28	60.38
216.745	54.3
217.21	48.04
217.675	41.95
218.14	36.6
218.604	31.96
219.069	27.93
219.534	24.47
219.998	21.73
220.463	19.4
220.927	17.51
221.392	15.88
221.856	14.57
222.32	13.39
222.785	12.42
223.249	11.63
223.713	10.92
224.177	10.27
224.642	9.75
225.106	9.23
225.57	8.74
226.034	8.31
226.497	7.93
226.961	7.54
227.425	7.19
227.889	6.88
228.353	6.56
228.816	6.29
229.28	5.98
229.744	5.73
230.207	5.52
230.671	5.31
231.134	5.1
231.597	4.93
232.061	4.76
232.524	4.63
232.987	4.5
233.45	4.37
233.914	4.28
234.377	4.2
234.84	4.12
235.303	4.05
235.766	3.99
236.229	3.93
236.691	3.88
237.154	3.83
237.617	3.76
238.08	3.72
238.542	3.67
239.005	3.62
239.468	3.56
239.93	3.52
240.393	3.47
240.855	3.41
241.317	3.36
241.78	3.32
242.242	3.28
242.704	3.24
243.166	3.19
243.629	3.15
244.091	3.11
244.553	3.07
245.015	3.02
245.477	2.97
245.939	2.94
246.4	2.89
246.862	2.84
247.324	2.81
247.786	2.76
248.247	2.72
248.709	2.68
249.17	2.64
249.632	2.61
250.093	2.56
250.555	2.53
251.016	2.5
251.477	2.47
251.939	2.43
252.4	2.4
252.861	2.37
253.322	2.34
253.783	2.32
254.244	2.29
254.705	2.27
255.166	2.25
255.627	2.21
256.088	2.16
256.549	2.13
257.009	2.09
257.47	2.05
257.931	2.01
258.391	1.96
258.852	1.91
259.312	1.88
259.773	1.83
260.233	1.78
260.694	1.75
261.154	1.71
261.614	1.67
262.074	1.63
262.534	1.59
262.994	1.56
263.455	1.53
263.915	1.5
264.374	1.46
264.834	1.43
265.294	1.4
265.754	1.37
266.214	1.35
266.673	1.33
267.133	1.31
267.593	1.29
268.052	1.27
268.512	1.25
268.971	1.25
269.431	1.24
269.89	1.23
270.349	1.22
270.809	1.22
271.268	1.23
271.727	1.22
272.186	1.22
272.645	1.21
273.104	1.22
273.563	1.22
274.022	1.22
274.481	1.22
274.94	1.22
275.399	1.22
275.857	1.22
276.316	1.21
276.775	1.21
277.233	1.22
277.692	1.23
278.15	1.23
278.609	1.24
279.067	1.24
279.525	1.25
279.984	1.26
280.442	1.28
280.9	1.29
281.358	1.31
281.816	1.33
282.274	1.34
282.732	1.36
283.19	1.38
283.648	1.39
284.106	1.41
284.564	1.42
285.021	1.43
285.479	1.45
285.937	1.45
286.394	1.46
286.852	1.47
287.309	1.47
287.767	1.47
288.224	1.47
288.682	1.47
289.139	1.47
289.596	1.45
290.053	1.44
290.511	1.42
290.968	1.41
291.425	1.39
291.882	1.37
292.339	1.35
292.796	1.33
293.252	1.32
293.709	1.3
294.166	1.29
294.623	1.28
295.079	1.28
295.536	1.28
295.992	1.27
296.449	1.27
296.905	1.26
297.362	1.26
297.818	1.25
298.274	1.25
298.731	1.25
299.187	1.25
299.643	1.25
300.099	1.25
300.555	1.25
301.011	1.25
301.467	1.25
301.923	1.26
302.379	1.28
302.835	1.29
303.291	1.29
303.746	1.29
304.202	1.3
304.658	1.3
305.113	1.31
305.569	1.33
306.024	1.34
306.479	1.35
306.935	1.37
307.39	1.38
307.845	1.4
308.301	1.41
308.756	1.43
309.211	1.44
309.666	1.46
310.121	1.48
310.576	1.48
311.031	1.49
311.486	1.51
311.94	1.52
312.395	1.53
312.85	1.53
313.305	1.55
313.759	1.57
314.214	1.56
314.668	1.56
315.123	1.57
315.577	1.58
316.032	1.58
316.486	1.58
316.94	1.58
317.394	1.57
317.849	1.56
318.303	1.55
318.757	1.53
319.211	1.53
319.665	1.52
320.119	1.51
320.572	1.51
321.026	1.51
321.48	1.5
321.934	1.49
322.387	1.49
322.841	1.5
323.295	1.5
323.748	1.5
324.202	1.51
324.655	1.51
325.108	1.51
325.562	1.5
326.015	1.5
326.468	1.5
326.921	1.5
327.374	1.51
327.827	1.52
328.28	1.52
328.733	1.52
329.186	1.53
329.639	1.54
330.092	1.55
330.545	1.56
330.997	1.58
331.45	1.59
331.903	1.61
332.355	1.62
332.808	1.62
333.26	1.64
333.713	1.67
334.165	1.68
334.617	1.71
335.069	1.72
335.522	1.74
335.974	1.75
336.426	1.77
336.878	1.78
337.33	1.79
337.782	1.8
338.234	1.82
338.686	1.82
339.137	1.82
339.589	1.81
340.041	1.81
340.493	1.79
340.944	1.79
341.396	1.79
341.847	1.77
342.299	1.75
342.75	1.74
343.201	1.71
343.653	1.69
344.104	1.68
344.555	1.67
345.006	1.65
345.457	1.65
345.908	1.64
346.359	1.63
346.81	1.63
347.261	1.64
347.712	1.63
348.163	1.64
348.613	1.64
349.064	1.64
349.515	1.64
349.965	1.64
350.416	1.64
350.866	1.65
351.317	1.64
351.767	1.65
352.217	1.65
352.668	1.66
353.118	1.67
353.568	1.68
354.018	1.7
354.468	1.71
354.918	1.73
355.368	1.74
355.818	1.75
356.268	1.77
356.718	1.78
357.168	1.78
357.617	1.78
358.067	1.78
358.517	1.78
358.966	1.79
359.416	1.8
359.865	1.8
360.315	1.8
360.764	1.8
361.213	1.81
361.663	1.8
362.112	1.82
362.561	1.83
363.01	1.84
363.459	1.84
363.908	1.83
364.357	1.84
364.806	1.85
365.255	1.85
365.703	1.85
366.152	1.85
366.601	1.86
367.05	1.87
367.498	1.87
367.947	1.87
368.395	1.88
368.844	1.89
369.292	1.88
369.74	1.88
370.189	1.88
370.637	1.89
371.085	1.89
371.533	1.88
371.981	1.88
372.429	1.88
372.877	1.89
373.325	1.88
373.773	1.87
374.221	1.88
374.669	1.89
375.116	1.88
375.564	1.88
376.012	1.88
376.459	1.9
376.907	1.91
377.354	1.91
377.801	1.92
378.249	1.93
378.696	1.95
379.143	1.96
379.591	1.97
380.038	2
380.485	2.03
380.932	2.05
381.379	2.07
381.826	2.1
382.273	2.13
382.72	2.18
383.166	2.22
383.613	2.28
384.06	2.35
384.506	2.43
384.953	2.52
385.4	2.64
385.846	2.78
386.292	2.95
386.739	3.12
387.185	3.34
387.631	3.54
388.078	3.71
388.524	3.84
388.97	3.97
389.416	4.12
389.862	4.33
390.308	4.6
390.754	4.94
391.2	5.29
391.645	5.6
392.091	5.84
392.537	6.08
392.983	6.44
393.428	6.99
393.874	7.69
394.319	8.49
394.765	9.31
395.21	10.12
395.655	10.95
396.101	11.84
396.546	12.83
396.991	13.97
397.436	15.21
397.881	16.48
398.326	17.68
398.771	18.78
399.216	19.81
399.661	20.77
400.106	21.62
400.551	22.35
400.995	22.98
401.44	23.55
401.885	24.07
402.329	24.61
402.774	25.15
403.218	25.8
403.663	26.5
404.107	27.27
404.551	28.1
404.995	28.89
405.44	29.62
405.884	30.38
406.328	31.25
406.772	32.28
407.216	33.38
407.66	34.42
408.104	35.36
408.547	36.18
408.991	36.91
409.435	37.67
409.879	38.56
410.322	39.63
410.766	40.75
411.209	41.84
411.653	42.82
412.096	43.7
412.54	44.51
412.983	45.35
413.426	46.28
413.869	47.23
414.312	48.2
414.756	49.07
415.199	49.82
415.642	50.53
416.085	51.12
416.527	51.62
416.97	51.95
417.413	52.14
417.856	52.17
418.298	52.17
418.741	52.23
419.184	52.36
419.626	52.62
420.069	52.97
420.511	53.37
420.953	53.75
421.396	54.23
421.838	54.9
422.28	55.77
422.722	56.71
423.164	57.58
423.606	58.42
424.048	59.06
424.49	59.44
424.932	59.37
425.374	58.68
425.816	57.62
426.258	56.34
426.699	55.32
427.141	55
427.582	55.46
428.024	56.41
428.465	57.49
428.907	58.58
429.348	59.52
429.789	60.69
430.231	62.59
430.672	65.35
431.113	68.64
431.554	71.99
431.995	74.66
432.436	76.65
432.877	78.2
433.318	79.45
433.759	80.72
434.2	82.31
434.64	84.23
435.081	86.14
435.522	87.88
435.962	89.32
436.403	90.54
436.843	91.63
437.284	92.69
437.724	93.8
438.164	95.21
438.604	96.86
439.045	98.58
439.485	100.25
439.925	101.68
440.365	102.95
440.805	104
441.245	104.83
441.685	105.69
442.125	106.64
442.564	107.77
443.004	108.9
443.444	110.15
443.883	111.44
444.323	112.84
444.762	114.21
445.202	115.58
445.641	117.15
446.081	119.16
446.52	121.17
446.959	123.19
447.398	124.83
447.837	126.03
448.276	126.58
448.716	127.07
449.154	127.42
449.593	127.82
450.032	128.02
450.471	127.89
450.91	127.43
451.349	126.88
451.787	126.35
452.226	125.93
452.664	125.6
453.103	125.48
453.541	125.16
453.98	124.64
454.418	123.97
454.856	123.18
455.295	122.61
455.733	121.96
456.171	121.44
456.609	121
457.047	120.34
457.485	120.03
457.923	119.92
458.361	120.01
458.798	120.35
459.236	120.71
459.674	121.15
460.111	121.43
460.549	121.92
460.987	122.42
461.424	122.82
461.862	123.52
462.299	123.97
462.736	124.4
463.173	125
463.611	125.71
464.048	126.62
464.485	127.66
464.922	128.9
465.359	130.08
465.796	131.11
466.233	132.25
466.67	133.35
467.106	134.67
467.543	136.12
467.98	137.49
468.416	138.68
468.853	139.64
469.29	140.55
469.726	141.41
470.162	142.29
470.599	143.18
471.035	143.97
471.471	144.49
471.907	144.72
472.344	144.76
472.78	144.63
473.216	144.6
473.652	144.57
474.088	144.44
474.523	144.07
474.959	143.64
475.395	143.2
475.831	142.69
476.266	142.21
476.702	141.76
477.138	141.19
477.573	140.6
478.008	139.75
478.444	138.74
478.879	137.69
479.314	136.57
479.75	135.37
480.185	134.03
480.62	132.51
481.055	130.7
481.49	128.25
481.925	125.53
482.36	122.9
482.795	120.59
483.229	118.77
483.664	117.24
484.099	115.9
484.534	114.69
484.968	113.7
485.403	112.98
485.837	112.75
486.271	113.05
486.706	113.57
487.14	114
487.574	114.1
488.009	113.97
488.443	113.76
488.877	113.57
489.311	113.43
489.745	113.33
490.179	113.33
490.613	113.27
491.046	113.28
491.48	113.36
491.914	113.58
492.348	114.04
492.781	114.53
493.215	114.97
493.648	115.33
494.082	115.58
494.515	115.8
494.948	115.94
495.382	116.09
495.815	116.14
496.248	116.17
496.681	116.13
497.114	116.03
497.547	115.9
497.98	115.89
498.413	116.11
498.846	116.5
499.279	116.88
499.711	117.16
500.144	117.48
500.577	118.06
501.009	118.88
501.442	119.96
501.874	121.08
502.306	122.26
502.739	123.27
503.171	124.19
503.603	124.95
504.036	125.69
504.468	126.73
504.9	127.81
505.332	128.75
505.764	129.63
506.196	130.32
506.627	131.13
507.059	131.99
507.491	132.98
507.923	133.95
508.354	134.96
508.786	136
509.217	136.73
509.649	137.49
510.08	138.21
510.512	138.97
510.943	139.87
511.374	140.75
511.805	141.36
512.237	141.63
512.668	141.62
513.099	141.73
513.53	141.9
513.961	142.25
514.391	142.63
514.822	143.28
515.253	144.14
515.684	144.98
516.114	145.95
516.545	147.1
516.975	148.81
517.406	150.86
517.836	152.81
518.267	154.67
518.697	156.39
519.127	158.14
519.558	159.74
519.988	161.17
520.418	162.61
520.848	163.85
521.278	165.06
521.708	165.9
522.138	166.33
522.567	166.67
522.997	167.07
523.427	167.66
523.857	168.27
524.286	169.07
524.716	169.95
525.145	170.67
525.575	171.4
526.004	172.23
526.433	173.31
526.863	174.8
527.292	176.36
527.721	177.7
528.15	178.64
528.579	179.29
529.008	179.69
529.437	179.89
529.866	180.14
530.295	180.42
530.724	180.81
531.152	181.09
531.581	181.37
532.01	181.55
532.438	181.74
532.867	182.17
533.295	182.66
533.723	183.2
534.152	183.62
534.58	183.94
535.008	184.08
535.436	184.01
535.865	183.74
536.293	183.36
536.721	183.21
537.149	183.27
537.576	183.48
538.004	183.75
538.432	183.94
538.86	184.22
539.287	184.61
539.715	185.2
540.143	185.92
540.57	186.84
540.998	187.92
541.425	188.87
541.852	189.83
542.28	190.68
542.707	191.6
543.134	192.39
543.561	193.01
543.988	193.71
544.415	194.45
544.842	195.16
545.269	195.9
545.696	196.56
546.123	197.36
546.549	198.01
546.976	198.6
547.403	199.12
547.829	199.84
548.256	200.59
548.682	201.12
549.108	201.7
549.535	202.23
549.961	202.62
550.387	203.05
550.813	203.45
551.24	203.9
551.666	204.26
552.092	204.47
552.518	204.51
552.943	204.57
553.369	204.7
553.795	204.63
554.221	204.34
554.646	203.94
555.072	203.31
555.498	202.59
555.923	201.93
556.349	201.34
556.774	200.88
557.199	200.45
557.625	199.97
558.05	199.36
558.475	198.77
558.9	198.33
559.325	197.9
559.75	197.45
560.175	196.96
560.6	196.28
561.025	195.41
561.449	194.35
561.874	193.15
562.299	192.06
562.723	191.03
563.148	189.93
563.572	188.76
563.997	187.5
564.421	186.12
564.846	184.74
565.27	183.51
565.694	182.2
566.118	180.83
566.542	179.55
566.966	178.14
567.39	176.74
567.814	175.5
568.238	174.44
568.662	173.6
569.086	172.88
569.509	172.33
569.933	171.71
570.357	171.22
570.78	170.83
571.204	170.5
571.627	170.31
572.05	170.23
572.474	170.03
572.897	169.89
573.32	169.63
573.743	169.44
574.166	169.05
574.589	168.72
575.012	168.61
575.435	168.63
575.858	168.76
576.281	168.89
576.704	168.96
577.126	169.11
577.549	169.23
577.972	169.54
578.394	169.8
578.817	170.2
579.239	170.75
579.661	171.09
580.084	171.37
580.506	171.58
580.928	171.68
581.35	171.74
581.772	171.64
582.194	171.48
582.616	171.27
583.038	171.18
583.46	171.02
583.882	170.58
584.303	169.97
584.725	169.06
585.147	167.9
585.568	166.87
585.99	166.03
586.411	165.49
586.833	164.98
587.254	164.45
587.675	163.92
588.096	163.48
588.518	163.12
588.939	162.98
589.36	163.11
589.781	163.44
590.202	163.64
590.623	163.67
591.043	163.41
591.464	163.09
591.885	162.75
592.305	162.31
592.726	161.78
593.147	161.27
593.567	160.63
593.987	159.95
594.408	159.23
594.828	158.52
595.248	157.82
595.669	157.09
596.089	156.21
596.509	155.28
596.929	154.28
597.349	153.23
597.769	152.17
598.189	151.16
598.608	150.27
599.028	149.45
599.448	148.73
599.867	148.02
600.287	147.39
600.706	146.76
601.126	146.14
601.545	145.59
601.965	145.13
602.384	144.7
602.803	144.31
603.222	143.83
603.641	143.33
604.061	142.77
604.48	142.08
604.898	141.46
605.317	140.91
605.736	140.27
606.155	139.64
606.574	139.02
606.992	138.42
607.411	137.83
607.829	137.26
608.248	136.72
608.666	136.17
609.085	135.68
609.503	135.07
609.921	134.53
610.339	134.08
610.758	133.68
611.176	133.21
611.594	132.68
612.012	132.06
612.43	131.41
612.847	130.8
613.265	130.3
613.683	129.9
614.101	129.56
614.518	129.28
614.936	128.96
615.353	128.62
615.771	128.43
616.188	128.3
616.606	128.23
617.023	128.23
617.44	128.15
617.857	127.93
618.274	127.7
618.691	127.42
619.108	127.04
619.525	126.7
619.942	126.3
620.359	125.81
620.776	125.26
621.192	124.66
621.609	124.11
622.026	123.63
622.442	123.31
622.859	122.9
623.275	122.54
623.691	122.12
624.108	121.73
624.524	121.38
624.94	121.11
625.356	120.79
625.772	120.62
626.188	120.45
626.604	120.22
627.02	119.93
627.436	119.67
627.852	119.44
628.268	119.33
628.683	119.31
629.099	119.32
629.514	119.2
629.93	119.22
630.345	119.24
630.761	119.26
631.176	119.32
631.591	119.35
632.007	119.43
632.422	119.55
632.837	119.6
633.252	119.63
633.667	119.71
634.082	119.83
634.497	119.93
634.911	119.94
635.326	119.84
635.741	119.74
636.155	119.6
636.57	119.46
636.984	119.24
637.399	119.02
637.813	118.79
638.228	118.46
638.642	118.21
639.056	117.89
639.47	117.63
639.884	117.48
640.298	117.27
640.712	117.08
641.126	116.9
641.54	116.72
641.954	116.5
642.368	116.21
642.781	115.95
643.195	115.6
643.609	115.32
644.022	115.05
644.436	114.71
644.849	114.33
645.262	113.89
645.676	113.43
646.089	113.13
646.502	112.88
646.915	112.69
647.328	112.46
647.741	112.31
648.154	112.15
648.567	111.95
648.98	111.83
649.393	111.81
649.805	111.83
650.218	111.84
650.631	111.62
651.043	111.29
651.456	110.57
651.868	109.55
652.28	108.34
652.693	107.18
653.105	106.24
653.517	105.5
653.929	104.87
654.341	104.42
654.753	104.06
655.165	103.81
655.577	103.68
655.989	103.94
656.401	104.47
656.813	105.22
657.224	105.92
657.636	106.4
658.047	106.7
658.459	106.78
658.87	106.67
659.282	106.46
659.693	106.22
660.104	105.94
660.515	105.61
660.926	105.36
661.338	105.01
661.749	104.65
662.159	104.24
662.57	103.75
662.981	103.36
663.392	102.93
663.803	102.53
664.213	102.18
664.624	101.85
665.035	101.45
665.445	101.06
665.855	100.62
666.266	100.2
666.676	99.79
667.086	99.41
667.497	98.99
667.907	98.59
668.317	98.24
668.727	97.84
669.137	97.46
669.547	97.14
669.956	96.81
670.366	96.57
670.776	96.25
671.186	96.03
671.595	95.8
672.005	95.62
672.414	95.46
672.824	95.29
673.233	95.17
673.642	95.02
674.052	94.96
674.461	94.87
674.87	94.77
675.279	94.78
675.688	94.73
676.097	94.74
676.506	94.74
676.915	94.79
677.323	94.85
677.732	94.96
678.141	95.12
678.549	95.24
678.958	95.41
679.366	95.59
679.775	95.69
680.183	95.83
680.592	95.98
681	96.19
681.408	96.35
681.816	96.47
682.224	96.38
682.632	95.96
683.04	95.16
683.448	94.34
683.856	93.63
684.264	93.13
684.671	92.67
685.079	92.28
685.487	91.92
685.894	91.73
686.302	91.65
686.709	91.91
687.116	92.63
687.524	93.87
687.931	95.24
688.338	96.63
688.745	97.99
689.152	99.38
689.559	100.75
689.966	102.11
690.373	103.47
690.78	104.76
691.187	106.02
691.593	107.25
692	108.42
692.407	109.6
692.813	110.79
693.22	111.88
693.626	113
694.032	114.07
694.439	115.16
694.845	116.22
695.251	117.25
695.657	118.27
696.063	119.23
696.469	120.11
696.875	120.89
697.281	121.64
697.687	122.45
698.093	123.15
698.498	123.95
698.904	124.77
699.31	125.55
699.715	126.48
700.12	127.33
700.526	128.34
700.931	129.33
701.337	130.41
701.742	131.4
702.147	132.43
702.552	133.48
702.957	134.51
703.362	135.51
703.767	136.47
704.172	137.37
704.577	138.27
704.981	139.02
705.386	139.83
705.791	140.65
706.195	141.4
706.6	142.13
707.004	142.9
707.408	143.51
707.813	144.19
708.217	144.76
708.621	145.33
709.025	145.92
709.43	146.51
709.834	147.08
710.237	147.58
710.641	148.16
711.045	148.62
711.449	149.09
711.853	149.56
712.256	149.85
712.66	150.01
713.064	149.88
713.467	149.58
713.87	149.08
714.274	148.42
714.677	147.54
715.08	146.55
715.484	145.72
715.887	144.84
716.29	144.18
716.693	143.76
717.096	143.84
717.499	144.47
717.901	145.36
718.304	146.52
718.707	147.79
719.109	149.19
719.512	150.52
719.915	151.61
720.317	152.69
720.719	153.54
721.122	154.22
721.524	154.66
721.926	154.83
722.328	154.91
722.731	154.9
723.133	154.88
723.535	154.91
723.937	155.06
724.338	155.27
724.74	155.42
725.142	155.62
725.544	155.91
725.945	156.13
726.347	156.4
726.748	156.54
727.15	156.72
727.551	157.07
727.952	157.48
728.354	158.02
728.755	158.66
729.156	159.46
729.557	160.33
729.958	161.16
730.359	161.97
730.76	162.62
731.161	163.32
731.562	163.93
731.962	164.4
732.363	164.79
732.763	165.09
733.164	165.31
733.564	165.47
733.965	165.46
734.365	165.28
734.766	165.14
735.166	164.9
735.566	164.77
735.966	164.72
736.366	164.61
736.766	164.51
737.166	164.37
737.566	164.19
737.966	164
738.365	163.94
738.765	164.05
739.165	164.1
739.564	164.37
739.964	164.46
740.363	164.55
740.763	164.63
741.162	164.76
741.561	165.06
741.96	165.39
742.36	165.7
742.759	165.89
743.158	166.03
743.557	166.23
743.955	166.3
744.354	166.42
744.753	166.56
745.152	166.62
745.55	166.61
745.949	166.42
746.348	166.22
746.746	166.01
747.144	165.8
747.543	165.59
747.941	165.35
748.339	165.17
748.737	165
749.136	164.67
749.534	164.5
749.932	164.36
750.33	164.28
750.727	164.14
751.125	163.98
751.523	163.73
751.921	163.56
752.318	163.4
752.716	163.13
753.113	162.92
