Data from c_1_hir_il_4n_023_Splice17_11.txt Node
Date: Sat Feb 29 13:19:35 EST 2020
User: sa697716
Spectrometer: FLMS03696
Trigger mode: 0
Integration Time (sec): 3.180400E-1
Scans to average: 20
Electric dark correction enabled: true
Nonlinearity correction enabled: true
Boxcar width: 5
XAxis mode: Wavelengths
Number of Pixels in Spectrum: 2048
>>>>>Begin Spectral Data<<<<<
187.83	80.05
188.298	69.08
188.766	75.47
189.233	67.86
189.701	70.78
190.169	62.3
190.636	69.64
191.104	53.18
191.571	26.11
192.039	94.63
192.506	194.65
192.974	5684.23
193.441	31.95
193.908	80.89
194.375	67.39
194.842	122.64
195.31	47.72
195.777	63.47
196.244	31.4
196.711	34.24
197.177	31.04
197.644	32.23
198.111	32.68
198.578	33.47
199.045	34.32
199.511	34.8
199.978	35.18
200.445	35.07
200.911	35.13
201.378	35.29
201.844	35.22
202.31	35.83
202.777	35.8
203.243	36.21
203.709	36.62
204.176	35.55
204.642	35.25
205.108	34.74
205.574	35.24
206.04	34.97
206.506	34.47
206.972	34.82
207.438	34.4
207.903	34.09
208.369	33.29
208.835	32.73
209.301	33
209.766	32.67
210.232	32.32
210.697	31.6
211.163	31.03
211.628	30.85
212.094	29.84
212.559	29.64
213.024	29.22
213.49	28.67
213.955	27.97
214.42	27.42
214.885	26.53
215.35	25.68
215.815	24.38
216.28	23.31
216.745	22.07
217.21	20.94
217.675	19.63
218.14	18.31
218.604	17.4
219.069	16.49
219.534	15.6
219.998	14.98
220.463	14.5
220.927	14.12
221.392	13.72
221.856	13.3
222.32	12.97
222.785	12.67
223.249	12.41
223.713	12.19
224.177	12
224.642	11.84
225.106	11.68
225.57	11.42
226.034	11.21
226.497	11.02
226.961	10.88
227.425	10.7
227.889	10.55
228.353	10.4
228.816	10.25
229.28	10.05
229.744	9.9
230.207	9.74
230.671	9.65
231.134	9.51
231.597	9.39
232.061	9.26
232.524	9.14
232.987	9.03
233.45	8.91
233.914	8.79
234.377	8.71
234.84	8.63
235.303	8.52
235.766	8.42
236.229	8.34
236.691	8.27
237.154	8.18
237.617	8.11
238.08	8.03
238.542	7.96
239.005	7.88
239.468	7.8
239.93	7.72
240.393	7.65
240.855	7.59
241.317	7.53
241.78	7.46
242.242	7.4
242.704	7.33
243.166	7.27
243.629	7.19
244.091	7.13
244.553	7.08
245.015	7.01
245.477	6.96
245.939	6.89
246.4	6.81
246.862	6.75
247.324	6.72
247.786	6.66
248.247	6.6
248.709	6.57
249.17	6.51
249.632	6.45
250.093	6.4
250.555	6.35
251.016	6.31
251.477	6.26
251.939	6.22
252.4	6.16
252.861	6.11
253.322	6.07
253.783	6.03
254.244	5.99
254.705	5.95
255.166	5.93
255.627	5.89
256.088	5.84
256.549	5.82
257.009	5.78
257.47	5.74
257.931	5.71
258.391	5.67
258.852	5.63
259.312	5.59
259.773	5.56
260.233	5.51
260.694	5.48
261.154	5.45
261.614	5.42
262.074	5.39
262.534	5.36
262.994	5.33
263.455	5.3
263.915	5.28
264.374	5.25
264.834	5.22
265.294	5.2
265.754	5.18
266.214	5.16
266.673	5.14
267.133	5.11
267.593	5.09
268.052	5.06
268.512	5.04
268.971	5.02
269.431	5
269.89	4.98
270.349	4.97
270.809	4.95
271.268	4.94
271.727	4.92
272.186	4.91
272.645	4.89
273.104	4.87
273.563	4.86
274.022	4.85
274.481	4.83
274.94	4.82
275.399	4.8
275.857	4.78
276.316	4.76
276.775	4.74
277.233	4.72
277.692	4.71
278.15	4.69
278.609	4.66
279.067	4.64
279.525	4.61
279.984	4.59
280.442	4.57
280.9	4.56
281.358	4.54
281.816	4.53
282.274	4.51
282.732	4.5
283.19	4.49
283.648	4.48
284.106	4.47
284.564	4.47
285.021	4.46
285.479	4.45
285.937	4.44
286.394	4.43
286.852	4.42
287.309	4.41
287.767	4.4
288.224	4.39
288.682	4.38
289.139	4.37
289.596	4.35
290.053	4.33
290.511	4.3
290.968	4.28
291.425	4.26
291.882	4.24
292.339	4.22
292.796	4.19
293.252	4.17
293.709	4.15
294.166	4.13
294.623	4.12
295.079	4.11
295.536	4.09
295.992	4.08
296.449	4.07
296.905	4.05
297.362	4.04
297.818	4.03
298.274	4.01
298.731	4
299.187	3.99
299.643	3.98
300.099	3.97
300.555	3.96
301.011	3.95
301.467	3.93
301.923	3.92
302.379	3.92
302.835	3.91
303.291	3.9
303.746	3.89
304.202	3.88
304.658	3.86
305.113	3.86
305.569	3.85
306.024	3.84
306.479	3.83
306.935	3.83
307.39	3.82
307.845	3.8
308.301	3.8
308.756	3.8
309.211	3.8
309.666	3.8
310.121	3.79
310.576	3.79
311.031	3.79
311.486	3.78
311.94	3.78
312.395	3.78
312.85	3.77
313.305	3.77
313.759	3.77
314.214	3.76
314.668	3.76
315.123	3.75
315.577	3.75
316.032	3.74
316.486	3.74
316.94	3.74
317.394	3.72
317.849	3.72
318.303	3.71
318.757	3.7
319.211	3.69
319.665	3.68
320.119	3.67
320.572	3.66
321.026	3.65
321.48	3.63
321.934	3.63
322.387	3.62
322.841	3.61
323.295	3.6
323.748	3.59
324.202	3.58
324.655	3.58
325.108	3.57
325.562	3.56
326.015	3.55
326.468	3.54
326.921	3.53
327.374	3.52
327.827	3.51
328.28	3.51
328.733	3.5
329.186	3.49
329.639	3.48
330.092	3.47
330.545	3.47
330.997	3.47
331.45	3.47
331.903	3.46
332.355	3.46
332.808	3.46
333.26	3.46
333.713	3.46
334.165	3.46
334.617	3.47
335.069	3.47
335.522	3.48
335.974	3.48
336.426	3.48
336.878	3.49
337.33	3.49
337.782	3.49
338.234	3.49
338.686	3.48
339.137	3.47
339.589	3.46
340.041	3.47
340.493	3.45
340.944	3.44
341.396	3.43
341.847	3.42
342.299	3.4
342.75	3.39
343.201	3.37
343.653	3.36
344.104	3.35
344.555	3.34
345.006	3.33
345.457	3.32
345.908	3.32
346.359	3.32
346.81	3.31
347.261	3.31
347.712	3.3
348.163	3.31
348.613	3.3
349.064	3.29
349.515	3.28
349.965	3.27
350.416	3.26
350.866	3.26
351.317	3.24
351.767	3.23
352.217	3.23
352.668	3.23
353.118	3.23
353.568	3.23
354.018	3.24
354.468	3.23
354.918	3.25
355.368	3.25
355.818	3.24
356.268	3.25
356.718	3.25
357.168	3.24
357.617	3.23
358.067	3.21
358.517	3.21
358.966	3.22
359.416	3.22
359.865	3.22
360.315	3.22
360.764	3.22
361.213	3.2
361.663	3.2
362.112	3.2
362.561	3.21
363.01	3.22
363.459	3.21
363.908	3.2
364.357	3.19
364.806	3.18
365.255	3.18
365.703	3.17
366.152	3.18
366.601	3.19
367.05	3.2
367.498	3.2
367.947	3.2
368.395	3.2
368.844	3.21
369.292	3.21
369.74	3.22
370.189	3.22
370.637	3.23
371.085	3.23
371.533	3.23
371.981	3.23
372.429	3.23
372.877	3.23
373.325	3.23
373.773	3.23
374.221	3.23
374.669	3.24
375.116	3.23
375.564	3.23
376.012	3.24
376.459	3.26
376.907	3.27
377.354	3.28
377.801	3.3
378.249	3.31
378.696	3.34
379.143	3.35
379.591	3.37
380.038	3.39
380.485	3.41
380.932	3.42
381.379	3.42
381.826	3.44
382.273	3.45
382.72	3.47
383.166	3.49
383.613	3.5
384.06	3.52
384.506	3.53
384.953	3.55
385.4	3.56
385.846	3.58
386.292	3.61
386.739	3.61
387.185	3.63
387.631	3.63
388.078	3.65
388.524	3.63
388.97	3.64
389.416	3.64
389.862	3.66
390.308	3.67
390.754	3.69
391.2	3.71
391.645	3.74
392.091	3.75
392.537	3.76
392.983	3.79
393.428	3.81
393.874	3.84
394.319	3.87
394.765	3.87
395.21	3.89
395.655	3.89
396.101	3.89
396.546	3.91
396.991	3.92
397.436	3.92
397.881	3.93
398.326	3.96
398.771	3.97
399.216	3.98
399.661	4.01
400.106	4.02
400.551	4.02
400.995	4.02
401.44	4.02
401.885	4.03
402.329	4.05
402.774	4.04
403.218	4.03
403.663	4.03
404.107	4.02
404.551	4.03
404.995	4.03
405.44	4.04
405.884	4.05
406.328	4.05
406.772	4.05
407.216	4.04
407.66	4.06
408.104	4.06
408.547	4.06
408.991	4.07
409.435	4.06
409.879	4.06
410.322	4.07
410.766	4.07
411.209	4.08
411.653	4.08
412.096	4.07
412.54	4.08
412.983	4.09
413.426	4.1
413.869	4.11
414.312	4.13
414.756	4.13
415.199	4.14
415.642	4.16
416.085	4.18
416.527	4.2
416.97	4.21
417.413	4.21
417.856	4.2
418.298	4.19
418.741	4.18
419.184	4.17
419.626	4.17
420.069	4.16
420.511	4.14
420.953	4.12
421.396	4.12
421.838	4.13
422.28	4.15
422.722	4.15
423.164	4.17
423.606	4.18
424.048	4.18
424.49	4.19
424.932	4.19
425.374	4.2
425.816	4.18
426.258	4.16
426.699	4.14
427.141	4.13
427.582	4.12
428.024	4.12
428.465	4.11
428.907	4.11
429.348	4.11
429.789	4.1
430.231	4.1
430.672	4.11
431.113	4.13
431.554	4.15
431.995	4.15
432.436	4.15
432.877	4.13
433.318	4.13
433.759	4.13
434.2	4.14
434.64	4.15
435.081	4.15
435.522	4.17
435.962	4.2
436.403	4.21
436.843	4.22
437.284	4.26
437.724	4.29
438.164	4.32
438.604	4.33
439.045	4.32
439.485	4.33
439.925	4.33
440.365	4.32
440.805	4.31
441.245	4.27
441.685	4.28
442.125	4.25
442.564	4.24
443.004	4.25
443.444	4.22
443.883	4.23
444.323	4.23
444.762	4.26
445.202	4.27
445.641	4.27
446.081	4.32
446.52	4.32
446.959	4.32
447.398	4.36
447.837	4.37
448.276	4.4
448.716	4.41
449.154	4.44
449.593	4.44
450.032	4.42
450.471	4.45
450.91	4.43
451.349	4.44
451.787	4.44
452.226	4.42
452.664	4.4
453.103	4.39
453.541	4.38
453.98	4.35
454.418	4.35
454.856	4.34
455.295	4.31
455.733	4.29
456.171	4.29
456.609	4.28
457.047	4.26
457.485	4.25
457.923	4.25
458.361	4.25
458.798	4.25
459.236	4.25
459.674	4.25
460.111	4.28
460.549	4.29
460.987	4.29
461.424	4.29
461.862	4.3
462.299	4.3
462.736	4.29
463.173	4.3
463.611	4.3
464.048	4.31
464.485	4.31
464.922	4.28
465.359	4.29
465.796	4.26
466.233	4.26
466.67	4.27
467.106	4.26
467.543	4.26
467.98	4.27
468.416	4.28
468.853	4.27
469.29	4.28
469.726	4.29
470.162	4.28
470.599	4.31
471.035	4.31
471.471	4.29
471.907	4.31
472.344	4.31
472.78	4.3
473.216	4.3
473.652	4.29
474.088	4.29
474.523	4.29
474.959	4.28
475.395	4.26
475.831	4.26
476.266	4.26
476.702	4.24
477.138	4.23
477.573	4.22
478.008	4.21
478.444	4.2
478.879	4.19
479.314	4.17
479.75	4.16
480.185	4.16
480.62	4.15
481.055	4.13
481.49	4.12
481.925	4.11
482.36	4.09
482.795	4.08
483.229	4.09
483.664	4.07
484.099	4.07
484.534	4.06
484.968	4.06
485.403	4.06
485.837	4.06
486.271	4.06
486.706	4.06
487.14	4.08
487.574	4.09
488.009	4.1
488.443	4.12
488.877	4.12
489.311	4.14
489.745	4.14
490.179	4.15
490.613	4.17
491.046	4.2
491.48	4.22
491.914	4.23
492.348	4.24
492.781	4.26
493.215	4.28
493.648	4.3
494.082	4.34
494.515	4.37
494.948	4.4
495.382	4.43
495.815	4.46
496.248	4.5
496.681	4.53
497.114	4.56
497.547	4.61
497.98	4.66
498.413	4.72
498.846	4.77
499.279	4.83
499.711	4.89
500.144	4.95
500.577	5.01
501.009	5.07
501.442	5.16
501.874	5.25
502.306	5.33
502.739	5.41
503.171	5.5
503.603	5.6
504.036	5.7
504.468	5.81
504.9	5.93
505.332	6.06
505.764	6.2
506.196	6.32
506.627	6.46
507.059	6.6
507.491	6.76
507.923	6.9
508.354	7.07
508.786	7.24
509.217	7.41
509.649	7.59
510.08	7.78
510.512	7.95
510.943	8.15
511.374	8.36
511.805	8.56
512.237	8.77
512.668	8.98
513.099	9.21
513.53	9.43
513.961	9.67
514.391	9.9
514.822	10.13
515.253	10.38
515.684	10.62
516.114	10.88
516.545	11.15
516.975	11.42
517.406	11.69
517.836	11.96
518.267	12.25
518.697	12.52
519.127	12.81
519.558	13.1
519.988	13.37
520.418	13.65
520.848	13.91
521.278	14.18
521.708	14.42
522.138	14.68
522.567	14.93
522.997	15.17
523.427	15.42
523.857	15.67
524.286	15.9
524.716	16.13
525.145	16.35
525.575	16.59
526.004	16.81
526.433	17.04
526.863	17.25
527.292	17.45
527.721	17.66
528.15	17.83
528.579	17.99
529.008	18.17
529.437	18.33
529.866	18.47
530.295	18.61
530.724	18.76
531.152	18.89
531.581	19
532.01	19.13
532.438	19.23
532.867	19.33
533.295	19.43
533.723	19.53
534.152	19.63
534.58	19.72
535.008	19.79
535.436	19.84
535.865	19.89
536.293	19.96
536.721	20.04
537.149	20.1
537.576	20.14
538.004	20.2
538.432	20.24
538.86	20.26
539.287	20.32
539.715	20.36
540.143	20.4
540.57	20.44
540.998	20.48
541.425	20.49
541.852	20.52
542.28	20.55
542.707	20.6
543.134	20.61
543.561	20.63
543.988	20.65
544.415	20.68
544.842	20.7
545.269	20.73
545.696	20.75
546.123	20.75
546.549	20.77
546.976	20.78
547.403	20.79
547.829	20.82
548.256	20.87
548.682	20.87
549.108	20.88
549.535	20.92
549.961	20.91
550.387	20.91
550.813	20.9
551.24	20.9
551.666	20.92
552.092	20.9
552.518	20.87
552.943	20.84
553.369	20.82
553.795	20.8
554.221	20.76
554.646	20.73
555.072	20.68
555.498	20.65
555.923	20.58
556.349	20.49
556.774	20.44
557.199	20.36
557.625	20.26
558.05	20.17
558.475	20.08
558.9	19.98
559.325	19.88
559.75	19.77
560.175	19.66
560.6	19.57
561.025	19.47
561.449	19.34
561.874	19.23
562.299	19.12
562.723	18.99
563.148	18.86
563.572	18.71
563.997	18.56
564.421	18.42
564.846	18.28
565.27	18.09
565.694	17.93
566.118	17.76
566.542	17.59
566.966	17.43
567.39	17.25
567.814	17.08
568.238	16.9
568.662	16.74
569.086	16.57
569.509	16.41
569.933	16.24
570.357	16.07
570.78	15.9
571.204	15.74
571.627	15.56
572.05	15.43
572.474	15.27
572.897	15.13
573.32	14.97
573.743	14.82
574.166	14.66
574.589	14.54
575.012	14.42
575.435	14.29
575.858	14.16
576.281	14.04
576.704	13.92
577.126	13.81
577.549	13.7
577.972	13.61
578.394	13.5
578.817	13.4
579.239	13.29
579.661	13.19
580.084	13.1
580.506	13.02
580.928	12.93
581.35	12.84
581.772	12.76
582.194	12.68
582.616	12.6
583.038	12.52
583.46	12.45
583.882	12.4
584.303	12.32
584.725	12.26
585.147	12.17
585.568	12.1
585.99	12.04
586.411	11.97
586.833	11.91
587.254	11.85
587.675	11.79
588.096	11.75
588.518	11.7
588.939	11.68
589.36	11.63
589.781	11.61
590.202	11.58
590.623	11.52
591.043	11.48
591.464	11.45
591.885	11.42
592.305	11.39
592.726	11.35
593.147	11.32
593.567	11.27
593.987	11.24
594.408	11.2
594.828	11.18
595.248	11.16
595.669	11.15
596.089	11.11
596.509	11.07
596.929	11.03
597.349	10.97
597.769	10.93
598.189	10.9
598.608	10.86
599.028	10.81
599.448	10.77
599.867	10.72
600.287	10.67
600.706	10.63
601.126	10.6
601.545	10.56
601.965	10.52
602.384	10.49
602.803	10.45
603.222	10.39
603.641	10.35
604.061	10.29
604.48	10.23
604.898	10.17
605.317	10.11
605.736	10.05
606.155	9.98
606.574	9.91
606.992	9.84
607.411	9.77
607.829	9.67
608.248	9.6
608.666	9.53
609.085	9.46
609.503	9.39
609.921	9.32
610.339	9.26
610.758	9.2
611.176	9.12
611.594	9.05
612.012	8.97
612.43	8.94
612.847	8.88
613.265	8.81
613.683	8.74
614.101	8.66
614.518	8.61
614.936	8.55
615.353	8.49
615.771	8.43
616.188	8.39
616.606	8.34
617.023	8.27
617.44	8.21
617.857	8.17
618.274	8.13
618.691	8.09
619.108	8.05
619.525	8
619.942	7.97
620.359	7.94
620.776	7.91
621.192	7.88
621.609	7.87
622.026	7.85
622.442	7.83
622.859	7.82
623.275	7.81
623.691	7.8
624.108	7.79
624.524	7.77
624.94	7.76
625.356	7.74
625.772	7.72
626.188	7.72
626.604	7.71
627.02	7.7
627.436	7.67
627.852	7.65
628.268	7.63
628.683	7.61
629.099	7.61
629.514	7.61
629.93	7.6
630.345	7.57
630.761	7.53
631.176	7.5
631.591	7.48
632.007	7.44
632.422	7.42
632.837	7.38
633.252	7.35
633.667	7.29
634.082	7.24
634.497	7.17
634.911	7.13
635.326	7.06
635.741	7.01
636.155	6.95
636.57	6.89
636.984	6.81
637.399	6.73
637.813	6.65
638.228	6.56
638.642	6.49
639.056	6.42
639.47	6.35
639.884	6.29
640.298	6.2
640.712	6.13
641.126	6.06
641.54	5.98
641.954	5.95
642.368	5.88
642.781	5.82
643.195	5.75
643.609	5.69
644.022	5.62
644.436	5.56
644.849	5.5
645.262	5.45
645.676	5.39
646.089	5.33
646.502	5.25
646.915	5.21
647.328	5.17
647.741	5.12
648.154	5.08
648.567	5.06
648.98	5.03
649.393	5.01
649.805	4.97
650.218	4.96
650.631	4.94
651.043	4.92
651.456	4.9
651.868	4.88
652.28	4.85
652.693	4.82
653.105	4.79
653.517	4.76
653.929	4.73
654.341	4.7
654.753	4.65
655.165	4.62
655.577	4.58
655.989	4.54
656.401	4.49
656.813	4.45
657.224	4.41
657.636	4.38
658.047	4.33
658.459	4.28
658.87	4.24
659.282	4.21
659.693	4.16
660.104	4.13
660.515	4.09
660.926	4.06
661.338	4.03
661.749	3.98
662.159	3.95
662.57	3.93
662.981	3.9
663.392	3.87
663.803	3.85
664.213	3.83
664.624	3.82
665.035	3.79
665.445	3.8
665.855	3.79
666.266	3.8
666.676	3.79
667.086	3.78
667.497	3.77
667.907	3.76
668.317	3.75
668.727	3.74
669.137	3.74
669.547	3.76
669.956	3.76
670.366	3.76
670.776	3.75
671.186	3.76
671.595	3.78
672.005	3.8
672.414	3.83
672.824	3.85
673.233	3.88
673.642	3.88
674.052	3.89
674.461	3.9
674.87	3.92
675.279	3.96
675.688	3.98
676.097	4
676.506	4.02
676.915	4.05
677.323	4.07
677.732	4.1
678.141	4.13
678.549	4.16
678.958	4.19
679.366	4.21
679.775	4.24
680.183	4.28
680.592	4.32
681	4.35
681.408	4.38
681.816	4.43
682.224	4.48
682.632	4.54
683.04	4.61
683.448	4.68
683.856	4.76
684.264	4.83
684.671	4.92
685.079	5.02
685.487	5.15
685.894	5.28
686.302	5.42
686.709	5.57
687.116	5.74
687.524	5.93
687.931	6.14
688.338	6.38
688.745	6.63
689.152	6.91
689.559	7.2
689.966	7.51
690.373	7.85
690.78	8.21
691.187	8.61
691.593	9.01
692	9.43
692.407	9.86
692.813	10.32
693.22	10.79
693.626	11.3
694.032	11.82
694.439	12.36
694.845	12.91
695.251	13.48
695.657	14.03
696.063	14.61
696.469	15.22
696.875	15.82
697.281	16.41
697.687	17.04
698.093	17.63
698.498	18.25
698.904	18.85
699.31	19.47
699.715	20.07
700.12	20.69
700.526	21.3
700.931	21.89
701.337	22.49
701.742	23.09
702.147	23.66
702.552	24.27
702.957	24.85
703.362	25.45
703.767	25.98
704.172	26.55
704.577	27.12
704.981	27.67
705.386	28.2
705.791	28.77
706.195	29.31
706.6	29.85
707.004	30.37
707.408	30.89
707.813	31.42
708.217	31.95
708.621	32.47
709.025	32.96
709.43	33.45
709.834	33.98
710.237	34.45
710.641	34.96
711.045	35.44
711.449	35.93
711.853	36.4
712.256	36.88
712.66	37.35
713.064	37.79
713.467	38.26
713.87	38.73
714.274	39.17
714.677	39.61
715.08	40.04
715.484	40.49
715.887	40.91
716.29	41.34
716.693	41.74
717.096	42.15
717.499	42.57
717.901	42.95
718.304	43.35
718.707	43.7
719.109	44.08
719.512	44.47
719.915	44.79
720.317	45.17
720.719	45.5
721.122	45.83
721.524	46.17
721.926	46.5
722.328	46.83
722.731	47.14
723.133	47.46
723.535	47.77
723.937	48.07
724.338	48.34
724.74	48.57
725.142	48.74
725.544	48.98
725.945	49.19
726.347	49.43
726.748	49.64
727.15	49.86
727.551	50.11
727.952	50.3
728.354	50.52
728.755	50.76
729.156	50.99
729.557	51.29
729.958	51.52
730.359	51.73
730.76	51.89
731.161	52.08
731.562	52.25
731.962	52.39
732.363	52.55
732.763	52.71
733.164	52.83
733.564	52.97
733.965	53.06
734.365	53.17
734.766	53.27
735.166	53.38
735.566	53.48
735.966	53.61
736.366	53.7
736.766	53.76
737.166	53.84
737.566	53.9
737.966	53.98
738.365	54.1
738.765	54.21
739.165	54.29
739.564	54.4
739.964	54.47
740.363	54.53
740.763	54.57
741.162	54.66
741.561	54.73
741.96	54.81
742.36	54.88
742.759	54.91
743.158	54.94
743.557	55
743.955	55.05
744.354	55.11
744.753	55.17
745.152	55.24
745.55	55.3
745.949	55.34
746.348	55.37
746.746	55.39
747.144	55.45
747.543	55.52
747.941	55.59
748.339	55.64
748.737	55.72
749.136	55.77
749.534	55.79
749.932	55.82
750.33	55.86
750.727	55.91
751.125	55.94
751.523	55.95
751.921	55.94
752.318	55.94
752.716	55.92
753.113	55.89
753.511	55.85
753.908	55.85
754.305	55.84
754.703	55.84
755.1	55.82
755.497	55.84
755.894	55.83
756.291	55.82
756.688	55.82
757.085	55.83
757.482	55.82
757.878	55.86
758.275	55.83
758.672	55.85
759.068	55.87
759.465	55.87
759.861	55.82
760.258	55.83
760.654	55.84
761.05	55.85
761.447	55.83
761.843	55.83
762.239	55.79
762.635	55.83
763.031	55.85
763.427	55.79
763.822	55.77
764.218	55.81
764.614	55.81
765.01	55.79
765.405	55.75
765.801	55.75
766.196	55.73
766.592	55.78
766.987	55.8
767.382	55.79
767.778	55.79
768.173	55.82
768.568	55.79
768.963	55.8
769.358	55.82
769.753	55.84
770.148	55.83
770.542	55.85
770.937	55.79
771.332	55.77
771.726	55.75
772.121	55.73
772.515	55.71
772.91	55.71
773.304	55.7
773.699	55.67
774.093	55.65
774.487	55.64
774.881	55.63
775.275	55.67
775.669	55.65
776.063	55.64
776.457	55.65
776.851	55.63
777.245	55.61
777.638	55.61
778.032	55.63
778.425	55.69
778.819	55.68
779.212	55.66
779.606	55.63
779.999	55.62
780.392	55.64
780.786	55.64
781.179	55.67
781.572	55.65
781.965	55.64
782.358	55.62
782.751	55.6
783.143	55.66
783.536	55.7
783.929	55.72
784.322	55.74
784.714	55.73
785.107	55.75
