Data from c_1_hir_wi_4n_043_Splice17_18.txt Node
Date: Sat Feb 29 13:29:41 EST 2020
User: sa697716
Spectrometer: FLMS03696
Trigger mode: 0
Integration Time (sec): 3.180400E-1
Scans to average: 20
Electric dark correction enabled: true
Nonlinearity correction enabled: true
Boxcar width: 5
XAxis mode: Wavelengths
Number of Pixels in Spectrum: 2048
>>>>>Begin Spectral Data<<<<<
187.83	72.7
188.298	78.52
188.766	72.02
189.233	51.07
189.701	63.15
190.169	73.21
190.636	84.62
191.104	91.5
191.571	206.43
192.039	108.68
192.506	127.65
192.974	548.8
193.441	113.37
193.908	51.79
194.375	-100.46
194.842	-37.33
195.31	40.99
195.777	70.56
196.244	92.94
196.711	92.46
197.177	91.65
197.644	92.89
198.111	93.03
198.578	93.59
199.045	94.81
199.511	95.09
199.978	95.61
200.445	95.3
200.911	95.56
201.378	95.49
201.844	96.58
202.31	97.05
202.777	97.02
203.243	97.9
203.709	97.64
204.176	96.93
204.642	96.49
205.108	95.93
205.574	96.04
206.04	95.09
206.506	94.58
206.972	92.9
207.438	92.02
207.903	91.05
208.369	88.66
208.835	87.48
209.301	86.23
209.766	84.44
210.232	82.54
210.697	80.29
211.163	78.66
211.628	76.67
212.094	75
212.559	73.25
213.024	71.21
213.49	69.57
213.955	67.49
214.42	64.96
214.885	62.43
215.35	59.29
215.815	55.87
216.28	51.89
216.745	47.14
217.21	42.5
217.675	38.15
218.14	34.14
218.604	30.53
219.069	27.58
219.534	25.03
219.998	22.91
220.463	21.13
220.927	19.55
221.392	18.22
221.856	17.17
222.32	16.28
222.785	15.45
223.249	14.79
223.713	14.21
224.177	13.62
224.642	13.14
225.106	12.71
225.57	12.3
226.034	11.97
226.497	11.62
226.961	11.27
227.425	10.92
227.889	10.61
228.353	10.3
228.816	10.05
229.28	9.82
229.744	9.59
230.207	9.37
230.671	9.17
231.134	8.96
231.597	8.79
232.061	8.62
232.524	8.49
232.987	8.35
233.45	8.22
233.914	8.08
234.377	7.97
234.84	7.84
235.303	7.73
235.766	7.62
236.229	7.53
236.691	7.43
237.154	7.35
237.617	7.28
238.08	7.19
238.542	7.11
239.005	7.03
239.468	6.92
239.93	6.87
240.393	6.8
240.855	6.72
241.317	6.64
241.78	6.58
242.242	6.51
242.704	6.44
243.166	6.37
243.629	6.31
244.091	6.24
244.553	6.19
245.015	6.13
245.477	6.04
245.939	5.98
246.4	5.92
246.862	5.86
247.324	5.81
247.786	5.75
248.247	5.69
248.709	5.65
249.17	5.61
249.632	5.56
250.093	5.49
250.555	5.45
251.016	5.41
251.477	5.37
251.939	5.32
252.4	5.27
252.861	5.22
253.322	5.17
253.783	5.13
254.244	5.08
254.705	5.03
255.166	4.99
255.627	4.96
256.088	4.91
256.549	4.85
257.009	4.81
257.47	4.77
257.931	4.72
258.391	4.66
258.852	4.6
259.312	4.56
259.773	4.51
260.233	4.46
260.694	4.4
261.154	4.35
261.614	4.31
262.074	4.27
262.534	4.22
262.994	4.17
263.455	4.14
263.915	4.1
264.374	4.07
264.834	4.03
265.294	3.99
265.754	3.96
266.214	3.93
266.673	3.9
267.133	3.88
267.593	3.86
268.052	3.84
268.512	3.81
268.971	3.8
269.431	3.78
269.89	3.77
270.349	3.76
270.809	3.75
271.268	3.74
271.727	3.72
272.186	3.71
272.645	3.7
273.104	3.68
273.563	3.68
274.022	3.67
274.481	3.66
274.94	3.64
275.399	3.63
275.857	3.63
276.316	3.61
276.775	3.6
277.233	3.59
277.692	3.58
278.15	3.57
278.609	3.56
279.067	3.55
279.525	3.54
279.984	3.54
280.442	3.53
280.9	3.52
281.358	3.53
281.816	3.53
282.274	3.53
282.732	3.52
283.19	3.53
283.648	3.53
284.106	3.54
284.564	3.54
285.021	3.53
285.479	3.55
285.937	3.55
286.394	3.54
286.852	3.52
287.309	3.52
287.767	3.51
288.224	3.5
288.682	3.48
289.139	3.47
289.596	3.44
290.053	3.43
290.511	3.39
290.968	3.37
291.425	3.35
291.882	3.33
292.339	3.31
292.796	3.29
293.252	3.26
293.709	3.25
294.166	3.23
294.623	3.22
295.079	3.2
295.536	3.19
295.992	3.18
296.449	3.17
296.905	3.16
297.362	3.14
297.818	3.13
298.274	3.12
298.731	3.12
299.187	3.11
299.643	3.11
300.099	3.1
300.555	3.09
301.011	3.09
301.467	3.08
301.923	3.07
302.379	3.08
302.835	3.08
303.291	3.08
303.746	3.07
304.202	3.07
304.658	3.06
305.113	3.06
305.569	3.07
306.024	3.07
306.479	3.08
306.935	3.08
307.39	3.08
307.845	3.08
308.301	3.09
308.756	3.1
309.211	3.11
309.666	3.12
310.121	3.13
310.576	3.13
311.031	3.14
311.486	3.14
311.94	3.15
312.395	3.15
312.85	3.15
313.305	3.15
313.759	3.16
314.214	3.15
314.668	3.16
315.123	3.16
315.577	3.16
316.032	3.15
316.486	3.14
316.94	3.14
317.394	3.13
317.849	3.12
318.303	3.1
318.757	3.08
319.211	3.06
319.665	3.04
320.119	3.03
320.572	3.02
321.026	3.01
321.48	3
321.934	3
322.387	2.99
322.841	2.99
323.295	2.98
323.748	2.99
324.202	2.99
324.655	2.99
325.108	2.98
325.562	2.98
326.015	2.96
326.468	2.96
326.921	2.95
327.374	2.95
327.827	2.96
328.28	2.95
328.733	2.95
329.186	2.95
329.639	2.94
330.092	2.94
330.545	2.95
330.997	2.96
331.45	2.97
331.903	2.97
332.355	2.97
332.808	2.98
333.26	2.99
333.713	3
334.165	3.01
334.617	3.02
335.069	3.04
335.522	3.06
335.974	3.07
336.426	3.07
336.878	3.07
337.33	3.07
337.782	3.07
338.234	3.08
338.686	3.08
339.137	3.08
339.589	3.07
340.041	3.07
340.493	3.03
340.944	3.01
341.396	3.01
341.847	3
342.299	2.98
342.75	2.96
343.201	2.94
343.653	2.92
344.104	2.91
344.555	2.9
345.006	2.89
345.457	2.89
345.908	2.88
346.359	2.88
346.81	2.88
347.261	2.87
347.712	2.87
348.163	2.87
348.613	2.87
349.064	2.86
349.515	2.84
349.965	2.84
350.416	2.83
350.866	2.83
351.317	2.82
351.767	2.82
352.217	2.81
352.668	2.82
353.118	2.82
353.568	2.83
354.018	2.85
354.468	2.85
354.918	2.86
355.368	2.87
355.818	2.86
356.268	2.86
356.718	2.87
357.168	2.87
357.617	2.87
358.067	2.87
358.517	2.86
358.966	2.86
359.416	2.87
359.865	2.86
360.315	2.86
360.764	2.86
361.213	2.85
361.663	2.86
362.112	2.86
362.561	2.87
363.01	2.88
363.459	2.88
363.908	2.87
364.357	2.87
364.806	2.88
365.255	2.89
365.703	2.89
366.152	2.91
366.601	2.92
367.05	2.92
367.498	2.93
367.947	2.92
368.395	2.94
368.844	2.95
369.292	2.96
369.74	2.95
370.189	2.94
370.637	2.95
371.085	2.95
371.533	2.95
371.981	2.95
372.429	2.94
372.877	2.94
373.325	2.93
373.773	2.93
374.221	2.92
374.669	2.93
375.116	2.93
375.564	2.92
376.012	2.93
376.459	2.93
376.907	2.93
377.354	2.95
377.801	2.96
378.249	2.98
378.696	2.99
379.143	3
379.591	3.01
380.038	3.03
380.485	3.05
380.932	3.05
381.379	3.06
381.826	3.07
382.273	3.07
382.72	3.08
383.166	3.08
383.613	3.09
384.06	3.11
384.506	3.11
384.953	3.12
385.4	3.12
385.846	3.13
386.292	3.15
386.739	3.15
387.185	3.18
387.631	3.18
388.078	3.21
388.524	3.21
388.97	3.22
389.416	3.23
389.862	3.24
390.308	3.26
390.754	3.29
391.2	3.31
391.645	3.33
392.091	3.34
392.537	3.36
392.983	3.38
393.428	3.41
393.874	3.44
394.319	3.46
394.765	3.49
395.21	3.5
395.655	3.52
396.101	3.53
396.546	3.55
396.991	3.58
397.436	3.57
397.881	3.6
398.326	3.62
398.771	3.65
399.216	3.68
399.661	3.69
400.106	3.72
400.551	3.74
400.995	3.74
401.44	3.74
401.885	3.76
402.329	3.8
402.774	3.81
403.218	3.83
403.663	3.82
404.107	3.85
404.551	3.87
404.995	3.87
405.44	3.89
405.884	3.91
406.328	3.94
406.772	3.97
407.216	3.99
407.66	4
408.104	4.01
408.547	4.03
408.991	4.03
409.435	4.04
409.879	4.07
410.322	4.1
410.766	4.13
411.209	4.16
411.653	4.17
412.096	4.19
412.54	4.22
412.983	4.25
413.426	4.3
413.869	4.33
414.312	4.38
414.756	4.42
415.199	4.44
415.642	4.47
416.085	4.5
416.527	4.53
416.97	4.54
417.413	4.53
417.856	4.53
418.298	4.51
418.741	4.53
419.184	4.51
419.626	4.5
420.069	4.5
420.511	4.5
420.953	4.51
421.396	4.53
421.838	4.57
422.28	4.62
422.722	4.65
423.164	4.66
423.606	4.68
424.048	4.69
424.49	4.72
424.932	4.71
425.374	4.71
425.816	4.69
426.258	4.68
426.699	4.65
427.141	4.62
427.582	4.62
428.024	4.65
428.465	4.67
428.907	4.68
429.348	4.68
429.789	4.72
430.231	4.73
430.672	4.75
431.113	4.77
431.554	4.81
431.995	4.84
432.436	4.84
432.877	4.83
433.318	4.84
433.759	4.87
434.2	4.89
434.64	4.9
435.081	4.92
435.522	4.95
435.962	4.97
436.403	5
436.843	5.02
437.284	5.04
437.724	5.06
438.164	5.06
438.604	5.07
439.045	5.07
439.485	5.08
439.925	5.09
440.365	5.08
440.805	5.08
441.245	5.07
441.685	5.08
442.125	5.07
442.564	5.07
443.004	5.08
443.444	5.1
443.883	5.11
444.323	5.11
444.762	5.14
445.202	5.18
445.641	5.22
446.081	5.24
446.52	5.25
446.959	5.26
447.398	5.3
447.837	5.33
448.276	5.32
448.716	5.33
449.154	5.35
449.593	5.35
450.032	5.34
450.471	5.31
450.91	5.31
451.349	5.31
451.787	5.31
452.226	5.27
452.664	5.24
453.103	5.24
453.541	5.22
453.98	5.19
454.418	5.16
454.856	5.12
455.295	5.1
455.733	5.08
456.171	5.06
456.609	5.04
457.047	5.04
457.485	5.04
457.923	5.02
458.361	5.02
458.798	5.02
459.236	5.02
459.674	5.01
460.111	5.01
460.549	5
460.987	5.01
461.424	4.99
461.862	4.99
462.299	4.98
462.736	4.98
463.173	4.99
463.611	5
464.048	5.02
464.485	5.04
464.922	5.05
465.359	5.06
465.796	5.07
466.233	5.09
466.67	5.11
467.106	5.12
467.543	5.11
467.98	5.1
468.416	5.1
468.853	5.09
469.29	5.09
469.726	5.09
470.162	5.07
470.599	5.06
471.035	5.05
471.471	5.03
471.907	5.02
472.344	5.01
472.78	5.03
473.216	5.01
473.652	4.99
474.088	4.98
474.523	4.96
474.959	4.95
475.395	4.91
475.831	4.9
476.266	4.89
476.702	4.85
477.138	4.82
477.573	4.78
478.008	4.78
478.444	4.76
478.879	4.74
479.314	4.71
479.75	4.69
480.185	4.68
480.62	4.65
481.055	4.63
481.49	4.6
481.925	4.59
482.36	4.57
482.795	4.54
483.229	4.51
483.664	4.49
484.099	4.47
484.534	4.45
484.968	4.45
485.403	4.45
485.837	4.43
486.271	4.43
486.706	4.42
487.14	4.42
487.574	4.42
488.009	4.44
488.443	4.44
488.877	4.45
489.311	4.46
489.745	4.47
490.179	4.48
490.613	4.49
491.046	4.51
491.48	4.52
491.914	4.54
492.348	4.55
492.781	4.56
493.215	4.57
493.648	4.6
494.082	4.62
494.515	4.64
494.948	4.66
495.382	4.68
495.815	4.7
496.248	4.74
496.681	4.76
497.114	4.79
497.547	4.82
497.98	4.85
498.413	4.87
498.846	4.91
499.279	4.95
499.711	4.99
500.144	5.03
500.577	5.08
501.009	5.13
501.442	5.18
501.874	5.23
502.306	5.29
502.739	5.35
503.171	5.43
503.603	5.5
504.036	5.58
504.468	5.67
504.9	5.76
505.332	5.86
505.764	5.95
506.196	6.06
506.627	6.16
507.059	6.28
507.491	6.4
507.923	6.51
508.354	6.64
508.786	6.77
509.217	6.88
509.649	7.03
510.08	7.17
510.512	7.32
510.943	7.48
511.374	7.65
511.805	7.83
512.237	8
512.668	8.17
513.099	8.36
513.53	8.56
513.961	8.78
514.391	8.98
514.822	9.19
515.253	9.41
515.684	9.61
516.114	9.83
516.545	10.06
516.975	10.3
517.406	10.52
517.836	10.74
518.267	10.99
518.697	11.22
519.127	11.47
519.558	11.7
519.988	11.94
520.418	12.18
520.848	12.42
521.278	12.67
521.708	12.99
522.138	13.24
522.567	13.47
522.997	13.69
523.427	13.92
523.857	14.13
524.286	14.36
524.716	14.59
525.145	14.81
525.575	15.02
526.004	15.22
526.433	15.34
526.863	15.56
527.292	15.74
527.721	15.94
528.15	16.11
528.579	16.27
529.008	16.42
529.437	16.56
529.866	16.7
530.295	16.86
530.724	17.01
531.152	17.14
531.581	17.24
532.01	17.37
532.438	17.46
532.867	17.58
533.295	17.69
533.723	17.8
534.152	17.91
534.58	17.99
535.008	18.08
535.436	18.15
535.865	18.21
536.293	18.3
536.721	18.37
537.149	18.44
537.576	18.5
538.004	18.55
538.432	18.58
538.86	18.62
539.287	18.69
539.715	18.72
540.143	18.75
540.57	18.81
540.998	18.84
541.425	18.88
541.852	18.9
542.28	18.93
542.707	18.98
543.134	19.02
543.561	19.03
543.988	19.05
544.415	19.09
544.842	19.12
545.269	19.14
545.696	19.15
546.123	19.18
546.549	19.22
546.976	19.24
547.403	19.27
547.829	19.3
548.256	19.34
548.682	19.36
549.108	19.37
549.535	19.39
549.961	19.39
550.387	19.41
550.813	19.4
551.24	19.39
551.666	19.38
552.092	19.36
552.518	19.34
552.943	19.34
553.369	19.31
553.795	19.28
554.221	19.23
554.646	19.19
555.072	19.16
555.498	19.1
555.923	19.06
556.349	18.98
556.774	18.91
557.199	18.85
557.625	18.78
558.05	18.7
558.475	18.61
558.9	18.54
559.325	18.46
559.75	18.36
560.175	18.27
560.6	18.17
561.025	18.07
561.449	17.96
561.874	17.84
562.299	17.71
562.723	17.57
563.148	17.46
563.572	17.31
563.997	17.16
564.421	17.03
564.846	16.89
565.27	16.73
565.694	16.59
566.118	16.45
566.542	16.3
566.966	16.17
567.39	16.01
567.814	15.84
568.238	15.69
568.662	15.55
569.086	15.39
569.509	15.24
569.933	15.09
570.357	14.93
570.78	14.79
571.204	14.64
571.627	14.48
572.05	14.35
572.474	14.22
572.897	14.08
573.32	13.94
573.743	13.82
574.166	13.7
574.589	13.59
575.012	13.5
575.435	13.36
575.858	13.26
576.281	13.16
576.704	13.06
577.126	12.96
577.549	12.88
577.972	12.77
578.394	12.68
578.817	12.6
579.239	12.51
579.661	12.42
580.084	12.35
580.506	12.27
580.928	12.19
581.35	12.12
581.772	12.06
582.194	12
582.616	11.94
583.038	11.87
583.46	11.79
583.882	11.74
584.303	11.68
584.725	11.62
585.147	11.56
585.568	11.5
585.99	11.46
586.411	11.4
586.833	11.35
587.254	11.31
587.675	11.27
588.096	11.23
588.518	11.19
588.939	11.17
589.36	11.13
589.781	11.08
590.202	11.03
590.623	10.98
591.043	10.94
591.464	10.9
591.885	10.87
592.305	10.84
592.726	10.81
593.147	10.78
593.567	10.73
593.987	10.71
594.408	10.68
594.828	10.67
595.248	10.66
595.669	10.64
596.089	10.61
596.509	10.57
596.929	10.54
597.349	10.49
597.769	10.45
598.189	10.43
598.608	10.4
599.028	10.36
599.448	10.33
599.867	10.29
600.287	10.23
600.706	10.2
601.126	10.18
601.545	10.13
601.965	10.1
602.384	10.06
602.803	10
603.222	9.95
603.641	9.9
604.061	9.84
604.48	9.79
604.898	9.73
605.317	9.67
605.736	9.61
606.155	9.56
606.574	9.49
606.992	9.42
607.411	9.36
607.829	9.25
608.248	9.18
608.666	9.13
609.085	9.08
609.503	9.02
609.921	8.97
610.339	8.9
610.758	8.84
611.176	8.79
611.594	8.73
612.012	8.67
612.43	8.66
612.847	8.62
613.265	8.56
613.683	8.49
614.101	8.43
614.518	8.36
614.936	8.31
615.353	8.25
615.771	8.18
616.188	8.12
616.606	8.08
617.023	8.03
617.44	7.97
617.857	7.93
618.274	7.89
618.691	7.87
619.108	7.85
619.525	7.81
619.942	7.79
620.359	7.78
620.776	7.76
621.192	7.74
621.609	7.72
622.026	7.7
622.442	7.69
622.859	7.67
623.275	7.65
623.691	7.64
624.108	7.63
624.524	7.61
624.94	7.6
625.356	7.59
625.772	7.58
626.188	7.59
626.604	7.57
627.02	7.56
627.436	7.57
627.852	7.55
628.268	7.54
628.683	7.53
629.099	7.55
629.514	7.54
629.93	7.53
630.345	7.52
630.761	7.5
631.176	7.5
631.591	7.49
632.007	7.45
632.422	7.45
632.837	7.43
633.252	7.41
633.667	7.36
634.082	7.34
634.497	7.29
634.911	7.26
635.326	7.23
635.741	7.19
636.155	7.15
636.57	7.11
636.984	7.05
637.399	7
637.813	6.94
638.228	6.89
638.642	6.84
639.056	6.8
639.47	6.72
639.884	6.66
640.298	6.6
640.712	6.54
641.126	6.48
641.54	6.42
641.954	6.38
642.368	6.33
642.781	6.28
643.195	6.23
643.609	6.17
644.022	6.13
644.436	6.08
644.849	6.03
645.262	6
645.676	5.94
646.089	5.9
646.502	5.85
646.915	5.8
647.328	5.77
647.741	5.72
648.154	5.69
648.567	5.67
648.98	5.63
649.393	5.6
649.805	5.56
650.218	5.55
650.631	5.53
651.043	5.51
651.456	5.5
651.868	5.48
652.28	5.47
652.693	5.45
653.105	5.41
653.517	5.38
653.929	5.36
654.341	5.34
654.753	5.32
655.165	5.3
655.577	5.26
655.989	5.21
656.401	5.16
656.813	5.12
657.224	5.08
657.636	5.05
658.047	5.02
658.459	4.97
658.87	4.93
659.282	4.91
659.693	4.86
660.104	4.84
660.515	4.8
660.926	4.8
661.338	4.78
661.749	4.75
662.159	4.74
662.57	4.73
662.981	4.73
663.392	4.7
663.803	4.69
664.213	4.67
664.624	4.67
665.035	4.67
665.445	4.64
665.855	4.63
666.266	4.63
666.676	4.61
667.086	4.6
667.497	4.58
667.907	4.58
668.317	4.56
668.727	4.57
669.137	4.55
669.547	4.55
669.956	4.56
670.366	4.57
670.776	4.57
671.186	4.59
671.595	4.62
672.005	4.63
672.414	4.65
672.824	4.68
673.233	4.69
673.642	4.71
674.052	4.73
674.461	4.75
674.87	4.77
675.279	4.79
675.688	4.8
676.097	4.82
676.506	4.84
676.915	4.87
677.323	4.89
677.732	4.93
678.141	4.96
678.549	5
678.958	5.03
679.366	5.06
679.775	5.1
680.183	5.15
680.592	5.2
681	5.24
681.408	5.27
681.816	5.31
682.224	5.35
682.632	5.41
683.04	5.44
683.448	5.51
683.856	5.57
684.264	5.64
684.671	5.71
685.079	5.79
685.487	5.91
685.894	6.02
686.302	6.13
686.709	6.26
687.116	6.39
687.524	6.57
687.931	6.73
688.338	6.94
688.745	7.14
689.152	7.37
689.559	7.61
689.966	7.86
690.373	8.16
690.78	8.45
691.187	8.8
691.593	9.14
692	9.51
692.407	9.89
692.813	10.3
693.22	10.72
693.626	11.16
694.032	11.61
694.439	12.1
694.845	12.58
695.251	13.08
695.657	13.58
696.063	14.1
696.469	14.62
696.875	15.13
697.281	15.64
697.687	16.18
698.093	16.74
698.498	17.3
698.904	17.85
699.31	18.38
699.715	18.93
700.12	19.48
700.526	20.06
700.931	20.61
701.337	21.19
701.742	21.75
702.147	22.29
702.552	22.83
702.957	23.37
703.362	23.91
703.767	24.45
704.172	25
704.577	25.53
704.981	26.06
705.386	26.6
705.791	27.13
706.195	27.66
706.6	28.17
707.004	28.68
707.408	29.18
707.813	29.69
708.217	30.19
708.621	30.66
709.025	31.14
709.43	31.6
709.834	32.07
710.237	32.53
710.641	32.99
711.045	33.44
711.449	33.89
711.853	34.33
712.256	34.78
712.66	35.22
713.064	35.67
713.467	36.12
713.87	36.55
714.274	36.98
714.677	37.38
715.08	37.81
715.484	38.26
715.887	38.67
716.29	39.08
716.693	39.47
717.096	39.87
717.499	40.25
717.901	40.61
718.304	40.98
718.707	41.35
719.109	41.72
719.512	42.08
719.915	42.41
720.317	42.75
720.719	43.08
721.122	43.42
721.524	43.72
721.926	44.06
722.328	44.39
722.731	44.7
723.133	44.99
723.535	45.26
723.937	45.55
724.338	45.8
724.74	46.07
725.142	46.34
725.544	46.57
725.945	46.83
726.347	47.04
726.748	47.22
727.15	47.42
727.551	47.63
727.952	47.82
728.354	48.06
728.755	48.25
729.156	48.42
729.557	48.59
729.958	48.79
730.359	48.99
730.76	49.14
731.161	49.34
731.562	49.52
731.962	49.67
732.363	49.84
732.763	49.98
733.164	50.13
733.564	50.28
733.965	50.38
734.365	50.46
734.766	50.57
735.166	50.67
735.566	50.74
735.966	50.82
736.366	50.89
736.766	50.98
737.166	51.02
737.566	51.11
737.966	51.18
738.365	51.29
738.765	51.41
739.165	51.44
739.564	51.55
739.964	51.63
740.363	51.69
740.763	51.76
741.162	51.84
741.561	51.94
741.96	52.02
742.36	52.07
742.759	52.13
743.158	52.14
743.557	52.2
743.955	52.25
744.354	52.32
744.753	52.41
745.152	52.49
745.55	52.53
745.949	52.54
746.348	52.59
746.746	52.63
747.144	52.7
747.543	52.76
747.941	52.83
748.339	52.87
748.737	52.91
749.136	52.91
749.534	52.93
749.932	52.94
750.33	52.96
750.727	52.94
751.125	52.97
751.523	52.95
751.921	52.99
752.318	52.96
752.716	52.96
753.113	52.98
753.511	53
753.908	53
754.305	53
754.703	53.01
755.1	53.05
755.497	53.04
755.894	53.07
756.291	53.04
756.688	53.08
757.085	53.1
757.482	53.09
757.878	53.13
758.275	53.13
758.672	53.17
759.068	53.2
759.465	53.22
759.861	53.25
760.258	53.25
760.654	53.28
761.05	53.27
761.447	53.26
761.843	53.25
762.239	53.23
762.635	53.22
763.031	53.22
763.427	53.21
763.822	53.15
764.218	53.14
764.614	53.1
765.01	53.07
765.405	53.07
765.801	53.08
766.196	53.09
766.592	53.07
766.987	53.11
767.382	53.11
767.778	53.1
768.173	53.15
768.568	53.15
768.963	53.17
769.358	53.18
769.753	53.21
770.148	53.22
770.542	53.22
770.937	53.24
771.332	53.2
771.726	53.18
772.121	53.18
772.515	53.17
772.91	53.17
773.304	53.13
773.699	53.14
774.093	53.09
774.487	53.1
774.881	53.13
775.275	53.13
775.669	53.16
776.063	53.16
776.457	53.16
776.851	53.14
777.245	53.16
777.638	53.21
778.032	53.22
778.425	53.27
778.819	53.28
779.212	53.24
779.606	53.22
779.999	53.2
780.392	53.25
780.786	53.29
781.179	53.3
781.572	53.32
781.965	53.32
782.358	53.29
782.751	53.27
783.143	53.24
783.536	53.31
783.929	53.34
784.322	53.35
784.714	53.34
785.107	53.36
785.499	53.36
