Data from c_1_hir_wi_4n_043_Splice17_06.txt Node
Date: Sat Feb 29 13:29:17 EST 2020
User: sa697716
Spectrometer: FLMS03696
Trigger mode: 0
Integration Time (sec): 3.180400E-1
Scans to average: 20
Electric dark correction enabled: true
Nonlinearity correction enabled: true
Boxcar width: 5
XAxis mode: Wavelengths
Number of Pixels in Spectrum: 2048
>>>>>Begin Spectral Data<<<<<
187.83	93.59
188.298	86.13
188.766	65.83
189.233	55.43
189.701	67.73
190.169	71.63
190.636	68.04
191.104	69.02
191.571	81.51
192.039	76.02
192.506	190.48
192.974	4344.29
193.441	-68.75
193.908	-0.89
194.375	-162.16
194.842	-86.11
195.31	-44.01
195.777	-41.8
196.244	64.26
196.711	84.7
197.177	88.03
197.644	88.52
198.111	89.96
198.578	90.36
199.045	91.41
199.511	92.06
199.978	92.55
200.445	92.95
200.911	93.18
201.378	93.16
201.844	94.04
202.31	94.3
202.777	94.37
203.243	94.42
203.709	94.38
204.176	93.91
204.642	93.46
205.108	92.67
205.574	92.32
206.04	91.59
206.506	90.77
206.972	89.27
207.438	88.29
207.903	87
208.369	84.97
208.835	83.96
209.301	82.39
209.766	80.29
210.232	78.35
210.697	76.62
211.163	74.63
211.628	73.12
212.094	72.07
212.559	70.46
213.024	69.1
213.49	67.65
213.955	65.46
214.42	63.22
214.885	61.01
215.35	58.43
215.815	54.77
216.28	50.91
216.745	46.34
217.21	41.45
217.675	36.99
218.14	32.9
218.604	29.24
219.069	26.25
219.534	23.81
219.998	21.75
220.463	19.94
220.927	18.44
221.392	17.2
221.856	16.16
222.32	15.29
222.785	14.51
223.249	13.85
223.713	13.34
224.177	12.8
224.642	12.33
225.106	11.9
225.57	11.5
226.034	11.16
226.497	10.8
226.961	10.45
227.425	10.11
227.889	9.82
228.353	9.55
228.816	9.28
229.28	9.04
229.744	8.82
230.207	8.61
230.671	8.41
231.134	8.21
231.597	8.05
232.061	7.89
232.524	7.76
232.987	7.63
233.45	7.49
233.914	7.37
234.377	7.25
234.84	7.16
235.303	7.06
235.766	6.98
236.229	6.89
236.691	6.82
237.154	6.75
237.617	6.67
238.08	6.59
238.542	6.52
239.005	6.46
239.468	6.39
239.93	6.32
240.393	6.26
240.855	6.17
241.317	6.12
241.78	6.05
242.242	5.97
242.704	5.92
243.166	5.86
243.629	5.8
244.091	5.73
244.553	5.69
245.015	5.62
245.477	5.56
245.939	5.5
246.4	5.44
246.862	5.37
247.324	5.32
247.786	5.26
248.247	5.21
248.709	5.15
249.17	5.1
249.632	5.03
250.093	4.97
250.555	4.93
251.016	4.9
251.477	4.84
251.939	4.8
252.4	4.76
252.861	4.72
253.322	4.66
253.783	4.64
254.244	4.61
254.705	4.57
255.166	4.54
255.627	4.5
256.088	4.45
256.549	4.42
257.009	4.37
257.47	4.33
257.931	4.29
258.391	4.24
258.852	4.18
259.312	4.13
259.773	4.09
260.233	4.04
260.694	4
261.154	3.95
261.614	3.91
262.074	3.87
262.534	3.82
262.994	3.79
263.455	3.76
263.915	3.72
264.374	3.69
264.834	3.65
265.294	3.62
265.754	3.59
266.214	3.56
266.673	3.54
267.133	3.51
267.593	3.49
268.052	3.46
268.512	3.44
268.971	3.43
269.431	3.41
269.89	3.4
270.349	3.39
270.809	3.38
271.268	3.37
271.727	3.36
272.186	3.35
272.645	3.33
273.104	3.33
273.563	3.32
274.022	3.31
274.481	3.3
274.94	3.29
275.399	3.28
275.857	3.27
276.316	3.26
276.775	3.24
277.233	3.23
277.692	3.23
278.15	3.21
278.609	3.2
279.067	3.19
279.525	3.19
279.984	3.18
280.442	3.18
280.9	3.18
281.358	3.18
281.816	3.19
282.274	3.19
282.732	3.19
283.19	3.19
283.648	3.19
284.106	3.19
284.564	3.2
285.021	3.2
285.479	3.2
285.937	3.2
286.394	3.19
286.852	3.19
287.309	3.18
287.767	3.18
288.224	3.16
288.682	3.15
289.139	3.13
289.596	3.11
290.053	3.08
290.511	3.05
290.968	3.03
291.425	3
291.882	2.98
292.339	2.97
292.796	2.94
293.252	2.93
293.709	2.91
294.166	2.9
294.623	2.89
295.079	2.88
295.536	2.87
295.992	2.86
296.449	2.85
296.905	2.83
297.362	2.81
297.818	2.81
298.274	2.8
298.731	2.79
299.187	2.79
299.643	2.78
300.099	2.78
300.555	2.77
301.011	2.77
301.467	2.77
301.923	2.78
302.379	2.78
302.835	2.78
303.291	2.79
303.746	2.78
304.202	2.78
304.658	2.78
305.113	2.77
305.569	2.78
306.024	2.78
306.479	2.77
306.935	2.78
307.39	2.79
307.845	2.79
308.301	2.8
308.756	2.81
309.211	2.82
309.666	2.82
310.121	2.83
310.576	2.83
311.031	2.83
311.486	2.84
311.94	2.84
312.395	2.84
312.85	2.85
313.305	2.84
313.759	2.85
314.214	2.85
314.668	2.85
315.123	2.85
315.577	2.86
316.032	2.85
316.486	2.84
316.94	2.84
317.394	2.83
317.849	2.82
318.303	2.81
318.757	2.79
319.211	2.78
319.665	2.77
320.119	2.76
320.572	2.75
321.026	2.74
321.48	2.74
321.934	2.73
322.387	2.73
322.841	2.72
323.295	2.72
323.748	2.73
324.202	2.73
324.655	2.72
325.108	2.72
325.562	2.71
326.015	2.71
326.468	2.7
326.921	2.71
327.374	2.7
327.827	2.7
328.28	2.7
328.733	2.71
329.186	2.71
329.639	2.72
330.092	2.72
330.545	2.72
330.997	2.74
331.45	2.75
331.903	2.75
332.355	2.76
332.808	2.76
333.26	2.77
333.713	2.78
334.165	2.78
334.617	2.78
335.069	2.79
335.522	2.8
335.974	2.8
336.426	2.81
336.878	2.8
337.33	2.81
337.782	2.82
338.234	2.82
338.686	2.81
339.137	2.82
339.589	2.81
340.041	2.81
340.493	2.79
340.944	2.78
341.396	2.78
341.847	2.78
342.299	2.76
342.75	2.75
343.201	2.72
343.653	2.71
344.104	2.7
344.555	2.68
345.006	2.66
345.457	2.66
345.908	2.65
346.359	2.64
346.81	2.65
347.261	2.63
347.712	2.62
348.163	2.62
348.613	2.62
349.064	2.6
349.515	2.59
349.965	2.6
350.416	2.59
350.866	2.59
351.317	2.58
351.767	2.57
352.217	2.57
352.668	2.59
353.118	2.59
353.568	2.6
354.018	2.61
354.468	2.61
354.918	2.62
355.368	2.62
355.818	2.63
356.268	2.63
356.718	2.64
357.168	2.63
357.617	2.61
358.067	2.61
358.517	2.61
358.966	2.61
359.416	2.63
359.865	2.63
360.315	2.63
360.764	2.63
361.213	2.63
361.663	2.63
362.112	2.65
362.561	2.66
363.01	2.66
363.459	2.65
363.908	2.65
364.357	2.65
364.806	2.65
365.255	2.66
365.703	2.65
366.152	2.65
366.601	2.66
367.05	2.66
367.498	2.67
367.947	2.68
368.395	2.7
368.844	2.7
369.292	2.7
369.74	2.7
370.189	2.7
370.637	2.7
371.085	2.72
371.533	2.72
371.981	2.72
372.429	2.72
372.877	2.72
373.325	2.72
373.773	2.72
374.221	2.71
374.669	2.72
375.116	2.71
375.564	2.71
376.012	2.72
376.459	2.72
376.907	2.73
377.354	2.73
377.801	2.73
378.249	2.74
378.696	2.75
379.143	2.76
379.591	2.77
380.038	2.79
380.485	2.81
380.932	2.82
381.379	2.82
381.826	2.82
382.273	2.83
382.72	2.83
383.166	2.84
383.613	2.83
384.06	2.85
384.506	2.86
384.953	2.85
385.4	2.86
385.846	2.86
386.292	2.87
386.739	2.89
387.185	2.91
387.631	2.92
388.078	2.95
388.524	2.96
388.97	2.96
389.416	2.97
389.862	2.99
390.308	3
390.754	3.02
391.2	3.05
391.645	3.07
392.091	3.08
392.537	3.1
392.983	3.12
393.428	3.15
393.874	3.17
394.319	3.19
394.765	3.21
395.21	3.23
395.655	3.26
396.101	3.28
396.546	3.29
396.991	3.3
397.436	3.31
397.881	3.34
398.326	3.36
398.771	3.4
399.216	3.43
399.661	3.46
400.106	3.49
400.551	3.49
400.995	3.5
401.44	3.51
401.885	3.54
402.329	3.57
402.774	3.57
403.218	3.59
403.663	3.58
404.107	3.6
404.551	3.61
404.995	3.62
405.44	3.64
405.884	3.65
406.328	3.68
406.772	3.7
407.216	3.72
407.66	3.75
408.104	3.77
408.547	3.8
408.991	3.8
409.435	3.82
409.879	3.85
410.322	3.88
410.766	3.9
411.209	3.93
411.653	3.93
412.096	3.94
412.54	3.96
412.983	3.99
413.426	4.03
413.869	4.07
414.312	4.11
414.756	4.13
415.199	4.16
415.642	4.19
416.085	4.23
416.527	4.27
416.97	4.29
417.413	4.3
417.856	4.29
418.298	4.28
418.741	4.29
419.184	4.28
419.626	4.28
420.069	4.29
420.511	4.28
420.953	4.27
421.396	4.27
421.838	4.3
422.28	4.33
422.722	4.36
423.164	4.39
423.606	4.4
424.048	4.41
424.49	4.42
424.932	4.42
425.374	4.42
425.816	4.42
426.258	4.41
426.699	4.38
427.141	4.36
427.582	4.36
428.024	4.38
428.465	4.39
428.907	4.42
429.348	4.41
429.789	4.42
430.231	4.43
430.672	4.47
431.113	4.49
431.554	4.52
431.995	4.56
432.436	4.57
432.877	4.56
433.318	4.57
433.759	4.58
434.2	4.59
434.64	4.62
435.081	4.63
435.522	4.65
435.962	4.68
436.403	4.72
436.843	4.71
437.284	4.72
437.724	4.77
438.164	4.76
438.604	4.79
439.045	4.81
439.485	4.83
439.925	4.84
440.365	4.81
440.805	4.8
441.245	4.77
441.685	4.8
442.125	4.81
442.564	4.81
443.004	4.83
443.444	4.83
443.883	4.86
444.323	4.85
444.762	4.88
445.202	4.94
445.641	4.95
446.081	4.99
446.52	4.98
446.959	5
447.398	5.02
447.837	5.04
448.276	5.04
448.716	5.03
449.154	5.07
449.593	5.06
450.032	5.03
450.471	5.05
450.91	5.04
451.349	5.04
451.787	5
452.226	4.97
452.664	4.94
453.103	4.93
453.541	4.92
453.98	4.89
454.418	4.86
454.856	4.83
455.295	4.79
455.733	4.76
456.171	4.73
456.609	4.73
457.047	4.72
457.485	4.7
457.923	4.69
458.361	4.68
458.798	4.67
459.236	4.66
459.674	4.66
460.111	4.68
460.549	4.68
460.987	4.71
461.424	4.7
461.862	4.72
462.299	4.73
462.736	4.72
463.173	4.73
463.611	4.74
464.048	4.75
464.485	4.77
464.922	4.77
465.359	4.78
465.796	4.77
466.233	4.79
466.67	4.79
467.106	4.77
467.543	4.79
467.98	4.79
468.416	4.8
468.853	4.78
469.29	4.79
469.726	4.8
470.162	4.78
470.599	4.78
471.035	4.77
471.471	4.77
471.907	4.78
472.344	4.77
472.78	4.76
473.216	4.73
473.652	4.72
474.088	4.71
474.523	4.68
474.959	4.66
475.395	4.64
475.831	4.62
476.266	4.61
476.702	4.58
477.138	4.54
477.573	4.51
478.008	4.49
478.444	4.47
478.879	4.43
479.314	4.4
479.75	4.41
480.185	4.39
480.62	4.37
481.055	4.35
481.49	4.33
481.925	4.32
482.36	4.31
482.795	4.31
483.229	4.3
483.664	4.28
484.099	4.27
484.534	4.26
484.968	4.25
485.403	4.23
485.837	4.22
486.271	4.2
486.706	4.19
487.14	4.19
487.574	4.17
488.009	4.17
488.443	4.17
488.877	4.18
489.311	4.17
489.745	4.17
490.179	4.19
490.613	4.2
491.046	4.22
491.48	4.23
491.914	4.24
492.348	4.26
492.781	4.26
493.215	4.28
493.648	4.31
494.082	4.34
494.515	4.35
494.948	4.37
495.382	4.38
495.815	4.41
496.248	4.44
496.681	4.45
497.114	4.48
497.547	4.52
497.98	4.56
498.413	4.58
498.846	4.61
499.279	4.66
499.711	4.69
500.144	4.73
500.577	4.77
501.009	4.82
501.442	4.88
501.874	4.94
502.306	4.98
502.739	5.03
503.171	5.11
503.603	5.19
504.036	5.25
504.468	5.34
504.9	5.42
505.332	5.51
505.764	5.61
506.196	5.7
506.627	5.8
507.059	5.91
507.491	6.03
507.923	6.13
508.354	6.23
508.786	6.35
509.217	6.47
509.649	6.61
510.08	6.75
510.512	6.88
510.943	7.04
511.374	7.19
511.805	7.35
512.237	7.51
512.668	7.68
513.099	7.87
513.53	8.07
513.961	8.28
514.391	8.45
514.822	8.65
515.253	8.86
515.684	9.06
516.114	9.28
516.545	9.5
516.975	9.74
517.406	9.96
517.836	10.16
518.267	10.39
518.697	10.62
519.127	10.86
519.558	11.08
519.988	11.3
520.418	11.53
520.848	11.76
521.278	11.99
521.708	12.28
522.138	12.5
522.567	12.72
522.997	12.93
523.427	13.14
523.857	13.33
524.286	13.54
524.716	13.74
525.145	13.95
525.575	14.15
526.004	14.33
526.433	14.44
526.863	14.63
527.292	14.82
527.721	15
528.15	15.17
528.579	15.34
529.008	15.51
529.437	15.67
529.866	15.8
530.295	15.93
530.724	16.07
531.152	16.2
531.581	16.31
532.01	16.43
532.438	16.54
532.867	16.65
533.295	16.75
533.723	16.86
534.152	16.95
534.58	17.05
535.008	17.12
535.436	17.2
535.865	17.27
536.293	17.34
536.721	17.41
537.149	17.48
537.576	17.53
538.004	17.58
538.432	17.62
538.86	17.66
539.287	17.72
539.715	17.77
540.143	17.79
540.57	17.84
540.998	17.88
541.425	17.91
541.852	17.94
542.28	17.96
542.707	18
543.134	18.04
543.561	18.05
543.988	18.07
544.415	18.09
544.842	18.13
545.269	18.17
545.696	18.19
546.123	18.2
546.549	18.22
546.976	18.25
547.403	18.26
547.829	18.28
548.256	18.32
548.682	18.34
549.108	18.38
549.535	18.38
549.961	18.37
550.387	18.38
550.813	18.37
551.24	18.36
551.666	18.36
552.092	18.35
552.518	18.33
552.943	18.3
553.369	18.28
553.795	18.24
554.221	18.21
554.646	18.18
555.072	18.16
555.498	18.14
555.923	18.12
556.349	18.06
556.774	17.99
557.199	17.94
557.625	17.88
558.05	17.81
558.475	17.73
558.9	17.66
559.325	17.59
559.75	17.49
560.175	17.37
560.6	17.27
561.025	17.17
561.449	17.07
561.874	16.96
562.299	16.85
562.723	16.75
563.148	16.62
563.572	16.48
563.997	16.33
564.421	16.2
564.846	16.08
565.27	15.94
565.694	15.8
566.118	15.65
566.542	15.52
566.966	15.38
567.39	15.22
567.814	15.09
568.238	14.94
568.662	14.8
569.086	14.67
569.509	14.53
569.933	14.4
570.357	14.24
570.78	14.11
571.204	13.96
571.627	13.84
572.05	13.71
572.474	13.59
572.897	13.48
573.32	13.35
573.743	13.23
574.166	13.1
574.589	12.99
575.012	12.9
575.435	12.79
575.858	12.7
576.281	12.6
576.704	12.51
577.126	12.4
577.549	12.3
577.972	12.22
578.394	12.12
578.817	12.05
579.239	11.96
579.661	11.89
580.084	11.82
580.506	11.73
580.928	11.66
581.35	11.58
581.772	11.53
582.194	11.47
582.616	11.4
583.038	11.35
583.46	11.29
583.882	11.22
584.303	11.17
584.725	11.11
585.147	11.04
585.568	10.98
585.99	10.95
586.411	10.89
586.833	10.85
587.254	10.82
587.675	10.79
588.096	10.74
588.518	10.71
588.939	10.67
589.36	10.65
589.781	10.63
590.202	10.61
590.623	10.56
591.043	10.53
591.464	10.48
591.885	10.45
592.305	10.43
592.726	10.41
593.147	10.38
593.567	10.35
593.987	10.31
594.408	10.27
594.828	10.24
595.248	10.23
595.669	10.21
596.089	10.19
596.509	10.14
596.929	10.09
597.349	10.05
597.769	10
598.189	9.97
598.608	9.94
599.028	9.9
599.448	9.86
599.867	9.82
600.287	9.78
600.706	9.75
601.126	9.73
601.545	9.69
601.965	9.67
602.384	9.64
602.803	9.58
603.222	9.54
603.641	9.49
604.061	9.44
604.48	9.39
604.898	9.34
605.317	9.28
605.736	9.22
606.155	9.17
606.574	9.11
606.992	9.04
607.411	9
607.829	8.9
608.248	8.85
608.666	8.78
609.085	8.72
609.503	8.64
609.921	8.58
610.339	8.52
610.758	8.47
611.176	8.42
611.594	8.36
612.012	8.28
612.43	8.28
612.847	8.22
613.265	8.18
613.683	8.12
614.101	8.06
614.518	8
614.936	7.95
615.353	7.9
615.771	7.85
616.188	7.81
616.606	7.77
617.023	7.72
617.44	7.68
617.857	7.63
618.274	7.6
618.691	7.58
619.108	7.55
619.525	7.53
619.942	7.49
620.359	7.47
620.776	7.44
621.192	7.42
621.609	7.41
622.026	7.39
622.442	7.38
622.859	7.36
623.275	7.36
623.691	7.35
624.108	7.33
624.524	7.32
624.94	7.3
625.356	7.31
625.772	7.3
626.188	7.3
626.604	7.28
627.02	7.27
627.436	7.28
627.852	7.26
628.268	7.25
628.683	7.25
629.099	7.25
629.514	7.25
629.93	7.23
630.345	7.22
630.761	7.21
631.176	7.19
631.591	7.19
632.007	7.16
632.422	7.16
632.837	7.14
633.252	7.13
633.667	7.09
634.082	7.06
634.497	7.03
634.911	7
635.326	6.96
635.741	6.93
636.155	6.88
636.57	6.84
636.984	6.77
637.399	6.71
637.813	6.65
638.228	6.61
638.642	6.56
639.056	6.51
639.47	6.44
639.884	6.4
640.298	6.34
640.712	6.28
641.126	6.22
641.54	6.18
641.954	6.14
642.368	6.09
642.781	6.04
643.195	5.97
643.609	5.92
644.022	5.87
644.436	5.82
644.849	5.77
645.262	5.73
645.676	5.68
646.089	5.64
646.502	5.59
646.915	5.55
647.328	5.52
647.741	5.49
648.154	5.46
648.567	5.45
648.98	5.43
649.393	5.4
649.805	5.37
650.218	5.34
650.631	5.32
651.043	5.3
651.456	5.27
651.868	5.25
652.28	5.24
652.693	5.2
653.105	5.17
653.517	5.14
653.929	5.13
654.341	5.12
654.753	5.1
655.165	5.07
655.577	5.03
655.989	5
656.401	4.97
656.813	4.94
657.224	4.92
657.636	4.89
658.047	4.86
658.459	4.81
658.87	4.77
659.282	4.75
659.693	4.71
660.104	4.7
660.515	4.66
660.926	4.63
661.338	4.61
661.749	4.56
662.159	4.53
662.57	4.51
662.981	4.49
663.392	4.46
663.803	4.45
664.213	4.44
664.624	4.43
665.035	4.41
665.445	4.41
665.855	4.41
666.266	4.41
666.676	4.41
667.086	4.41
667.497	4.41
667.907	4.42
668.317	4.41
668.727	4.41
669.137	4.4
669.547	4.43
669.956	4.42
670.366	4.44
670.776	4.45
671.186	4.46
671.595	4.47
672.005	4.48
672.414	4.5
672.824	4.53
673.233	4.55
673.642	4.56
674.052	4.56
674.461	4.6
674.87	4.6
675.279	4.62
675.688	4.63
676.097	4.66
676.506	4.68
676.915	4.69
677.323	4.72
677.732	4.74
678.141	4.77
678.549	4.82
678.958	4.85
679.366	4.88
679.775	4.92
680.183	4.95
680.592	5
681	5.05
681.408	5.09
681.816	5.13
682.224	5.18
682.632	5.24
683.04	5.28
683.448	5.33
683.856	5.39
684.264	5.46
684.671	5.55
685.079	5.62
685.487	5.71
685.894	5.82
686.302	5.92
686.709	6.05
687.116	6.19
687.524	6.35
687.931	6.51
688.338	6.7
688.745	6.91
689.152	7.14
689.559	7.38
689.966	7.64
690.373	7.93
690.78	8.23
691.187	8.56
691.593	8.9
692	9.25
692.407	9.64
692.813	10.03
693.22	10.43
693.626	10.84
694.032	11.27
694.439	11.72
694.845	12.17
695.251	12.65
695.657	13.11
696.063	13.6
696.469	14.1
696.875	14.59
697.281	15.07
697.687	15.59
698.093	16.11
698.498	16.63
698.904	17.14
699.31	17.67
699.715	18.19
700.12	18.71
700.526	19.23
700.931	19.75
701.337	20.28
701.742	20.81
702.147	21.31
702.552	21.83
702.957	22.34
703.362	22.87
703.767	23.36
704.172	23.85
704.577	24.33
704.981	24.79
705.386	25.27
705.791	25.75
706.195	26.23
706.6	26.71
707.004	27.19
707.408	27.65
707.813	28.09
708.217	28.54
708.621	28.99
709.025	29.44
709.43	29.89
709.834	30.33
710.237	30.75
710.641	31.19
711.045	31.61
711.449	32.02
711.853	32.43
712.256	32.84
712.66	33.26
713.064	33.67
713.467	34.07
713.87	34.51
714.274	34.93
714.677	35.33
715.08	35.68
715.484	36.07
715.887	36.45
716.29	36.84
716.693	37.21
717.096	37.55
717.499	37.89
717.901	38.23
718.304	38.55
718.707	38.87
719.109	39.18
719.512	39.52
719.915	39.83
720.317	40.14
720.719	40.43
721.122	40.71
721.524	41.03
721.926	41.33
722.328	41.62
722.731	41.89
723.133	42.16
723.535	42.42
723.937	42.66
724.338	42.9
724.74	43.12
725.142	43.36
725.544	43.59
725.945	43.8
726.347	44
726.748	44.19
727.15	44.39
727.551	44.58
727.952	44.79
728.354	45.01
728.755	45.2
729.156	45.36
729.557	45.54
729.958	45.74
730.359	45.9
730.76	46.05
731.161	46.24
731.562	46.41
731.962	46.54
732.363	46.66
732.763	46.8
733.164	46.9
733.564	47.03
733.965	47.14
734.365	47.2
734.766	47.3
735.166	47.38
735.566	47.43
735.966	47.48
736.366	47.55
736.766	47.63
737.166	47.69
737.566	47.76
737.966	47.86
738.365	47.92
738.765	48.01
739.165	48.06
739.564	48.13
739.964	48.19
740.363	48.3
740.763	48.38
741.162	48.44
741.561	48.49
741.96	48.58
742.36	48.64
742.759	48.67
743.158	48.7
743.557	48.75
743.955	48.84
744.354	48.92
744.753	48.94
745.152	48.94
745.55	48.98
745.949	49.03
746.348	49.03
746.746	49.03
747.144	49.1
747.543	49.16
747.941	49.22
748.339	49.2
748.737	49.25
749.136	49.25
749.534	49.3
749.932	49.3
750.33	49.29
750.727	49.34
751.125	49.38
751.523	49.38
751.921	49.38
752.318	49.39
752.716	49.4
753.113	49.39
753.511	49.41
753.908	49.42
754.305	49.45
754.703	49.46
755.1	49.44
755.497	49.45
755.894	49.47
756.291	49.48
756.688	49.48
757.085	49.5
757.482	49.52
757.878	49.53
758.275	49.54
758.672	49.57
759.068	49.59
759.465	49.61
759.861	49.62
760.258	49.61
760.654	49.63
761.05	49.63
761.447	49.64
761.843	49.63
762.239	49.65
762.635	49.64
763.031	49.62
763.427	49.61
763.822	49.62
764.218	49.63
764.614	49.64
765.01	49.6
765.405	49.58
765.801	49.58
766.196	49.6
766.592	49.6
766.987	49.61
767.382	49.64
767.778	49.65
768.173	49.66
768.568	49.61
768.963	49.61
769.358	49.62
769.753	49.67
770.148	49.63
770.542	49.62
770.937	49.59
771.332	49.58
771.726	49.55
772.121	49.55
772.515	49.55
772.91	49.59
773.304	49.6
773.699	49.63
774.093	49.6
774.487	49.65
774.881	49.65
775.275	49.66
775.669	49.7
776.063	49.67
776.457	49.62
776.851	49.61
777.245	49.63
777.638	49.64
778.032	49.61
778.425	49.61
778.819	49.61
779.212	49.59
779.606	49.59
779.999	49.57
780.392	49.59
780.786	49.63
781.179	49.64
781.572	49.61
781.965	49.58
782.358	49.61
782.751	49.62
783.143	49.64
783.536	49.69
783.929	49.71
784.322	49.7
784.714	49.73
785.107	49.76
785.499	49.75
785.891	49.78
786.284	49.75
