Data from c_1_hir_il_4n_023_Splice17_16.txt Node
Date: Sat Feb 29 13:19:44 EST 2020
User: sa697716
Spectrometer: FLMS03696
Trigger mode: 0
Integration Time (sec): 3.180400E-1
Scans to average: 20
Electric dark correction enabled: true
Nonlinearity correction enabled: true
Boxcar width: 5
XAxis mode: Wavelengths
Number of Pixels in Spectrum: 2048
>>>>>Begin Spectral Data<<<<<
187.83	96.44
188.298	93.01
188.766	87.62
189.233	83.99
189.701	83.14
190.169	83.89
190.636	77.65
191.104	77.56
191.571	278.78
192.039	359.72
192.506	-117.94
192.974	1611.32
193.441	82.42
193.908	55.05
194.375	95.66
194.842	45.32
195.31	26.04
195.777	-31.23
196.244	10.97
196.711	32.37
197.177	33.69
197.644	32.97
198.111	33.2
198.578	34.29
199.045	35.38
199.511	35.31
199.978	35.87
200.445	35.94
200.911	36.31
201.378	36.47
201.844	36.99
202.31	37.1
202.777	37.22
203.243	37.29
203.709	37.4
204.176	36.36
204.642	36.15
205.108	36.03
205.574	36.37
206.04	36.36
206.506	36.08
206.972	35.56
207.438	34.99
207.903	35.29
208.369	34.78
208.835	33.85
209.301	33.78
209.766	33.2
210.232	32.73
210.697	31.68
211.163	31.16
211.628	30.57
212.094	30.06
212.559	29.6
213.024	28.82
213.49	28.04
213.955	27.9
214.42	27.41
214.885	26.85
215.35	25.91
215.815	24.96
216.28	23.8
216.745	22.76
217.21	21.56
217.675	20.6
218.14	19.34
218.604	18.37
219.069	17.48
219.534	16.73
219.998	16.09
220.463	15.61
220.927	15.22
221.392	14.79
221.856	14.43
222.32	14.07
222.785	13.74
223.249	13.55
223.713	13.34
224.177	13.07
224.642	12.87
225.106	12.64
225.57	12.4
226.034	12.2
226.497	11.99
226.961	11.77
227.425	11.54
227.889	11.35
228.353	11.16
228.816	11.02
229.28	10.83
229.744	10.65
230.207	10.52
230.671	10.38
231.134	10.24
231.597	10.11
232.061	10
232.524	9.91
232.987	9.81
233.45	9.7
233.914	9.57
234.377	9.5
234.84	9.41
235.303	9.31
235.766	9.22
236.229	9.12
236.691	9.03
237.154	8.95
237.617	8.88
238.08	8.79
238.542	8.71
239.005	8.62
239.468	8.51
239.93	8.43
240.393	8.35
240.855	8.28
241.317	8.22
241.78	8.16
242.242	8.07
242.704	7.99
243.166	7.92
243.629	7.85
244.091	7.8
244.553	7.75
245.015	7.69
245.477	7.62
245.939	7.57
246.4	7.49
246.862	7.43
247.324	7.38
247.786	7.34
248.247	7.29
248.709	7.25
249.17	7.21
249.632	7.14
250.093	7.07
250.555	7.02
251.016	6.97
251.477	6.92
251.939	6.88
252.4	6.83
252.861	6.77
253.322	6.73
253.783	6.69
254.244	6.64
254.705	6.61
255.166	6.61
255.627	6.56
256.088	6.51
256.549	6.48
257.009	6.44
257.47	6.4
257.931	6.36
258.391	6.31
258.852	6.26
259.312	6.22
259.773	6.17
260.233	6.12
260.694	6.1
261.154	6.07
261.614	6.03
262.074	5.99
262.534	5.95
262.994	5.92
263.455	5.9
263.915	5.86
264.374	5.83
264.834	5.8
265.294	5.77
265.754	5.73
266.214	5.7
266.673	5.68
267.133	5.66
267.593	5.63
268.052	5.6
268.512	5.58
268.971	5.56
269.431	5.54
269.89	5.52
270.349	5.5
270.809	5.48
271.268	5.47
271.727	5.45
272.186	5.42
272.645	5.41
273.104	5.39
273.563	5.37
274.022	5.35
274.481	5.33
274.94	5.31
275.399	5.28
275.857	5.27
276.316	5.25
276.775	5.22
277.233	5.2
277.692	5.19
278.15	5.16
278.609	5.14
279.067	5.12
279.525	5.1
279.984	5.08
280.442	5.07
280.9	5.05
281.358	5.03
281.816	5.01
282.274	5
282.732	4.99
283.19	4.98
283.648	4.97
284.106	4.95
284.564	4.94
285.021	4.93
285.479	4.93
285.937	4.92
286.394	4.9
286.852	4.89
287.309	4.88
287.767	4.86
288.224	4.85
288.682	4.83
289.139	4.82
289.596	4.79
290.053	4.76
290.511	4.74
290.968	4.72
291.425	4.7
291.882	4.68
292.339	4.65
292.796	4.63
293.252	4.61
293.709	4.59
294.166	4.57
294.623	4.56
295.079	4.55
295.536	4.53
295.992	4.51
296.449	4.5
296.905	4.49
297.362	4.48
297.818	4.46
298.274	4.45
298.731	4.44
299.187	4.43
299.643	4.41
300.099	4.41
300.555	4.4
301.011	4.39
301.467	4.37
301.923	4.37
302.379	4.36
302.835	4.36
303.291	4.34
303.746	4.33
304.202	4.32
304.658	4.31
305.113	4.3
305.569	4.29
306.024	4.28
306.479	4.27
306.935	4.26
307.39	4.26
307.845	4.25
308.301	4.25
308.756	4.25
309.211	4.25
309.666	4.24
310.121	4.24
310.576	4.23
311.031	4.23
311.486	4.24
311.94	4.22
312.395	4.22
312.85	4.21
313.305	4.21
313.759	4.21
314.214	4.2
314.668	4.19
315.123	4.19
315.577	4.18
316.032	4.17
316.486	4.16
316.94	4.15
317.394	4.14
317.849	4.13
318.303	4.13
318.757	4.11
319.211	4.09
319.665	4.08
320.119	4.08
320.572	4.07
321.026	4.06
321.48	4.05
321.934	4.05
322.387	4.05
322.841	4.03
323.295	4.02
323.748	4.01
324.202	4.01
324.655	4
325.108	3.99
325.562	3.98
326.015	3.97
326.468	3.95
326.921	3.94
327.374	3.93
327.827	3.92
328.28	3.92
328.733	3.91
329.186	3.91
329.639	3.91
330.092	3.9
330.545	3.89
330.997	3.9
331.45	3.89
331.903	3.88
332.355	3.89
332.808	3.89
333.26	3.88
333.713	3.89
334.165	3.89
334.617	3.89
335.069	3.89
335.522	3.89
335.974	3.89
336.426	3.9
336.878	3.9
337.33	3.89
337.782	3.89
338.234	3.89
338.686	3.89
339.137	3.89
339.589	3.88
340.041	3.88
340.493	3.87
340.944	3.87
341.396	3.86
341.847	3.84
342.299	3.83
342.75	3.8
343.201	3.79
343.653	3.77
344.104	3.75
344.555	3.74
345.006	3.74
345.457	3.72
345.908	3.72
346.359	3.71
346.81	3.71
347.261	3.71
347.712	3.7
348.163	3.69
348.613	3.68
349.064	3.67
349.515	3.66
349.965	3.64
350.416	3.64
350.866	3.63
351.317	3.63
351.767	3.62
352.217	3.6
352.668	3.6
353.118	3.6
353.568	3.6
354.018	3.61
354.468	3.61
354.918	3.62
355.368	3.63
355.818	3.61
356.268	3.61
356.718	3.61
357.168	3.61
357.617	3.62
358.067	3.62
358.517	3.62
358.966	3.61
359.416	3.62
359.865	3.61
360.315	3.61
360.764	3.62
361.213	3.61
361.663	3.61
362.112	3.61
362.561	3.6
363.01	3.61
363.459	3.6
363.908	3.59
364.357	3.59
364.806	3.58
365.255	3.59
365.703	3.58
366.152	3.59
366.601	3.59
367.05	3.59
367.498	3.58
367.947	3.58
368.395	3.59
368.844	3.59
369.292	3.59
369.74	3.6
370.189	3.59
370.637	3.59
371.085	3.6
371.533	3.6
371.981	3.6
372.429	3.6
372.877	3.61
373.325	3.61
373.773	3.61
374.221	3.62
374.669	3.61
375.116	3.61
375.564	3.61
376.012	3.62
376.459	3.62
376.907	3.63
377.354	3.65
377.801	3.65
378.249	3.67
378.696	3.69
379.143	3.71
379.591	3.73
380.038	3.76
380.485	3.77
380.932	3.78
381.379	3.8
381.826	3.81
382.273	3.83
382.72	3.85
383.166	3.85
383.613	3.87
384.06	3.87
384.506	3.89
384.953	3.9
385.4	3.92
385.846	3.93
386.292	3.95
386.739	3.97
387.185	3.98
387.631	3.99
388.078	4.02
388.524	4.02
388.97	4.04
389.416	4.04
389.862	4.06
390.308	4.07
390.754	4.08
391.2	4.11
391.645	4.13
392.091	4.14
392.537	4.14
392.983	4.16
393.428	4.17
393.874	4.19
394.319	4.2
394.765	4.21
395.21	4.22
395.655	4.24
396.101	4.24
396.546	4.25
396.991	4.27
397.436	4.27
397.881	4.3
398.326	4.32
398.771	4.33
399.216	4.36
399.661	4.38
400.106	4.4
400.551	4.39
400.995	4.39
401.44	4.4
401.885	4.41
402.329	4.42
402.774	4.42
403.218	4.42
403.663	4.41
404.107	4.43
404.551	4.43
404.995	4.43
405.44	4.44
405.884	4.46
406.328	4.46
406.772	4.47
407.216	4.48
407.66	4.47
408.104	4.48
408.547	4.49
408.991	4.47
409.435	4.45
409.879	4.45
410.322	4.47
410.766	4.46
411.209	4.47
411.653	4.45
412.096	4.43
412.54	4.44
412.983	4.43
413.426	4.43
413.869	4.44
414.312	4.46
414.756	4.47
415.199	4.48
415.642	4.49
416.085	4.49
416.527	4.51
416.97	4.54
417.413	4.53
417.856	4.53
418.298	4.52
418.741	4.52
419.184	4.51
419.626	4.5
420.069	4.49
420.511	4.48
420.953	4.48
421.396	4.49
421.838	4.5
422.28	4.52
422.722	4.52
423.164	4.53
423.606	4.53
424.048	4.51
424.49	4.53
424.932	4.54
425.374	4.54
425.816	4.52
426.258	4.5
426.699	4.47
427.141	4.45
427.582	4.44
428.024	4.45
428.465	4.45
428.907	4.47
429.348	4.44
429.789	4.43
430.231	4.42
430.672	4.43
431.113	4.44
431.554	4.46
431.995	4.47
432.436	4.48
432.877	4.46
433.318	4.46
433.759	4.47
434.2	4.48
434.64	4.51
435.081	4.51
435.522	4.51
435.962	4.52
436.403	4.54
436.843	4.55
437.284	4.57
437.724	4.61
438.164	4.63
438.604	4.62
439.045	4.62
439.485	4.61
439.925	4.61
440.365	4.59
440.805	4.58
441.245	4.56
441.685	4.56
442.125	4.54
442.564	4.53
443.004	4.53
443.444	4.55
443.883	4.55
444.323	4.56
444.762	4.59
445.202	4.65
445.641	4.66
446.081	4.7
446.52	4.69
446.959	4.71
447.398	4.74
447.837	4.75
448.276	4.75
448.716	4.76
449.154	4.78
449.593	4.76
450.032	4.76
450.471	4.79
450.91	4.77
451.349	4.78
451.787	4.76
452.226	4.74
452.664	4.72
453.103	4.72
453.541	4.72
453.98	4.71
454.418	4.71
454.856	4.67
455.295	4.65
455.733	4.65
456.171	4.66
456.609	4.66
457.047	4.66
457.485	4.65
457.923	4.65
458.361	4.63
458.798	4.64
459.236	4.64
459.674	4.66
460.111	4.66
460.549	4.65
460.987	4.63
461.424	4.63
461.862	4.62
462.299	4.62
462.736	4.62
463.173	4.62
463.611	4.6
464.048	4.61
464.485	4.6
464.922	4.59
465.359	4.6
465.796	4.58
466.233	4.59
466.67	4.59
467.106	4.58
467.543	4.58
467.98	4.58
468.416	4.6
468.853	4.59
469.29	4.6
469.726	4.61
470.162	4.6
470.599	4.63
471.035	4.64
471.471	4.63
471.907	4.64
472.344	4.64
472.78	4.63
473.216	4.62
473.652	4.61
474.088	4.6
474.523	4.58
474.959	4.58
475.395	4.56
475.831	4.54
476.266	4.54
476.702	4.52
477.138	4.51
477.573	4.5
478.008	4.5
478.444	4.49
478.879	4.49
479.314	4.48
479.75	4.47
480.185	4.46
480.62	4.47
481.055	4.46
481.49	4.46
481.925	4.44
482.36	4.42
482.795	4.4
483.229	4.41
483.664	4.41
484.099	4.41
484.534	4.41
484.968	4.41
485.403	4.4
485.837	4.4
486.271	4.41
486.706	4.41
487.14	4.44
487.574	4.44
488.009	4.44
488.443	4.45
488.877	4.45
489.311	4.45
489.745	4.47
490.179	4.48
490.613	4.49
491.046	4.51
491.48	4.53
491.914	4.54
492.348	4.58
492.781	4.6
493.215	4.61
493.648	4.65
494.082	4.69
494.515	4.71
494.948	4.75
495.382	4.78
495.815	4.81
496.248	4.84
496.681	4.87
497.114	4.9
497.547	4.95
497.98	5
498.413	5.05
498.846	5.09
499.279	5.16
499.711	5.22
500.144	5.28
500.577	5.34
501.009	5.42
501.442	5.51
501.874	5.59
502.306	5.67
502.739	5.75
503.171	5.84
503.603	5.95
504.036	6.05
504.468	6.15
504.9	6.27
505.332	6.4
505.764	6.53
506.196	6.66
506.627	6.8
507.059	6.94
507.491	7.1
507.923	7.26
508.354	7.41
508.786	7.58
509.217	7.75
509.649	7.93
510.08	8.12
510.512	8.31
510.943	8.51
511.374	8.72
511.805	8.94
512.237	9.14
512.668	9.36
513.099	9.59
513.53	9.84
513.961	10.08
514.391	10.32
514.822	10.57
515.253	10.83
515.684	11.09
516.114	11.37
516.545	11.63
516.975	11.91
517.406	12.18
517.836	12.45
518.267	12.73
518.697	13.03
519.127	13.31
519.558	13.59
519.988	13.87
520.418	14.13
520.848	14.4
521.278	14.67
521.708	14.91
522.138	15.19
522.567	15.47
522.997	15.72
523.427	15.97
523.857	16.2
524.286	16.45
524.716	16.67
525.145	16.9
525.575	17.13
526.004	17.36
526.433	17.58
526.863	17.78
527.292	17.98
527.721	18.17
528.15	18.36
528.579	18.54
529.008	18.7
529.437	18.87
529.866	19.01
530.295	19.15
530.724	19.3
531.152	19.43
531.581	19.55
532.01	19.66
532.438	19.77
532.867	19.86
533.295	19.96
533.723	20.07
534.152	20.17
534.58	20.26
535.008	20.33
535.436	20.39
535.865	20.47
536.293	20.54
536.721	20.59
537.149	20.65
537.576	20.69
538.004	20.74
538.432	20.75
538.86	20.78
539.287	20.83
539.715	20.87
540.143	20.91
540.57	20.94
540.998	20.98
541.425	21.04
541.852	21.07
542.28	21.11
542.707	21.15
543.134	21.18
543.561	21.19
543.988	21.21
544.415	21.24
544.842	21.25
545.269	21.27
545.696	21.29
546.123	21.3
546.549	21.33
546.976	21.35
547.403	21.36
547.829	21.4
548.256	21.43
548.682	21.44
549.108	21.45
549.535	21.47
549.961	21.47
550.387	21.47
550.813	21.46
551.24	21.44
551.666	21.44
552.092	21.42
552.518	21.4
552.943	21.38
553.369	21.34
553.795	21.32
554.221	21.28
554.646	21.22
555.072	21.18
555.498	21.14
555.923	21.09
556.349	21.01
556.774	20.94
557.199	20.88
557.625	20.79
558.05	20.73
558.475	20.65
558.9	20.56
559.325	20.48
559.75	20.36
560.175	20.26
560.6	20.14
561.025	20.01
561.449	19.88
561.874	19.74
562.299	19.6
562.723	19.47
563.148	19.32
563.572	19.16
563.997	19.01
564.421	18.85
564.846	18.68
565.27	18.51
565.694	18.36
566.118	18.2
566.542	18.06
566.966	17.91
567.39	17.72
567.814	17.55
568.238	17.38
568.662	17.21
569.086	17.05
569.509	16.9
569.933	16.73
570.357	16.55
570.78	16.39
571.204	16.2
571.627	16.03
572.05	15.88
572.474	15.72
572.897	15.58
573.32	15.43
573.743	15.28
574.166	15.13
574.589	14.98
575.012	14.86
575.435	14.71
575.858	14.61
576.281	14.48
576.704	14.35
577.126	14.23
577.549	14.13
577.972	14.02
578.394	13.91
578.817	13.82
579.239	13.74
579.661	13.64
580.084	13.57
580.506	13.46
580.928	13.36
581.35	13.26
581.772	13.19
582.194	13.09
582.616	13.03
583.038	12.96
583.46	12.89
583.882	12.81
584.303	12.74
584.725	12.66
585.147	12.58
585.568	12.53
585.99	12.49
586.411	12.42
586.833	12.36
587.254	12.3
587.675	12.23
588.096	12.16
588.518	12.11
588.939	12.07
589.36	12.03
589.781	12.02
590.202	11.97
590.623	11.92
591.043	11.85
591.464	11.82
591.885	11.78
592.305	11.76
592.726	11.72
593.147	11.69
593.567	11.65
593.987	11.63
594.408	11.57
594.828	11.56
595.248	11.53
595.669	11.51
596.089	11.49
596.509	11.44
596.929	11.4
597.349	11.37
597.769	11.32
598.189	11.31
598.608	11.27
599.028	11.24
599.448	11.21
599.867	11.17
600.287	11.13
600.706	11.09
601.126	11.05
601.545	11
601.965	10.96
602.384	10.92
602.803	10.85
603.222	10.8
603.641	10.73
604.061	10.67
604.48	10.61
604.898	10.54
605.317	10.48
605.736	10.41
606.155	10.35
606.574	10.29
606.992	10.23
607.411	10.17
607.829	10.06
608.248	10.01
608.666	9.94
609.085	9.87
609.503	9.81
609.921	9.73
610.339	9.66
610.758	9.59
611.176	9.52
611.594	9.44
612.012	9.36
612.43	9.34
612.847	9.27
613.265	9.2
613.683	9.14
614.101	9.07
614.518	9.01
614.936	8.94
615.353	8.88
615.771	8.82
616.188	8.76
616.606	8.72
617.023	8.66
617.44	8.6
617.857	8.54
618.274	8.48
618.691	8.44
619.108	8.39
619.525	8.37
619.942	8.34
620.359	8.3
620.776	8.28
621.192	8.25
621.609	8.22
622.026	8.19
622.442	8.16
622.859	8.16
623.275	8.15
623.691	8.14
624.108	8.12
624.524	8.1
624.94	8.09
625.356	8.08
625.772	8.07
626.188	8.06
626.604	8.05
627.02	8.05
627.436	8.05
627.852	8.04
628.268	8.02
628.683	8
629.099	8
629.514	7.97
629.93	7.96
630.345	7.93
630.761	7.91
631.176	7.88
631.591	7.85
632.007	7.81
632.422	7.79
632.837	7.76
633.252	7.73
633.667	7.68
634.082	7.64
634.497	7.57
634.911	7.52
635.326	7.45
635.741	7.39
636.155	7.34
636.57	7.28
636.984	7.19
637.399	7.09
637.813	7
638.228	6.93
638.642	6.85
639.056	6.8
639.47	6.72
639.884	6.65
640.298	6.58
640.712	6.5
641.126	6.4
641.54	6.33
641.954	6.29
642.368	6.23
642.781	6.15
643.195	6.07
643.609	6
644.022	5.94
644.436	5.87
644.849	5.81
645.262	5.75
645.676	5.69
646.089	5.63
646.502	5.57
646.915	5.51
647.328	5.46
647.741	5.41
648.154	5.38
648.567	5.35
648.98	5.32
649.393	5.28
649.805	5.25
650.218	5.22
650.631	5.2
651.043	5.18
651.456	5.16
651.868	5.15
652.28	5.14
652.693	5.09
653.105	5.05
653.517	5.01
653.929	5
654.341	4.97
654.753	4.93
655.165	4.91
655.577	4.86
655.989	4.81
656.401	4.77
656.813	4.71
657.224	4.67
657.636	4.64
658.047	4.59
658.459	4.54
658.87	4.5
659.282	4.48
659.693	4.43
660.104	4.4
660.515	4.37
660.926	4.34
661.338	4.33
661.749	4.29
662.159	4.26
662.57	4.25
662.981	4.23
663.392	4.19
663.803	4.15
664.213	4.13
664.624	4.09
665.035	4.08
665.445	4.06
665.855	4.04
666.266	4.04
666.676	4.03
667.086	4.01
667.497	3.98
667.907	3.98
668.317	3.97
668.727	3.97
669.137	3.98
669.547	3.98
669.956	3.98
670.366	3.99
670.776	3.99
671.186	4
671.595	4.03
672.005	4.07
672.414	4.08
672.824	4.11
673.233	4.15
673.642	4.16
674.052	4.18
674.461	4.2
674.87	4.23
675.279	4.26
675.688	4.26
676.097	4.28
676.506	4.3
676.915	4.32
677.323	4.35
677.732	4.37
678.141	4.41
678.549	4.45
678.958	4.48
679.366	4.5
679.775	4.53
680.183	4.58
680.592	4.62
681	4.65
681.408	4.69
681.816	4.73
682.224	4.77
682.632	4.83
683.04	4.88
683.448	4.94
683.856	5.03
684.264	5.1
684.671	5.2
685.079	5.3
685.487	5.43
685.894	5.56
686.302	5.71
686.709	5.87
687.116	6.04
687.524	6.24
687.931	6.44
688.338	6.66
688.745	6.92
689.152	7.2
689.559	7.5
689.966	7.82
690.373	8.18
690.78	8.55
691.187	8.94
691.593	9.36
692	9.79
692.407	10.26
692.813	10.74
693.22	11.24
693.626	11.73
694.032	12.25
694.439	12.81
694.845	13.36
695.251	13.91
695.657	14.49
696.063	15.08
696.469	15.69
696.875	16.27
697.281	16.89
697.687	17.52
698.093	18.15
698.498	18.78
698.904	19.39
699.31	20.02
699.715	20.65
700.12	21.26
700.526	21.88
700.931	22.49
701.337	23.1
701.742	23.69
702.147	24.27
702.552	24.86
702.957	25.45
703.362	26.05
703.767	26.62
704.172	27.21
704.577	27.8
704.981	28.35
705.386	28.89
705.791	29.46
706.195	30.04
706.6	30.58
707.004	31.14
707.408	31.7
707.813	32.22
708.217	32.75
708.621	33.27
709.025	33.78
709.43	34.26
709.834	34.8
710.237	35.29
710.641	35.79
711.045	36.29
711.449	36.78
711.853	37.21
712.256	37.7
712.66	38.18
713.064	38.65
713.467	39.09
713.87	39.57
714.274	40.04
714.677	40.48
715.08	40.9
715.484	41.37
715.887	41.8
716.29	42.24
716.693	42.65
717.096	43.06
717.499	43.47
717.901	43.88
718.304	44.25
718.707	44.63
719.109	45.03
719.512	45.43
719.915	45.75
720.317	46.12
720.719	46.46
721.122	46.8
721.524	47.14
721.926	47.45
722.328	47.79
722.731	48.15
723.133	48.48
723.535	48.8
723.937	49.07
724.338	49.36
724.74	49.64
725.142	49.87
725.544	50.13
725.945	50.37
726.347	50.66
726.748	50.82
727.15	51.02
727.551	51.26
727.952	51.44
728.354	51.68
728.755	51.9
729.156	52.11
729.557	52.37
729.958	52.56
730.359	52.76
730.76	52.88
731.161	53.08
731.562	53.29
731.962	53.43
732.363	53.56
732.763	53.7
733.164	53.8
733.564	53.9
733.965	54.03
734.365	54.15
734.766	54.27
735.166	54.38
735.566	54.49
735.966	54.58
736.366	54.67
736.766	54.8
737.166	54.9
737.566	55.02
737.966	55.14
738.365	55.24
738.765	55.32
739.165	55.39
739.564	55.5
739.964	55.57
740.363	55.66
740.763	55.72
741.162	55.76
741.561	55.83
741.96	55.93
742.36	55.99
742.759	56.03
743.158	56.09
743.557	56.13
743.955	56.2
744.354	56.27
744.753	56.32
745.152	56.39
745.55	56.46
745.949	56.5
746.348	56.51
746.746	56.54
747.144	56.59
747.543	56.66
747.941	56.74
748.339	56.8
748.737	56.88
749.136	56.89
749.534	56.94
749.932	56.96
750.33	57.02
750.727	57.05
751.125	57.06
751.523	57.06
751.921	57.08
752.318	57.09
752.716	57.07
753.113	57.05
753.511	57.03
753.908	57
754.305	56.98
754.703	56.96
755.1	56.94
755.497	56.96
755.894	56.98
756.291	56.95
756.688	56.93
757.085	56.94
757.482	56.95
757.878	56.98
758.275	57
758.672	57.02
759.068	57.01
759.465	57.01
759.861	57.02
760.258	56.99
760.654	56.99
761.05	57
761.447	57
761.843	57
762.239	56.98
762.635	56.97
763.031	56.95
763.427	56.94
763.822	56.92
764.218	56.91
764.614	56.91
765.01	56.9
765.405	56.89
765.801	56.87
766.196	56.84
766.592	56.86
766.987	56.9
767.382	56.91
767.778	56.9
768.173	56.88
768.568	56.88
768.963	56.85
769.358	56.86
769.753	56.88
770.148	56.88
770.542	56.85
770.937	56.83
771.332	56.79
771.726	56.77
772.121	56.75
772.515	56.77
772.91	56.73
773.304	56.74
773.699	56.75
774.093	56.7
774.487	56.67
774.881	56.72
775.275	56.71
775.669	56.7
776.063	56.68
776.457	56.68
776.851	56.65
777.245	56.67
777.638	56.68
778.032	56.69
778.425	56.72
778.819	56.74
779.212	56.69
779.606	56.69
779.999	56.67
780.392	56.68
780.786	56.69
781.179	56.72
781.572	56.71
781.965	56.72
782.358	56.67
782.751	56.67
783.143	56.67
783.536	56.69
783.929	56.71
784.322	56.74
784.714	56.76
785.107	56.79
