Data from c_1_dec_on_6n_019_Splice17_14.txt Node
Date: Sat Feb 29 13:17:25 EST 2020
User: sa697716
Spectrometer: FLMS03696
Trigger mode: 0
Integration Time (sec): 3.180400E-1
Scans to average: 20
Electric dark correction enabled: true
Nonlinearity correction enabled: true
Boxcar width: 5
XAxis mode: Wavelengths
Number of Pixels in Spectrum: 2048
>>>>>Begin Spectral Data<<<<<
187.83	117.36
188.298	115.33
188.766	97.08
189.233	94.94
189.701	107.25
190.169	101.8
190.636	99.29
191.104	99.63
191.571	295.63
192.039	312.82
192.506	-83.7
192.974	-1418.83
193.441	322.8
193.908	-6.99
194.375	-73.99
194.842	61.6
195.31	42.99
195.777	-0.52
196.244	29.11
196.711	41.4
197.177	42.34
197.644	41.28
198.111	41.13
198.578	40.43
199.045	40.52
199.511	40.72
199.978	41.16
200.445	40.74
200.911	40.76
201.378	40.9
201.844	40.9
202.31	41.16
202.777	41.2
203.243	41.83
203.709	42.46
204.176	42.04
204.642	41.98
205.108	41.17
205.574	41.69
206.04	41.65
206.506	41.36
206.972	41.08
207.438	40.47
207.903	40.55
208.369	39.78
208.835	39.38
209.301	39.7
209.766	39.37
210.232	39.21
210.697	38.6
211.163	38.52
211.628	38.22
212.094	38.09
212.559	37.83
213.024	37.23
213.49	37.07
213.955	36.86
214.42	36.21
214.885	35.47
215.35	34.98
215.815	34.13
216.28	33.15
216.745	32.3
217.21	31.25
217.675	30.36
218.14	29.39
218.604	28.46
219.069	27.61
219.534	26.97
219.998	26.53
220.463	26.07
220.927	25.68
221.392	25.2
221.856	24.73
222.32	24.32
222.785	23.91
223.249	23.6
223.713	23.33
224.177	22.98
224.642	22.68
225.106	22.33
225.57	22.01
226.034	21.72
226.497	21.46
226.961	21.17
227.425	20.9
227.889	20.64
228.353	20.36
228.816	20.1
229.28	19.82
229.744	19.59
230.207	19.38
230.671	19.15
231.134	18.92
231.597	18.67
232.061	18.47
232.524	18.3
232.987	18.08
233.45	17.88
233.914	17.67
234.377	17.51
234.84	17.31
235.303	17.12
235.766	16.93
236.229	16.75
236.691	16.58
237.154	16.41
237.617	16.24
238.08	16.09
238.542	15.95
239.005	15.8
239.468	15.64
239.93	15.5
240.393	15.36
240.855	15.21
241.317	15.08
241.78	14.98
242.242	14.84
242.704	14.73
243.166	14.62
243.629	14.49
244.091	14.37
244.553	14.26
245.015	14.16
245.477	14.04
245.939	13.93
246.4	13.82
246.862	13.71
247.324	13.63
247.786	13.52
248.247	13.41
248.709	13.33
249.17	13.23
249.632	13.12
250.093	12.99
250.555	12.91
251.016	12.83
251.477	12.74
251.939	12.66
252.4	12.57
252.861	12.49
253.322	12.41
253.783	12.33
254.244	12.25
254.705	12.2
255.166	12.17
255.627	12.1
256.088	12.02
256.549	11.95
257.009	11.87
257.47	11.82
257.931	11.74
258.391	11.67
258.852	11.6
259.312	11.54
259.773	11.47
260.233	11.4
260.694	11.34
261.154	11.29
261.614	11.23
262.074	11.18
262.534	11.1
262.994	11.05
263.455	11
263.915	10.95
264.374	10.9
264.834	10.85
265.294	10.79
265.754	10.74
266.214	10.69
266.673	10.65
267.133	10.59
267.593	10.56
268.052	10.52
268.512	10.47
268.971	10.43
269.431	10.39
269.89	10.35
270.349	10.32
270.809	10.28
271.268	10.25
271.727	10.21
272.186	10.17
272.645	10.13
273.104	10.1
273.563	10.07
274.022	10.03
274.481	9.99
274.94	9.95
275.399	9.91
275.857	9.88
276.316	9.83
276.775	9.79
277.233	9.76
277.692	9.72
278.15	9.68
278.609	9.63
279.067	9.59
279.525	9.55
279.984	9.52
280.442	9.47
280.9	9.44
281.358	9.4
281.816	9.36
282.274	9.32
282.732	9.29
283.19	9.25
283.648	9.22
284.106	9.19
284.564	9.17
285.021	9.14
285.479	9.12
285.937	9.09
286.394	9.07
286.852	9.04
287.309	9.02
287.767	9
288.224	8.98
288.682	8.95
289.139	8.93
289.596	8.89
290.053	8.85
290.511	8.8
290.968	8.77
291.425	8.73
291.882	8.71
292.339	8.67
292.796	8.63
293.252	8.6
293.709	8.57
294.166	8.54
294.623	8.51
295.079	8.49
295.536	8.47
295.992	8.44
296.449	8.41
296.905	8.38
297.362	8.36
297.818	8.35
298.274	8.32
298.731	8.3
299.187	8.27
299.643	8.25
300.099	8.23
300.555	8.2
301.011	8.18
301.467	8.16
301.923	8.15
302.379	8.12
302.835	8.09
303.291	8.07
303.746	8.04
304.202	8.03
304.658	8
305.113	7.98
305.569	7.97
306.024	7.95
306.479	7.93
306.935	7.9
307.39	7.89
307.845	7.87
308.301	7.87
308.756	7.86
309.211	7.85
309.666	7.85
310.121	7.83
310.576	7.82
311.031	7.8
311.486	7.79
311.94	7.78
312.395	7.78
312.85	7.76
313.305	7.74
313.759	7.73
314.214	7.72
314.668	7.71
315.123	7.7
315.577	7.7
316.032	7.69
316.486	7.68
316.94	7.66
317.394	7.65
317.849	7.64
318.303	7.63
318.757	7.61
319.211	7.58
319.665	7.56
320.119	7.54
320.572	7.52
321.026	7.51
321.48	7.49
321.934	7.49
322.387	7.47
322.841	7.46
323.295	7.44
323.748	7.43
324.202	7.42
324.655	7.41
325.108	7.39
325.562	7.37
326.015	7.35
326.468	7.33
326.921	7.3
327.374	7.29
327.827	7.27
328.28	7.26
328.733	7.24
329.186	7.22
329.639	7.21
330.092	7.2
330.545	7.19
330.997	7.19
331.45	7.19
331.903	7.19
332.355	7.18
332.808	7.18
333.26	7.19
333.713	7.2
334.165	7.21
334.617	7.2
335.069	7.19
335.522	7.19
335.974	7.18
336.426	7.17
336.878	7.17
337.33	7.16
337.782	7.16
338.234	7.14
338.686	7.12
339.137	7.11
339.589	7.1
340.041	7.08
340.493	7.07
340.944	7.06
341.396	7.05
341.847	7.01
342.299	6.99
342.75	6.96
343.201	6.93
343.653	6.91
344.104	6.89
344.555	6.89
345.006	6.87
345.457	6.85
345.908	6.83
346.359	6.8
346.81	6.79
347.261	6.78
347.712	6.77
348.163	6.76
348.613	6.75
349.064	6.72
349.515	6.69
349.965	6.69
350.416	6.68
350.866	6.68
351.317	6.67
351.767	6.67
352.217	6.66
352.668	6.66
353.118	6.66
353.568	6.65
354.018	6.67
354.468	6.67
354.918	6.68
355.368	6.67
355.818	6.65
356.268	6.65
356.718	6.64
357.168	6.63
357.617	6.62
358.067	6.61
358.517	6.6
358.966	6.59
359.416	6.59
359.865	6.58
360.315	6.57
360.764	6.56
361.213	6.55
361.663	6.55
362.112	6.56
362.561	6.56
363.01	6.56
363.459	6.55
363.908	6.55
364.357	6.53
364.806	6.53
365.255	6.54
365.703	6.55
366.152	6.54
366.601	6.54
367.05	6.54
367.498	6.53
367.947	6.53
368.395	6.52
368.844	6.52
369.292	6.53
369.74	6.53
370.189	6.51
370.637	6.51
371.085	6.52
371.533	6.52
371.981	6.51
372.429	6.5
372.877	6.49
373.325	6.5
373.773	6.5
374.221	6.48
374.669	6.48
375.116	6.47
375.564	6.46
376.012	6.44
376.459	6.44
376.907	6.45
377.354	6.46
377.801	6.47
378.249	6.47
378.696	6.49
379.143	6.51
379.591	6.53
380.038	6.55
380.485	6.56
380.932	6.57
381.379	6.57
381.826	6.58
382.273	6.6
382.72	6.6
383.166	6.61
383.613	6.61
384.06	6.61
384.506	6.61
384.953	6.61
385.4	6.62
385.846	6.62
386.292	6.64
386.739	6.65
387.185	6.66
387.631	6.67
388.078	6.68
388.524	6.67
388.97	6.68
389.416	6.67
389.862	6.68
390.308	6.69
390.754	6.7
391.2	6.72
391.645	6.73
392.091	6.74
392.537	6.74
392.983	6.75
393.428	6.78
393.874	6.8
394.319	6.82
394.765	6.83
395.21	6.84
395.655	6.86
396.101	6.86
396.546	6.87
396.991	6.9
397.436	6.9
397.881	6.91
398.326	6.94
398.771	6.96
399.216	6.98
399.661	7.01
400.106	7.02
400.551	7.03
400.995	7.03
401.44	7.04
401.885	7.04
402.329	7.06
402.774	7.05
403.218	7.04
403.663	7.04
404.107	7.05
404.551	7.06
404.995	7.05
405.44	7.05
405.884	7.06
406.328	7.06
406.772	7.06
407.216	7.07
407.66	7.08
408.104	7.09
408.547	7.09
408.991	7.09
409.435	7.08
409.879	7.09
410.322	7.11
410.766	7.12
411.209	7.12
411.653	7.12
412.096	7.1
412.54	7.11
412.983	7.12
413.426	7.14
413.869	7.16
414.312	7.19
414.756	7.22
415.199	7.22
415.642	7.23
416.085	7.24
416.527	7.27
416.97	7.3
417.413	7.3
417.856	7.3
418.298	7.28
418.741	7.27
419.184	7.26
419.626	7.24
420.069	7.23
420.511	7.23
420.953	7.21
421.396	7.2
421.838	7.21
422.28	7.22
422.722	7.23
423.164	7.24
423.606	7.25
424.048	7.24
424.49	7.24
424.932	7.24
425.374	7.24
425.816	7.25
426.258	7.23
426.699	7.2
427.141	7.18
427.582	7.17
428.024	7.17
428.465	7.16
428.907	7.18
429.348	7.2
429.789	7.21
430.231	7.21
430.672	7.21
431.113	7.24
431.554	7.27
431.995	7.29
432.436	7.3
432.877	7.3
433.318	7.29
433.759	7.28
434.2	7.27
434.64	7.28
435.081	7.29
435.522	7.31
435.962	7.32
436.403	7.34
436.843	7.35
437.284	7.37
437.724	7.38
438.164	7.41
438.604	7.42
439.045	7.43
439.485	7.44
439.925	7.42
440.365	7.42
440.805	7.41
441.245	7.4
441.685	7.4
442.125	7.42
442.564	7.44
443.004	7.47
443.444	7.49
443.883	7.5
444.323	7.5
444.762	7.57
445.202	7.59
445.641	7.61
446.081	7.64
446.52	7.66
446.959	7.67
447.398	7.68
447.837	7.69
448.276	7.69
448.716	7.71
449.154	7.75
449.593	7.75
450.032	7.76
450.471	7.76
450.91	7.75
451.349	7.76
451.787	7.78
452.226	7.78
452.664	7.77
453.103	7.77
453.541	7.77
453.98	7.75
454.418	7.73
454.856	7.71
455.295	7.7
455.733	7.69
456.171	7.68
456.609	7.67
457.047	7.65
457.485	7.65
457.923	7.65
458.361	7.65
458.798	7.65
459.236	7.65
459.674	7.66
460.111	7.7
460.549	7.69
460.987	7.69
461.424	7.69
461.862	7.7
462.299	7.7
462.736	7.71
463.173	7.7
463.611	7.7
464.048	7.69
464.485	7.68
464.922	7.64
465.359	7.66
465.796	7.63
466.233	7.63
466.67	7.63
467.106	7.64
467.543	7.61
467.98	7.61
468.416	7.62
468.853	7.64
469.29	7.66
469.726	7.69
470.162	7.69
470.599	7.7
471.035	7.7
471.471	7.67
471.907	7.67
472.344	7.67
472.78	7.67
473.216	7.66
473.652	7.64
474.088	7.62
474.523	7.62
474.959	7.59
475.395	7.58
475.831	7.59
476.266	7.6
476.702	7.57
477.138	7.56
477.573	7.54
478.008	7.54
478.444	7.53
478.879	7.53
479.314	7.51
479.75	7.51
480.185	7.51
480.62	7.5
481.055	7.5
481.49	7.49
481.925	7.49
482.36	7.48
482.795	7.47
483.229	7.46
483.664	7.46
484.099	7.45
484.534	7.45
484.968	7.44
485.403	7.44
485.837	7.44
486.271	7.45
486.706	7.44
487.14	7.44
487.574	7.45
488.009	7.47
488.443	7.47
488.877	7.48
489.311	7.49
489.745	7.51
490.179	7.51
490.613	7.53
491.046	7.55
491.48	7.58
491.914	7.61
492.348	7.63
492.781	7.65
493.215	7.66
493.648	7.69
494.082	7.73
494.515	7.76
494.948	7.8
495.382	7.82
495.815	7.87
496.248	7.91
496.681	7.94
497.114	7.99
497.547	8.06
497.98	8.11
498.413	8.19
498.846	8.25
499.279	8.31
499.711	8.38
500.144	8.47
500.577	8.54
501.009	8.63
501.442	8.72
501.874	8.81
502.306	8.9
502.739	8.99
503.171	9.1
503.603	9.22
504.036	9.35
504.468	9.49
504.9	9.63
505.332	9.78
505.764	9.93
506.196	10.1
506.627	10.27
507.059	10.43
507.491	10.63
507.923	10.81
508.354	11.01
508.786	11.21
509.217	11.4
509.649	11.62
510.08	11.86
510.512	12.07
510.943	12.32
511.374	12.56
511.805	12.82
512.237	13.09
512.668	13.36
513.099	13.64
513.53	13.92
513.961	14.22
514.391	14.52
514.822	14.8
515.253	15.1
515.684	15.42
516.114	15.74
516.545	16.07
516.975	16.38
517.406	16.7
517.836	17
518.267	17.33
518.697	17.66
519.127	18
519.558	18.33
519.988	18.67
520.418	18.98
520.848	19.28
521.278	19.6
521.708	19.88
522.138	20.18
522.567	20.51
522.997	20.8
523.427	21.09
523.857	21.36
524.286	21.64
524.716	21.9
525.145	22.18
525.575	22.44
526.004	22.7
526.433	22.98
526.863	23.24
527.292	23.48
527.721	23.68
528.15	23.89
528.579	24.1
529.008	24.31
529.437	24.51
529.866	24.68
530.295	24.86
530.724	25.02
531.152	25.16
531.581	25.31
532.01	25.42
532.438	25.58
532.867	25.71
533.295	25.84
533.723	25.95
534.152	26.06
534.58	26.13
535.008	26.21
535.436	26.29
535.865	26.38
536.293	26.45
536.721	26.53
537.149	26.57
537.576	26.63
538.004	26.68
538.432	26.72
538.86	26.76
539.287	26.84
539.715	26.89
540.143	26.94
540.57	26.97
540.998	27.02
541.425	27.06
541.852	27.11
542.28	27.14
542.707	27.17
543.134	27.21
543.561	27.23
543.988	27.25
544.415	27.29
544.842	27.33
545.269	27.38
545.696	27.39
546.123	27.4
546.549	27.45
546.976	27.47
547.403	27.49
547.829	27.52
548.256	27.55
548.682	27.56
549.108	27.56
549.535	27.57
549.961	27.56
550.387	27.55
550.813	27.56
551.24	27.55
551.666	27.56
552.092	27.53
552.518	27.5
552.943	27.5
553.369	27.47
553.795	27.44
554.221	27.4
554.646	27.34
555.072	27.29
555.498	27.25
555.923	27.17
556.349	27.07
556.774	27.02
557.199	26.95
557.625	26.83
558.05	26.72
558.475	26.61
558.9	26.5
559.325	26.4
559.75	26.29
560.175	26.16
560.6	26.03
561.025	25.92
561.449	25.77
561.874	25.62
562.299	25.49
562.723	25.35
563.148	25.21
563.572	25.05
563.997	24.86
564.421	24.69
564.846	24.51
565.27	24.33
565.694	24.14
566.118	23.94
566.542	23.75
566.966	23.57
567.39	23.36
567.814	23.16
568.238	22.95
568.662	22.76
569.086	22.57
569.509	22.38
569.933	22.18
570.357	21.98
570.78	21.81
571.204	21.61
571.627	21.42
572.05	21.25
572.474	21.09
572.897	20.93
573.32	20.76
573.743	20.59
574.166	20.44
574.589	20.29
575.012	20.14
575.435	19.99
575.858	19.85
576.281	19.7
576.704	19.56
577.126	19.41
577.549	19.29
577.972	19.17
578.394	19.05
578.817	18.91
579.239	18.81
579.661	18.69
580.084	18.58
580.506	18.47
580.928	18.38
581.35	18.29
581.772	18.2
582.194	18.1
582.616	18.01
583.038	17.93
583.46	17.85
583.882	17.76
584.303	17.69
584.725	17.61
585.147	17.51
585.568	17.44
585.99	17.37
586.411	17.31
586.833	17.24
587.254	17.18
587.675	17.1
588.096	17.03
588.518	16.96
588.939	16.9
589.36	16.85
589.781	16.82
590.202	16.77
590.623	16.71
591.043	16.65
591.464	16.6
591.885	16.54
592.305	16.5
592.726	16.45
593.147	16.44
593.567	16.38
593.987	16.35
594.408	16.3
594.828	16.27
595.248	16.23
595.669	16.19
596.089	16.15
596.509	16.12
596.929	16.09
597.349	16.06
597.769	16
598.189	15.96
598.608	15.91
599.028	15.86
599.448	15.83
599.867	15.79
600.287	15.74
600.706	15.69
601.126	15.63
601.545	15.57
601.965	15.51
602.384	15.46
602.803	15.4
603.222	15.34
603.641	15.28
604.061	15.2
604.48	15.13
604.898	15.06
605.317	14.99
605.736	14.92
606.155	14.85
606.574	14.77
606.992	14.69
607.411	14.62
607.829	14.5
608.248	14.42
608.666	14.36
609.085	14.29
609.503	14.21
609.921	14.12
610.339	14.06
610.758	13.99
611.176	13.9
611.594	13.82
612.012	13.74
612.43	13.71
612.847	13.63
613.265	13.56
613.683	13.47
614.101	13.4
614.518	13.33
614.936	13.24
615.353	13.17
615.771	13.1
616.188	13.03
616.606	12.96
617.023	12.89
617.44	12.82
617.857	12.75
618.274	12.71
618.691	12.66
619.108	12.62
619.525	12.57
619.942	12.52
620.359	12.48
620.776	12.45
621.192	12.43
621.609	12.4
622.026	12.38
622.442	12.35
622.859	12.34
623.275	12.33
623.691	12.31
624.108	12.3
624.524	12.29
624.94	12.28
625.356	12.26
625.772	12.24
626.188	12.23
626.604	12.2
627.02	12.17
627.436	12.14
627.852	12.13
628.268	12.11
628.683	12.08
629.099	12.07
629.514	12.05
629.93	12.03
630.345	12.01
630.761	11.97
631.176	11.96
631.591	11.94
632.007	11.89
632.422	11.84
632.837	11.79
633.252	11.72
633.667	11.66
634.082	11.6
634.497	11.52
634.911	11.43
635.326	11.34
635.741	11.24
636.155	11.17
636.57	11.08
636.984	10.96
637.399	10.86
637.813	10.77
638.228	10.66
638.642	10.56
639.056	10.46
639.47	10.35
639.884	10.25
640.298	10.17
640.712	10.04
641.126	9.95
641.54	9.86
641.954	9.79
642.368	9.69
642.781	9.59
643.195	9.48
643.609	9.4
644.022	9.32
644.436	9.24
644.849	9.17
645.262	9.11
645.676	9.04
646.089	8.97
646.502	8.89
646.915	8.83
647.328	8.79
647.741	8.73
648.154	8.67
648.567	8.63
648.98	8.6
649.393	8.56
649.805	8.52
650.218	8.48
650.631	8.46
651.043	8.44
651.456	8.43
651.868	8.4
652.28	8.4
652.693	8.36
653.105	8.34
653.517	8.31
653.929	8.27
654.341	8.25
654.753	8.21
655.165	8.18
655.577	8.12
655.989	8.07
656.401	8.03
656.813	7.96
657.224	7.92
657.636	7.87
658.047	7.8
658.459	7.75
658.87	7.69
659.282	7.65
659.693	7.6
660.104	7.55
660.515	7.5
660.926	7.46
661.338	7.42
661.749	7.38
662.159	7.34
662.57	7.31
662.981	7.29
663.392	7.25
663.803	7.21
664.213	7.19
664.624	7.17
665.035	7.14
665.445	7.12
665.855	7.12
666.266	7.11
666.676	7.11
667.086	7.11
667.497	7.08
667.907	7.07
668.317	7.06
668.727	7.07
669.137	7.08
669.547	7.11
669.956	7.1
670.366	7.12
670.776	7.13
671.186	7.13
671.595	7.16
672.005	7.19
672.414	7.22
672.824	7.26
673.233	7.28
673.642	7.28
674.052	7.3
674.461	7.33
674.87	7.35
675.279	7.37
675.688	7.39
676.097	7.42
676.506	7.45
676.915	7.5
677.323	7.53
677.732	7.58
678.141	7.62
678.549	7.67
678.958	7.72
679.366	7.75
679.775	7.81
680.183	7.85
680.592	7.9
681	7.96
681.408	7.99
681.816	8.05
682.224	8.11
682.632	8.2
683.04	8.27
683.448	8.35
683.856	8.47
684.264	8.58
684.671	8.71
685.079	8.83
685.487	8.99
685.894	9.18
686.302	9.37
686.709	9.58
687.116	9.81
687.524	10.08
687.931	10.36
688.338	10.68
688.745	11.02
689.152	11.39
689.559	11.81
689.966	12.23
690.373	12.7
690.78	13.19
691.187	13.71
691.593	14.23
692	14.8
692.407	15.39
692.813	15.99
693.22	16.6
693.626	17.24
694.032	17.87
694.439	18.57
694.845	19.24
695.251	19.94
695.657	20.62
696.063	21.35
696.469	22.06
696.875	22.77
697.281	23.5
697.687	24.25
698.093	24.98
698.498	25.72
698.904	26.43
699.31	27.12
699.715	27.83
700.12	28.52
700.526	29.23
700.931	29.92
701.337	30.61
701.742	31.25
702.147	31.9
702.552	32.57
702.957	33.2
703.362	33.85
703.767	34.5
704.172	35.15
704.577	35.8
704.981	36.41
705.386	37.01
705.791	37.61
706.195	38.21
706.6	38.79
707.004	39.37
707.408	39.98
707.813	40.54
708.217	41.12
708.621	41.67
709.025	42.22
709.43	42.75
709.834	43.31
710.237	43.85
710.641	44.39
711.045	44.93
711.449	45.43
711.853	45.92
712.256	46.42
712.66	46.9
713.064	47.36
713.467	47.82
713.87	48.28
714.274	48.77
714.677	49.21
715.08	49.64
715.484	50.07
715.887	50.51
716.29	50.92
716.693	51.33
717.096	51.75
717.499	52.17
717.901	52.55
718.304	52.96
718.707	53.31
719.109	53.69
719.512	54.08
719.915	54.45
720.317	54.8
720.719	55.14
721.122	55.48
721.524	55.8
721.926	56.13
722.328	56.47
722.731	56.77
723.133	57.06
723.535	57.4
723.937	57.68
724.338	57.93
724.74	58.17
725.142	58.33
725.544	58.58
725.945	58.82
726.347	59.09
726.748	59.27
727.15	59.48
727.551	59.69
727.952	59.87
728.354	60.06
728.755	60.3
729.156	60.53
729.557	60.84
729.958	61.02
730.359	61.23
730.76	61.36
731.161	61.56
731.562	61.77
731.962	61.9
732.363	62.04
732.763	62.22
733.164	62.32
733.564	62.44
733.965	62.52
734.365	62.63
734.766	62.71
735.166	62.79
735.566	62.85
735.966	62.9
736.366	62.98
736.766	63.06
737.166	63.11
737.566	63.2
737.966	63.27
738.365	63.36
738.765	63.44
739.165	63.48
739.564	63.56
739.964	63.67
740.363	63.73
740.763	63.78
741.162	63.82
741.561	63.88
741.96	63.97
742.36	64.03
742.759	64.08
743.158	64.11
743.557	64.2
743.955	64.27
744.354	64.27
744.753	64.34
745.152	64.4
745.55	64.45
745.949	64.48
746.348	64.48
746.746	64.53
747.144	64.59
747.543	64.66
747.941	64.72
748.339	64.81
748.737	64.88
749.136	64.93
749.534	64.97
749.932	65
750.33	65.04
750.727	65.07
751.125	65.09
751.523	65.08
751.921	65.09
752.318	65.09
752.716	65.03
753.113	65.04
753.511	64.99
753.908	65.01
754.305	65
754.703	64.97
755.1	64.95
755.497	64.96
755.894	64.97
756.291	64.97
756.688	64.91
757.085	64.91
757.482	64.92
757.878	64.99
758.275	64.99
758.672	65.01
759.068	65.04
759.465	65.05
759.861	65.01
760.258	64.98
760.654	64.98
761.05	65.01
761.447	65
761.843	64.96
762.239	64.92
762.635	64.88
763.031	64.87
763.427	64.87
763.822	64.83
764.218	64.82
764.614	64.83
765.01	64.81
765.405	64.84
765.801	64.84
766.196	64.84
766.592	64.84
766.987	64.82
767.382	64.81
767.778	64.82
768.173	64.84
768.568	64.84
768.963	64.84
769.358	64.82
769.753	64.83
770.148	64.82
770.542	64.82
770.937	64.8
771.332	64.81
771.726	64.81
772.121	64.72
772.515	64.72
772.91	64.7
773.304	64.68
773.699	64.68
774.093	64.61
774.487	64.62
774.881	64.67
775.275	64.68
775.669	64.68
776.063	64.68
776.457	64.67
776.851	64.65
777.245	64.67
777.638	64.71
778.032	64.74
778.425	64.79
778.819	64.77
779.212	64.7
779.606	64.69
