Data from c_1_hir_wi_4n_043_Splice17_14.txt Node
Date: Sat Feb 29 13:29:34 EST 2020
User: sa697716
Spectrometer: FLMS03696
Trigger mode: 0
Integration Time (sec): 3.180400E-1
Scans to average: 20
Electric dark correction enabled: true
Nonlinearity correction enabled: true
Boxcar width: 5
XAxis mode: Wavelengths
Number of Pixels in Spectrum: 2048
>>>>>Begin Spectral Data<<<<<
187.83	87.02
188.298	86.73
188.766	90.03
189.233	76.76
189.701	83.51
190.169	78.31
190.636	77.52
191.104	36.66
191.571	-147.21
192.039	-23.57
192.506	396.79
192.974	5379.44
193.441	-280.88
193.908	104.62
194.375	147.63
194.842	80.98
195.31	32.05
195.777	4.21
196.244	67.59
196.711	84.54
197.177	86.74
197.644	86.71
198.111	88.31
198.578	89.79
199.045	91.6
199.511	91.52
199.978	93.22
200.445	92.94
200.911	93.66
201.378	93.55
201.844	94.65
202.31	95.43
202.777	96.13
203.243	96.49
203.709	96.19
204.176	95.26
204.642	95.12
205.108	94.09
205.574	94.42
206.04	93.68
206.506	92.74
206.972	91.35
207.438	89.97
207.903	89.08
208.369	87
208.835	85.66
209.301	84.56
209.766	82.35
210.232	80.83
210.697	78.3
211.163	76.37
211.628	74.81
212.094	73.2
212.559	71.9
213.024	70.05
213.49	68.22
213.955	66.44
214.42	63.86
214.885	61.3
215.35	58.34
215.815	54.95
216.28	50.75
216.745	46.04
217.21	41.35
217.675	36.72
218.14	32.66
218.604	29.13
219.069	26.11
219.534	23.67
219.998	21.66
220.463	19.93
220.927	18.5
221.392	17.24
221.856	16.2
222.32	15.28
222.785	14.56
223.249	13.9
223.713	13.35
224.177	12.83
224.642	12.36
225.106	11.93
225.57	11.46
226.034	11.09
226.497	10.74
226.961	10.42
227.425	10.09
227.889	9.81
228.353	9.53
228.816	9.29
229.28	9.03
229.744	8.81
230.207	8.6
230.671	8.42
231.134	8.24
231.597	8.08
232.061	7.91
232.524	7.79
232.987	7.63
233.45	7.5
233.914	7.38
234.377	7.28
234.84	7.16
235.303	7.06
235.766	6.96
236.229	6.87
236.691	6.78
237.154	6.71
237.617	6.63
238.08	6.56
238.542	6.49
239.005	6.42
239.468	6.33
239.93	6.28
240.393	6.22
240.855	6.13
241.317	6.06
241.78	6.01
242.242	5.93
242.704	5.86
243.166	5.81
243.629	5.74
244.091	5.69
244.553	5.64
245.015	5.58
245.477	5.52
245.939	5.47
246.4	5.39
246.862	5.33
247.324	5.3
247.786	5.24
248.247	5.18
248.709	5.12
249.17	5.06
249.632	5
250.093	4.93
250.555	4.89
251.016	4.85
251.477	4.82
251.939	4.77
252.4	4.72
252.861	4.68
253.322	4.64
253.783	4.61
254.244	4.58
254.705	4.54
255.166	4.51
255.627	4.47
256.088	4.42
256.549	4.38
257.009	4.34
257.47	4.3
257.931	4.25
258.391	4.21
258.852	4.15
259.312	4.1
259.773	4.06
260.233	4.01
260.694	3.97
261.154	3.93
261.614	3.9
262.074	3.86
262.534	3.81
262.994	3.79
263.455	3.75
263.915	3.71
264.374	3.68
264.834	3.64
265.294	3.61
265.754	3.57
266.214	3.54
266.673	3.51
267.133	3.48
267.593	3.46
268.052	3.43
268.512	3.41
268.971	3.39
269.431	3.38
269.89	3.36
270.349	3.35
270.809	3.34
271.268	3.34
271.727	3.32
272.186	3.32
272.645	3.31
273.104	3.3
273.563	3.3
274.022	3.29
274.481	3.28
274.94	3.27
275.399	3.26
275.857	3.26
276.316	3.24
276.775	3.23
277.233	3.22
277.692	3.21
278.15	3.2
278.609	3.19
279.067	3.18
279.525	3.18
279.984	3.17
280.442	3.17
280.9	3.18
281.358	3.18
281.816	3.19
282.274	3.19
282.732	3.19
283.19	3.19
283.648	3.2
284.106	3.19
284.564	3.2
285.021	3.2
285.479	3.2
285.937	3.19
286.394	3.18
286.852	3.17
287.309	3.17
287.767	3.16
288.224	3.15
288.682	3.13
289.139	3.12
289.596	3.1
290.053	3.08
290.511	3.05
290.968	3.03
291.425	3.02
291.882	2.99
292.339	2.97
292.796	2.95
293.252	2.93
293.709	2.91
294.166	2.9
294.623	2.88
295.079	2.87
295.536	2.87
295.992	2.86
296.449	2.85
296.905	2.85
297.362	2.84
297.818	2.83
298.274	2.82
298.731	2.81
299.187	2.81
299.643	2.81
300.099	2.8
300.555	2.79
301.011	2.78
301.467	2.78
301.923	2.78
302.379	2.77
302.835	2.78
303.291	2.78
303.746	2.78
304.202	2.77
304.658	2.77
305.113	2.77
305.569	2.78
306.024	2.79
306.479	2.79
306.935	2.79
307.39	2.8
307.845	2.8
308.301	2.81
308.756	2.82
309.211	2.83
309.666	2.84
310.121	2.84
310.576	2.85
311.031	2.85
311.486	2.85
311.94	2.85
312.395	2.86
312.85	2.86
313.305	2.86
313.759	2.86
314.214	2.86
314.668	2.85
315.123	2.85
315.577	2.85
316.032	2.84
316.486	2.84
316.94	2.83
317.394	2.82
317.849	2.81
318.303	2.8
318.757	2.79
319.211	2.77
319.665	2.76
320.119	2.75
320.572	2.75
321.026	2.73
321.48	2.73
321.934	2.74
322.387	2.73
322.841	2.73
323.295	2.72
323.748	2.72
324.202	2.73
324.655	2.73
325.108	2.72
325.562	2.72
326.015	2.72
326.468	2.72
326.921	2.71
327.374	2.71
327.827	2.71
328.28	2.71
328.733	2.71
329.186	2.71
329.639	2.72
330.092	2.71
330.545	2.72
330.997	2.72
331.45	2.72
331.903	2.73
332.355	2.73
332.808	2.74
333.26	2.74
333.713	2.76
334.165	2.76
334.617	2.77
335.069	2.78
335.522	2.79
335.974	2.8
336.426	2.81
336.878	2.81
337.33	2.82
337.782	2.83
338.234	2.83
338.686	2.82
339.137	2.83
339.589	2.82
340.041	2.81
340.493	2.79
340.944	2.78
341.396	2.78
341.847	2.77
342.299	2.75
342.75	2.74
343.201	2.72
343.653	2.7
344.104	2.69
344.555	2.68
345.006	2.67
345.457	2.67
345.908	2.65
346.359	2.64
346.81	2.64
347.261	2.63
347.712	2.62
348.163	2.62
348.613	2.62
349.064	2.62
349.515	2.61
349.965	2.61
350.416	2.6
350.866	2.61
351.317	2.6
351.767	2.6
352.217	2.6
352.668	2.6
353.118	2.6
353.568	2.6
354.018	2.61
354.468	2.61
354.918	2.62
355.368	2.62
355.818	2.63
356.268	2.63
356.718	2.63
357.168	2.63
357.617	2.64
358.067	2.63
358.517	2.63
358.966	2.63
359.416	2.64
359.865	2.63
360.315	2.64
360.764	2.63
361.213	2.63
361.663	2.63
362.112	2.63
362.561	2.62
363.01	2.63
363.459	2.64
363.908	2.64
364.357	2.64
364.806	2.63
365.255	2.64
365.703	2.65
366.152	2.67
366.601	2.68
367.05	2.7
367.498	2.71
367.947	2.7
368.395	2.7
368.844	2.7
369.292	2.7
369.74	2.72
370.189	2.71
370.637	2.71
371.085	2.72
371.533	2.71
371.981	2.7
372.429	2.7
372.877	2.71
373.325	2.71
373.773	2.7
374.221	2.7
374.669	2.69
375.116	2.69
375.564	2.68
376.012	2.69
376.459	2.68
376.907	2.69
377.354	2.69
377.801	2.71
378.249	2.72
378.696	2.75
379.143	2.77
379.591	2.78
380.038	2.8
380.485	2.82
380.932	2.82
381.379	2.83
381.826	2.85
382.273	2.85
382.72	2.85
383.166	2.86
383.613	2.86
384.06	2.86
384.506	2.86
384.953	2.87
385.4	2.87
385.846	2.88
386.292	2.89
386.739	2.89
387.185	2.92
387.631	2.92
388.078	2.93
388.524	2.93
388.97	2.94
389.416	2.95
389.862	2.96
390.308	2.98
390.754	3
391.2	3.03
391.645	3.05
392.091	3.07
392.537	3.09
392.983	3.11
393.428	3.14
393.874	3.17
394.319	3.19
394.765	3.21
395.21	3.22
395.655	3.25
396.101	3.25
396.546	3.27
396.991	3.28
397.436	3.3
397.881	3.33
398.326	3.37
398.771	3.39
399.216	3.42
399.661	3.45
400.106	3.47
400.551	3.48
400.995	3.49
401.44	3.5
401.885	3.51
402.329	3.53
402.774	3.54
403.218	3.56
403.663	3.55
404.107	3.57
404.551	3.59
404.995	3.6
405.44	3.62
405.884	3.64
406.328	3.67
406.772	3.7
407.216	3.72
407.66	3.73
408.104	3.74
408.547	3.78
408.991	3.79
409.435	3.8
409.879	3.83
410.322	3.87
410.766	3.91
411.209	3.94
411.653	3.94
412.096	3.97
412.54	4
412.983	4.03
413.426	4.06
413.869	4.1
414.312	4.14
414.756	4.17
415.199	4.19
415.642	4.22
416.085	4.25
416.527	4.28
416.97	4.3
417.413	4.3
417.856	4.31
418.298	4.31
418.741	4.31
419.184	4.31
419.626	4.31
420.069	4.3
420.511	4.3
420.953	4.29
421.396	4.3
421.838	4.32
422.28	4.36
422.722	4.4
423.164	4.41
423.606	4.44
424.048	4.43
424.49	4.47
424.932	4.48
425.374	4.48
425.816	4.46
426.258	4.46
426.699	4.44
427.141	4.42
427.582	4.42
428.024	4.43
428.465	4.45
428.907	4.46
429.348	4.45
429.789	4.47
430.231	4.49
430.672	4.55
431.113	4.57
431.554	4.59
431.995	4.62
432.436	4.62
432.877	4.63
433.318	4.63
433.759	4.66
434.2	4.7
434.64	4.73
435.081	4.75
435.522	4.77
435.962	4.78
436.403	4.82
436.843	4.82
437.284	4.84
437.724	4.86
438.164	4.88
438.604	4.9
439.045	4.9
439.485	4.91
439.925	4.91
440.365	4.89
440.805	4.9
441.245	4.9
441.685	4.92
442.125	4.92
442.564	4.94
443.004	4.96
443.444	4.97
443.883	4.99
444.323	5
444.762	5.02
445.202	5.06
445.641	5.08
446.081	5.12
446.52	5.11
446.959	5.13
447.398	5.14
447.837	5.17
448.276	5.17
448.716	5.18
449.154	5.2
449.593	5.21
450.032	5.2
450.471	5.18
450.91	5.14
451.349	5.15
451.787	5.14
452.226	5.12
452.664	5.08
453.103	5.07
453.541	5.03
453.98	5.01
454.418	4.97
454.856	4.94
455.295	4.92
455.733	4.91
456.171	4.89
456.609	4.88
457.047	4.87
457.485	4.86
457.923	4.85
458.361	4.85
458.798	4.85
459.236	4.85
459.674	4.86
460.111	4.87
460.549	4.86
460.987	4.86
461.424	4.85
461.862	4.85
462.299	4.85
462.736	4.85
463.173	4.85
463.611	4.86
464.048	4.87
464.485	4.87
464.922	4.86
465.359	4.89
465.796	4.9
466.233	4.92
466.67	4.94
467.106	4.93
467.543	4.94
467.98	4.95
468.416	4.95
468.853	4.95
469.29	4.96
469.726	4.96
470.162	4.95
470.599	4.93
471.035	4.92
471.471	4.9
471.907	4.9
472.344	4.88
472.78	4.86
473.216	4.86
473.652	4.85
474.088	4.84
474.523	4.83
474.959	4.8
475.395	4.79
475.831	4.78
476.266	4.77
476.702	4.75
477.138	4.74
477.573	4.72
478.008	4.7
478.444	4.67
478.879	4.65
479.314	4.63
479.75	4.62
480.185	4.6
480.62	4.58
481.055	4.56
481.49	4.54
481.925	4.52
482.36	4.5
482.795	4.47
483.229	4.45
483.664	4.44
484.099	4.42
484.534	4.4
484.968	4.4
485.403	4.38
485.837	4.37
486.271	4.36
486.706	4.34
487.14	4.35
487.574	4.35
488.009	4.36
488.443	4.35
488.877	4.35
489.311	4.36
489.745	4.37
490.179	4.38
490.613	4.39
491.046	4.42
491.48	4.45
491.914	4.45
492.348	4.47
492.781	4.49
493.215	4.5
493.648	4.52
494.082	4.56
494.515	4.58
494.948	4.6
495.382	4.62
495.815	4.64
496.248	4.66
496.681	4.68
497.114	4.71
497.547	4.75
497.98	4.79
498.413	4.83
498.846	4.85
499.279	4.89
499.711	4.94
500.144	4.99
500.577	5.04
501.009	5.09
501.442	5.17
501.874	5.23
502.306	5.28
502.739	5.35
503.171	5.43
503.603	5.51
504.036	5.6
504.468	5.69
504.9	5.79
505.332	5.88
505.764	5.99
506.196	6.1
506.627	6.21
507.059	6.33
507.491	6.45
507.923	6.57
508.354	6.71
508.786	6.84
509.217	6.97
509.649	7.11
510.08	7.27
510.512	7.42
510.943	7.6
511.374	7.77
511.805	7.93
512.237	8.11
512.668	8.29
513.099	8.48
513.53	8.67
513.961	8.87
514.391	9.07
514.822	9.27
515.253	9.48
515.684	9.68
516.114	9.91
516.545	10.14
516.975	10.38
517.406	10.61
517.836	10.85
518.267	11.11
518.697	11.36
519.127	11.61
519.558	11.85
519.988	12.1
520.418	12.33
520.848	12.56
521.278	12.82
521.708	13.15
522.138	13.38
522.567	13.6
522.997	13.82
523.427	14.02
523.857	14.24
524.286	14.47
524.716	14.66
525.145	14.88
525.575	15.08
526.004	15.27
526.433	15.34
526.863	15.54
527.292	15.74
527.721	15.92
528.15	16.09
528.579	16.25
529.008	16.4
529.437	16.57
529.866	16.7
530.295	16.84
530.724	17.01
531.152	17.16
531.581	17.28
532.01	17.38
532.438	17.5
532.867	17.61
533.295	17.7
533.723	17.81
534.152	17.89
534.58	17.97
535.008	18.03
535.436	18.1
535.865	18.15
536.293	18.23
536.721	18.29
537.149	18.34
537.576	18.39
538.004	18.44
538.432	18.47
538.86	18.54
539.287	18.6
539.715	18.66
540.143	18.7
540.57	18.74
540.998	18.78
541.425	18.83
541.852	18.88
542.28	18.92
542.707	18.97
543.134	19.02
543.561	19.03
543.988	19.06
544.415	19.08
544.842	19.1
545.269	19.13
545.696	19.15
546.123	19.18
546.549	19.21
546.976	19.23
547.403	19.25
547.829	19.25
548.256	19.28
548.682	19.28
549.108	19.3
549.535	19.32
549.961	19.33
550.387	19.31
550.813	19.29
551.24	19.3
551.666	19.3
552.092	19.28
552.518	19.28
552.943	19.27
553.369	19.27
553.795	19.24
554.221	19.19
554.646	19.16
555.072	19.13
555.498	19.11
555.923	19.05
556.349	18.99
556.774	18.94
557.199	18.87
557.625	18.79
558.05	18.7
558.475	18.61
558.9	18.55
559.325	18.47
559.75	18.37
560.175	18.26
560.6	18.16
561.025	18.06
561.449	17.96
561.874	17.86
562.299	17.76
562.723	17.66
563.148	17.54
563.572	17.42
563.997	17.3
564.421	17.17
564.846	17.03
565.27	16.87
565.694	16.72
566.118	16.58
566.542	16.42
566.966	16.28
567.39	16.13
567.814	15.99
568.238	15.83
568.662	15.68
569.086	15.55
569.509	15.41
569.933	15.27
570.357	15.11
570.78	14.97
571.204	14.83
571.627	14.69
572.05	14.57
572.474	14.43
572.897	14.31
573.32	14.17
573.743	14.04
574.166	13.92
574.589	13.82
575.012	13.72
575.435	13.62
575.858	13.51
576.281	13.42
576.704	13.32
577.126	13.21
577.549	13.11
577.972	13.03
578.394	12.94
578.817	12.86
579.239	12.78
579.661	12.71
580.084	12.63
580.506	12.56
580.928	12.46
581.35	12.38
581.772	12.33
582.194	12.26
582.616	12.19
583.038	12.13
583.46	12.05
583.882	11.99
584.303	11.92
584.725	11.86
585.147	11.8
585.568	11.75
585.99	11.73
586.411	11.67
586.833	11.62
587.254	11.57
587.675	11.53
588.096	11.5
588.518	11.47
588.939	11.43
589.36	11.38
589.781	11.35
590.202	11.33
590.623	11.27
591.043	11.23
591.464	11.2
591.885	11.18
592.305	11.14
592.726	11.1
593.147	11.08
593.567	11.06
593.987	11.04
594.408	11.01
594.828	10.97
595.248	10.97
595.669	10.95
596.089	10.92
596.509	10.86
596.929	10.83
597.349	10.8
597.769	10.74
598.189	10.7
598.608	10.66
599.028	10.63
599.448	10.59
599.867	10.52
600.287	10.47
600.706	10.43
601.126	10.4
601.545	10.35
601.965	10.31
602.384	10.27
602.803	10.22
603.222	10.18
603.641	10.13
604.061	10.08
604.48	10.04
604.898	10
605.317	9.94
605.736	9.89
606.155	9.84
606.574	9.78
606.992	9.71
607.411	9.66
607.829	9.54
608.248	9.47
608.666	9.41
609.085	9.34
609.503	9.26
609.921	9.19
610.339	9.14
610.758	9.08
611.176	9.01
611.594	8.95
612.012	8.89
612.43	8.89
612.847	8.84
613.265	8.79
613.683	8.74
614.101	8.69
614.518	8.64
614.936	8.58
615.353	8.52
615.771	8.47
616.188	8.44
616.606	8.4
617.023	8.35
617.44	8.3
617.857	8.25
618.274	8.21
618.691	8.17
619.108	8.14
619.525	8.1
619.942	8.06
620.359	8.04
620.776	7.99
621.192	7.96
621.609	7.94
622.026	7.92
622.442	7.9
622.859	7.89
623.275	7.88
623.691	7.86
624.108	7.86
624.524	7.85
624.94	7.84
625.356	7.84
625.772	7.85
626.188	7.84
626.604	7.81
627.02	7.82
627.436	7.81
627.852	7.81
628.268	7.8
628.683	7.79
629.099	7.79
629.514	7.77
629.93	7.76
630.345	7.72
630.761	7.71
631.176	7.72
631.591	7.71
632.007	7.69
632.422	7.67
632.837	7.65
633.252	7.64
633.667	7.6
634.082	7.57
634.497	7.54
634.911	7.51
635.326	7.46
635.741	7.43
636.155	7.37
636.57	7.34
636.984	7.29
637.399	7.23
637.813	7.15
638.228	7.1
638.642	7.04
639.056	6.98
639.47	6.93
639.884	6.88
640.298	6.81
640.712	6.75
641.126	6.69
641.54	6.63
641.954	6.58
642.368	6.53
642.781	6.47
643.195	6.42
643.609	6.37
644.022	6.31
644.436	6.24
644.849	6.19
645.262	6.15
645.676	6.1
646.089	6.03
646.502	5.97
646.915	5.94
647.328	5.9
647.741	5.85
648.154	5.82
648.567	5.78
648.98	5.77
649.393	5.73
649.805	5.7
650.218	5.68
650.631	5.66
651.043	5.64
651.456	5.62
651.868	5.59
652.28	5.58
652.693	5.55
653.105	5.53
653.517	5.49
653.929	5.47
654.341	5.45
654.753	5.43
655.165	5.4
655.577	5.37
655.989	5.32
656.401	5.28
656.813	5.22
657.224	5.2
657.636	5.17
658.047	5.13
658.459	5.08
658.87	5.03
659.282	5
659.693	4.96
660.104	4.92
660.515	4.9
660.926	4.88
661.338	4.85
661.749	4.8
662.159	4.76
662.57	4.74
662.981	4.71
663.392	4.68
663.803	4.65
664.213	4.63
664.624	4.61
665.035	4.58
665.445	4.57
665.855	4.57
666.266	4.56
666.676	4.55
667.086	4.54
667.497	4.52
667.907	4.52
668.317	4.5
668.727	4.51
669.137	4.49
669.547	4.51
669.956	4.5
670.366	4.51
670.776	4.52
671.186	4.53
671.595	4.55
672.005	4.58
672.414	4.6
672.824	4.63
673.233	4.64
673.642	4.66
674.052	4.67
674.461	4.7
674.87	4.72
675.279	4.74
675.688	4.74
676.097	4.77
676.506	4.78
676.915	4.81
677.323	4.83
677.732	4.86
678.141	4.9
678.549	4.94
678.958	4.98
679.366	5
679.775	5.04
680.183	5.1
680.592	5.14
681	5.19
681.408	5.23
681.816	5.28
682.224	5.33
682.632	5.39
683.04	5.44
683.448	5.5
683.856	5.57
684.264	5.66
684.671	5.75
685.079	5.84
685.487	5.94
685.894	6.06
686.302	6.19
686.709	6.32
687.116	6.47
687.524	6.65
687.931	6.84
688.338	7.05
688.745	7.26
689.152	7.5
689.559	7.76
689.966	8.03
690.373	8.34
690.78	8.66
691.187	9
691.593	9.36
692	9.73
692.407	10.14
692.813	10.56
693.22	10.97
693.626	11.4
694.032	11.85
694.439	12.31
694.845	12.78
695.251	13.28
695.657	13.74
696.063	14.25
696.469	14.76
696.875	15.27
697.281	15.76
697.687	16.32
698.093	16.85
698.498	17.38
698.904	17.93
699.31	18.46
699.715	18.99
700.12	19.54
700.526	20.1
700.931	20.63
701.337	21.15
701.742	21.68
702.147	22.19
702.552	22.71
702.957	23.23
703.362	23.75
703.767	24.26
704.172	24.76
704.577	25.26
704.981	25.76
705.386	26.23
705.791	26.72
706.195	27.21
706.6	27.68
707.004	28.15
707.408	28.63
707.813	29.08
708.217	29.52
708.621	29.98
709.025	30.43
709.43	30.87
709.834	31.34
710.237	31.77
710.641	32.2
711.045	32.62
711.449	33.03
711.853	33.45
712.256	33.89
712.66	34.32
713.064	34.72
713.467	35.13
713.87	35.53
714.274	35.93
714.677	36.31
715.08	36.67
715.484	37.06
715.887	37.45
716.29	37.8
716.693	38.15
717.096	38.49
717.499	38.85
717.901	39.18
718.304	39.51
718.707	39.83
719.109	40.18
719.512	40.53
719.915	40.88
720.317	41.2
720.719	41.51
721.122	41.78
721.524	42.08
721.926	42.37
722.328	42.64
722.731	42.91
723.133	43.15
723.535	43.39
723.937	43.62
724.338	43.83
724.74	44.07
725.142	44.3
725.544	44.52
725.945	44.74
726.347	44.96
726.748	45.12
727.15	45.32
727.551	45.55
727.952	45.73
728.354	45.93
728.755	46.13
729.156	46.28
729.557	46.46
729.958	46.66
730.359	46.8
730.76	46.92
731.161	47.11
731.562	47.26
731.962	47.37
732.363	47.48
732.763	47.59
733.164	47.66
733.564	47.79
733.965	47.88
734.365	47.96
734.766	48.06
735.166	48.18
735.566	48.25
735.966	48.31
736.366	48.4
736.766	48.5
737.166	48.57
737.566	48.69
737.966	48.76
738.365	48.83
738.765	48.94
739.165	48.97
739.564	49.06
739.964	49.14
740.363	49.25
740.763	49.31
741.162	49.37
741.561	49.44
741.96	49.51
742.36	49.57
742.759	49.63
743.158	49.63
743.557	49.72
743.955	49.76
744.354	49.8
744.753	49.82
745.152	49.87
745.55	49.9
745.949	49.93
746.348	49.97
746.746	50
747.144	50.06
747.543	50.12
747.941	50.17
748.339	50.22
748.737	50.26
749.136	50.27
749.534	50.29
749.932	50.3
750.33	50.34
750.727	50.34
751.125	50.35
751.523	50.32
751.921	50.35
752.318	50.37
752.716	50.35
753.113	50.4
753.511	50.4
753.908	50.38
754.305	50.39
754.703	50.36
755.1	50.38
755.497	50.41
755.894	50.44
756.291	50.41
756.688	50.43
757.085	50.41
757.482	50.42
757.878	50.48
758.275	50.55
758.672	50.58
759.068	50.62
759.465	50.63
759.861	50.63
760.258	50.63
760.654	50.66
761.05	50.64
761.447	50.66
761.843	50.61
762.239	50.6
762.635	50.56
763.031	50.59
763.427	50.57
763.822	50.55
764.218	50.54
764.614	50.54
765.01	50.53
765.405	50.52
765.801	50.55
766.196	50.56
766.592	50.57
766.987	50.58
767.382	50.54
767.778	50.54
768.173	50.54
768.568	50.52
768.963	50.49
769.358	50.49
769.753	50.5
770.148	50.48
770.542	50.48
770.937	50.47
771.332	50.46
771.726	50.44
772.121	50.44
772.515	50.47
772.91	50.51
773.304	50.55
773.699	50.56
774.093	50.53
774.487	50.58
774.881	50.58
775.275	50.59
775.669	50.61
776.063	50.61
776.457	50.59
776.851	50.54
777.245	50.53
777.638	50.52
778.032	50.53
778.425	50.56
778.819	50.54
779.212	50.54
779.606	50.54
779.999	50.51
780.392	50.54
780.786	50.58
781.179	50.61
781.572	50.61
781.965	50.62
782.358	50.61
782.751	50.58
783.143	50.58
783.536	50.61
783.929	50.63
784.322	50.68
784.714	50.68
785.107	50.66
785.499	50.69
