Data from C_1_DIV_IL_4n_007_Splice17_01.txt Node
Date: Sat Feb 29 13:09:12 EST 2020
User: sa697716
Spectrometer: FLMS03696
Trigger mode: 0
Integration Time (sec): 3.180400E-1
Scans to average: 20
Electric dark correction enabled: true
Nonlinearity correction enabled: true
Boxcar width: 5
XAxis mode: Wavelengths
Number of Pixels in Spectrum: 2048
>>>>>Begin Spectral Data<<<<<
187.83	60.11
188.298	54.15
188.766	45.64
189.233	30.13
189.701	37.9
190.169	48.44
190.636	48.23
191.104	9.87
191.571	-4.35
192.039	131.07
192.506	251.3
192.974	6103.4
193.441	-295.42
193.908	39.24
194.375	-63.64
194.842	-36.57
195.31	2.17
195.777	-32.64
196.244	-17.79
196.711	9.88
197.177	10.7
197.644	11.1
198.111	10.2
198.578	10.25
199.045	11.38
199.511	11.3
199.978	11.62
200.445	11.65
200.911	12.12
201.378	12.23
201.844	12.2
202.31	11.97
202.777	12.03
203.243	12.52
203.709	12.91
204.176	12.07
204.642	12.48
205.108	12.22
205.574	12.6
206.04	12.46
206.506	12.48
206.972	12.33
207.438	11.93
207.903	11.96
208.369	11.55
208.835	11.43
209.301	11.41
209.766	11.08
210.232	11.05
210.697	10.77
211.163	10.5
211.628	9.85
212.094	9.36
212.559	9.16
213.024	8.71
213.49	8.3
213.955	7.88
214.42	7.64
214.885	7.03
215.35	6.53
215.815	5.95
216.28	5.37
216.745	5.02
217.21	4.62
217.675	4.14
218.14	3.63
218.604	3.16
219.069	2.81
219.534	2.46
219.998	2.18
220.463	1.97
220.927	1.81
221.392	1.71
221.856	1.53
222.32	1.39
222.785	1.3
223.249	1.23
223.713	1.18
224.177	1.1
224.642	1.08
225.106	1.06
225.57	1.01
226.034	0.95
226.497	0.86
226.961	0.83
227.425	0.78
227.889	0.75
228.353	0.69
228.816	0.7
229.28	0.66
229.744	0.63
230.207	0.6
230.671	0.58
231.134	0.56
231.597	0.54
232.061	0.53
232.524	0.52
232.987	0.51
233.45	0.51
233.914	0.5
234.377	0.51
234.84	0.5
235.303	0.5
235.766	0.49
236.229	0.49
236.691	0.5
237.154	0.5
237.617	0.49
238.08	0.48
238.542	0.47
239.005	0.46
239.468	0.44
239.93	0.43
240.393	0.43
240.855	0.41
241.317	0.41
241.78	0.41
242.242	0.4
242.704	0.39
243.166	0.4
243.629	0.39
244.091	0.37
244.553	0.37
245.015	0.37
245.477	0.36
245.939	0.36
246.4	0.35
246.862	0.35
247.324	0.36
247.786	0.36
248.247	0.34
248.709	0.35
249.17	0.35
249.632	0.34
250.093	0.32
250.555	0.33
251.016	0.33
251.477	0.32
251.939	0.3
252.4	0.29
252.861	0.29
253.322	0.29
253.783	0.29
254.244	0.29
254.705	0.29
255.166	0.3
255.627	0.29
256.088	0.28
256.549	0.28
257.009	0.29
257.47	0.29
257.931	0.28
258.391	0.27
258.852	0.25
259.312	0.25
259.773	0.24
260.233	0.24
260.694	0.23
261.154	0.23
261.614	0.22
262.074	0.22
262.534	0.21
262.994	0.21
263.455	0.22
263.915	0.22
264.374	0.21
264.834	0.21
265.294	0.2
265.754	0.2
266.214	0.2
266.673	0.19
267.133	0.18
267.593	0.19
268.052	0.17
268.512	0.17
268.971	0.17
269.431	0.17
269.89	0.17
270.349	0.17
270.809	0.17
271.268	0.17
271.727	0.18
272.186	0.18
272.645	0.18
273.104	0.18
273.563	0.18
274.022	0.19
274.481	0.19
274.94	0.19
275.399	0.19
275.857	0.19
276.316	0.19
276.775	0.19
277.233	0.19
277.692	0.19
278.15	0.19
278.609	0.18
279.067	0.18
279.525	0.18
279.984	0.18
280.442	0.18
280.9	0.19
281.358	0.19
281.816	0.19
282.274	0.19
282.732	0.2
283.19	0.2
283.648	0.21
284.106	0.21
284.564	0.22
285.021	0.23
285.479	0.22
285.937	0.22
286.394	0.21
286.852	0.22
287.309	0.23
287.767	0.22
288.224	0.23
288.682	0.22
289.139	0.23
289.596	0.21
290.053	0.21
290.511	0.21
290.968	0.21
291.425	0.21
291.882	0.2
292.339	0.2
292.796	0.2
293.252	0.2
293.709	0.2
294.166	0.2
294.623	0.2
295.079	0.2
295.536	0.2
295.992	0.2
296.449	0.2
296.905	0.2
297.362	0.2
297.818	0.2
298.274	0.2
298.731	0.2
299.187	0.2
299.643	0.2
300.099	0.2
300.555	0.2
301.011	0.2
301.467	0.2
301.923	0.2
302.379	0.2
302.835	0.21
303.291	0.2
303.746	0.21
304.202	0.2
304.658	0.2
305.113	0.2
305.569	0.2
306.024	0.2
306.479	0.2
306.935	0.21
307.39	0.21
307.845	0.22
308.301	0.22
308.756	0.23
309.211	0.24
309.666	0.24
310.121	0.24
310.576	0.24
311.031	0.24
311.486	0.25
311.94	0.24
312.395	0.25
312.85	0.25
313.305	0.24
313.759	0.24
314.214	0.24
314.668	0.25
315.123	0.26
315.577	0.26
316.032	0.27
316.486	0.27
316.94	0.28
317.394	0.28
317.849	0.27
318.303	0.28
318.757	0.27
319.211	0.26
319.665	0.26
320.119	0.25
320.572	0.25
321.026	0.25
321.48	0.25
321.934	0.25
322.387	0.25
322.841	0.24
323.295	0.24
323.748	0.24
324.202	0.25
324.655	0.24
325.108	0.24
325.562	0.24
326.015	0.23
326.468	0.24
326.921	0.23
327.374	0.24
327.827	0.24
328.28	0.24
328.733	0.24
329.186	0.25
329.639	0.25
330.092	0.26
330.545	0.26
330.997	0.27
331.45	0.27
331.903	0.27
332.355	0.27
332.808	0.28
333.26	0.28
333.713	0.29
334.165	0.29
334.617	0.28
335.069	0.29
335.522	0.3
335.974	0.3
336.426	0.31
336.878	0.31
337.33	0.3
337.782	0.29
338.234	0.29
338.686	0.29
339.137	0.3
339.589	0.3
340.041	0.3
340.493	0.28
340.944	0.29
341.396	0.29
341.847	0.29
342.299	0.29
342.75	0.29
343.201	0.29
343.653	0.29
344.104	0.29
344.555	0.29
345.006	0.29
345.457	0.29
345.908	0.29
346.359	0.29
346.81	0.29
347.261	0.29
347.712	0.29
348.163	0.29
348.613	0.29
349.064	0.28
349.515	0.28
349.965	0.28
350.416	0.28
350.866	0.28
351.317	0.28
351.767	0.28
352.217	0.28
352.668	0.29
353.118	0.29
353.568	0.29
354.018	0.31
354.468	0.3
354.918	0.31
355.368	0.31
355.818	0.31
356.268	0.32
356.718	0.32
357.168	0.32
357.617	0.31
358.067	0.31
358.517	0.3
358.966	0.31
359.416	0.3
359.865	0.31
360.315	0.31
360.764	0.32
361.213	0.3
361.663	0.31
362.112	0.32
362.561	0.32
363.01	0.34
363.459	0.34
363.908	0.34
364.357	0.35
364.806	0.34
365.255	0.35
365.703	0.35
366.152	0.35
366.601	0.36
367.05	0.36
367.498	0.36
367.947	0.36
368.395	0.37
368.844	0.37
369.292	0.38
369.74	0.39
370.189	0.38
370.637	0.38
371.085	0.39
371.533	0.39
371.981	0.4
372.429	0.39
372.877	0.39
373.325	0.37
373.773	0.38
374.221	0.38
374.669	0.38
375.116	0.38
375.564	0.39
376.012	0.4
376.459	0.4
376.907	0.41
377.354	0.42
377.801	0.43
378.249	0.45
378.696	0.47
379.143	0.48
379.591	0.5
380.038	0.53
380.485	0.55
380.932	0.58
381.379	0.61
381.826	0.65
382.273	0.7
382.72	0.76
383.166	0.83
383.613	0.91
384.06	1
384.506	1.11
384.953	1.25
385.4	1.4
385.846	1.58
386.292	1.8
386.739	2.03
387.185	2.3
387.631	2.54
388.078	2.76
388.524	2.91
388.97	3.06
389.416	3.25
389.862	3.53
390.308	3.89
390.754	4.32
391.2	4.73
391.645	5.07
392.091	5.33
392.537	5.63
392.983	6.12
393.428	6.86
393.874	7.79
394.319	8.82
394.765	9.86
395.21	10.9
395.655	11.97
396.101	13.14
396.546	14.5
396.991	16.02
397.436	17.66
397.881	19.29
398.326	20.86
398.771	22.32
399.216	23.74
399.661	25.04
400.106	26.25
400.551	27.35
400.995	28.32
401.44	29.19
401.885	30.03
402.329	30.88
402.774	31.79
403.218	32.81
403.663	33.93
404.107	35.17
404.551	36.46
404.995	37.65
405.44	38.77
405.884	39.98
406.328	41.39
406.772	43
407.216	44.7
407.66	46.3
408.104	47.75
408.547	48.99
408.991	50.07
409.435	51.26
409.879	52.67
410.322	54.28
410.766	55.91
411.209	57.45
411.653	58.87
412.096	60.14
412.54	61.29
412.983	62.48
413.426	63.8
413.869	65.21
414.312	66.56
414.756	67.8
415.199	68.9
415.642	69.93
416.085	70.84
416.527	71.53
416.97	72.01
417.413	72.28
417.856	72.34
418.298	72.35
418.741	72.42
419.184	72.66
419.626	73.01
420.069	73.47
420.511	73.97
420.953	74.47
421.396	75.08
421.838	76
422.28	77.21
422.722	78.48
423.164	79.7
423.606	80.82
424.048	81.65
424.49	82.07
424.932	81.78
425.374	80.7
425.816	78.99
426.258	77.18
426.699	75.86
427.141	75.56
427.582	76.3
428.024	77.62
428.465	79.06
428.907	80.45
429.348	81.71
429.789	83.37
430.231	86.07
430.672	89.99
431.113	94.47
431.554	98.89
431.995	102.3
432.436	104.7
432.877	106.52
433.318	107.93
433.759	109.42
434.2	111.36
434.64	113.85
435.081	116.3
435.522	118.35
435.962	120.03
436.403	121.35
436.843	122.59
437.284	123.89
437.724	125.23
438.164	127.01
438.604	129.08
439.045	131.28
439.485	133.25
439.925	134.9
440.365	136.23
440.805	137.21
441.245	137.97
441.685	138.68
442.125	139.6
442.564	140.77
443.004	142.06
443.444	143.45
443.883	144.94
444.323	146.49
444.762	148
445.202	149.72
445.641	151.84
446.081	154.47
446.52	157.2
446.959	159.76
447.398	161.67
447.837	162.98
448.276	163.46
448.716	163.73
449.154	164
449.593	164.27
450.032	164.45
450.471	164.13
450.91	163.46
451.349	162.75
451.787	162.18
452.226	161.86
452.664	161.77
453.103	161.85
453.541	161.91
453.98	161.56
454.418	161.13
454.856	160.42
455.295	159.83
455.733	159.27
456.171	158.76
456.609	158.35
457.047	157.98
457.485	157.81
457.923	157.93
458.361	158.28
458.798	158.86
459.236	159.41
459.674	159.93
460.111	160.52
460.549	161.09
460.987	161.76
461.424	162.37
461.862	163.02
462.299	163.48
462.736	164.09
463.173	164.82
463.611	165.84
464.048	167.18
464.485	168.84
464.922	170.69
465.359	172.45
465.796	173.98
466.233	175.47
466.67	177.26
467.106	179.58
467.543	182.09
467.98	184.53
468.416	186.69
468.853	188.48
469.29	190.26
469.726	191.99
470.162	193.99
470.599	196.17
471.035	198.09
471.471	199.49
471.907	200.23
472.344	200.66
472.78	201.09
473.216	201.74
473.652	202.4
474.088	202.87
474.523	203.12
474.959	203.11
475.395	203.06
475.831	202.98
476.266	203.03
476.702	203.11
477.138	203.02
477.573	202.74
478.008	202.03
478.444	201.16
478.879	200.01
479.314	198.69
479.75	197.25
480.185	195.47
480.62	193.37
481.055	190.38
481.49	186.41
481.925	182.03
482.36	177.92
482.795	174.38
483.229	171.63
483.664	169.51
484.099	167.61
484.534	165.96
484.968	164.65
485.403	163.93
485.837	164.12
486.271	165.14
486.706	166.39
487.14	167.19
487.574	167.49
488.009	167.36
488.443	167.05
488.877	166.79
489.311	166.54
489.745	166.37
490.179	166.26
490.613	166.09
491.046	165.96
491.48	165.98
491.914	166.38
492.348	167.06
492.781	167.66
493.215	168.16
493.648	168.43
494.082	168.53
494.515	168.55
494.948	168.5
495.382	168.4
495.815	168.18
496.248	167.89
496.681	167.4
497.114	166.81
497.547	166.34
497.98	166.07
498.413	166.21
498.846	166.5
499.279	166.77
499.711	166.85
500.144	167.08
500.577	167.66
501.009	168.69
501.442	170.05
501.874	171.5
502.306	172.88
502.739	173.92
503.171	174.76
503.603	175.5
504.036	176.28
504.468	177.4
504.9	178.54
505.332	179.42
505.764	180.1
506.196	180.62
506.627	181.23
507.059	182.01
507.491	182.94
507.923	183.85
508.354	184.72
508.786	185.5
509.217	185.88
509.649	186.22
510.08	186.56
510.512	186.96
510.943	187.5
511.374	187.84
511.805	187.69
512.237	186.95
512.668	185.89
513.099	185.02
513.53	184.3
513.961	183.81
514.391	183.51
514.822	183.63
515.253	183.99
515.684	184.38
516.114	184.99
516.545	185.99
516.975	187.91
517.406	190.2
517.836	192.31
518.267	194.18
518.697	195.94
519.127	197.66
519.558	199.18
519.988	200.48
520.418	201.68
520.848	202.68
521.278	203.49
521.708	203.64
522.138	203.26
522.567	202.87
522.997	202.67
523.427	202.76
523.857	202.92
524.286	203.26
524.716	203.64
525.145	203.88
525.575	204.1
526.004	204.61
526.433	205.63
526.863	207.19
527.292	208.74
527.721	209.9
528.15	210.46
528.579	210.61
529.008	210.38
529.437	210.05
529.866	209.73
530.295	209.6
530.724	209.54
531.152	209.41
531.581	209.26
532.01	209
532.438	208.79
532.867	208.9
533.295	209.13
533.723	209.4
534.152	209.56
534.58	209.59
535.008	209.27
535.436	208.62
535.865	207.74
536.293	206.78
536.721	206.14
537.149	205.85
537.576	205.76
538.004	205.68
538.432	205.59
538.86	205.51
539.287	205.77
539.715	206.3
540.143	207
540.57	207.87
540.998	208.98
541.425	209.97
541.852	210.92
542.28	211.69
542.707	212.43
543.134	213.03
543.561	213.55
543.988	214.04
544.415	214.59
544.842	215.15
545.269	215.81
545.696	216.27
546.123	216.81
546.549	217.28
546.976	217.76
547.403	218.3
547.829	218.96
548.256	219.59
548.682	219.97
549.108	220.38
549.535	220.78
549.961	221.1
550.387	221.5
550.813	221.94
551.24	222.29
551.666	222.52
552.092	222.49
552.518	222.31
552.943	222.21
553.369	222.13
553.795	221.78
554.221	221.22
554.646	220.39
555.072	219.39
555.498	218.35
555.923	217.48
556.349	216.8
556.774	216.34
557.199	215.93
557.625	215.38
558.05	214.84
558.475	214.45
558.9	214.15
559.325	213.93
559.75	213.7
560.175	213.38
560.6	212.8
561.025	211.91
561.449	210.83
561.874	209.71
562.299	208.87
562.723	208.03
563.148	207.11
563.572	206.2
563.997	205.12
564.421	203.97
564.846	202.87
565.27	201.89
565.694	200.88
566.118	199.81
566.542	198.74
566.966	197.52
567.39	196.34
567.814	195.35
568.238	194.52
568.662	194.05
569.086	193.65
569.509	193.38
569.933	193.02
570.357	192.75
570.78	192.55
571.204	192.38
571.627	192.35
572.05	192.38
572.474	192.25
572.897	192.06
573.32	191.71
573.743	191.3
574.166	190.76
574.589	190.33
575.012	190.15
575.435	190.17
575.858	190.33
576.281	190.46
576.704	190.53
577.126	190.64
577.549	190.87
577.972	191.29
578.394	191.77
578.817	192.32
579.239	192.96
579.661	193.4
580.084	193.75
580.506	193.95
580.928	193.95
581.35	193.86
581.772	193.67
582.194	193.35
582.616	193.02
583.038	192.72
583.46	192.39
583.882	191.65
584.303	190.57
584.725	189.05
585.147	187.39
585.568	185.99
585.99	184.96
586.411	184.21
586.833	183.48
587.254	182.73
587.675	182.07
588.096	181.48
588.518	181.13
588.939	181.13
589.36	181.51
589.781	182.15
590.202	182.57
590.623	182.64
591.043	182.43
591.464	182.15
591.885	181.83
592.305	181.41
592.726	180.92
593.147	180.44
593.567	179.77
593.987	179.16
594.408	178.45
594.828	177.76
595.248	177.15
595.669	176.44
596.089	175.66
596.509	174.77
596.929	173.76
597.349	172.64
597.769	171.56
598.189	170.68
598.608	169.82
599.028	169.11
599.448	168.52
599.867	167.93
600.287	167.42
600.706	166.86
601.126	166.35
601.545	165.9
601.965	165.57
602.384	165.22
602.803	164.84
603.222	164.39
603.641	163.8
604.061	163.09
604.48	162.25
604.898	161.49
605.317	160.74
605.736	159.89
606.155	159.08
606.574	158.32
606.992	157.61
607.411	156.87
607.829	156.1
608.248	155.4
608.666	154.74
609.085	154.03
609.503	153.21
609.921	152.52
610.339	151.94
610.758	151.4
611.176	150.71
611.594	149.88
612.012	149.02
612.43	148.14
612.847	147.38
613.265	146.72
613.683	146.29
614.101	145.88
614.518	145.49
614.936	145.11
615.353	144.73
615.771	144.52
616.188	144.45
616.606	144.43
617.023	144.45
617.44	144.29
617.857	144
618.274	143.6
618.691	143.17
619.108	142.64
619.525	142.1
619.942	141.45
620.359	140.64
620.776	139.75
621.192	138.85
621.609	138.04
622.026	137.33
622.442	136.77
622.859	136.13
623.275	135.52
623.691	134.87
624.108	134.2
624.524	133.62
624.94	133.18
625.356	132.67
625.772	132.25
626.188	131.83
626.604	131.4
627.02	130.86
627.436	130.36
627.852	129.93
628.268	129.72
628.683	129.57
629.099	129.44
629.514	129.16
629.93	129.06
630.345	129
630.761	128.94
631.176	128.89
631.591	128.83
632.007	128.77
632.422	128.79
632.837	128.71
633.252	128.61
633.667	128.56
634.082	128.67
634.497	128.67
634.911	128.52
635.326	128.28
635.741	128
636.155	127.71
636.57	127.42
636.984	127.01
637.399	126.58
637.813	126.19
638.228	125.74
638.642	125.27
639.056	124.8
639.47	124.43
639.884	124.16
640.298	123.85
640.712	123.58
641.126	123.34
641.54	123.08
641.954	122.75
642.368	122.34
642.781	121.91
643.195	121.4
643.609	120.97
644.022	120.54
644.436	119.99
644.849	119.38
645.262	118.7
645.676	118.03
646.089	117.55
646.502	117.16
646.915	116.88
647.328	116.55
647.741	116.29
648.154	116.02
648.567	115.76
648.98	115.6
649.393	115.5
649.805	115.46
650.218	115.37
650.631	115.02
651.043	114.4
651.456	113.22
651.868	111.63
652.28	109.92
652.693	108.35
653.105	107.1
653.517	106.13
653.929	105.41
654.341	104.87
654.753	104.48
655.165	104.2
655.577	104.19
655.989	104.72
656.401	105.59
656.813	106.72
657.224	107.69
657.636	108.33
658.047	108.73
658.459	108.83
658.87	108.75
659.282	108.56
659.693	108.31
660.104	108.05
660.515	107.74
660.926	107.55
661.338	107.19
661.749	106.82
662.159	106.4
662.57	105.89
662.981	105.48
663.392	105.05
663.803	104.62
664.213	104.26
664.624	103.91
665.035	103.49
665.445	103.01
665.855	102.51
666.266	102.02
666.676	101.49
667.086	101.03
667.497	100.5
667.907	99.98
668.317	99.51
668.727	99
669.137	98.5
669.547	98.04
669.956	97.63
670.366	97.25
670.776	96.79
671.186	96.41
671.595	96.03
672.005	95.71
672.414	95.41
672.824	95.08
673.233	94.86
673.642	94.54
674.052	94.24
674.461	93.94
674.87	93.66
675.279	93.49
675.688	93.31
676.097	93.11
676.506	92.92
676.915	92.73
677.323	92.61
677.732	92.43
678.141	92.3
678.549	92.18
678.958	92.07
679.366	91.93
679.775	91.75
680.183	91.53
680.592	91.35
681	91.21
681.408	91.05
681.816	90.69
682.224	89.9
682.632	88.66
683.04	86.97
683.448	85.34
683.856	83.85
684.264	82.54
684.671	81.33
685.079	80.14
685.487	79.04
685.894	78.1
686.302	77.42
686.709	77.31
687.116	77.81
687.524	78.86
687.931	79.96
688.338	81.02
688.745	82.07
689.152	83.07
689.559	84.03
689.966	84.9
690.373	85.69
690.78	86.39
691.187	87
691.593	87.48
692	87.98
692.407	88.45
692.813	88.93
693.22	89.26
693.626	89.61
694.032	89.9
694.439	90.2
694.845	90.41
695.251	90.59
695.657	90.75
696.063	90.88
696.469	90.84
696.875	90.74
697.281	90.54
697.687	90.38
698.093	90.19
698.498	90.07
698.904	89.93
699.31	89.92
699.715	89.98
700.12	90.05
700.526	90.2
700.931	90.4
701.337	90.61
701.742	90.82
702.147	91.02
702.552	91.23
702.957	91.45
703.362	91.68
703.767	91.82
704.172	91.91
704.577	91.96
704.981	91.97
705.386	91.95
705.791	91.94
706.195	91.97
706.6	91.98
707.004	92
707.408	91.92
707.813	91.83
708.217	91.73
708.621	91.59
709.025	91.5
709.43	91.43
709.834	91.39
710.237	91.25
710.641	91.11
711.045	90.89
711.449	90.69
711.853	90.46
712.256	90.15
712.66	89.62
713.064	88.95
713.467	88.09
713.87	87.04
714.274	85.88
714.677	84.67
715.08	83.39
715.484	82.22
715.887	80.99
716.29	79.98
716.693	79.18
717.096	78.85
717.499	78.91
717.901	79.21
718.304	79.69
718.707	80.23
719.109	80.79
719.512	81.3
719.915	81.7
720.317	82.12
720.719	82.35
721.122	82.45
721.524	82.33
721.926	82.06
722.328	81.68
722.731	81.3
723.133	80.94
723.535	80.68
723.937	80.49
724.338	80.31
724.74	80.18
725.142	79.97
725.544	79.87
725.945	79.79
726.347	79.69
726.748	79.58
727.15	79.48
727.551	79.51
727.952	79.59
728.354	79.75
728.755	80.02
729.156	80.36
729.557	80.89
729.958	81.3
730.359	81.62
730.76	81.9
731.161	82.2
731.562	82.43
731.962	82.56
732.363	82.63
732.763	82.66
733.164	82.63
733.564	82.51
733.965	82.28
734.365	82
734.766	81.71
735.166	81.36
735.566	81.1
735.966	80.83
736.366	80.61
736.766	80.38
737.166	80.09
737.566	79.79
737.966	79.53
738.365	79.33
738.765	79.23
739.165	79.18
739.564	79.2
739.964	79.1
740.363	79.02
740.763	78.92
741.162	78.85
741.561	78.85
741.96	78.89
742.36	78.88
742.759	78.81
743.158	78.68
743.557	78.57
743.955	78.46
744.354	78.39
744.753	78.31
745.152	78.17
745.55	78
745.949	77.8
746.348	77.58
746.746	77.3
747.144	77.1
747.543	76.88
747.941	76.67
748.339	76.43
748.737	76.2
749.136	75.98
749.534	75.84
749.932	75.75
750.33	75.61
750.727	75.49
751.125	75.38
751.523	75.24
751.921	75.08
752.318	74.88
752.716	74.7
753.113	74.5
753.511	74.28
753.908	74.02
754.305	73.61
754.703	72.93
755.1	71.52
755.497	69.15
755.894	65.7
756.291	61.51
756.688	57.04
757.085	52.74
757.482	48.82
757.878	45.19
758.275	41.6
758.672	38.03
759.068	34.75
759.465	32.22
759.861	30.93
760.258	30.97
