Data from c_1_dec_nc_4n_039_Splice17_01.txt Node
Date: Sat Feb 29 13:27:09 EST 2020
User: sa697716
Spectrometer: FLMS03696
Trigger mode: 0
Integration Time (sec): 3.180400E-1
Scans to average: 20
Electric dark correction enabled: true
Nonlinearity correction enabled: true
Boxcar width: 5
XAxis mode: Wavelengths
Number of Pixels in Spectrum: 2048
>>>>>Begin Spectral Data<<<<<
187.83	131.27
188.298	135.17
188.766	114.61
189.233	114.18
189.701	128.24
190.169	133.31
190.636	150.65
191.104	152.97
191.571	474.04
192.039	232.31
192.506	81.63
192.974	3729.4
193.441	-245.5
193.908	69.58
194.375	32.63
194.842	120.09
195.31	114.33
195.777	179.88
196.244	188.16
196.711	178.54
197.177	179.33
197.644	176.01
198.111	175.11
198.578	174.24
199.045	173.55
199.511	172.86
199.978	172.55
200.445	171.42
200.911	170.77
201.378	168.8
201.844	167.96
202.31	166.5
202.777	165.3
203.243	164.35
203.709	163.08
204.176	162.06
204.642	160.5
205.108	158.67
205.574	157.56
206.04	155.93
206.506	154.46
206.972	152.56
207.438	150.81
207.903	148.22
208.369	144.94
208.835	142.66
209.301	139.52
209.766	135.88
210.232	132.74
210.697	129.4
211.163	125.59
211.628	122.49
212.094	119.5
212.559	116.12
213.024	113.71
213.49	110.86
213.955	107.36
214.42	103.83
214.885	99.95
215.35	94.9
215.815	88.6
216.28	81.65
216.745	73.72
217.21	65.37
217.675	57.6
218.14	50.46
218.604	44.24
219.069	38.83
219.534	34.38
219.998	30.75
220.463	27.72
220.927	25.2
221.392	23.08
221.856	21.28
222.32	19.78
222.785	18.51
223.249	17.45
223.713	16.49
224.177	15.68
224.642	14.97
225.106	14.26
225.57	13.6
226.034	13.03
226.497	12.49
226.961	12
227.425	11.54
227.889	11.1
228.353	10.68
228.816	10.32
229.28	9.94
229.744	9.61
230.207	9.34
230.671	9.06
231.134	8.81
231.597	8.57
232.061	8.35
232.524	8.16
232.987	7.97
233.45	7.79
233.914	7.62
234.377	7.49
234.84	7.35
235.303	7.22
235.766	7.12
236.229	7
236.691	6.93
237.154	6.86
237.617	6.76
238.08	6.68
238.542	6.6
239.005	6.54
239.468	6.45
239.93	6.38
240.393	6.32
240.855	6.23
241.317	6.15
241.78	6.08
242.242	5.97
242.704	5.91
243.166	5.84
243.629	5.79
244.091	5.72
244.553	5.68
245.015	5.6
245.477	5.53
245.939	5.47
246.4	5.4
246.862	5.34
247.324	5.3
247.786	5.23
248.247	5.17
248.709	5.11
249.17	5.06
249.632	4.99
250.093	4.92
250.555	4.88
251.016	4.85
251.477	4.79
251.939	4.75
252.4	4.7
252.861	4.65
253.322	4.61
253.783	4.57
254.244	4.52
254.705	4.48
255.166	4.45
255.627	4.39
256.088	4.33
256.549	4.28
257.009	4.23
257.47	4.18
257.931	4.11
258.391	4.04
258.852	3.97
259.312	3.92
259.773	3.85
260.233	3.79
260.694	3.73
261.154	3.68
261.614	3.62
262.074	3.57
262.534	3.51
262.994	3.47
263.455	3.43
263.915	3.38
264.374	3.33
264.834	3.3
265.294	3.26
265.754	3.23
266.214	3.19
266.673	3.15
267.133	3.13
267.593	3.11
268.052	3.08
268.512	3.06
268.971	3.04
269.431	3.03
269.89	3.01
270.349	2.99
270.809	2.98
271.268	2.97
271.727	2.97
272.186	2.96
272.645	2.95
273.104	2.95
273.563	2.94
274.022	2.93
274.481	2.93
274.94	2.93
275.399	2.94
275.857	2.94
276.316	2.94
276.775	2.93
277.233	2.94
277.692	2.95
278.15	2.95
278.609	2.95
279.067	2.96
279.525	2.96
279.984	2.97
280.442	2.98
280.9	2.99
281.358	3.01
281.816	3.02
282.274	3.04
282.732	3.05
283.19	3.07
283.648	3.09
284.106	3.11
284.564	3.13
285.021	3.15
285.479	3.16
285.937	3.17
286.394	3.17
286.852	3.17
287.309	3.17
287.767	3.16
288.224	3.15
288.682	3.13
289.139	3.11
289.596	3.08
290.053	3.05
290.511	3.02
290.968	3
291.425	2.97
291.882	2.95
292.339	2.93
292.796	2.9
293.252	2.88
293.709	2.86
294.166	2.85
294.623	2.84
295.079	2.83
295.536	2.83
295.992	2.82
296.449	2.82
296.905	2.81
297.362	2.8
297.818	2.8
298.274	2.79
298.731	2.79
299.187	2.79
299.643	2.79
300.099	2.79
300.555	2.79
301.011	2.78
301.467	2.78
301.923	2.78
302.379	2.79
302.835	2.8
303.291	2.81
303.746	2.81
304.202	2.81
304.658	2.82
305.113	2.82
305.569	2.84
306.024	2.85
306.479	2.86
306.935	2.87
307.39	2.88
307.845	2.9
308.301	2.91
308.756	2.94
309.211	2.95
309.666	2.96
310.121	2.98
310.576	2.99
311.031	3
311.486	3.01
311.94	3.02
312.395	3.04
312.85	3.04
313.305	3.05
313.759	3.06
314.214	3.07
314.668	3.08
315.123	3.09
315.577	3.09
316.032	3.1
316.486	3.09
316.94	3.09
317.394	3.08
317.849	3.07
318.303	3.06
318.757	3.03
319.211	3.01
319.665	3
320.119	2.98
320.572	2.97
321.026	2.96
321.48	2.95
321.934	2.94
322.387	2.94
322.841	2.94
323.295	2.94
323.748	2.95
324.202	2.95
324.655	2.96
325.108	2.96
325.562	2.95
326.015	2.96
326.468	2.95
326.921	2.96
327.374	2.96
327.827	2.97
328.28	2.97
328.733	2.97
329.186	2.98
329.639	2.99
330.092	3
330.545	3.02
330.997	3.04
331.45	3.05
331.903	3.07
332.355	3.08
332.808	3.09
333.26	3.11
333.713	3.13
334.165	3.16
334.617	3.17
335.069	3.19
335.522	3.2
335.974	3.21
336.426	3.23
336.878	3.23
337.33	3.25
337.782	3.26
338.234	3.27
338.686	3.27
339.137	3.27
339.589	3.26
340.041	3.26
340.493	3.24
340.944	3.23
341.396	3.21
341.847	3.2
342.299	3.17
342.75	3.13
343.201	3.11
343.653	3.08
344.104	3.06
344.555	3.04
345.006	3.02
345.457	3.01
345.908	3
346.359	2.99
346.81	2.99
347.261	2.99
347.712	2.99
348.163	2.99
348.613	2.99
349.064	2.98
349.515	2.98
349.965	2.99
350.416	2.99
350.866	2.99
351.317	2.98
351.767	2.99
352.217	3
352.668	3
353.118	3.01
353.568	3.02
354.018	3.04
354.468	3.04
354.918	3.06
355.368	3.07
355.818	3.08
356.268	3.1
356.718	3.11
357.168	3.11
357.617	3.12
358.067	3.12
358.517	3.14
358.966	3.15
359.416	3.16
359.865	3.17
360.315	3.16
360.764	3.17
361.213	3.17
361.663	3.18
362.112	3.2
362.561	3.2
363.01	3.22
363.459	3.2
363.908	3.2
364.357	3.21
364.806	3.22
365.255	3.24
365.703	3.26
366.152	3.27
366.601	3.27
367.05	3.28
367.498	3.29
367.947	3.29
368.395	3.32
368.844	3.34
369.292	3.33
369.74	3.34
370.189	3.34
370.637	3.34
371.085	3.34
371.533	3.35
371.981	3.35
372.429	3.35
372.877	3.35
373.325	3.35
373.773	3.35
374.221	3.35
374.669	3.35
375.116	3.34
375.564	3.34
376.012	3.36
376.459	3.36
376.907	3.38
377.354	3.39
377.801	3.41
378.249	3.42
378.696	3.44
379.143	3.46
379.591	3.48
380.038	3.51
380.485	3.53
380.932	3.55
381.379	3.59
381.826	3.62
382.273	3.65
382.72	3.69
383.166	3.74
383.613	3.79
384.06	3.85
384.506	3.95
384.953	4.07
385.4	4.2
385.846	4.36
386.292	4.56
386.739	4.8
387.185	5.08
387.631	5.35
388.078	5.6
388.524	5.82
388.97	6.05
389.416	6.32
389.862	6.72
390.308	7.25
390.754	7.9
391.2	8.59
391.645	9.23
392.091	9.79
392.537	10.39
392.983	11.25
393.428	12.5
393.874	14.1
394.319	15.93
394.765	17.9
395.21	19.97
395.655	22.19
396.101	24.59
396.546	27.32
396.991	30.4
397.436	33.76
397.881	37.24
398.326	40.66
398.771	44.02
399.216	47.35
399.661	50.51
400.106	53.49
400.551	56.27
400.995	58.8
401.44	61.14
401.885	63.45
402.329	65.76
402.774	68.17
403.218	70.73
403.663	73.35
404.107	76.11
404.551	78.89
404.995	81.56
405.44	84.12
405.884	86.76
406.328	89.58
406.772	92.5
407.216	95.46
407.66	98.1
408.104	100.33
408.547	102.24
408.991	103.98
409.435	105.75
409.879	107.8
410.322	110.23
410.766	112.66
411.209	115.04
411.653	117.14
412.096	118.98
412.54	120.87
412.983	123.07
413.426	125.41
413.869	127.67
414.312	130.07
414.756	132.27
415.199	134.1
415.642	135.76
416.085	137.14
416.527	138.1
416.97	138.64
417.413	138.76
417.856	138.3
418.298	137.92
418.741	137.86
419.184	137.82
419.626	137.98
420.069	138.08
420.511	138.6
420.953	139
421.396	140.01
421.838	141.54
422.28	143.3
422.722	145.48
423.164	147.24
423.606	148.78
424.048	149.76
424.49	150.38
424.932	150.49
425.374	149.39
425.816	148.01
426.258	146.14
426.699	144.34
427.141	143.59
427.582	143.93
428.024	145.05
428.465	146.39
428.907	147.62
429.348	148.37
429.789	149.58
430.231	152.17
430.672	155.65
431.113	160.17
431.554	164.37
431.995	167.85
432.436	170.01
432.877	171.99
433.318	173.71
433.759	176.13
434.2	179.06
434.64	182.37
435.081	185.15
435.522	188.01
435.962	189.86
436.403	192.33
436.843	193.93
437.284	195.23
437.724	196.33
438.164	197.58
438.604	199.16
439.045	200.55
439.485	201.56
439.925	202.46
440.365	203.01
440.805	203.75
441.245	203.58
441.685	204.68
442.125	205.7
442.564	206.78
443.004	207.38
443.444	208.16
443.883	208.97
444.323	210.11
444.762	211.43
445.202	212.52
445.641	213.64
446.081	215.61
446.52	216.24
446.959	217.78
447.398	219.27
447.837	220.16
448.276	220.13
448.716	220.16
449.154	220.19
449.593	220.09
450.032	219.39
450.471	218.17
450.91	216.41
451.349	214.8
451.787	212.95
452.226	210.75
452.664	208.88
453.103	207.14
453.541	204.83
453.98	202.3
454.418	199.44
454.856	196.92
455.295	195.07
455.733	192.75
456.171	190.84
456.609	189.27
457.047	186.93
457.485	185.7
457.923	184.77
458.361	184.26
458.798	184.14
459.236	184.12
459.674	184.5
460.111	184.37
460.549	185.11
460.987	185.76
461.424	185.96
461.862	187.19
462.299	187.73
462.736	188.12
463.173	189.1
463.611	190.01
464.048	191.26
464.485	192.27
464.922	193.54
465.359	194.6
465.796	195.49
466.233	197.11
466.67	198.28
467.106	199.51
467.543	200.7
467.98	201.44
468.416	202.18
468.853	202.54
469.29	202.84
469.726	203.06
470.162	203.13
470.599	202.89
471.035	202.33
471.471	201.67
471.907	200.86
472.344	200.02
472.78	198.79
473.216	197.32
473.652	195.81
474.088	194.2
474.523	192.2
474.959	190.24
475.395	188.38
475.831	186.34
476.266	184.38
476.702	182.34
477.138	180.04
477.573	177.9
478.008	175.58
478.444	173.16
478.879	170.78
479.314	168.52
479.75	166.16
480.185	163.77
480.62	161.27
481.055	158.76
481.49	155.89
481.925	153.02
482.36	150.28
482.795	147.78
483.229	145.73
483.664	143.7
484.099	141.76
484.534	139.91
484.968	138.36
485.403	136.87
485.837	135.7
486.271	134.83
486.706	134.03
487.14	133.43
487.574	132.67
488.009	131.81
488.443	131.02
488.877	130.32
489.311	129.72
489.745	129.15
490.179	128.82
490.613	128.4
491.046	128.14
491.48	128.03
491.914	127.88
492.348	127.9
492.781	127.93
493.215	128.07
493.648	128.21
494.082	128.32
494.515	128.52
494.948	128.63
495.382	128.81
495.815	128.86
496.248	129
496.681	129.1
497.114	129.23
497.547	129.34
497.98	129.47
498.413	129.67
498.846	129.97
499.279	130.19
499.711	130.4
500.144	130.66
500.577	131.12
501.009	131.64
501.442	132.29
501.874	132.84
502.306	133.6
502.739	134.17
503.171	134.95
503.603	135.55
504.036	136.13
504.468	136.88
504.9	137.67
505.332	138.32
505.764	139.02
506.196	139.65
506.627	140.4
507.059	141.09
507.491	141.85
507.923	142.39
508.354	143.16
508.786	143.99
509.217	144.65
509.649	145.42
510.08	146.15
510.512	146.91
510.943	147.78
511.374	148.64
511.805	149.35
512.237	150.07
512.668	150.72
513.099	151.44
513.53	152.07
513.961	152.78
514.391	153.4
514.822	154.1
515.253	154.84
515.684	155.45
516.114	156.11
516.545	156.69
516.975	157.39
517.406	158.12
517.836	158.75
518.267	159.35
518.697	159.84
519.127	160.31
519.558	160.7
519.988	161.03
520.418	161.41
520.848	161.67
521.278	162.05
521.708	162.14
522.138	162.35
522.567	162.52
522.997	162.72
523.427	163.03
523.857	163.25
524.286	163.66
524.716	164.07
525.145	164.35
525.575	164.77
526.004	165.2
526.433	165.86
526.863	166.53
527.292	167.15
527.721	167.7
528.15	168.12
528.579	168.5
529.008	168.79
529.437	168.98
529.866	169.22
530.295	169.44
530.724	169.7
531.152	169.87
531.581	170.02
532.01	170.15
532.438	170.25
532.867	170.49
533.295	170.75
533.723	171.02
534.152	171.25
534.58	171.42
535.008	171.51
535.436	171.57
535.865	171.57
536.293	171.56
536.721	171.64
537.149	171.82
537.576	172.12
538.004	172.48
538.432	172.74
538.86	173.03
539.287	173.41
539.715	173.83
540.143	174.29
540.57	174.92
540.998	175.64
541.425	176.21
541.852	176.93
542.28	177.46
542.707	178.12
543.134	178.74
543.561	179.21
543.988	179.77
544.415	180.42
544.842	181.05
545.269	181.61
545.696	182.1
546.123	182.85
546.549	183.39
546.976	183.86
547.403	184.22
547.829	184.78
548.256	185.37
548.682	185.78
549.108	186.3
549.535	186.75
549.961	187.09
550.387	187.42
550.813	187.69
551.24	188
551.666	188.31
552.092	188.54
552.518	188.68
552.943	188.84
553.369	189.1
553.795	189.2
554.221	189.15
554.646	189.1
555.072	188.87
555.498	188.57
555.923	188.33
556.349	188.03
556.774	187.8
557.199	187.52
557.625	187.27
558.05	186.77
558.475	186.24
558.9	185.81
559.325	185.34
559.75	184.87
560.175	184.35
560.6	183.73
561.025	182.94
561.449	182.11
561.874	181.16
562.299	180.2
562.723	179.31
563.148	178.28
563.572	177.22
563.997	176.09
564.421	174.81
564.846	173.58
565.27	172.33
565.694	171.15
566.118	169.76
566.542	168.53
566.966	167.21
567.39	165.87
567.814	164.69
568.238	163.64
568.662	162.73
569.086	161.94
569.509	161.36
569.933	160.79
570.357	160.37
570.78	160.09
571.204	159.82
571.627	159.74
572.05	159.86
572.474	159.93
572.897	160.16
573.32	160.35
573.743	160.67
574.166	160.8
574.589	161.04
575.012	161.42
575.435	161.91
575.858	162.39
576.281	162.92
576.704	163.38
577.126	163.86
577.549	164.28
577.972	164.92
578.394	165.41
578.817	165.94
579.239	166.61
579.661	167.12
580.084	167.53
580.506	168.06
580.928	168.49
581.35	169.01
581.772	169.42
582.194	169.77
582.616	170
583.038	170.43
583.46	170.8
583.882	170.94
584.303	171.07
584.725	171.19
585.147	171.04
585.568	170.99
585.99	170.82
586.411	170.9
586.833	170.87
587.254	170.81
587.675	170.71
588.096	170.74
588.518	170.73
588.939	170.75
589.36	170.76
589.781	170.83
590.202	170.74
590.623	170.7
591.043	170.32
591.464	169.97
591.885	169.64
592.305	169.21
592.726	168.62
593.147	167.94
593.567	167.19
593.987	166.39
594.408	165.57
594.828	164.71
595.248	163.73
595.669	162.67
596.089	161.58
596.509	160.44
596.929	159.18
597.349	157.97
597.769	156.77
598.189	155.56
598.608	154.46
599.028	153.33
599.448	152.33
599.867	151.37
600.287	150.63
600.706	149.72
601.126	148.88
601.545	148.18
601.965	147.59
602.384	147.07
602.803	146.58
603.222	146.1
603.641	145.72
604.061	145.36
604.48	144.97
604.898	144.65
605.317	144.47
605.736	144.26
606.155	144.05
606.574	143.82
606.992	143.68
607.411	143.56
607.829	143.46
608.248	143.42
608.666	143.33
609.085	143.29
609.503	143.11
609.921	143.05
610.339	143.02
610.758	142.99
611.176	142.96
611.594	142.87
612.012	142.77
612.43	142.62
612.847	142.48
613.265	142.36
613.683	142.3
614.101	142.27
614.518	142.24
614.936	142.17
615.353	142.12
615.771	142.09
616.188	142.1
616.606	142.1
617.023	142.18
617.44	142.19
617.857	142.13
618.274	142.09
618.691	142.04
619.108	141.97
619.525	141.94
619.942	141.81
620.359	141.68
620.776	141.46
621.192	141.27
621.609	141.1
622.026	140.92
622.442	140.9
622.859	140.74
623.275	140.65
623.691	140.51
624.108	140.43
624.524	140.36
624.94	140.33
625.356	140.26
625.772	140.31
626.188	140.33
626.604	140.35
627.02	140.33
627.436	140.38
627.852	140.41
628.268	140.43
628.683	140.55
629.099	140.75
629.514	140.86
629.93	141.03
630.345	141.2
630.761	141.32
631.176	141.51
631.591	141.62
632.007	141.79
632.422	141.99
632.837	142.18
633.252	142.27
633.667	142.36
634.082	142.46
634.497	142.67
634.911	142.74
635.326	142.78
635.741	142.83
636.155	142.81
636.57	142.79
636.984	142.76
637.399	142.72
637.813	142.67
638.228	142.5
638.642	142.47
639.056	142.3
639.47	142.24
639.884	142.22
640.298	142.1
640.712	142.04
641.126	141.96
641.54	141.91
641.954	141.75
642.368	141.6
642.781	141.51
643.195	141.33
643.609	141.21
644.022	141.03
644.436	140.81
644.849	140.68
645.262	140.39
645.676	140.19
646.089	140.04
646.502	139.96
646.915	139.85
647.328	139.79
647.741	139.71
648.154	139.65
648.567	139.54
648.98	139.51
649.393	139.5
649.805	139.62
650.218	139.68
650.631	139.5
651.043	139.38
651.456	139
651.868	138.43
652.28	137.81
652.693	137.18
653.105	136.73
653.517	136.41
653.929	136.1
654.341	135.89
654.753	135.7
655.165	135.63
655.577	135.58
655.989	135.91
656.401	136.19
656.813	136.64
657.224	137.04
657.636	137.36
658.047	137.55
658.459	137.59
658.87	137.51
659.282	137.42
659.693	137.31
660.104	137.16
660.515	136.87
660.926	136.84
661.338	136.61
661.749	136.4
662.159	136.15
662.57	135.82
662.981	135.63
663.392	135.38
663.803	135.05
664.213	134.83
664.624	134.64
665.035	134.38
665.445	134.08
665.855	133.83
666.266	133.54
666.676	133.22
667.086	132.95
667.497	132.61
667.907	132.35
668.317	132.18
668.727	131.92
669.137	131.61
669.547	131.41
669.956	131.19
670.366	131.04
670.776	130.86
671.186	130.76
671.595	130.61
672.005	130.5
672.414	130.4
672.824	130.27
673.233	130.21
673.642	130.2
674.052	130.25
674.461	130.3
674.87	130.31
675.279	130.41
675.688	130.47
676.097	130.58
676.506	130.71
676.915	130.85
677.323	131.1
677.732	131.36
678.141	131.61
678.549	131.84
678.958	132.14
679.366	132.45
679.775	132.71
680.183	132.93
680.592	133.18
681	133.51
681.408	133.76
681.816	133.93
682.224	133.93
682.632	133.57
683.04	132.71
683.448	131.85
683.856	131.11
684.264	130.58
684.671	130.15
685.079	129.78
685.487	129.42
685.894	129.28
686.302	129.26
686.709	129.55
687.116	130.34
687.524	131.75
687.931	133.3
688.338	134.83
688.745	136.32
689.152	137.81
689.559	139.29
689.966	140.72
690.373	142.09
690.78	143.45
691.187	144.76
691.593	146.01
692	147.18
692.407	148.29
692.813	149.45
693.22	150.51
693.626	151.66
694.032	152.72
694.439	153.75
694.845	154.8
695.251	155.78
695.657	156.7
696.063	157.6
696.469	158.33
696.875	159.01
697.281	159.66
697.687	160.28
698.093	160.79
698.498	161.44
698.904	162.14
699.31	162.79
699.715	163.52
700.12	164.17
700.526	164.91
700.931	165.75
701.337	166.58
701.742	167.34
702.147	168.12
702.552	168.91
702.957	169.66
703.362	170.42
703.767	171.09
704.172	171.72
704.577	172.39
704.981	172.98
705.386	173.49
705.791	174.11
706.195	174.59
706.6	175.17
707.004	175.78
707.408	176.23
707.813	176.73
708.217	177.09
708.621	177.47
709.025	177.88
709.43	178.24
709.834	178.68
710.237	179.05
710.641	179.51
711.045	179.78
711.449	180.08
711.853	180.44
712.256	180.63
712.66	180.74
713.064	180.67
713.467	180.37
713.87	179.92
714.274	179.43
714.677	178.71
715.08	177.94
715.484	177.29
715.887	176.53
716.29	176.02
716.693	175.71
717.096	175.84
717.499	176.38
717.901	177.2
718.304	178.25
718.707	179.29
719.109	180.45
719.512	181.6
719.915	182.49
720.317	183.46
720.719	184.11
721.122	184.64
721.524	184.95
721.926	185.05
722.328	185.03
722.731	184.93
723.133	184.88
723.535	184.85
723.937	184.86
724.338	184.95
724.74	185
725.142	184.98
725.544	185.18
725.945	185.28
726.347	185.45
726.748	185.49
727.15	185.55
727.551	185.7
727.952	185.92
728.354	186.3
728.755	186.81
729.156	187.39
729.557	188.16
729.958	188.73
730.359	189.3
730.76	189.72
731.161	190.21
731.562	190.64
731.962	191.03
732.363	191.27
732.763	191.51
733.164	191.59
733.564	191.68
733.965	191.64
734.365	191.53
734.766	191.44
735.166	191.21
735.566	191.12
735.966	191.1
736.366	190.93
736.766	190.91
737.166	190.87
737.566	190.82
737.966	190.69
738.365	190.63
738.765	190.69
739.165	190.75
739.564	191.03
739.964	191.12
740.363	191.21
740.763	191.42
741.162	191.56
741.561	191.76
741.96	192.03
742.36	192.33
742.759	192.48
743.158	192.61
743.557	192.79
743.955	192.9
744.354	193
744.753	193.14
745.152	193.07
745.55	193
745.949	192.73
746.348	192.44
746.746	192.12
747.144	191.82
747.543	191.43
747.941	190.97
748.339	190.58
748.737	190.18
749.136	189.56
749.534	189.1
