Data from c_1_dec_ct_2n_035_Splice17_18.txt Node
Date: Sat Feb 29 13:25:45 EST 2020
User: sa697716
Spectrometer: FLMS03696
Trigger mode: 0
Integration Time (sec): 3.180400E-1
Scans to average: 20
Electric dark correction enabled: true
Nonlinearity correction enabled: true
Boxcar width: 5
XAxis mode: Wavelengths
Number of Pixels in Spectrum: 2048
>>>>>Begin Spectral Data<<<<<
187.83	65.63
188.298	71.25
188.766	81.08
189.233	59.01
189.701	73.17
190.169	66.74
190.636	66.78
191.104	68.59
191.571	154.79
192.039	140
192.506	-28.41
192.974	5905.99
193.441	-674.35
193.908	183.52
194.375	99.44
194.842	227.08
195.31	89.65
195.777	127.1
196.244	102.34
196.711	82.17
197.177	76.74
197.644	76.48
198.111	76.44
198.578	76.54
199.045	77.53
199.511	77.97
199.978	78.19
200.445	78.1
200.911	77.87
201.378	77.21
201.844	77.38
202.31	77.84
202.777	77.95
203.243	78.22
203.709	77.87
204.176	76.91
204.642	76.71
205.108	76
205.574	75.58
206.04	74.88
206.506	74.46
206.972	73.73
207.438	72.8
207.903	71.57
208.369	69.71
208.835	68.67
209.301	67.61
209.766	66.03
210.232	64.6
210.697	63.48
211.163	62.28
211.628	61.26
212.094	60.15
212.559	58.9
213.024	58.03
213.49	56.97
213.955	55.64
214.42	54.2
214.885	52.37
215.35	50.52
215.815	47.56
216.28	44.81
216.745	41.37
217.21	38.11
217.675	34.96
218.14	31.92
218.604	29.29
219.069	27.09
219.534	25.12
219.998	23.61
220.463	22.2
220.927	21.11
221.392	20.08
221.856	19.27
222.32	18.52
222.785	17.86
223.249	17.34
223.713	16.87
224.177	16.41
224.642	16.04
225.106	15.65
225.57	15.31
226.034	14.99
226.497	14.65
226.961	14.36
227.425	14.07
227.889	13.8
228.353	13.49
228.816	13.22
229.28	12.91
229.744	12.69
230.207	12.47
230.671	12.23
231.134	12
231.597	11.8
232.061	11.6
232.524	11.43
232.987	11.26
233.45	11.11
233.914	10.96
234.377	10.87
234.84	10.74
235.303	10.6
235.766	10.49
236.229	10.38
236.691	10.29
237.154	10.18
237.617	10.07
238.08	9.97
238.542	9.86
239.005	9.75
239.468	9.63
239.93	9.52
240.393	9.42
240.855	9.32
241.317	9.22
241.78	9.12
242.242	9.02
242.704	8.93
243.166	8.84
243.629	8.76
244.091	8.68
244.553	8.6
245.015	8.53
245.477	8.43
245.939	8.34
246.4	8.28
246.862	8.2
247.324	8.12
247.786	8.05
248.247	7.98
248.709	7.9
249.17	7.83
249.632	7.76
250.093	7.67
250.555	7.62
251.016	7.56
251.477	7.49
251.939	7.43
252.4	7.39
252.861	7.32
253.322	7.27
253.783	7.23
254.244	7.17
254.705	7.12
255.166	7.08
255.627	7.02
256.088	6.96
256.549	6.91
257.009	6.86
257.47	6.8
257.931	6.74
258.391	6.68
258.852	6.62
259.312	6.57
259.773	6.52
260.233	6.47
260.694	6.42
261.154	6.36
261.614	6.31
262.074	6.27
262.534	6.23
262.994	6.19
263.455	6.15
263.915	6.1
264.374	6.06
264.834	6.02
265.294	5.99
265.754	5.96
266.214	5.93
266.673	5.9
267.133	5.86
267.593	5.83
268.052	5.79
268.512	5.76
268.971	5.75
269.431	5.72
269.89	5.7
270.349	5.68
270.809	5.66
271.268	5.65
271.727	5.63
272.186	5.61
272.645	5.59
273.104	5.57
273.563	5.55
274.022	5.53
274.481	5.51
274.94	5.49
275.399	5.47
275.857	5.45
276.316	5.42
276.775	5.4
277.233	5.38
277.692	5.37
278.15	5.35
278.609	5.33
279.067	5.31
279.525	5.28
279.984	5.26
280.442	5.26
280.9	5.25
281.358	5.23
281.816	5.23
282.274	5.21
282.732	5.2
283.19	5.19
283.648	5.18
284.106	5.17
284.564	5.17
285.021	5.16
285.479	5.15
285.937	5.13
286.394	5.11
286.852	5.1
287.309	5.09
287.767	5.06
288.224	5.05
288.682	5.02
289.139	5.01
289.596	4.98
290.053	4.95
290.511	4.92
290.968	4.9
291.425	4.88
291.882	4.85
292.339	4.82
292.796	4.8
293.252	4.78
293.709	4.75
294.166	4.73
294.623	4.71
295.079	4.69
295.536	4.67
295.992	4.65
296.449	4.64
296.905	4.61
297.362	4.6
297.818	4.58
298.274	4.57
298.731	4.55
299.187	4.54
299.643	4.53
300.099	4.51
300.555	4.5
301.011	4.5
301.467	4.48
301.923	4.48
302.379	4.47
302.835	4.47
303.291	4.45
303.746	4.45
304.202	4.44
304.658	4.44
305.113	4.43
305.569	4.43
306.024	4.42
306.479	4.41
306.935	4.41
307.39	4.4
307.845	4.4
308.301	4.4
308.756	4.39
309.211	4.39
309.666	4.38
310.121	4.38
310.576	4.37
311.031	4.36
311.486	4.36
311.94	4.35
312.395	4.36
312.85	4.35
313.305	4.36
313.759	4.36
314.214	4.35
314.668	4.35
315.123	4.35
315.577	4.34
316.032	4.33
316.486	4.32
316.94	4.31
317.394	4.29
317.849	4.28
318.303	4.27
318.757	4.24
319.211	4.22
319.665	4.21
320.119	4.19
320.572	4.19
321.026	4.18
321.48	4.16
321.934	4.15
322.387	4.14
322.841	4.13
323.295	4.12
323.748	4.11
324.202	4.1
324.655	4.1
325.108	4.09
325.562	4.07
326.015	4.06
326.468	4.04
326.921	4.04
327.374	4.03
327.827	4.03
328.28	4.02
328.733	4.01
329.186	4.02
329.639	4.01
330.092	4.01
330.545	4.01
330.997	4.02
331.45	4.03
331.903	4.02
332.355	4.03
332.808	4.03
333.26	4.03
333.713	4.04
334.165	4.04
334.617	4.06
335.069	4.05
335.522	4.05
335.974	4.05
336.426	4.05
336.878	4.05
337.33	4.05
337.782	4.05
338.234	4.04
338.686	4.04
339.137	4.04
339.589	4.03
340.041	4.02
340.493	4
340.944	3.99
341.396	3.98
341.847	3.96
342.299	3.95
342.75	3.93
343.201	3.91
343.653	3.89
344.104	3.87
344.555	3.85
345.006	3.84
345.457	3.83
345.908	3.81
346.359	3.81
346.81	3.8
347.261	3.8
347.712	3.78
348.163	3.78
348.613	3.76
349.064	3.74
349.515	3.73
349.965	3.73
350.416	3.72
350.866	3.72
351.317	3.7
351.767	3.69
352.217	3.68
352.668	3.69
353.118	3.7
353.568	3.71
354.018	3.73
354.468	3.73
354.918	3.74
355.368	3.75
355.818	3.75
356.268	3.75
356.718	3.76
357.168	3.75
357.617	3.75
358.067	3.73
358.517	3.72
358.966	3.72
359.416	3.73
359.865	3.72
360.315	3.71
360.764	3.71
361.213	3.7
361.663	3.69
362.112	3.71
362.561	3.71
363.01	3.72
363.459	3.72
363.908	3.71
364.357	3.71
364.806	3.7
365.255	3.71
365.703	3.7
366.152	3.71
366.601	3.71
367.05	3.7
367.498	3.69
367.947	3.69
368.395	3.69
368.844	3.69
369.292	3.68
369.74	3.68
370.189	3.67
370.637	3.66
371.085	3.66
371.533	3.65
371.981	3.65
372.429	3.64
372.877	3.62
373.325	3.61
373.773	3.61
374.221	3.6
374.669	3.59
375.116	3.59
375.564	3.59
376.012	3.59
376.459	3.59
376.907	3.59
377.354	3.59
377.801	3.6
378.249	3.61
378.696	3.61
379.143	3.61
379.591	3.61
380.038	3.6
380.485	3.61
380.932	3.6
381.379	3.59
381.826	3.58
382.273	3.57
382.72	3.56
383.166	3.56
383.613	3.55
384.06	3.54
384.506	3.54
384.953	3.54
385.4	3.54
385.846	3.53
386.292	3.54
386.739	3.54
387.185	3.55
387.631	3.55
388.078	3.54
388.524	3.53
388.97	3.53
389.416	3.52
389.862	3.52
390.308	3.51
390.754	3.52
391.2	3.53
391.645	3.53
392.091	3.52
392.537	3.54
392.983	3.56
393.428	3.57
393.874	3.58
394.319	3.58
394.765	3.59
395.21	3.6
395.655	3.6
396.101	3.61
396.546	3.62
396.991	3.64
397.436	3.63
397.881	3.64
398.326	3.66
398.771	3.67
399.216	3.69
399.661	3.71
400.106	3.73
400.551	3.72
400.995	3.71
401.44	3.7
401.885	3.7
402.329	3.72
402.774	3.71
403.218	3.72
403.663	3.71
404.107	3.72
404.551	3.73
404.995	3.73
405.44	3.75
405.884	3.77
406.328	3.8
406.772	3.82
407.216	3.84
407.66	3.87
408.104	3.87
408.547	3.9
408.991	3.9
409.435	3.9
409.879	3.93
410.322	3.95
410.766	3.98
411.209	4
411.653	4
412.096	3.99
412.54	4.01
412.983	4.03
413.426	4.05
413.869	4.08
414.312	4.12
414.756	4.15
415.199	4.18
415.642	4.22
416.085	4.24
416.527	4.28
416.97	4.32
417.413	4.32
417.856	4.31
418.298	4.3
418.741	4.3
419.184	4.3
419.626	4.27
420.069	4.26
420.511	4.25
420.953	4.25
421.396	4.26
421.838	4.27
422.28	4.3
422.722	4.33
423.164	4.35
423.606	4.36
424.048	4.36
424.49	4.4
424.932	4.4
425.374	4.4
425.816	4.39
426.258	4.39
426.699	4.36
427.141	4.35
427.582	4.35
428.024	4.37
428.465	4.38
428.907	4.38
429.348	4.37
429.789	4.38
430.231	4.39
430.672	4.42
431.113	4.43
431.554	4.46
431.995	4.48
432.436	4.49
432.877	4.49
433.318	4.5
433.759	4.53
434.2	4.56
434.64	4.58
435.081	4.59
435.522	4.62
435.962	4.63
436.403	4.67
436.843	4.67
437.284	4.69
437.724	4.72
438.164	4.74
438.604	4.75
439.045	4.77
439.485	4.77
439.925	4.77
440.365	4.75
440.805	4.76
441.245	4.72
441.685	4.73
442.125	4.74
442.564	4.74
443.004	4.73
443.444	4.74
443.883	4.74
444.323	4.76
444.762	4.8
445.202	4.85
445.641	4.85
446.081	4.9
446.52	4.91
446.959	4.92
447.398	4.95
447.837	4.97
448.276	4.98
448.716	4.99
449.154	4.99
449.593	4.99
450.032	4.98
450.471	4.99
450.91	4.97
451.349	4.96
451.787	4.94
452.226	4.92
452.664	4.89
453.103	4.88
453.541	4.87
453.98	4.87
454.418	4.83
454.856	4.82
455.295	4.79
455.733	4.77
456.171	4.76
456.609	4.76
457.047	4.74
457.485	4.73
457.923	4.72
458.361	4.7
458.798	4.69
459.236	4.69
459.674	4.7
460.111	4.72
460.549	4.72
460.987	4.74
461.424	4.74
461.862	4.76
462.299	4.75
462.736	4.75
463.173	4.77
463.611	4.76
464.048	4.77
464.485	4.77
464.922	4.76
465.359	4.77
465.796	4.75
466.233	4.77
466.67	4.78
467.106	4.79
467.543	4.8
467.98	4.8
468.416	4.81
468.853	4.81
469.29	4.8
469.726	4.81
470.162	4.8
470.599	4.79
471.035	4.78
471.471	4.75
471.907	4.75
472.344	4.74
472.78	4.74
473.216	4.73
473.652	4.72
474.088	4.73
474.523	4.71
474.959	4.69
475.395	4.68
475.831	4.67
476.266	4.68
476.702	4.66
477.138	4.63
477.573	4.61
478.008	4.59
478.444	4.57
478.879	4.54
479.314	4.53
479.75	4.52
480.185	4.49
480.62	4.47
481.055	4.45
481.49	4.43
481.925	4.41
482.36	4.38
482.795	4.35
483.229	4.34
483.664	4.33
484.099	4.31
484.534	4.3
484.968	4.3
485.403	4.3
485.837	4.29
486.271	4.28
486.706	4.28
487.14	4.29
487.574	4.29
488.009	4.3
488.443	4.29
488.877	4.3
489.311	4.31
489.745	4.31
490.179	4.32
490.613	4.33
491.046	4.35
491.48	4.36
491.914	4.37
492.348	4.39
492.781	4.41
493.215	4.43
493.648	4.45
494.082	4.48
494.515	4.5
494.948	4.52
495.382	4.55
495.815	4.58
496.248	4.62
496.681	4.65
497.114	4.68
497.547	4.71
497.98	4.76
498.413	4.8
498.846	4.84
499.279	4.88
499.711	4.93
500.144	4.99
500.577	5.03
501.009	5.1
501.442	5.17
501.874	5.24
502.306	5.31
502.739	5.37
503.171	5.46
503.603	5.55
504.036	5.64
504.468	5.75
504.9	5.86
505.332	5.97
505.764	6.07
506.196	6.19
506.627	6.32
507.059	6.46
507.491	6.62
507.923	6.76
508.354	6.92
508.786	7.08
509.217	7.23
509.649	7.41
510.08	7.59
510.512	7.78
510.943	7.98
511.374	8.17
511.805	8.37
512.237	8.57
512.668	8.78
513.099	9.01
513.53	9.25
513.961	9.51
514.391	9.74
514.822	9.99
515.253	10.25
515.684	10.5
516.114	10.78
516.545	11.07
516.975	11.36
517.406	11.65
517.836	11.94
518.267	12.25
518.697	12.55
519.127	12.86
519.558	13.16
519.988	13.47
520.418	13.78
520.848	14.07
521.278	14.37
521.708	14.71
522.138	15
522.567	15.28
522.997	15.56
523.427	15.85
523.857	16.12
524.286	16.38
524.716	16.63
525.145	16.9
525.575	17.17
526.004	17.41
526.433	17.59
526.863	17.83
527.292	18.05
527.721	18.27
528.15	18.48
528.579	18.69
529.008	18.89
529.437	19.08
529.866	19.24
530.295	19.42
530.724	19.61
531.152	19.78
531.581	19.92
532.01	20.07
532.438	20.2
532.867	20.34
533.295	20.44
533.723	20.57
534.152	20.69
534.58	20.79
535.008	20.87
535.436	20.95
535.865	21.03
536.293	21.12
536.721	21.2
537.149	21.26
537.576	21.31
538.004	21.41
538.432	21.46
538.86	21.52
539.287	21.59
539.715	21.66
540.143	21.72
540.57	21.77
540.998	21.84
541.425	21.89
541.852	21.94
542.28	21.98
542.707	22.04
543.134	22.09
543.561	22.11
543.988	22.15
544.415	22.19
544.842	22.23
545.269	22.26
545.696	22.27
546.123	22.31
546.549	22.36
546.976	22.4
547.403	22.4
547.829	22.41
548.256	22.45
548.682	22.47
549.108	22.5
549.535	22.52
549.961	22.54
550.387	22.55
550.813	22.54
551.24	22.54
551.666	22.55
552.092	22.55
552.518	22.54
552.943	22.52
553.369	22.51
553.795	22.46
554.221	22.4
554.646	22.36
555.072	22.32
555.498	22.28
555.923	22.22
556.349	22.13
556.774	22.06
557.199	21.98
557.625	21.88
558.05	21.78
558.475	21.69
558.9	21.59
559.325	21.48
559.75	21.37
560.175	21.25
560.6	21.14
561.025	21.02
561.449	20.89
561.874	20.77
562.299	20.63
562.723	20.51
563.148	20.36
563.572	20.2
563.997	20.04
564.421	19.88
564.846	19.71
565.27	19.51
565.694	19.34
566.118	19.18
566.542	19.01
566.966	18.84
567.39	18.63
567.814	18.47
568.238	18.28
568.662	18.12
569.086	17.94
569.509	17.76
569.933	17.59
570.357	17.41
570.78	17.25
571.204	17.06
571.627	16.89
572.05	16.74
572.474	16.58
572.897	16.43
573.32	16.27
573.743	16.12
574.166	15.97
574.589	15.82
575.012	15.68
575.435	15.54
575.858	15.42
576.281	15.28
576.704	15.16
577.126	15.04
577.549	14.94
577.972	14.81
578.394	14.7
578.817	14.59
579.239	14.5
579.661	14.41
580.084	14.3
580.506	14.21
580.928	14.12
581.35	14.03
581.772	13.95
582.194	13.84
582.616	13.77
583.038	13.7
583.46	13.63
583.882	13.55
584.303	13.46
584.725	13.39
585.147	13.31
585.568	13.22
585.99	13.17
586.411	13.1
586.833	13.05
587.254	13
587.675	12.95
588.096	12.89
588.518	12.84
588.939	12.79
589.36	12.74
589.781	12.69
590.202	12.66
590.623	12.6
591.043	12.55
591.464	12.5
591.885	12.45
592.305	12.41
592.726	12.37
593.147	12.34
593.567	12.29
593.987	12.28
594.408	12.24
594.828	12.21
595.248	12.18
595.669	12.13
596.089	12.1
596.509	12.05
596.929	12
597.349	11.97
597.769	11.91
598.189	11.88
598.608	11.82
599.028	11.78
599.448	11.74
599.867	11.68
600.287	11.64
600.706	11.59
601.126	11.55
601.545	11.51
601.965	11.46
602.384	11.42
602.803	11.36
603.222	11.29
603.641	11.24
604.061	11.18
604.48	11.13
604.898	11.07
605.317	11
605.736	10.95
606.155	10.88
606.574	10.8
606.992	10.73
607.411	10.67
607.829	10.56
608.248	10.49
608.666	10.41
609.085	10.35
609.503	10.27
609.921	10.18
610.339	10.1
610.758	10.03
611.176	9.97
611.594	9.89
612.012	9.8
612.43	9.77
612.847	9.7
613.265	9.63
613.683	9.54
614.101	9.47
614.518	9.42
614.936	9.36
615.353	9.29
615.771	9.22
616.188	9.17
616.606	9.11
617.023	9.05
617.44	9
617.857	8.96
618.274	8.91
618.691	8.86
619.108	8.82
619.525	8.77
619.942	8.74
620.359	8.71
620.776	8.67
621.192	8.66
621.609	8.63
622.026	8.6
622.442	8.57
622.859	8.55
623.275	8.56
623.691	8.55
624.108	8.54
624.524	8.52
624.94	8.5
625.356	8.5
625.772	8.48
626.188	8.47
626.604	8.46
627.02	8.46
627.436	8.45
627.852	8.41
628.268	8.4
628.683	8.37
629.099	8.37
629.514	8.36
629.93	8.34
630.345	8.32
630.761	8.29
631.176	8.28
631.591	8.25
632.007	8.22
632.422	8.19
632.837	8.15
633.252	8.11
633.667	8.06
634.082	8.02
634.497	7.96
634.911	7.88
635.326	7.83
635.741	7.76
636.155	7.69
636.57	7.62
636.984	7.53
637.399	7.45
637.813	7.36
638.228	7.27
638.642	7.19
639.056	7.11
639.47	7.02
639.884	6.93
640.298	6.83
640.712	6.73
641.126	6.65
641.54	6.56
641.954	6.49
642.368	6.42
642.781	6.34
643.195	6.24
643.609	6.18
644.022	6.11
644.436	6.04
644.849	5.99
645.262	5.93
645.676	5.87
646.089	5.82
646.502	5.75
646.915	5.69
647.328	5.66
647.741	5.61
648.154	5.56
648.567	5.53
648.98	5.49
649.393	5.46
649.805	5.42
650.218	5.4
650.631	5.38
651.043	5.36
651.456	5.34
651.868	5.3
652.28	5.28
652.693	5.26
653.105	5.23
653.517	5.2
653.929	5.18
654.341	5.17
654.753	5.12
655.165	5.1
655.577	5.05
655.989	5
656.401	4.95
656.813	4.9
657.224	4.87
657.636	4.82
658.047	4.77
658.459	4.71
658.87	4.65
659.282	4.63
659.693	4.58
660.104	4.55
660.515	4.53
660.926	4.5
661.338	4.46
661.749	4.41
662.159	4.37
662.57	4.35
662.981	4.33
663.392	4.3
663.803	4.26
664.213	4.24
664.624	4.22
665.035	4.19
665.445	4.18
665.855	4.18
666.266	4.18
666.676	4.17
667.086	4.15
667.497	4.14
667.907	4.12
668.317	4.12
668.727	4.11
669.137	4.11
669.547	4.12
669.956	4.13
670.366	4.13
670.776	4.15
671.186	4.17
671.595	4.19
672.005	4.2
672.414	4.23
672.824	4.24
673.233	4.26
673.642	4.27
674.052	4.28
674.461	4.29
674.87	4.3
675.279	4.31
675.688	4.32
676.097	4.34
676.506	4.36
676.915	4.39
677.323	4.42
677.732	4.45
678.141	4.49
678.549	4.53
678.958	4.57
679.366	4.59
679.775	4.64
680.183	4.68
680.592	4.73
681	4.78
681.408	4.83
681.816	4.87
682.224	4.93
682.632	5
683.04	5.05
683.448	5.13
683.856	5.21
684.264	5.3
684.671	5.4
685.079	5.5
685.487	5.65
685.894	5.79
686.302	5.95
686.709	6.12
687.116	6.31
687.524	6.52
687.931	6.74
688.338	7.02
688.745	7.29
689.152	7.61
689.559	7.94
689.966	8.28
690.373	8.64
690.78	9.05
691.187	9.5
691.593	9.95
692	10.44
692.407	10.95
692.813	11.47
693.22	12.02
693.626	12.58
694.032	13.15
694.439	13.75
694.845	14.37
695.251	14.99
695.657	15.6
696.063	16.25
696.469	16.9
696.875	17.52
697.281	18.16
697.687	18.82
698.093	19.49
698.498	20.16
698.904	20.82
699.31	21.47
699.715	22.14
700.12	22.8
700.526	23.46
700.931	24.13
701.337	24.8
701.742	25.44
702.147	26.07
702.552	26.69
702.957	27.3
703.362	27.94
703.767	28.57
704.172	29.18
704.577	29.8
704.981	30.39
705.386	30.96
705.791	31.55
706.195	32.15
706.6	32.73
707.004	33.3
707.408	33.87
707.813	34.41
708.217	34.94
708.621	35.48
709.025	35.99
709.43	36.5
709.834	37.04
710.237	37.53
710.641	38.04
711.045	38.55
711.449	39.05
711.853	39.53
712.256	40.04
712.66	40.52
713.064	40.99
713.467	41.45
713.87	41.91
714.274	42.39
714.677	42.87
715.08	43.28
715.484	43.72
715.887	44.16
716.29	44.58
716.693	44.96
717.096	45.38
717.499	45.77
717.901	46.15
718.304	46.55
718.707	46.91
719.109	47.27
719.512	47.66
719.915	48.01
720.317	48.35
720.719	48.68
721.122	49.04
721.524	49.35
721.926	49.69
722.328	50.03
722.731	50.35
723.133	50.65
723.535	50.98
723.937	51.28
724.338	51.57
724.74	51.86
725.142	52.1
725.544	52.33
725.945	52.62
726.347	52.87
726.748	53.09
727.15	53.3
727.551	53.52
727.952	53.7
728.354	53.89
728.755	54.09
729.156	54.29
729.557	54.53
729.958	54.73
730.359	54.9
730.76	55.05
731.161	55.25
731.562	55.42
731.962	55.6
732.363	55.75
732.763	55.94
733.164	56.06
733.564	56.15
733.965	56.26
734.365	56.39
734.766	56.52
735.166	56.61
735.566	56.71
735.966	56.78
736.366	56.85
736.766	56.96
737.166	57.04
737.566	57.11
737.966	57.23
738.365	57.32
738.765	57.4
739.165	57.44
739.564	57.54
739.964	57.62
740.363	57.69
740.763	57.76
741.162	57.81
741.561	57.87
741.96	57.97
742.36	58.03
742.759	58.08
743.158	58.1
743.557	58.18
743.955	58.23
744.354	58.26
744.753	58.31
745.152	58.33
745.55	58.4
745.949	58.43
746.348	58.47
746.746	58.47
747.144	58.57
747.543	58.63
747.941	58.7
748.339	58.76
748.737	58.82
749.136	58.89
749.534	58.96
749.932	59
750.33	59
750.727	59.03
751.125	59.09
751.523	59.07
751.921	59.1
752.318	59.09
752.716	59.07
753.113	59.08
753.511	59.06
753.908	59.04
754.305	59.01
754.703	59.01
755.1	58.99
755.497	58.97
755.894	58.99
756.291	58.98
756.688	58.99
757.085	59.01
757.482	59.03
757.878	59.08
758.275	59.13
758.672	59.18
759.068	59.22
759.465	59.25
759.861	59.25
760.258	59.25
760.654	59.25
761.05	59.24
761.447	59.25
761.843	59.23
762.239	59.19
762.635	59.16
763.031	59.11
763.427	59.1
763.822	59.06
764.218	59.06
764.614	59.05
765.01	59.05
765.405	59.01
765.801	58.99
766.196	58.97
766.592	58.99
766.987	59
767.382	59.04
767.778	59.07
768.173	59.09
768.568	59.09
768.963	59.05
769.358	59.06
769.753	59.11
770.148	59.11
770.542	59.12
770.937	59.09
771.332	59.07
771.726	59.01
772.121	58.97
772.515	58.95
772.91	58.94
773.304	58.95
773.699	58.94
774.093	58.88
774.487	58.94
774.881	58.96
775.275	58.96
775.669	58.96
776.063	58.98
776.457	58.97
776.851	58.96
777.245	59
777.638	59
778.032	59.02
778.425	59.08
778.819	59.04
779.212	58.99
779.606	58.97
779.999	58.94
780.392	58.96
780.786	58.93
781.179	58.96
781.572	58.94
781.965	58.96
782.358	58.91
782.751	58.9
783.143	58.91
783.536	58.99
783.929	59.04
784.322	59.08
784.714	59.04
785.107	59.12
