Data from c_1_dec_on_6n_019_Splice17_26.txt Node
Date: Sat Feb 29 13:17:48 EST 2020
User: sa697716
Spectrometer: FLMS03696
Trigger mode: 0
Integration Time (sec): 3.180400E-1
Scans to average: 20
Electric dark correction enabled: true
Nonlinearity correction enabled: true
Boxcar width: 5
XAxis mode: Wavelengths
Number of Pixels in Spectrum: 2048
>>>>>Begin Spectral Data<<<<<
187.83	64.4
188.298	56.55
188.766	60.19
189.233	66.57
189.701	74.11
190.169	83.71
190.636	93.74
191.104	94.67
191.571	275.65
192.039	308.35
192.506	86.14
192.974	7988.1
193.441	-872.5
193.908	154.41
194.375	248.35
194.842	211.18
195.31	121.97
195.777	120.11
196.244	38.19
196.711	36.03
197.177	34.6
197.644	33.36
198.111	31.81
198.578	31.88
199.045	32.2
199.511	32.99
199.978	34.14
200.445	33.84
200.911	33.64
201.378	33.84
201.844	33.65
202.31	34.31
202.777	34.18
203.243	34.73
203.709	34.38
204.176	34.35
204.642	34.43
205.108	34.04
205.574	34.83
206.04	34.67
206.506	34.41
206.972	34.26
207.438	33.58
207.903	34.05
208.369	33.82
208.835	33.82
209.301	33.92
209.766	33.71
210.232	33.65
210.697	33.3
211.163	33.6
211.628	33.22
212.094	33.12
212.559	32.81
213.024	32.4
213.49	32.16
213.955	32.04
214.42	31.6
214.885	30.92
215.35	30.21
215.815	29.48
216.28	28.92
216.745	28.68
217.21	28.07
217.675	27.68
218.14	27.07
218.604	26.41
219.069	25.97
219.534	25.47
219.998	25.11
220.463	24.87
220.927	24.56
221.392	24.2
221.856	23.84
222.32	23.54
222.785	23.21
223.249	22.93
223.713	22.69
224.177	22.36
224.642	22.16
225.106	21.89
225.57	21.63
226.034	21.37
226.497	21.08
226.961	20.82
227.425	20.52
227.889	20.25
228.353	19.98
228.816	19.75
229.28	19.52
229.744	19.27
230.207	19.03
230.671	18.78
231.134	18.57
231.597	18.38
232.061	18.15
232.524	17.98
232.987	17.76
233.45	17.54
233.914	17.33
234.377	17.15
234.84	16.98
235.303	16.79
235.766	16.61
236.229	16.43
236.691	16.25
237.154	16.1
237.617	15.92
238.08	15.8
238.542	15.65
239.005	15.5
239.468	15.32
239.93	15.16
240.393	15.03
240.855	14.88
241.317	14.76
241.78	14.64
242.242	14.51
242.704	14.39
243.166	14.24
243.629	14.14
244.091	14.02
244.553	13.92
245.015	13.83
245.477	13.72
245.939	13.62
246.4	13.5
246.862	13.4
247.324	13.3
247.786	13.22
248.247	13.13
248.709	13.04
249.17	12.96
249.632	12.86
250.093	12.75
250.555	12.66
251.016	12.6
251.477	12.51
251.939	12.43
252.4	12.35
252.861	12.28
253.322	12.21
253.783	12.14
254.244	12.07
254.705	12
255.166	11.95
255.627	11.89
256.088	11.81
256.549	11.76
257.009	11.71
257.47	11.65
257.931	11.58
258.391	11.51
258.852	11.44
259.312	11.38
259.773	11.33
260.233	11.26
260.694	11.2
261.154	11.14
261.614	11.08
262.074	11.03
262.534	10.97
262.994	10.92
263.455	10.87
263.915	10.83
264.374	10.78
264.834	10.74
265.294	10.69
265.754	10.64
266.214	10.6
266.673	10.55
267.133	10.5
267.593	10.46
268.052	10.41
268.512	10.38
268.971	10.34
269.431	10.29
269.89	10.25
270.349	10.23
270.809	10.2
271.268	10.17
271.727	10.13
272.186	10.1
272.645	10.06
273.104	10.03
273.563	9.99
274.022	9.96
274.481	9.93
274.94	9.89
275.399	9.84
275.857	9.8
276.316	9.75
276.775	9.71
277.233	9.67
277.692	9.63
278.15	9.59
278.609	9.54
279.067	9.5
279.525	9.45
279.984	9.41
280.442	9.38
280.9	9.34
281.358	9.31
281.816	9.28
282.274	9.24
282.732	9.21
283.19	9.19
283.648	9.16
284.106	9.13
284.564	9.11
285.021	9.07
285.479	9.05
285.937	9.02
286.394	8.98
286.852	8.95
287.309	8.93
287.767	8.91
288.224	8.87
288.682	8.85
289.139	8.84
289.596	8.8
290.053	8.78
290.511	8.74
290.968	8.73
291.425	8.71
291.882	8.69
292.339	8.65
292.796	8.62
293.252	8.59
293.709	8.56
294.166	8.54
294.623	8.52
295.079	8.49
295.536	8.47
295.992	8.44
296.449	8.42
296.905	8.39
297.362	8.37
297.818	8.36
298.274	8.33
298.731	8.32
299.187	8.31
299.643	8.29
300.099	8.28
300.555	8.26
301.011	8.25
301.467	8.23
301.923	8.22
302.379	8.2
302.835	8.19
303.291	8.17
303.746	8.15
304.202	8.12
304.658	8.1
305.113	8.08
305.569	8.07
306.024	8.05
306.479	8.04
306.935	8.03
307.39	8.01
307.845	8
308.301	7.99
308.756	7.99
309.211	7.99
309.666	7.99
310.121	7.97
310.576	7.97
311.031	7.97
311.486	7.96
311.94	7.95
312.395	7.95
312.85	7.94
313.305	7.93
313.759	7.92
314.214	7.9
314.668	7.9
315.123	7.9
315.577	7.88
316.032	7.87
316.486	7.86
316.94	7.84
317.394	7.83
317.849	7.82
318.303	7.82
318.757	7.81
319.211	7.8
319.665	7.78
320.119	7.78
320.572	7.78
321.026	7.77
321.48	7.76
321.934	7.76
322.387	7.74
322.841	7.73
323.295	7.7
323.748	7.69
324.202	7.67
324.655	7.66
325.108	7.63
325.562	7.6
326.015	7.59
326.468	7.57
326.921	7.54
327.374	7.53
327.827	7.52
328.28	7.5
328.733	7.49
329.186	7.48
329.639	7.47
330.092	7.46
330.545	7.45
330.997	7.43
331.45	7.42
331.903	7.41
332.355	7.42
332.808	7.41
333.26	7.42
333.713	7.41
334.165	7.41
334.617	7.41
335.069	7.4
335.522	7.4
335.974	7.41
336.426	7.4
336.878	7.4
337.33	7.38
337.782	7.36
338.234	7.36
338.686	7.35
339.137	7.35
339.589	7.34
340.041	7.33
340.493	7.31
340.944	7.3
341.396	7.3
341.847	7.29
342.299	7.28
342.75	7.26
343.201	7.25
343.653	7.22
344.104	7.2
344.555	7.18
345.006	7.17
345.457	7.15
345.908	7.13
346.359	7.11
346.81	7.1
347.261	7.09
347.712	7.08
348.163	7.07
348.613	7.06
349.064	7.03
349.515	7.02
349.965	7.01
350.416	7.01
350.866	7.01
351.317	6.99
351.767	6.98
352.217	6.97
352.668	6.97
353.118	6.96
353.568	6.96
354.018	6.97
354.468	6.97
354.918	6.97
355.368	6.95
355.818	6.93
356.268	6.92
356.718	6.92
357.168	6.9
357.617	6.89
358.067	6.89
358.517	6.88
358.966	6.88
359.416	6.88
359.865	6.86
360.315	6.87
360.764	6.87
361.213	6.87
361.663	6.87
362.112	6.88
362.561	6.88
363.01	6.88
363.459	6.87
363.908	6.87
364.357	6.86
364.806	6.85
365.255	6.84
365.703	6.83
366.152	6.83
366.601	6.84
367.05	6.83
367.498	6.83
367.947	6.83
368.395	6.83
368.844	6.82
369.292	6.83
369.74	6.84
370.189	6.83
370.637	6.83
371.085	6.84
371.533	6.83
371.981	6.83
372.429	6.82
372.877	6.81
373.325	6.8
373.773	6.8
374.221	6.8
374.669	6.8
375.116	6.8
375.564	6.81
376.012	6.8
376.459	6.81
376.907	6.82
377.354	6.82
377.801	6.83
378.249	6.83
378.696	6.84
379.143	6.84
379.591	6.85
380.038	6.85
380.485	6.86
380.932	6.87
381.379	6.87
381.826	6.87
382.273	6.89
382.72	6.89
383.166	6.91
383.613	6.93
384.06	6.94
384.506	6.95
384.953	6.96
385.4	6.96
385.846	6.96
386.292	6.98
386.739	6.98
387.185	6.99
387.631	7
388.078	7.01
388.524	7.01
388.97	7.02
389.416	7.02
389.862	7.03
390.308	7.04
390.754	7.06
391.2	7.07
391.645	7.08
392.091	7.09
392.537	7.09
392.983	7.1
393.428	7.12
393.874	7.15
394.319	7.16
394.765	7.16
395.21	7.17
395.655	7.18
396.101	7.18
396.546	7.19
396.991	7.19
397.436	7.18
397.881	7.2
398.326	7.23
398.771	7.24
399.216	7.26
399.661	7.28
400.106	7.32
400.551	7.33
400.995	7.34
401.44	7.35
401.885	7.36
402.329	7.37
402.774	7.35
403.218	7.34
403.663	7.35
404.107	7.36
404.551	7.36
404.995	7.36
405.44	7.36
405.884	7.38
406.328	7.38
406.772	7.39
407.216	7.4
407.66	7.43
408.104	7.44
408.547	7.43
408.991	7.42
409.435	7.42
409.879	7.42
410.322	7.42
410.766	7.41
411.209	7.43
411.653	7.42
412.096	7.4
412.54	7.39
412.983	7.38
413.426	7.39
413.869	7.4
414.312	7.41
414.756	7.41
415.199	7.42
415.642	7.45
416.085	7.46
416.527	7.48
416.97	7.52
417.413	7.52
417.856	7.51
418.298	7.51
418.741	7.51
419.184	7.52
419.626	7.5
420.069	7.51
420.511	7.49
420.953	7.49
421.396	7.48
421.838	7.48
422.28	7.5
422.722	7.52
423.164	7.53
423.606	7.52
424.048	7.51
424.49	7.53
424.932	7.52
425.374	7.53
425.816	7.51
426.258	7.49
426.699	7.46
427.141	7.44
427.582	7.43
428.024	7.43
428.465	7.45
428.907	7.47
429.348	7.46
429.789	7.47
430.231	7.44
430.672	7.46
431.113	7.46
431.554	7.49
431.995	7.49
432.436	7.49
432.877	7.46
433.318	7.45
433.759	7.45
434.2	7.45
434.64	7.45
435.081	7.45
435.522	7.45
435.962	7.47
436.403	7.49
436.843	7.49
437.284	7.52
437.724	7.56
438.164	7.56
438.604	7.58
439.045	7.59
439.485	7.59
439.925	7.59
440.365	7.6
440.805	7.59
441.245	7.55
441.685	7.57
442.125	7.57
442.564	7.58
443.004	7.57
443.444	7.56
443.883	7.56
444.323	7.55
444.762	7.57
445.202	7.59
445.641	7.6
446.081	7.65
446.52	7.66
446.959	7.65
447.398	7.65
447.837	7.68
448.276	7.67
448.716	7.69
449.154	7.74
449.593	7.76
450.032	7.79
450.471	7.8
450.91	7.79
451.349	7.79
451.787	7.82
452.226	7.81
452.664	7.8
453.103	7.82
453.541	7.83
453.98	7.81
454.418	7.79
454.856	7.76
455.295	7.75
455.733	7.76
456.171	7.75
456.609	7.73
457.047	7.74
457.485	7.73
457.923	7.72
458.361	7.7
458.798	7.71
459.236	7.71
459.674	7.7
460.111	7.69
460.549	7.68
460.987	7.69
461.424	7.69
461.862	7.67
462.299	7.67
462.736	7.67
463.173	7.67
463.611	7.65
464.048	7.66
464.485	7.66
464.922	7.66
465.359	7.67
465.796	7.64
466.233	7.65
466.67	7.66
467.106	7.64
467.543	7.65
467.98	7.65
468.416	7.68
468.853	7.67
469.29	7.69
469.726	7.68
470.162	7.69
470.599	7.7
471.035	7.7
471.471	7.69
471.907	7.71
472.344	7.72
472.78	7.74
473.216	7.71
473.652	7.72
474.088	7.72
474.523	7.71
474.959	7.7
475.395	7.71
475.831	7.71
476.266	7.72
476.702	7.71
477.138	7.69
477.573	7.66
478.008	7.65
478.444	7.64
478.879	7.62
479.314	7.63
479.75	7.62
480.185	7.61
480.62	7.6
481.055	7.59
481.49	7.58
481.925	7.57
482.36	7.56
482.795	7.56
483.229	7.56
483.664	7.56
484.099	7.55
484.534	7.55
484.968	7.55
485.403	7.56
485.837	7.56
486.271	7.56
486.706	7.57
487.14	7.58
487.574	7.58
488.009	7.61
488.443	7.62
488.877	7.63
489.311	7.65
489.745	7.66
490.179	7.68
490.613	7.7
491.046	7.73
491.48	7.76
491.914	7.79
492.348	7.82
492.781	7.84
493.215	7.87
493.648	7.91
494.082	7.95
494.515	7.98
494.948	8.01
495.382	8.06
495.815	8.12
496.248	8.15
496.681	8.2
497.114	8.25
497.547	8.31
497.98	8.38
498.413	8.44
498.846	8.5
499.279	8.56
499.711	8.64
500.144	8.72
500.577	8.78
501.009	8.86
501.442	8.95
501.874	9.04
502.306	9.14
502.739	9.22
503.171	9.33
503.603	9.46
504.036	9.58
504.468	9.71
504.9	9.84
505.332	9.99
505.764	10.15
506.196	10.32
506.627	10.48
507.059	10.64
507.491	10.84
507.923	11.02
508.354	11.2
508.786	11.4
509.217	11.6
509.649	11.8
510.08	12.01
510.512	12.22
510.943	12.44
511.374	12.66
511.805	12.89
512.237	13.12
512.668	13.36
513.099	13.6
513.53	13.85
513.961	14.11
514.391	14.35
514.822	14.61
515.253	14.88
515.684	15.14
516.114	15.42
516.545	15.7
516.975	15.99
517.406	16.29
517.836	16.57
518.267	16.87
518.697	17.17
519.127	17.49
519.558	17.78
519.988	18.09
520.418	18.38
520.848	18.68
521.278	18.96
521.708	19.2
522.138	19.46
522.567	19.72
522.997	19.96
523.427	20.19
523.857	20.43
524.286	20.68
524.716	20.91
525.145	21.14
525.575	21.33
526.004	21.53
526.433	21.77
526.863	21.98
527.292	22.17
527.721	22.36
528.15	22.53
528.579	22.7
529.008	22.85
529.437	23
529.866	23.15
530.295	23.31
530.724	23.46
531.152	23.6
531.581	23.69
532.01	23.81
532.438	23.93
532.867	24.05
533.295	24.15
533.723	24.25
534.152	24.33
534.58	24.4
535.008	24.45
535.436	24.52
535.865	24.57
536.293	24.65
536.721	24.71
537.149	24.76
537.576	24.8
538.004	24.84
538.432	24.86
538.86	24.89
539.287	24.94
539.715	24.97
540.143	25
540.57	25.03
540.998	25.06
541.425	25.09
541.852	25.1
542.28	25.13
542.707	25.17
543.134	25.2
543.561	25.21
543.988	25.22
544.415	25.25
544.842	25.27
545.269	25.33
545.696	25.33
546.123	25.34
546.549	25.37
546.976	25.38
547.403	25.37
547.829	25.4
548.256	25.44
548.682	25.45
549.108	25.47
549.535	25.48
549.961	25.47
550.387	25.48
550.813	25.48
551.24	25.49
551.666	25.48
552.092	25.49
552.518	25.47
552.943	25.44
553.369	25.43
553.795	25.39
554.221	25.36
554.646	25.32
555.072	25.28
555.498	25.23
555.923	25.17
556.349	25.1
556.774	25.02
557.199	24.95
557.625	24.86
558.05	24.78
558.475	24.71
558.9	24.61
559.325	24.51
559.75	24.4
560.175	24.29
560.6	24.18
561.025	24.06
561.449	23.94
561.874	23.82
562.299	23.71
562.723	23.58
563.148	23.47
563.572	23.34
563.997	23.21
564.421	23.07
564.846	22.93
565.27	22.79
565.694	22.66
566.118	22.51
566.542	22.35
566.966	22.19
567.39	22.01
567.814	21.83
568.238	21.65
568.662	21.5
569.086	21.34
569.509	21.18
569.933	21.03
570.357	20.85
570.78	20.68
571.204	20.51
571.627	20.36
572.05	20.22
572.474	20.07
572.897	19.92
573.32	19.76
573.743	19.61
574.166	19.45
574.589	19.32
575.012	19.2
575.435	19.09
575.858	18.97
576.281	18.86
576.704	18.76
577.126	18.65
577.549	18.56
577.972	18.46
578.394	18.36
578.817	18.25
579.239	18.16
579.661	18.07
580.084	17.95
580.506	17.86
580.928	17.77
581.35	17.66
581.772	17.58
582.194	17.47
582.616	17.39
583.038	17.32
583.46	17.26
583.882	17.18
584.303	17.09
584.725	17.04
585.147	16.95
585.568	16.87
585.99	16.81
586.411	16.74
586.833	16.67
587.254	16.6
587.675	16.54
588.096	16.48
588.518	16.42
588.939	16.36
589.36	16.32
589.781	16.28
590.202	16.24
590.623	16.19
591.043	16.15
591.464	16.11
591.885	16.09
592.305	16.06
592.726	16.02
593.147	15.99
593.567	15.96
593.987	15.92
594.408	15.89
594.828	15.86
595.248	15.84
595.669	15.81
596.089	15.78
596.509	15.72
596.929	15.68
597.349	15.63
597.769	15.59
598.189	15.55
598.608	15.51
599.028	15.48
599.448	15.44
599.867	15.4
600.287	15.36
600.706	15.31
601.126	15.26
601.545	15.21
601.965	15.18
602.384	15.13
602.803	15.08
603.222	15.02
603.641	14.96
604.061	14.89
604.48	14.83
604.898	14.77
605.317	14.71
605.736	14.66
606.155	14.58
606.574	14.52
606.992	14.45
607.411	14.38
607.829	14.28
608.248	14.21
608.666	14.14
609.085	14.05
609.503	13.97
609.921	13.89
610.339	13.82
610.758	13.74
611.176	13.66
611.594	13.59
612.012	13.51
612.43	13.48
612.847	13.4
613.265	13.34
613.683	13.27
614.101	13.21
614.518	13.14
614.936	13.05
615.353	12.99
615.771	12.93
616.188	12.89
616.606	12.83
617.023	12.77
617.44	12.71
617.857	12.66
618.274	12.62
618.691	12.55
619.108	12.52
619.525	12.5
619.942	12.47
620.359	12.42
620.776	12.38
621.192	12.34
621.609	12.32
622.026	12.3
622.442	12.27
622.859	12.25
623.275	12.25
623.691	12.23
624.108	12.22
624.524	12.21
624.94	12.2
625.356	12.2
625.772	12.19
626.188	12.19
626.604	12.16
627.02	12.15
627.436	12.14
627.852	12.12
628.268	12.11
628.683	12.07
629.099	12.05
629.514	12.03
629.93	11.99
630.345	11.97
630.761	11.93
631.176	11.89
631.591	11.85
632.007	11.81
632.422	11.76
632.837	11.72
633.252	11.68
633.667	11.61
634.082	11.56
634.497	11.49
634.911	11.41
635.326	11.34
635.741	11.27
636.155	11.18
636.57	11.1
636.984	11.02
637.399	10.91
637.813	10.81
638.228	10.72
638.642	10.62
639.056	10.52
639.47	10.42
639.884	10.33
640.298	10.25
640.712	10.15
641.126	10.05
641.54	9.96
641.954	9.89
642.368	9.8
642.781	9.7
643.195	9.61
643.609	9.53
644.022	9.45
644.436	9.37
644.849	9.3
645.262	9.24
645.676	9.17
646.089	9.09
646.502	9.01
646.915	8.95
647.328	8.9
647.741	8.85
648.154	8.81
648.567	8.77
648.98	8.74
649.393	8.71
649.805	8.65
650.218	8.62
650.631	8.6
651.043	8.58
651.456	8.55
651.868	8.53
652.28	8.51
652.693	8.46
653.105	8.42
653.517	8.38
653.929	8.35
654.341	8.33
654.753	8.29
655.165	8.26
655.577	8.2
655.989	8.14
656.401	8.09
656.813	8.03
657.224	8
657.636	7.98
658.047	7.94
658.459	7.88
658.87	7.82
659.282	7.79
659.693	7.74
660.104	7.7
660.515	7.66
660.926	7.61
661.338	7.58
661.749	7.51
662.159	7.45
662.57	7.42
662.981	7.38
663.392	7.35
663.803	7.31
664.213	7.28
664.624	7.27
665.035	7.24
665.445	7.22
665.855	7.21
666.266	7.21
666.676	7.2
667.086	7.18
667.497	7.16
667.907	7.16
668.317	7.15
668.727	7.14
669.137	7.13
669.547	7.14
669.956	7.15
670.366	7.16
670.776	7.15
671.186	7.15
671.595	7.17
672.005	7.19
672.414	7.22
672.824	7.24
673.233	7.27
673.642	7.29
674.052	7.32
674.461	7.35
674.87	7.36
675.279	7.39
675.688	7.42
676.097	7.45
676.506	7.47
676.915	7.49
677.323	7.51
677.732	7.55
678.141	7.58
678.549	7.63
678.958	7.67
679.366	7.71
679.775	7.78
680.183	7.84
680.592	7.89
681	7.94
681.408	8
681.816	8.07
682.224	8.13
682.632	8.22
683.04	8.29
683.448	8.38
683.856	8.48
684.264	8.58
684.671	8.69
685.079	8.83
685.487	9
685.894	9.17
686.302	9.37
686.709	9.58
687.116	9.8
687.524	10.05
687.931	10.32
688.338	10.62
688.745	10.94
689.152	11.28
689.559	11.64
689.966	12.01
690.373	12.42
690.78	12.85
691.187	13.31
691.593	13.79
692	14.28
692.407	14.8
692.813	15.33
693.22	15.88
693.626	16.44
694.032	17.02
694.439	17.61
694.845	18.21
695.251	18.81
695.657	19.39
696.063	19.99
696.469	20.6
696.875	21.18
697.281	21.77
697.687	22.36
698.093	22.95
698.498	23.52
698.904	24.1
699.31	24.67
699.715	25.23
700.12	25.8
700.526	26.37
700.931	26.95
701.337	27.53
701.742	28.09
702.147	28.62
702.552	29.18
702.957	29.73
703.362	30.26
703.767	30.77
704.172	31.31
704.577	31.82
704.981	32.33
705.386	32.79
705.791	33.24
706.195	33.72
706.6	34.18
707.004	34.63
707.408	35.07
707.813	35.51
708.217	35.96
708.621	36.4
709.025	36.84
709.43	37.23
709.834	37.71
710.237	38.12
710.641	38.53
711.045	38.94
711.449	39.32
711.853	39.7
712.256	40.09
712.66	40.47
713.064	40.82
713.467	41.17
713.87	41.56
714.274	41.88
714.677	42.25
715.08	42.59
715.484	42.93
715.887	43.27
716.29	43.59
716.693	43.89
717.096	44.21
717.499	44.52
717.901	44.8
718.304	45.09
718.707	45.37
719.109	45.68
719.512	45.96
719.915	46.25
720.317	46.54
720.719	46.82
721.122	47.08
721.524	47.33
721.926	47.59
722.328	47.84
722.731	48.08
723.133	48.32
723.535	48.53
723.937	48.75
724.338	48.95
724.74	49.15
725.142	49.23
725.544	49.45
725.945	49.64
726.347	49.83
726.748	49.98
727.15	50.15
727.551	50.32
727.952	50.48
728.354	50.66
728.755	50.82
729.156	50.98
729.557	51.23
729.958	51.37
730.359	51.5
730.76	51.64
731.161	51.82
731.562	51.94
731.962	52.03
732.363	52.14
732.763	52.22
733.164	52.3
733.564	52.42
733.965	52.5
734.365	52.6
734.766	52.68
735.166	52.72
735.566	52.77
735.966	52.81
736.366	52.89
736.766	52.96
737.166	53.03
737.566	53.13
737.966	53.2
738.365	53.27
738.765	53.32
739.165	53.37
739.564	53.46
739.964	53.5
740.363	53.57
740.763	53.58
741.162	53.58
741.561	53.64
741.96	53.66
742.36	53.68
742.759	53.71
743.158	53.71
743.557	53.74
743.955	53.76
744.354	53.83
744.753	53.9
745.152	53.92
745.55	53.99
745.949	54.04
746.348	54.11
746.746	54.14
747.144	54.16
747.543	54.25
747.941	54.32
748.339	54.39
748.737	54.39
749.136	54.4
749.534	54.48
749.932	54.52
750.33	54.51
750.727	54.51
751.125	54.56
751.523	54.56
751.921	54.59
752.318	54.6
752.716	54.57
753.113	54.58
753.511	54.57
753.908	54.57
754.305	54.54
754.703	54.52
755.1	54.49
755.497	54.46
755.894	54.47
756.291	54.42
756.688	54.38
757.085	54.37
757.482	54.35
757.878	54.39
758.275	54.36
758.672	54.39
759.068	54.4
759.465	54.42
759.861	54.41
760.258	54.38
760.654	54.37
761.05	54.36
761.447	54.35
761.843	54.35
762.239	54.3
762.635	54.3
763.031	54.29
763.427	54.27
763.822	54.25
764.218	54.25
764.614	54.23
765.01	54.22
765.405	54.24
765.801	54.21
766.196	54.18
766.592	54.16
766.987	54.15
767.382	54.11
767.778	54.12
768.173	54.1
768.568	54.05
768.963	54.05
769.358	54.04
769.753	54.04
770.148	54.04
770.542	54.05
770.937	54.05
771.332	54.07
771.726	54.05
772.121	53.99
772.515	54
772.91	54.04
773.304	54.02
773.699	54.03
774.093	53.98
774.487	53.98
774.881	53.98
775.275	53.96
775.669	53.94
776.063	53.94
776.457	53.94
776.851	53.91
777.245	53.93
777.638	53.96
778.032	53.97
778.425	54
778.819	54.02
779.212	53.99
