Data from C_1_DIV_PA_2n_Splice17_13.txt Node
Date: Sat Feb 29 13:06:38 EST 2020
User: sa697716
Spectrometer: FLMS03696
Trigger mode: 0
Integration Time (sec): 3.180400E-1
Scans to average: 20
Electric dark correction enabled: true
Nonlinearity correction enabled: true
Boxcar width: 5
XAxis mode: Wavelengths
Number of Pixels in Spectrum: 2048
>>>>>Begin Spectral Data<<<<<
187.83	35.06
188.298	24.61
188.766	34.33
189.233	25.91
189.701	28.19
190.169	38.96
190.636	34.66
191.104	44.7
191.571	202.25
192.039	249.8
192.506	-348.36
192.974	-150.7
193.441	156.81
193.908	68.22
194.375	43.02
194.842	56.94
195.31	124.11
195.777	100.36
196.244	29.1
196.711	7.2
197.177	4.66
197.644	2.88
198.111	1.78
198.578	1.32
199.045	1.29
199.511	1.77
199.978	2.41
200.445	1.95
200.911	2.09
201.378	2.32
201.844	3.05
202.31	3.43
202.777	4.04
203.243	4.69
203.709	5.17
204.176	4.84
204.642	4.86
205.108	4.51
205.574	4.98
206.04	5.28
206.506	5.54
206.972	5.54
207.438	5.11
207.903	5.5
208.369	5.51
208.835	5.42
209.301	5.84
209.766	6.04
210.232	6.43
210.697	6.54
211.163	6.69
211.628	6.38
212.094	6.47
212.559	6.49
213.024	6.25
213.49	6.27
213.955	6.5
214.42	6.63
214.885	6.56
215.35	6.67
215.815	6.57
216.28	6.75
216.745	7.38
217.21	7.66
217.675	8.29
218.14	8.55
218.604	8.62
219.069	8.85
219.534	8.88
219.998	8.91
220.463	8.96
220.927	9.03
221.392	9.06
221.856	9.02
222.32	8.97
222.785	8.85
223.249	8.8
223.713	8.8
224.177	8.7
224.642	8.7
225.106	8.67
225.57	8.6
226.034	8.55
226.497	8.46
226.961	8.35
227.425	8.25
227.889	8.21
228.353	8.13
228.816	8.1
229.28	8.02
229.744	7.96
230.207	7.92
230.671	7.87
231.134	7.83
231.597	7.77
232.061	7.73
232.524	7.71
232.987	7.68
233.45	7.65
233.914	7.59
234.377	7.57
234.84	7.52
235.303	7.46
235.766	7.4
236.229	7.34
236.691	7.31
237.154	7.29
237.617	7.23
238.08	7.16
238.542	7.09
239.005	7.04
239.468	6.97
239.93	6.93
240.393	6.89
240.855	6.85
241.317	6.8
241.78	6.76
242.242	6.71
242.704	6.67
243.166	6.64
243.629	6.61
244.091	6.57
244.553	6.56
245.015	6.52
245.477	6.5
245.939	6.46
246.4	6.43
246.862	6.39
247.324	6.37
247.786	6.35
248.247	6.33
248.709	6.29
249.17	6.27
249.632	6.22
250.093	6.18
250.555	6.16
251.016	6.15
251.477	6.13
251.939	6.12
252.4	6.1
252.861	6.08
253.322	6.06
253.783	6.06
254.244	6.04
254.705	6.03
255.166	6.04
255.627	6.02
256.088	5.99
256.549	5.98
257.009	5.98
257.47	5.97
257.931	5.96
258.391	5.94
258.852	5.91
259.312	5.9
259.773	5.88
260.233	5.86
260.694	5.84
261.154	5.84
261.614	5.82
262.074	5.8
262.534	5.78
262.994	5.77
263.455	5.75
263.915	5.75
264.374	5.73
264.834	5.72
265.294	5.72
265.754	5.7
266.214	5.69
266.673	5.68
267.133	5.67
267.593	5.66
268.052	5.64
268.512	5.63
268.971	5.62
269.431	5.62
269.89	5.61
270.349	5.6
270.809	5.59
271.268	5.58
271.727	5.56
272.186	5.55
272.645	5.54
273.104	5.53
273.563	5.52
274.022	5.51
274.481	5.49
274.94	5.48
275.399	5.47
275.857	5.46
276.316	5.45
276.775	5.44
277.233	5.43
277.692	5.42
278.15	5.41
278.609	5.39
279.067	5.37
279.525	5.36
279.984	5.34
280.442	5.34
280.9	5.32
281.358	5.31
281.816	5.3
282.274	5.28
282.732	5.27
283.19	5.26
283.648	5.25
284.106	5.24
284.564	5.24
285.021	5.22
285.479	5.2
285.937	5.18
286.394	5.17
286.852	5.16
287.309	5.14
287.767	5.14
288.224	5.13
288.682	5.12
289.139	5.12
289.596	5.1
290.053	5.09
290.511	5.09
290.968	5.1
291.425	5.1
291.882	5.09
292.339	5.09
292.796	5.08
293.252	5.07
293.709	5.06
294.166	5.05
294.623	5.04
295.079	5.03
295.536	5.03
295.992	5.01
296.449	4.99
296.905	4.99
297.362	4.97
297.818	4.96
298.274	4.95
298.731	4.94
299.187	4.93
299.643	4.92
300.099	4.92
300.555	4.9
301.011	4.89
301.467	4.88
301.923	4.88
302.379	4.87
302.835	4.88
303.291	4.87
303.746	4.86
304.202	4.85
304.658	4.84
305.113	4.84
305.569	4.85
306.024	4.84
306.479	4.83
306.935	4.82
307.39	4.81
307.845	4.79
308.301	4.79
308.756	4.79
309.211	4.78
309.666	4.78
310.121	4.76
310.576	4.75
311.031	4.75
311.486	4.74
311.94	4.74
312.395	4.73
312.85	4.73
313.305	4.73
313.759	4.72
314.214	4.71
314.668	4.7
315.123	4.7
315.577	4.69
316.032	4.69
316.486	4.68
316.94	4.67
317.394	4.66
317.849	4.65
318.303	4.64
318.757	4.64
319.211	4.63
319.665	4.62
320.119	4.62
320.572	4.63
321.026	4.62
321.48	4.62
321.934	4.62
322.387	4.62
322.841	4.62
323.295	4.61
323.748	4.6
324.202	4.6
324.655	4.6
325.108	4.58
325.562	4.57
326.015	4.56
326.468	4.55
326.921	4.54
327.374	4.52
327.827	4.51
328.28	4.5
328.733	4.49
329.186	4.49
329.639	4.48
330.092	4.47
330.545	4.47
330.997	4.47
331.45	4.46
331.903	4.46
332.355	4.46
332.808	4.45
333.26	4.45
333.713	4.45
334.165	4.44
334.617	4.45
335.069	4.45
335.522	4.44
335.974	4.43
336.426	4.44
336.878	4.44
337.33	4.43
337.782	4.43
338.234	4.43
338.686	4.43
339.137	4.43
339.589	4.42
340.041	4.41
340.493	4.39
340.944	4.39
341.396	4.39
341.847	4.39
342.299	4.38
342.75	4.36
343.201	4.37
343.653	4.37
344.104	4.36
344.555	4.36
345.006	4.35
345.457	4.35
345.908	4.35
346.359	4.35
346.81	4.35
347.261	4.35
347.712	4.35
348.163	4.35
348.613	4.34
349.064	4.32
349.515	4.32
349.965	4.32
350.416	4.32
350.866	4.32
351.317	4.32
351.767	4.31
352.217	4.3
352.668	4.3
353.118	4.3
353.568	4.3
354.018	4.31
354.468	4.3
354.918	4.31
355.368	4.32
355.818	4.31
356.268	4.32
356.718	4.32
357.168	4.32
357.617	4.32
358.067	4.32
358.517	4.32
358.966	4.33
359.416	4.34
359.865	4.34
360.315	4.34
360.764	4.35
361.213	4.34
361.663	4.36
362.112	4.37
362.561	4.38
363.01	4.41
363.459	4.42
363.908	4.43
364.357	4.45
364.806	4.45
365.255	4.48
365.703	4.49
366.152	4.51
366.601	4.53
367.05	4.54
367.498	4.55
367.947	4.55
368.395	4.57
368.844	4.58
369.292	4.6
369.74	4.63
370.189	4.64
370.637	4.67
371.085	4.7
371.533	4.73
371.981	4.75
372.429	4.78
372.877	4.81
373.325	4.83
373.773	4.85
374.221	4.87
374.669	4.89
375.116	4.9
375.564	4.92
376.012	4.93
376.459	4.95
376.907	4.97
377.354	4.99
377.801	5.02
378.249	5.05
378.696	5.08
379.143	5.11
379.591	5.14
380.038	5.18
380.485	5.22
380.932	5.25
381.379	5.27
381.826	5.31
382.273	5.33
382.72	5.37
383.166	5.41
383.613	5.44
384.06	5.47
384.506	5.51
384.953	5.53
385.4	5.56
385.846	5.57
386.292	5.61
386.739	5.63
387.185	5.68
387.631	5.7
388.078	5.74
388.524	5.76
388.97	5.78
389.416	5.8
389.862	5.83
390.308	5.85
390.754	5.88
391.2	5.9
391.645	5.92
392.091	5.93
392.537	5.95
392.983	5.97
393.428	6
393.874	6.04
394.319	6.07
394.765	6.1
395.21	6.11
395.655	6.15
396.101	6.16
396.546	6.18
396.991	6.2
397.436	6.2
397.881	6.21
398.326	6.24
398.771	6.26
399.216	6.28
399.661	6.31
400.106	6.34
400.551	6.35
400.995	6.37
401.44	6.39
401.885	6.39
402.329	6.42
402.774	6.43
403.218	6.43
403.663	6.43
404.107	6.44
404.551	6.44
404.995	6.45
405.44	6.46
405.884	6.47
406.328	6.48
406.772	6.5
407.216	6.53
407.66	6.54
408.104	6.56
408.547	6.58
408.991	6.59
409.435	6.6
409.879	6.61
410.322	6.63
410.766	6.64
411.209	6.64
411.653	6.64
412.096	6.63
412.54	6.62
412.983	6.62
413.426	6.62
413.869	6.61
414.312	6.61
414.756	6.62
415.199	6.61
415.642	6.62
416.085	6.65
416.527	6.65
416.97	6.67
417.413	6.7
417.856	6.7
418.298	6.7
418.741	6.71
419.184	6.73
419.626	6.72
420.069	6.71
420.511	6.7
420.953	6.69
421.396	6.72
421.838	6.71
422.28	6.71
422.722	6.71
423.164	6.7
423.606	6.7
424.048	6.68
424.49	6.7
424.932	6.7
425.374	6.71
425.816	6.69
426.258	6.66
426.699	6.65
427.141	6.64
427.582	6.62
428.024	6.61
428.465	6.61
428.907	6.61
429.348	6.59
429.789	6.59
430.231	6.57
430.672	6.56
431.113	6.56
431.554	6.56
431.995	6.57
432.436	6.56
432.877	6.54
433.318	6.52
433.759	6.51
434.2	6.51
434.64	6.5
435.081	6.49
435.522	6.5
435.962	6.5
436.403	6.49
436.843	6.5
437.284	6.52
437.724	6.55
438.164	6.55
438.604	6.55
439.045	6.53
439.485	6.53
439.925	6.54
440.365	6.53
440.805	6.52
441.245	6.5
441.685	6.47
442.125	6.46
442.564	6.45
443.004	6.46
443.444	6.46
443.883	6.46
444.323	6.44
444.762	6.45
445.202	6.46
445.641	6.45
446.081	6.46
446.52	6.45
446.959	6.43
447.398	6.46
447.837	6.46
448.276	6.45
448.716	6.46
449.154	6.47
449.593	6.45
450.032	6.44
450.471	6.44
450.91	6.43
451.349	6.43
451.787	6.45
452.226	6.42
452.664	6.38
453.103	6.35
453.541	6.35
453.98	6.32
454.418	6.31
454.856	6.3
455.295	6.28
455.733	6.28
456.171	6.28
456.609	6.27
457.047	6.28
457.485	6.28
457.923	6.27
458.361	6.25
458.798	6.27
459.236	6.25
459.674	6.25
460.111	6.25
460.549	6.24
460.987	6.23
461.424	6.22
461.862	6.21
462.299	6.21
462.736	6.21
463.173	6.22
463.611	6.21
464.048	6.21
464.485	6.19
464.922	6.2
465.359	6.2
465.796	6.18
466.233	6.19
466.67	6.18
467.106	6.18
467.543	6.19
467.98	6.19
468.416	6.2
468.853	6.22
469.29	6.24
469.726	6.24
470.162	6.25
470.599	6.27
471.035	6.28
471.471	6.28
471.907	6.28
472.344	6.26
472.78	6.27
473.216	6.27
473.652	6.26
474.088	6.28
474.523	6.27
474.959	6.27
475.395	6.25
475.831	6.26
476.266	6.26
476.702	6.26
477.138	6.26
477.573	6.24
478.008	6.24
478.444	6.22
478.879	6.19
479.314	6.18
479.75	6.17
480.185	6.15
480.62	6.14
481.055	6.14
481.49	6.12
481.925	6.11
482.36	6.1
482.795	6.07
483.229	6.07
483.664	6.07
484.099	6.08
484.534	6.06
484.968	6.07
485.403	6.06
485.837	6.06
486.271	6.07
486.706	6.06
487.14	6.06
487.574	6.07
488.009	6.07
488.443	6.06
488.877	6.05
489.311	6.05
489.745	6.04
490.179	6.04
490.613	6.03
491.046	6.02
491.48	6.04
491.914	6.04
492.348	6.04
492.781	6.04
493.215	6.05
493.648	6.06
494.082	6.08
494.515	6.08
494.948	6.09
495.382	6.09
495.815	6.09
496.248	6.09
496.681	6.09
497.114	6.09
497.547	6.09
497.98	6.08
498.413	6.08
498.846	6.08
499.279	6.09
499.711	6.09
500.144	6.1
500.577	6.11
501.009	6.11
501.442	6.12
501.874	6.13
502.306	6.15
502.739	6.15
503.171	6.16
503.603	6.19
504.036	6.2
504.468	6.21
504.9	6.23
505.332	6.25
505.764	6.27
506.196	6.3
506.627	6.32
507.059	6.33
507.491	6.36
507.923	6.39
508.354	6.4
508.786	6.41
509.217	6.43
509.649	6.45
510.08	6.49
510.512	6.49
510.943	6.51
511.374	6.54
511.805	6.55
512.237	6.57
512.668	6.59
513.099	6.62
513.53	6.66
513.961	6.71
514.391	6.72
514.822	6.74
515.253	6.78
515.684	6.81
516.114	6.86
516.545	6.91
516.975	6.96
517.406	7
517.836	7.05
518.267	7.1
518.697	7.14
519.127	7.19
519.558	7.25
519.988	7.31
520.418	7.37
520.848	7.42
521.278	7.47
521.708	7.35
522.138	7.4
522.567	7.44
522.997	7.49
523.427	7.54
523.857	7.59
524.286	7.63
524.716	7.68
525.145	7.74
525.575	7.78
526.004	7.83
526.433	8.06
526.863	8.11
527.292	8.17
527.721	8.21
528.15	8.25
528.579	8.29
529.008	8.34
529.437	8.37
529.866	8.38
530.295	8.42
530.724	8.45
531.152	8.48
531.581	8.52
532.01	8.56
532.438	8.6
532.867	8.64
533.295	8.65
533.723	8.69
534.152	8.72
534.58	8.75
535.008	8.77
535.436	8.77
535.865	8.77
536.293	8.79
536.721	8.79
537.149	8.78
537.576	8.8
538.004	8.82
538.432	8.81
538.86	8.81
539.287	8.83
539.715	8.84
540.143	8.85
540.57	8.86
540.998	8.89
541.425	8.9
541.852	8.9
542.28	8.89
542.707	8.89
543.134	8.9
543.561	8.9
543.988	8.9
544.415	8.9
544.842	8.92
545.269	8.93
545.696	8.93
546.123	8.93
546.549	8.93
546.976	8.95
547.403	8.96
547.829	8.95
548.256	8.96
548.682	8.95
549.108	8.96
549.535	8.94
549.961	8.93
550.387	8.91
550.813	8.91
551.24	8.9
551.666	8.89
552.092	8.89
552.518	8.89
552.943	8.89
553.369	8.88
553.795	8.87
554.221	8.86
554.646	8.86
555.072	8.85
555.498	8.84
555.923	8.83
556.349	8.81
556.774	8.78
557.199	8.76
557.625	8.74
558.05	8.72
558.475	8.68
558.9	8.65
559.325	8.63
559.75	8.59
560.175	8.56
560.6	8.54
561.025	8.51
561.449	8.46
561.874	8.42
562.299	8.37
562.723	8.32
563.148	8.29
563.572	8.26
563.997	8.21
564.421	8.17
564.846	8.12
565.27	8.06
565.694	8
566.118	7.97
566.542	7.94
566.966	7.9
567.39	7.85
567.814	7.8
568.238	7.75
568.662	7.71
569.086	7.68
569.509	7.65
569.933	7.6
570.357	7.56
570.78	7.53
571.204	7.49
571.627	7.45
572.05	7.42
572.474	7.4
572.897	7.36
573.32	7.32
573.743	7.27
574.166	7.23
574.589	7.22
575.012	7.2
575.435	7.16
575.858	7.13
576.281	7.11
576.704	7.08
577.126	7.06
577.549	7.05
577.972	7.03
578.394	7.02
578.817	7
579.239	6.97
579.661	6.95
580.084	6.93
580.506	6.9
580.928	6.89
581.35	6.86
581.772	6.83
582.194	6.81
582.616	6.79
583.038	6.77
583.46	6.76
583.882	6.75
584.303	6.74
584.725	6.73
585.147	6.71
585.568	6.68
585.99	6.67
586.411	6.66
586.833	6.65
587.254	6.65
587.675	6.64
588.096	6.62
588.518	6.6
588.939	6.6
589.36	6.57
589.781	6.58
590.202	6.58
590.623	6.56
591.043	6.55
591.464	6.55
591.885	6.53
592.305	6.53
592.726	6.52
593.147	6.52
593.567	6.51
593.987	6.51
594.408	6.5
594.828	6.49
595.248	6.49
595.669	6.49
596.089	6.48
596.509	6.47
596.929	6.44
597.349	6.43
597.769	6.42
598.189	6.41
598.608	6.4
599.028	6.39
599.448	6.4
599.867	6.38
600.287	6.37
600.706	6.36
601.126	6.36
601.545	6.36
601.965	6.36
602.384	6.35
602.803	6.33
603.222	6.32
603.641	6.3
604.061	6.28
604.48	6.28
604.898	6.27
605.317	6.25
605.736	6.24
606.155	6.23
606.574	6.21
606.992	6.19
607.411	6.19
607.829	6.14
608.248	6.14
608.666	6.12
609.085	6.11
609.503	6.09
609.921	6.08
610.339	6.07
610.758	6.06
611.176	6.04
611.594	6.03
612.012	6.01
612.43	6.05
612.847	6.04
613.265	6.04
613.683	6.03
614.101	6.02
614.518	6.01
614.936	6
615.353	5.98
615.771	5.97
616.188	5.96
616.606	5.96
617.023	5.95
617.44	5.93
617.857	5.93
618.274	5.91
618.691	5.91
619.108	5.91
619.525	5.9
619.942	5.9
620.359	5.91
620.776	5.9
621.192	5.89
621.609	5.89
622.026	5.88
622.442	5.88
622.859	5.88
623.275	5.88
623.691	5.87
624.108	5.87
624.524	5.87
624.94	5.86
625.356	5.85
625.772	5.87
626.188	5.87
626.604	5.86
627.02	5.85
627.436	5.85
627.852	5.84
628.268	5.84
628.683	5.83
629.099	5.82
629.514	5.82
629.93	5.82
630.345	5.8
630.761	5.79
631.176	5.79
631.591	5.79
632.007	5.77
632.422	5.77
632.837	5.77
633.252	5.78
633.667	5.76
634.082	5.76
634.497	5.74
634.911	5.73
635.326	5.73
635.741	5.71
636.155	5.7
636.57	5.7
636.984	5.68
637.399	5.66
637.813	5.64
638.228	5.63
638.642	5.62
639.056	5.61
639.47	5.61
639.884	5.59
640.298	5.57
640.712	5.57
641.126	5.55
641.54	5.54
641.954	5.54
642.368	5.53
642.781	5.53
643.195	5.52
643.609	5.5
644.022	5.5
644.436	5.49
644.849	5.49
645.262	5.49
645.676	5.47
646.089	5.46
646.502	5.45
646.915	5.44
647.328	5.43
647.741	5.42
648.154	5.42
648.567	5.42
648.98	5.42
649.393	5.42
649.805	5.39
650.218	5.4
650.631	5.4
651.043	5.4
651.456	5.41
651.868	5.4
652.28	5.41
652.693	5.38
653.105	5.38
653.517	5.37
653.929	5.37
654.341	5.38
654.753	5.37
655.165	5.38
655.577	5.36
655.989	5.35
656.401	5.36
656.813	5.34
657.224	5.35
657.636	5.35
658.047	5.35
658.459	5.33
658.87	5.33
659.282	5.34
659.693	5.32
660.104	5.33
660.515	5.33
660.926	5.32
661.338	5.33
661.749	5.31
662.159	5.31
662.57	5.32
662.981	5.32
663.392	5.3
663.803	5.29
664.213	5.3
664.624	5.3
665.035	5.3
665.445	5.29
665.855	5.29
666.266	5.3
666.676	5.3
667.086	5.29
667.497	5.29
667.907	5.29
668.317	5.29
668.727	5.29
669.137	5.29
669.547	5.3
669.956	5.31
670.366	5.31
670.776	5.31
671.186	5.32
671.595	5.33
672.005	5.35
672.414	5.36
672.824	5.38
673.233	5.4
673.642	5.42
674.052	5.43
674.461	5.44
674.87	5.45
675.279	5.48
675.688	5.49
676.097	5.5
676.506	5.49
676.915	5.52
677.323	5.53
677.732	5.53
678.141	5.54
678.549	5.56
678.958	5.57
679.366	5.58
679.775	5.59
680.183	5.6
680.592	5.63
681	5.66
681.408	5.66
681.816	5.67
682.224	5.69
682.632	5.7
683.04	5.72
683.448	5.71
683.856	5.72
684.264	5.72
684.671	5.73
685.079	5.73
685.487	5.75
685.894	5.77
686.302	5.78
686.709	5.79
687.116	5.8
687.524	5.8
687.931	5.83
688.338	5.86
688.745	5.88
689.152	5.91
689.559	5.93
689.966	5.96
690.373	5.99
690.78	6.03
691.187	6.07
691.593	6.11
692	6.18
692.407	6.25
692.813	6.33
693.22	6.41
693.626	6.49
694.032	6.58
694.439	6.69
694.845	6.8
695.251	6.91
695.657	7.05
696.063	7.18
696.469	7.32
696.875	7.46
697.281	7.59
697.687	7.76
698.093	7.94
698.498	8.13
698.904	8.31
699.31	8.49
699.715	8.69
700.12	8.86
700.526	9.1
700.931	9.3
701.337	9.54
701.742	9.77
702.147	9.99
702.552	10.22
702.957	10.47
703.362	10.73
703.767	10.98
704.172	11.24
704.577	11.53
704.981	11.79
705.386	12.06
705.791	12.34
706.195	12.63
706.6	12.93
707.004	13.22
707.408	13.52
707.813	13.79
708.217	14.1
708.621	14.41
709.025	14.72
709.43	15.04
709.834	15.38
710.237	15.69
710.641	16.03
711.045	16.35
711.449	16.67
711.853	17.02
712.256	17.38
712.66	17.71
713.064	18.04
713.467	18.38
713.87	18.73
714.274	19.06
714.677	19.4
715.08	19.75
715.484	20.12
715.887	20.47
716.29	20.8
716.693	21.15
717.096	21.52
717.499	21.91
717.901	22.27
718.304	22.63
718.707	22.98
719.109	23.35
719.512	23.72
719.915	24.07
720.317	24.46
720.719	24.82
721.122	25.17
721.524	25.53
721.926	25.86
722.328	26.2
722.731	26.54
723.133	26.89
723.535	27.26
723.937	27.57
724.338	27.87
724.74	28.17
725.142	28.4
725.544	28.69
725.945	28.97
726.347	29.26
726.748	29.55
727.15	29.86
727.551	30.14
727.952	30.38
728.354	30.67
728.755	30.95
729.156	31.22
729.557	31.59
729.958	31.87
730.359	32.15
730.76	32.39
731.161	32.62
731.562	32.86
731.962	33.06
732.363	33.29
732.763	33.51
733.164	33.72
733.564	33.94
733.965	34.09
734.365	34.28
734.766	34.45
735.166	34.62
735.566	34.82
735.966	34.93
736.366	35.1
736.766	35.27
737.166	35.41
737.566	35.55
737.966	35.69
738.365	35.85
738.765	35.98
739.165	36.11
739.564	36.23
739.964	36.34
740.363	36.52
740.763	36.63
741.162	36.74
741.561	36.83
741.96	36.97
742.36	37.06
742.759	37.13
743.158	37.22
743.557	37.31
743.955	37.43
744.354	37.53
744.753	37.57
745.152	37.64
745.55	37.73
745.949	37.8
746.348	37.87
746.746	37.93
747.144	38.04
747.543	38.12
747.941	38.21
748.339	38.3
748.737	38.38
749.136	38.46
749.534	38.54
749.932	38.61
750.33	38.66
750.727	38.72
751.125	38.79
751.523	38.82
751.921	38.86
752.318	38.86
752.716	38.86
753.113	38.88
753.511	38.88
753.908	38.89
754.305	38.89
754.703	38.89
755.1	38.87
755.497	38.86
755.894	38.83
756.291	38.8
756.688	38.77
757.085	38.75
757.482	38.74
757.878	38.71
758.275	38.67
758.672	38.67
759.068	38.67
759.465	38.68
759.861	38.68
760.258	38.67
760.654	38.68
761.05	38.73
761.447	38.73
761.843	38.71
762.239	38.76
762.635	38.79
763.031	38.81
763.427	38.83
763.822	38.84
764.218	38.88
764.614	38.92
765.01	38.94
765.405	38.94
765.801	38.97
766.196	39
766.592	39.02
766.987	39.04
767.382	39.04
767.778	39.07
768.173	39.09
768.568	39.04
768.963	39.04
769.358	39.05
769.753	39.06
770.148	39.1
770.542	39.09
770.937	39.08
771.332	39.05
771.726	39.05
772.121	39.01
772.515	39.01
772.91	39.05
773.304	39.07
773.699	39.07
774.093	39.04
774.487	39.05
774.881	39.08
775.275	39.06
775.669	39.07
776.063	39.05
776.457	39.07
776.851	39.04
777.245	39.06
777.638	39.06
778.032	39.08
778.425	39.09
778.819	39.05
779.212	39
779.606	39.01
779.999	38.99
780.392	39.01
780.786	39.01
781.179	39
781.572	38.99
781.965	38.97
782.358	38.95
782.751	38.93
783.143	38.99
783.536	39.03
783.929	39.06
784.322	39.1
784.714	39.09
785.107	39.06
785.499	39.09
785.891	39.08
786.284	39.08
786.676	39.1
787.068	39.09
787.46	39.04
787.852	39.01
788.245	38.99
788.636	38.96
789.028	38.97
789.42	38.98
789.812	38.97
790.204	38.92
790.595	38.91
790.987	38.92
791.378	38.92
791.77	38.93
792.161	38.96
792.553	38.94
792.944	38.95
793.335	38.94
