Data from c_1_hir_wi_4n_043_Splice17_03.txt Node
Date: Sat Feb 29 13:29:11 EST 2020
User: sa697716
Spectrometer: FLMS03696
Trigger mode: 0
Integration Time (sec): 3.180400E-1
Scans to average: 20
Electric dark correction enabled: true
Nonlinearity correction enabled: true
Boxcar width: 5
XAxis mode: Wavelengths
Number of Pixels in Spectrum: 2048
>>>>>Begin Spectral Data<<<<<
187.83	22.68
188.298	25.96
188.766	30.21
189.233	18.32
189.701	34.41
190.169	43
190.636	46.3
191.104	50.25
191.571	142.05
192.039	149.12
192.506	10.47
192.974	5406.2
193.441	-375.78
193.908	54.17
194.375	10.14
194.842	111.28
195.31	51.44
195.777	27.93
196.244	72.68
196.711	80.67
197.177	83.98
197.644	84.68
198.111	84.9
198.578	86.42
199.045	88.21
199.511	88.78
199.978	89.26
200.445	89.48
200.911	90.24
201.378	90.19
201.844	91.6
202.31	91.93
202.777	91.98
203.243	92.23
203.709	91.91
204.176	91.6
204.642	90.55
205.108	89.68
205.574	89.54
206.04	88.48
206.506	87.92
206.972	86.39
207.438	85.71
207.903	84.57
208.369	82.77
208.835	81.88
209.301	80.18
209.766	78.46
210.232	76.81
210.697	74.9
211.163	73.06
211.628	71.39
212.094	70.15
212.559	68.52
213.024	66.88
213.49	64.95
213.955	63.06
214.42	60.77
214.885	58.63
215.35	55.85
215.815	52.42
216.28	48.48
216.745	43.87
217.21	39.06
217.675	34.66
218.14	30.76
218.604	27.41
219.069	24.39
219.534	21.92
219.998	19.84
220.463	18.18
220.927	16.71
221.392	15.51
221.856	14.52
222.32	13.69
222.785	12.98
223.249	12.36
223.713	11.81
224.177	11.3
224.642	10.89
225.106	10.49
225.57	10.08
226.034	9.73
226.497	9.41
226.961	9.1
227.425	8.79
227.889	8.51
228.353	8.24
228.816	8.01
229.28	7.77
229.744	7.56
230.207	7.39
230.671	7.21
231.134	7.03
231.597	6.86
232.061	6.72
232.524	6.61
232.987	6.47
233.45	6.36
233.914	6.25
234.377	6.16
234.84	6.06
235.303	5.95
235.766	5.88
236.229	5.82
236.691	5.76
237.154	5.69
237.617	5.62
238.08	5.57
238.542	5.52
239.005	5.46
239.468	5.39
239.93	5.34
240.393	5.29
240.855	5.22
241.317	5.16
241.78	5.09
242.242	5.02
242.704	4.96
243.166	4.89
243.629	4.85
244.091	4.8
244.553	4.76
245.015	4.71
245.477	4.65
245.939	4.6
246.4	4.55
246.862	4.51
247.324	4.48
247.786	4.44
248.247	4.4
248.709	4.35
249.17	4.3
249.632	4.25
250.093	4.19
250.555	4.16
251.016	4.13
251.477	4.08
251.939	4.03
252.4	3.99
252.861	3.95
253.322	3.9
253.783	3.88
254.244	3.84
254.705	3.81
255.166	3.8
255.627	3.76
256.088	3.72
256.549	3.69
257.009	3.65
257.47	3.61
257.931	3.58
258.391	3.53
258.852	3.48
259.312	3.44
259.773	3.39
260.233	3.35
260.694	3.31
261.154	3.28
261.614	3.24
262.074	3.2
262.534	3.15
262.994	3.11
263.455	3.09
263.915	3.06
264.374	3.02
264.834	3
265.294	2.97
265.754	2.93
266.214	2.91
266.673	2.88
267.133	2.87
267.593	2.86
268.052	2.84
268.512	2.82
268.971	2.8
269.431	2.79
269.89	2.77
270.349	2.76
270.809	2.76
271.268	2.75
271.727	2.74
272.186	2.73
272.645	2.72
273.104	2.71
273.563	2.7
274.022	2.7
274.481	2.69
274.94	2.69
275.399	2.68
275.857	2.67
276.316	2.67
276.775	2.65
277.233	2.65
277.692	2.64
278.15	2.64
278.609	2.63
279.067	2.63
279.525	2.63
279.984	2.62
280.442	2.63
280.9	2.63
281.358	2.63
281.816	2.63
282.274	2.63
282.732	2.64
283.19	2.65
283.648	2.65
284.106	2.65
284.564	2.66
285.021	2.66
285.479	2.67
285.937	2.66
286.394	2.66
286.852	2.65
287.309	2.66
287.767	2.65
288.224	2.64
288.682	2.63
289.139	2.63
289.596	2.6
290.053	2.58
290.511	2.56
290.968	2.54
291.425	2.53
291.882	2.51
292.339	2.49
292.796	2.47
293.252	2.46
293.709	2.44
294.166	2.42
294.623	2.41
295.079	2.4
295.536	2.39
295.992	2.38
296.449	2.37
296.905	2.36
297.362	2.35
297.818	2.35
298.274	2.34
298.731	2.34
299.187	2.34
299.643	2.34
300.099	2.33
300.555	2.33
301.011	2.33
301.467	2.33
301.923	2.33
302.379	2.33
302.835	2.33
303.291	2.32
303.746	2.32
304.202	2.32
304.658	2.32
305.113	2.33
305.569	2.33
306.024	2.34
306.479	2.34
306.935	2.35
307.39	2.36
307.845	2.36
308.301	2.38
308.756	2.39
309.211	2.4
309.666	2.41
310.121	2.41
310.576	2.42
311.031	2.42
311.486	2.42
311.94	2.42
312.395	2.43
312.85	2.44
313.305	2.44
313.759	2.44
314.214	2.44
314.668	2.44
315.123	2.45
315.577	2.44
316.032	2.43
316.486	2.43
316.94	2.43
317.394	2.43
317.849	2.41
318.303	2.41
318.757	2.39
319.211	2.38
319.665	2.37
320.119	2.36
320.572	2.36
321.026	2.35
321.48	2.35
321.934	2.34
322.387	2.34
322.841	2.33
323.295	2.33
323.748	2.33
324.202	2.34
324.655	2.34
325.108	2.34
325.562	2.32
326.015	2.32
326.468	2.31
326.921	2.31
327.374	2.31
327.827	2.31
328.28	2.31
328.733	2.31
329.186	2.32
329.639	2.31
330.092	2.3
330.545	2.32
330.997	2.33
331.45	2.34
331.903	2.34
332.355	2.35
332.808	2.35
333.26	2.36
333.713	2.38
334.165	2.38
334.617	2.4
335.069	2.4
335.522	2.41
335.974	2.42
336.426	2.43
336.878	2.43
337.33	2.42
337.782	2.43
338.234	2.43
338.686	2.41
339.137	2.42
339.589	2.42
340.041	2.41
340.493	2.4
340.944	2.39
341.396	2.38
341.847	2.37
342.299	2.35
342.75	2.34
343.201	2.33
343.653	2.32
344.104	2.3
344.555	2.29
345.006	2.28
345.457	2.28
345.908	2.27
346.359	2.27
346.81	2.26
347.261	2.26
347.712	2.26
348.163	2.25
348.613	2.24
349.064	2.23
349.515	2.23
349.965	2.23
350.416	2.22
350.866	2.22
351.317	2.22
351.767	2.22
352.217	2.23
352.668	2.23
353.118	2.23
353.568	2.24
354.018	2.26
354.468	2.28
354.918	2.29
355.368	2.29
355.818	2.29
356.268	2.3
356.718	2.29
357.168	2.3
357.617	2.3
358.067	2.3
358.517	2.29
358.966	2.29
359.416	2.29
359.865	2.28
360.315	2.29
360.764	2.29
361.213	2.28
361.663	2.28
362.112	2.29
362.561	2.29
363.01	2.29
363.459	2.29
363.908	2.29
364.357	2.3
364.806	2.3
365.255	2.31
365.703	2.32
366.152	2.33
366.601	2.33
367.05	2.35
367.498	2.35
367.947	2.36
368.395	2.37
368.844	2.37
369.292	2.36
369.74	2.37
370.189	2.36
370.637	2.36
371.085	2.37
371.533	2.39
371.981	2.38
372.429	2.38
372.877	2.38
373.325	2.37
373.773	2.38
374.221	2.38
374.669	2.38
375.116	2.38
375.564	2.38
376.012	2.39
376.459	2.38
376.907	2.39
377.354	2.39
377.801	2.4
378.249	2.43
378.696	2.44
379.143	2.45
379.591	2.45
380.038	2.47
380.485	2.48
380.932	2.48
381.379	2.49
381.826	2.51
382.273	2.52
382.72	2.53
383.166	2.53
383.613	2.53
384.06	2.54
384.506	2.55
384.953	2.56
385.4	2.57
385.846	2.59
386.292	2.6
386.739	2.61
387.185	2.64
387.631	2.66
388.078	2.68
388.524	2.68
388.97	2.7
389.416	2.73
389.862	2.75
390.308	2.77
390.754	2.8
391.2	2.84
391.645	2.87
392.091	2.9
392.537	2.93
392.983	2.96
393.428	3.02
393.874	3.06
394.319	3.11
394.765	3.18
395.21	3.22
395.655	3.28
396.101	3.35
396.546	3.41
396.991	3.47
397.436	3.53
397.881	3.62
398.326	3.71
398.771	3.79
399.216	3.86
399.661	3.93
400.106	4
400.551	4.04
400.995	4.07
401.44	4.1
401.885	4.14
402.329	4.19
402.774	4.22
403.218	4.26
403.663	4.3
404.107	4.34
404.551	4.4
404.995	4.46
405.44	4.51
405.884	4.57
406.328	4.63
406.772	4.7
407.216	4.77
407.66	4.85
408.104	4.9
408.547	4.96
408.991	4.99
409.435	5.04
409.879	5.1
410.322	5.18
410.766	5.27
411.209	5.35
411.653	5.41
412.096	5.46
412.54	5.53
412.983	5.6
413.426	5.68
413.869	5.78
414.312	5.85
414.756	5.92
415.199	5.99
415.642	6.06
416.085	6.12
416.527	6.19
416.97	6.24
417.413	6.26
417.856	6.28
418.298	6.27
418.741	6.28
419.184	6.31
419.626	6.32
420.069	6.35
420.511	6.36
420.953	6.37
421.396	6.4
421.838	6.45
422.28	6.53
422.722	6.59
423.164	6.65
423.606	6.71
424.048	6.74
424.49	6.8
424.932	6.78
425.374	6.76
425.816	6.71
426.258	6.63
426.699	6.56
427.141	6.53
427.582	6.56
428.024	6.63
428.465	6.7
428.907	6.77
429.348	6.82
429.789	6.92
430.231	7.03
430.672	7.2
431.113	7.4
431.554	7.6
431.995	7.78
432.436	7.89
432.877	7.96
433.318	8.02
433.759	8.1
434.2	8.2
434.64	8.3
435.081	8.41
435.522	8.5
435.962	8.59
436.403	8.7
436.843	8.74
437.284	8.8
437.724	8.9
438.164	8.98
438.604	9.08
439.045	9.19
439.485	9.28
439.925	9.34
440.365	9.42
440.805	9.48
441.245	9.49
441.685	9.56
442.125	9.61
442.564	9.67
443.004	9.72
443.444	9.81
443.883	9.89
444.323	9.95
444.762	10.06
445.202	10.16
445.641	10.26
446.081	10.4
446.52	10.5
446.959	10.63
447.398	10.75
447.837	10.85
448.276	10.87
448.716	10.89
449.154	10.92
449.593	10.96
450.032	10.97
450.471	10.97
450.91	10.92
451.349	10.9
451.787	10.86
452.226	10.81
452.664	10.78
453.103	10.77
453.541	10.76
453.98	10.73
454.418	10.68
454.856	10.63
455.295	10.57
455.733	10.54
456.171	10.5
456.609	10.5
457.047	10.46
457.485	10.45
457.923	10.46
458.361	10.46
458.798	10.51
459.236	10.51
459.674	10.52
460.111	10.56
460.549	10.59
460.987	10.64
461.424	10.65
461.862	10.68
462.299	10.71
462.736	10.73
463.173	10.78
463.611	10.82
464.048	10.9
464.485	10.99
464.922	11.07
465.359	11.16
465.796	11.22
466.233	11.31
466.67	11.41
467.106	11.5
467.543	11.6
467.98	11.71
468.416	11.8
468.853	11.87
469.29	11.95
469.726	12.02
470.162	12.08
470.599	12.16
471.035	12.23
471.471	12.27
471.907	12.3
472.344	12.33
472.78	12.33
473.216	12.35
473.652	12.37
474.088	12.39
474.523	12.37
474.959	12.37
475.395	12.37
475.831	12.38
476.266	12.37
476.702	12.36
477.138	12.36
477.573	12.34
478.008	12.32
478.444	12.26
478.879	12.22
479.314	12.18
479.75	12.12
480.185	12.05
480.62	11.96
481.055	11.85
481.49	11.68
481.925	11.48
482.36	11.28
482.795	11.09
483.229	10.97
483.664	10.86
484.099	10.77
484.534	10.67
484.968	10.61
485.403	10.56
485.837	10.55
486.271	10.59
486.706	10.66
487.14	10.72
487.574	10.77
488.009	10.79
488.443	10.8
488.877	10.81
489.311	10.83
489.745	10.84
490.179	10.87
490.613	10.89
491.046	10.91
491.48	10.94
491.914	10.98
492.348	11.04
492.781	11.11
493.215	11.17
493.648	11.21
494.082	11.27
494.515	11.3
494.948	11.34
495.382	11.37
495.815	11.42
496.248	11.45
496.681	11.48
497.114	11.5
497.547	11.52
497.98	11.56
498.413	11.63
498.846	11.71
499.279	11.8
499.711	11.88
500.144	11.97
500.577	12.06
501.009	12.2
501.442	12.36
501.874	12.53
502.306	12.71
502.739	12.89
503.171	13.04
503.603	13.2
504.036	13.36
504.468	13.57
504.9	13.77
505.332	13.97
505.764	14.17
506.196	14.36
506.627	14.56
507.059	14.79
507.491	15.02
507.923	15.28
508.354	15.54
508.786	15.8
509.217	16.01
509.649	16.26
510.08	16.53
510.512	16.78
510.943	17.08
511.374	17.37
511.805	17.64
512.237	17.88
512.668	18.08
513.099	18.31
513.53	18.54
513.961	18.84
514.391	19.12
514.822	19.43
515.253	19.8
515.684	20.18
516.114	20.58
516.545	21
516.975	21.5
517.406	22.06
517.836	22.59
518.267	23.16
518.697	23.71
519.127	24.26
519.558	24.78
519.988	25.3
520.418	25.79
520.848	26.27
521.278	26.73
521.708	27.19
522.138	27.52
522.567	27.85
522.997	28.17
523.427	28.49
523.857	28.81
524.286	29.18
524.716	29.52
525.145	29.85
525.575	30.17
526.004	30.49
526.433	30.79
526.863	31.19
527.292	31.6
527.721	31.95
528.15	32.27
528.579	32.54
529.008	32.74
529.437	32.92
529.866	33.1
530.295	33.28
530.724	33.49
531.152	33.66
531.581	33.82
532.01	33.96
532.438	34.09
532.867	34.24
533.295	34.41
533.723	34.59
534.152	34.74
534.58	34.86
535.008	34.95
535.436	35
535.865	34.99
536.293	35.01
536.721	35.06
537.149	35.12
537.576	35.2
538.004	35.27
538.432	35.33
538.86	35.41
539.287	35.48
539.715	35.6
540.143	35.72
540.57	35.89
540.998	36.06
541.425	36.2
541.852	36.34
542.28	36.43
542.707	36.58
543.134	36.71
543.561	36.8
543.988	36.92
544.415	37.02
544.842	37.14
545.269	37.25
545.696	37.33
546.123	37.45
546.549	37.54
546.976	37.65
547.403	37.74
547.829	37.82
548.256	37.94
548.682	38
549.108	38.07
549.535	38.13
549.961	38.18
550.387	38.21
550.813	38.24
551.24	38.31
551.666	38.36
552.092	38.35
552.518	38.32
552.943	38.28
553.369	38.26
553.795	38.24
554.221	38.14
554.646	38.02
555.072	37.9
555.498	37.77
555.923	37.62
556.349	37.44
556.774	37.29
557.199	37.17
557.625	37.03
558.05	36.9
558.475	36.71
558.9	36.59
559.325	36.45
559.75	36.3
560.175	36.13
560.6	35.92
561.025	35.72
561.449	35.47
561.874	35.2
562.299	34.96
562.723	34.69
563.148	34.43
563.572	34.15
563.997	33.84
564.421	33.51
564.846	33.19
565.27	32.89
565.694	32.57
566.118	32.26
566.542	31.96
566.966	31.63
567.39	31.3
567.814	30.98
568.238	30.69
568.662	30.44
569.086	30.2
569.509	29.98
569.933	29.75
570.357	29.53
570.78	29.34
571.204	29.13
571.627	28.92
572.05	28.75
572.474	28.57
572.897	28.37
573.32	28.15
573.743	27.94
574.166	27.72
574.589	27.5
575.012	27.32
575.435	27.14
575.858	26.99
576.281	26.86
576.704	26.72
577.126	26.56
577.549	26.44
577.972	26.36
578.394	26.25
578.817	26.17
579.239	26.1
579.661	26.01
580.084	25.9
580.506	25.79
580.928	25.67
581.35	25.51
581.772	25.39
582.194	25.25
582.616	25.09
583.038	24.96
583.46	24.82
583.882	24.68
584.303	24.49
584.725	24.28
585.147	24.03
585.568	23.81
585.99	23.65
586.411	23.47
586.833	23.31
587.254	23.16
587.675	23.02
588.096	22.88
588.518	22.76
588.939	22.68
589.36	22.63
589.781	22.62
590.202	22.61
590.623	22.55
591.043	22.49
591.464	22.42
591.885	22.34
592.305	22.27
592.726	22.18
593.147	22.1
593.567	22.02
593.987	21.94
594.408	21.84
594.828	21.73
595.248	21.64
595.669	21.57
596.089	21.47
596.509	21.35
596.929	21.23
597.349	21.09
597.769	20.96
598.189	20.84
598.608	20.72
599.028	20.62
599.448	20.55
599.867	20.47
600.287	20.38
600.706	20.29
601.126	20.22
601.545	20.15
601.965	20.07
602.384	19.99
602.803	19.89
603.222	19.79
603.641	19.67
604.061	19.53
604.48	19.39
604.898	19.22
605.317	19.07
605.736	18.93
606.155	18.77
606.574	18.62
606.992	18.46
607.411	18.33
607.829	18.13
608.248	17.98
608.666	17.83
609.085	17.67
609.503	17.54
609.921	17.38
610.339	17.23
610.758	17.09
611.176	16.94
611.594	16.79
612.012	16.63
612.43	16.53
612.847	16.39
613.265	16.26
613.683	16.14
614.101	16.03
614.518	15.93
614.936	15.83
615.353	15.72
615.771	15.64
616.188	15.57
616.606	15.5
617.023	15.41
617.44	15.34
617.857	15.27
618.274	15.18
618.691	15.1
619.108	15.02
619.525	14.93
619.942	14.85
620.359	14.76
620.776	14.66
621.192	14.57
621.609	14.5
622.026	14.42
622.442	14.34
622.859	14.28
623.275	14.21
623.691	14.15
624.108	14.08
624.524	14.03
624.94	13.99
625.356	13.95
625.772	13.92
626.188	13.89
626.604	13.84
627.02	13.81
627.436	13.77
627.852	13.74
628.268	13.72
628.683	13.71
629.099	13.68
629.514	13.66
629.93	13.63
630.345	13.6
630.761	13.55
631.176	13.55
631.591	13.51
632.007	13.48
632.422	13.45
632.837	13.4
633.252	13.36
633.667	13.33
634.082	13.28
634.497	13.22
634.911	13.16
635.326	13.09
635.741	13.01
636.155	12.93
636.57	12.84
636.984	12.74
637.399	12.64
637.813	12.54
638.228	12.42
638.642	12.32
639.056	12.22
639.47	12.11
639.884	12.01
640.298	11.91
640.712	11.82
641.126	11.74
641.54	11.64
641.954	11.55
642.368	11.44
642.781	11.34
643.195	11.22
643.609	11.12
644.022	11.02
644.436	10.92
644.849	10.82
645.262	10.71
645.676	10.6
646.089	10.5
646.502	10.41
646.915	10.34
647.328	10.29
647.741	10.22
648.154	10.17
648.567	10.12
648.98	10.06
649.393	10.02
649.805	9.99
650.218	9.95
650.631	9.92
651.043	9.86
651.456	9.8
651.868	9.68
652.28	9.58
652.693	9.46
653.105	9.35
653.517	9.27
653.929	9.2
654.341	9.14
654.753	9.09
655.165	9.04
655.577	8.99
655.989	8.96
656.401	8.96
656.813	8.97
657.224	8.97
657.636	8.98
658.047	8.96
658.459	8.91
658.87	8.86
659.282	8.8
659.693	8.73
660.104	8.68
660.515	8.62
660.926	8.57
661.338	8.52
661.749	8.46
662.159	8.4
662.57	8.34
662.981	8.29
663.392	8.24
663.803	8.2
664.213	8.16
664.624	8.12
665.035	8.08
665.445	8.03
665.855	8.01
666.266	7.99
666.676	7.95
667.086	7.91
667.497	7.89
667.907	7.85
668.317	7.83
668.727	7.82
669.137	7.79
669.547	7.77
669.956	7.76
670.366	7.75
670.776	7.73
671.186	7.73
671.595	7.75
672.005	7.75
672.414	7.76
672.824	7.77
673.233	7.77
673.642	7.78
674.052	7.78
674.461	7.79
674.87	7.81
675.279	7.85
675.688	7.86
676.097	7.86
676.506	7.88
676.915	7.9
677.323	7.94
677.732	7.97
678.141	8
678.549	8.05
678.958	8.09
679.366	8.11
679.775	8.15
680.183	8.19
680.592	8.23
681	8.27
681.408	8.32
681.816	8.35
682.224	8.39
682.632	8.41
683.04	8.4
683.448	8.41
683.856	8.44
684.264	8.46
684.671	8.52
685.079	8.58
685.487	8.66
685.894	8.75
686.302	8.87
686.709	9.02
687.116	9.22
687.524	9.46
687.931	9.73
688.338	10.02
688.745	10.34
689.152	10.67
689.559	11.02
689.966	11.4
690.373	11.8
690.78	12.22
691.187	12.66
691.593	13.12
692	13.57
692.407	14.06
692.813	14.59
693.22	15.1
693.626	15.65
694.032	16.22
694.439	16.82
694.845	17.42
695.251	18.01
695.657	18.62
696.063	19.25
696.469	19.89
696.875	20.52
697.281	21.14
697.687	21.79
698.093	22.42
698.498	23.05
698.904	23.69
699.31	24.32
699.715	25
700.12	25.64
700.526	26.3
700.931	26.98
701.337	27.66
701.742	28.32
702.147	28.99
702.552	29.68
702.957	30.35
703.362	31.03
703.767	31.68
704.172	32.34
704.577	32.99
704.981	33.62
705.386	34.24
705.791	34.87
706.195	35.49
706.6	36.09
707.004	36.7
707.408	37.28
707.813	37.86
708.217	38.43
708.621	39
709.025	39.57
709.43	40.11
709.834	40.66
710.237	41.17
710.641	41.75
711.045	42.26
711.449	42.79
711.853	43.31
712.256	43.8
712.66	44.25
713.064	44.63
713.467	45
713.87	45.37
714.274	45.71
714.677	45.98
715.08	46.19
715.484	46.45
715.887	46.69
716.29	46.93
716.693	47.22
717.096	47.62
717.499	48.09
717.901	48.57
718.304	49.1
718.707	49.6
719.109	50.17
719.512	50.71
719.915	51.23
720.317	51.74
720.719	52.19
721.122	52.62
721.524	53.01
721.926	53.31
722.328	53.61
722.731	53.9
723.133	54.2
723.535	54.51
723.937	54.81
724.338	55.08
724.74	55.35
725.142	55.62
725.544	55.88
725.945	56.15
726.347	56.41
726.748	56.66
727.15	56.9
727.551	57.16
727.952	57.38
728.354	57.68
728.755	57.95
729.156	58.25
729.557	58.58
729.958	58.88
730.359	59.15
730.76	59.38
731.161	59.66
731.562	59.9
731.962	60.09
732.363	60.27
732.763	60.43
733.164	60.61
733.564	60.74
733.965	60.84
734.365	60.93
734.766	61
735.166	61.08
735.566	61.08
735.966	61.11
736.366	61.15
736.766	61.22
737.166	61.25
737.566	61.29
737.966	61.33
738.365	61.4
738.765	61.47
739.165	61.52
739.564	61.63
739.964	61.7
740.363	61.78
740.763	61.84
741.162	61.92
741.561	61.99
741.96	62.09
742.36	62.16
742.759	62.18
743.158	62.23
743.557	62.29
743.955	62.31
744.354	62.39
744.753	62.44
745.152	62.45
745.55	62.44
745.949	62.44
746.348	62.4
746.746	62.37
747.144	62.36
747.543	62.33
747.941	62.3
748.339	62.29
748.737	62.28
749.136	62.22
749.534	62.2
749.932	62.19
750.33	62.16
750.727	62.14
751.125	62.11
751.523	62.05
751.921	62.05
752.318	62.02
752.716	61.92
753.113	61.84
753.511	61.8
753.908	61.74
754.305	61.63
754.703	61.44
755.1	61.1
755.497	60.52
755.894	59.64
756.291	58.48
756.688	57.26
757.085	56.07
757.482	54.98
757.878	53.99
758.275	53.02
758.672	52.03
759.068	51.16
759.465	50.42
759.861	49.98
760.258	49.9
760.654	50.13
761.05	50.57
761.447	51.04
761.843	51.48
762.239	51.91
762.635	52.4
763.031	53.05
763.427	53.7
763.822	54.42
764.218	55.16
764.614	55.86
765.01	56.55
765.405	57.12
765.801	57.68
766.196	58.18
766.592	58.61
766.987	58.98
767.382	59.2
767.778	59.41
768.173	59.56
768.568	59.64
768.963	59.68
769.358	59.7
769.753	59.77
770.148	59.78
770.542	59.75
770.937	59.71
771.332	59.65
771.726	59.6
772.121	59.51
772.515	59.48
772.91	59.44
773.304	59.41
773.699	59.34
774.093	59.22
774.487	59.17
774.881	59.14
775.275	59.1
775.669	59.04
776.063	58.98
776.457	58.93
776.851	58.82
777.245	58.77
777.638	58.74
778.032	58.7
778.425	58.7
