Data from c_1_div_oh_2n_027_Splice17_02.txt Node
Date: Sat Feb 29 13:21:18 EST 2020
User: sa697716
Spectrometer: FLMS03696
Trigger mode: 0
Integration Time (sec): 3.180400E-1
Scans to average: 20
Electric dark correction enabled: true
Nonlinearity correction enabled: true
Boxcar width: 5
XAxis mode: Wavelengths
Number of Pixels in Spectrum: 2048
>>>>>Begin Spectral Data<<<<<
187.83	3.73
188.298	-17.17
188.766	-2.6
189.233	-11.27
189.701	9.25
190.169	21.32
190.636	19.69
191.104	26.95
191.571	135.02
192.039	178.96
192.506	59.23
192.974	5092.89
193.441	-344.57
193.908	73.35
194.375	-10.82
194.842	72.6
195.31	59.29
195.777	64.61
196.244	57.15
196.711	58.83
197.177	58.19
197.644	57.62
198.111	56.9
198.578	56.35
199.045	57.78
199.511	58.38
199.978	58.31
200.445	58.2
200.911	58.37
201.378	58.33
201.844	58.68
202.31	58.56
202.777	58.87
203.243	59.01
203.709	59.14
204.176	58.18
204.642	57.99
205.108	57.83
205.574	58.04
206.04	57.6
206.506	57.29
206.972	56.98
207.438	56.3
207.903	55.48
208.369	54.52
208.835	53.7
209.301	53.14
209.766	51.73
210.232	50.98
210.697	49.93
211.163	48.89
211.628	47.9
212.094	46.53
212.559	45.45
213.024	44.35
213.49	43.4
213.955	42.4
214.42	41.55
214.885	40.49
215.35	38.82
215.815	36.55
216.28	34.51
216.745	32.37
217.21	30.05
217.675	27.85
218.14	25.7
218.604	23.8
219.069	22.25
219.534	20.77
219.998	19.55
220.463	18.55
220.927	17.76
221.392	17
221.856	16.3
222.32	15.75
222.785	15.22
223.249	14.8
223.713	14.44
224.177	14.05
224.642	13.72
225.106	13.42
225.57	13.11
226.034	12.83
226.497	12.58
226.961	12.32
227.425	12.07
227.889	11.87
228.353	11.64
228.816	11.45
229.28	11.23
229.744	11.07
230.207	10.9
230.671	10.74
231.134	10.57
231.597	10.41
232.061	10.27
232.524	10.14
232.987	10
233.45	9.88
233.914	9.75
234.377	9.65
234.84	9.53
235.303	9.43
235.766	9.34
236.229	9.24
236.691	9.15
237.154	9.05
237.617	8.97
238.08	8.89
238.542	8.8
239.005	8.7
239.468	8.6
239.93	8.51
240.393	8.42
240.855	8.32
241.317	8.25
241.78	8.19
242.242	8.1
242.704	8.02
243.166	7.93
243.629	7.86
244.091	7.79
244.553	7.73
245.015	7.65
245.477	7.58
245.939	7.52
246.4	7.43
246.862	7.37
247.324	7.31
247.786	7.25
248.247	7.19
248.709	7.12
249.17	7.05
249.632	6.99
250.093	6.92
250.555	6.86
251.016	6.8
251.477	6.74
251.939	6.67
252.4	6.62
252.861	6.57
253.322	6.51
253.783	6.47
254.244	6.42
254.705	6.37
255.166	6.33
255.627	6.29
256.088	6.22
256.549	6.18
257.009	6.14
257.47	6.09
257.931	6.03
258.391	5.98
258.852	5.93
259.312	5.88
259.773	5.82
260.233	5.77
260.694	5.73
261.154	5.69
261.614	5.64
262.074	5.6
262.534	5.54
262.994	5.5
263.455	5.46
263.915	5.42
264.374	5.38
264.834	5.34
265.294	5.31
265.754	5.26
266.214	5.23
266.673	5.2
267.133	5.16
267.593	5.14
268.052	5.11
268.512	5.08
268.971	5.05
269.431	5.03
269.89	5.01
270.349	4.98
270.809	4.97
271.268	4.95
271.727	4.93
272.186	4.91
272.645	4.88
273.104	4.86
273.563	4.84
274.022	4.82
274.481	4.8
274.94	4.77
275.399	4.76
275.857	4.74
276.316	4.71
276.775	4.69
277.233	4.67
277.692	4.66
278.15	4.64
278.609	4.61
279.067	4.59
279.525	4.57
279.984	4.56
280.442	4.55
280.9	4.53
281.358	4.52
281.816	4.51
282.274	4.49
282.732	4.48
283.19	4.47
283.648	4.47
284.106	4.46
284.564	4.46
285.021	4.45
285.479	4.44
285.937	4.44
286.394	4.43
286.852	4.43
287.309	4.42
287.767	4.41
288.224	4.41
288.682	4.39
289.139	4.38
289.596	4.36
290.053	4.34
290.511	4.3
290.968	4.28
291.425	4.26
291.882	4.23
292.339	4.21
292.796	4.18
293.252	4.15
293.709	4.14
294.166	4.12
294.623	4.11
295.079	4.09
295.536	4.08
295.992	4.07
296.449	4.05
296.905	4.04
297.362	4.03
297.818	4.02
298.274	4.01
298.731	4
299.187	3.98
299.643	3.97
300.099	3.96
300.555	3.95
301.011	3.93
301.467	3.93
301.923	3.92
302.379	3.92
302.835	3.91
303.291	3.9
303.746	3.88
304.202	3.88
304.658	3.87
305.113	3.86
305.569	3.86
306.024	3.86
306.479	3.85
306.935	3.84
307.39	3.84
307.845	3.84
308.301	3.84
308.756	3.85
309.211	3.85
309.666	3.85
310.121	3.86
310.576	3.85
311.031	3.85
311.486	3.86
311.94	3.86
312.395	3.86
312.85	3.87
313.305	3.87
313.759	3.86
314.214	3.87
314.668	3.86
315.123	3.86
315.577	3.86
316.032	3.86
316.486	3.85
316.94	3.84
317.394	3.83
317.849	3.82
318.303	3.81
318.757	3.8
319.211	3.78
319.665	3.77
320.119	3.76
320.572	3.75
321.026	3.73
321.48	3.72
321.934	3.72
322.387	3.71
322.841	3.7
323.295	3.7
323.748	3.7
324.202	3.7
324.655	3.69
325.108	3.67
325.562	3.66
326.015	3.66
326.468	3.65
326.921	3.65
327.374	3.65
327.827	3.64
328.28	3.62
328.733	3.61
329.186	3.61
329.639	3.61
330.092	3.61
330.545	3.62
330.997	3.62
331.45	3.63
331.903	3.63
332.355	3.63
332.808	3.63
333.26	3.64
333.713	3.65
334.165	3.65
334.617	3.66
335.069	3.67
335.522	3.68
335.974	3.68
336.426	3.68
336.878	3.67
337.33	3.67
337.782	3.67
338.234	3.68
338.686	3.67
339.137	3.67
339.589	3.66
340.041	3.65
340.493	3.62
340.944	3.62
341.396	3.61
341.847	3.59
342.299	3.58
342.75	3.55
343.201	3.53
343.653	3.51
344.104	3.5
344.555	3.5
345.006	3.47
345.457	3.47
345.908	3.46
346.359	3.45
346.81	3.45
347.261	3.44
347.712	3.44
348.163	3.44
348.613	3.44
349.064	3.42
349.515	3.41
349.965	3.4
350.416	3.4
350.866	3.39
351.317	3.39
351.767	3.38
352.217	3.38
352.668	3.37
353.118	3.37
353.568	3.38
354.018	3.39
354.468	3.38
354.918	3.39
355.368	3.39
355.818	3.38
356.268	3.39
356.718	3.39
357.168	3.38
357.617	3.38
358.067	3.37
358.517	3.36
358.966	3.38
359.416	3.39
359.865	3.38
360.315	3.38
360.764	3.38
361.213	3.38
361.663	3.37
362.112	3.39
362.561	3.39
363.01	3.4
363.459	3.4
363.908	3.39
364.357	3.39
364.806	3.39
365.255	3.4
365.703	3.4
366.152	3.41
366.601	3.41
367.05	3.42
367.498	3.43
367.947	3.43
368.395	3.45
368.844	3.47
369.292	3.46
369.74	3.48
370.189	3.47
370.637	3.48
371.085	3.49
371.533	3.5
371.981	3.5
372.429	3.51
372.877	3.52
373.325	3.51
373.773	3.51
374.221	3.53
374.669	3.54
375.116	3.55
375.564	3.56
376.012	3.57
376.459	3.59
376.907	3.61
377.354	3.63
377.801	3.64
378.249	3.67
378.696	3.7
379.143	3.72
379.591	3.74
380.038	3.76
380.485	3.79
380.932	3.8
381.379	3.8
381.826	3.82
382.273	3.84
382.72	3.86
383.166	3.88
383.613	3.9
384.06	3.91
384.506	3.94
384.953	3.95
385.4	3.98
385.846	4
386.292	4.04
386.739	4.06
387.185	4.09
387.631	4.11
388.078	4.14
388.524	4.14
388.97	4.17
389.416	4.19
389.862	4.21
390.308	4.24
390.754	4.27
391.2	4.3
391.645	4.32
392.091	4.35
392.537	4.38
392.983	4.41
393.428	4.43
393.874	4.46
394.319	4.48
394.765	4.5
395.21	4.51
395.655	4.54
396.101	4.56
396.546	4.59
396.991	4.6
397.436	4.6
397.881	4.62
398.326	4.66
398.771	4.68
399.216	4.71
399.661	4.73
400.106	4.75
400.551	4.74
400.995	4.73
401.44	4.72
401.885	4.72
402.329	4.72
402.774	4.72
403.218	4.72
403.663	4.71
404.107	4.7
404.551	4.69
404.995	4.68
405.44	4.68
405.884	4.68
406.328	4.69
406.772	4.69
407.216	4.69
407.66	4.68
408.104	4.67
408.547	4.67
408.991	4.67
409.435	4.66
409.879	4.66
410.322	4.66
410.766	4.67
411.209	4.67
411.653	4.65
412.096	4.65
412.54	4.67
412.983	4.68
413.426	4.7
413.869	4.72
414.312	4.74
414.756	4.77
415.199	4.79
415.642	4.81
416.085	4.83
416.527	4.86
416.97	4.87
417.413	4.87
417.856	4.86
418.298	4.84
418.741	4.84
419.184	4.84
419.626	4.82
420.069	4.81
420.511	4.81
420.953	4.8
421.396	4.79
421.838	4.81
422.28	4.82
422.722	4.83
423.164	4.85
423.606	4.85
424.048	4.85
424.49	4.86
424.932	4.85
425.374	4.85
425.816	4.83
426.258	4.83
426.699	4.79
427.141	4.77
427.582	4.76
428.024	4.76
428.465	4.75
428.907	4.76
429.348	4.75
429.789	4.77
430.231	4.77
430.672	4.77
431.113	4.79
431.554	4.82
431.995	4.85
432.436	4.85
432.877	4.84
433.318	4.86
433.759	4.87
434.2	4.89
434.64	4.88
435.081	4.9
435.522	4.94
435.962	4.97
436.403	5.01
436.843	5.03
437.284	5.06
437.724	5.1
438.164	5.13
438.604	5.17
439.045	5.19
439.485	5.2
439.925	5.2
440.365	5.2
440.805	5.19
441.245	5.17
441.685	5.18
442.125	5.19
442.564	5.21
443.004	5.23
443.444	5.25
443.883	5.26
444.323	5.27
444.762	5.35
445.202	5.42
445.641	5.48
446.081	5.54
446.52	5.57
446.959	5.63
447.398	5.68
447.837	5.72
448.276	5.75
448.716	5.8
449.154	5.87
449.593	5.9
450.032	5.92
450.471	5.93
450.91	5.94
451.349	5.97
451.787	5.96
452.226	5.94
452.664	5.94
453.103	5.96
453.541	5.96
453.98	5.95
454.418	5.93
454.856	5.91
455.295	5.9
455.733	5.89
456.171	5.9
456.609	5.88
457.047	5.9
457.485	5.9
457.923	5.89
458.361	5.88
458.798	5.89
459.236	5.9
459.674	5.9
460.111	5.92
460.549	5.92
460.987	5.92
461.424	5.92
461.862	5.93
462.299	5.92
462.736	5.92
463.173	5.92
463.611	5.91
464.048	5.93
464.485	5.93
464.922	5.92
465.359	5.93
465.796	5.92
466.233	5.94
466.67	5.95
467.106	5.95
467.543	5.96
467.98	5.98
468.416	6
468.853	6.01
469.29	6.02
469.726	6.04
470.162	6.05
470.599	6.07
471.035	6.07
471.471	6.06
471.907	6.08
472.344	6.07
472.78	6.07
473.216	6.07
473.652	6.05
474.088	6.06
474.523	6.04
474.959	6.03
475.395	6.02
475.831	6.03
476.266	6.02
476.702	6.01
477.138	6.02
477.573	6.01
478.008	6.01
478.444	6
478.879	5.99
479.314	5.99
479.75	5.99
480.185	5.98
480.62	5.98
481.055	5.99
481.49	5.97
481.925	5.97
482.36	5.96
482.795	5.95
483.229	5.96
483.664	5.96
484.099	5.98
484.534	5.98
484.968	5.99
485.403	6
485.837	6.01
486.271	6.02
486.706	6.03
487.14	6.06
487.574	6.09
488.009	6.12
488.443	6.15
488.877	6.17
489.311	6.21
489.745	6.26
490.179	6.3
490.613	6.35
491.046	6.41
491.48	6.47
491.914	6.53
492.348	6.59
492.781	6.66
493.215	6.72
493.648	6.8
494.082	6.88
494.515	6.95
494.948	7.03
495.382	7.13
495.815	7.22
496.248	7.34
496.681	7.44
497.114	7.55
497.547	7.67
497.98	7.8
498.413	7.92
498.846	8.06
499.279	8.23
499.711	8.38
500.144	8.53
500.577	8.7
501.009	8.87
501.442	9.04
501.874	9.22
502.306	9.42
502.739	9.61
503.171	9.83
503.603	10.06
504.036	10.28
504.468	10.51
504.9	10.76
505.332	11
505.764	11.26
506.196	11.54
506.627	11.81
507.059	12.1
507.491	12.41
507.923	12.71
508.354	13.02
508.786	13.34
509.217	13.67
509.649	14.02
510.08	14.38
510.512	14.73
510.943	15.09
511.374	15.48
511.805	15.84
512.237	16.2
512.668	16.59
513.099	16.99
513.53	17.39
513.961	17.79
514.391	18.17
514.822	18.55
515.253	18.96
515.684	19.38
516.114	19.78
516.545	20.19
516.975	20.62
517.406	21.04
517.836	21.43
518.267	21.85
518.697	22.28
519.127	22.7
519.558	23.11
519.988	23.52
520.418	23.9
520.848	24.29
521.278	24.69
521.708	25.05
522.138	25.42
522.567	25.78
522.997	26.13
523.427	26.47
523.857	26.79
524.286	27.12
524.716	27.43
525.145	27.74
525.575	28.03
526.004	28.32
526.433	28.6
526.863	28.88
527.292	29.12
527.721	29.36
528.15	29.58
528.579	29.83
529.008	30.05
529.437	30.26
529.866	30.45
530.295	30.65
530.724	30.87
531.152	31.03
531.581	31.19
532.01	31.33
532.438	31.48
532.867	31.62
533.295	31.74
533.723	31.88
534.152	32
534.58	32.1
535.008	32.17
535.436	32.23
535.865	32.33
536.293	32.44
536.721	32.54
537.149	32.62
537.576	32.69
538.004	32.75
538.432	32.8
538.86	32.87
539.287	32.94
539.715	33.03
540.143	33.08
540.57	33.13
540.998	33.17
541.425	33.2
541.852	33.24
542.28	33.29
542.707	33.38
543.134	33.42
543.561	33.43
543.988	33.46
544.415	33.5
544.842	33.53
545.269	33.57
545.696	33.6
546.123	33.65
546.549	33.7
546.976	33.73
547.403	33.73
547.829	33.73
548.256	33.76
548.682	33.79
549.108	33.8
549.535	33.82
549.961	33.82
550.387	33.82
550.813	33.82
551.24	33.8
551.666	33.8
552.092	33.78
552.518	33.79
552.943	33.77
553.369	33.77
553.795	33.75
554.221	33.71
554.646	33.68
555.072	33.62
555.498	33.55
555.923	33.49
556.349	33.39
556.774	33.32
557.199	33.25
557.625	33.18
558.05	33.06
558.475	32.95
558.9	32.87
559.325	32.74
559.75	32.64
560.175	32.54
560.6	32.4
561.025	32.29
561.449	32.15
561.874	32
562.299	31.86
562.723	31.73
563.148	31.57
563.572	31.39
563.997	31.24
564.421	31.06
564.846	30.88
565.27	30.7
565.694	30.51
566.118	30.31
566.542	30.12
566.966	29.92
567.39	29.68
567.814	29.47
568.238	29.27
568.662	29.06
569.086	28.85
569.509	28.65
569.933	28.43
570.357	28.22
570.78	28.02
571.204	27.8
571.627	27.58
572.05	27.41
572.474	27.22
572.897	27.03
573.32	26.83
573.743	26.65
574.166	26.48
574.589	26.32
575.012	26.15
575.435	25.97
575.858	25.82
576.281	25.67
576.704	25.5
577.126	25.34
577.549	25.2
577.972	25.09
578.394	24.94
578.817	24.77
579.239	24.65
579.661	24.52
580.084	24.4
580.506	24.28
580.928	24.17
581.35	24.08
581.772	23.99
582.194	23.87
582.616	23.75
583.038	23.66
583.46	23.56
583.882	23.46
584.303	23.38
584.725	23.29
585.147	23.19
585.568	23.09
585.99	22.98
586.411	22.89
586.833	22.84
587.254	22.77
587.675	22.69
588.096	22.61
588.518	22.54
588.939	22.47
589.36	22.4
589.781	22.33
590.202	22.28
590.623	22.21
591.043	22.15
591.464	22.07
591.885	22.02
592.305	21.97
592.726	21.93
593.147	21.9
593.567	21.83
593.987	21.82
594.408	21.77
594.828	21.73
595.248	21.7
595.669	21.65
596.089	21.6
596.509	21.54
596.929	21.48
597.349	21.43
597.769	21.35
598.189	21.29
598.608	21.23
599.028	21.18
599.448	21.14
599.867	21.08
600.287	21.02
600.706	20.96
601.126	20.89
601.545	20.83
601.965	20.76
602.384	20.7
602.803	20.62
603.222	20.52
603.641	20.45
604.061	20.35
604.48	20.26
604.898	20.16
605.317	20.07
605.736	19.97
606.155	19.88
606.574	19.78
606.992	19.65
607.411	19.56
607.829	19.41
608.248	19.28
608.666	19.16
609.085	19.04
609.503	18.92
609.921	18.79
610.339	18.68
610.758	18.55
611.176	18.42
611.594	18.3
612.012	18.17
612.43	18.08
612.847	17.98
613.265	17.88
613.683	17.76
614.101	17.64
614.518	17.54
614.936	17.42
615.353	17.32
615.771	17.22
616.188	17.13
616.606	17.04
617.023	16.96
617.44	16.87
617.857	16.77
618.274	16.7
618.691	16.63
619.108	16.56
619.525	16.49
619.942	16.43
620.359	16.38
620.776	16.33
621.192	16.28
621.609	16.23
622.026	16.19
622.442	16.14
622.859	16.1
623.275	16.08
623.691	16.05
624.108	16.04
624.524	16.02
624.94	15.99
625.356	15.98
625.772	15.97
626.188	15.96
626.604	15.94
627.02	15.94
627.436	15.93
627.852	15.9
628.268	15.88
628.683	15.87
629.099	15.85
629.514	15.83
629.93	15.8
630.345	15.75
630.761	15.71
631.176	15.67
631.591	15.6
632.007	15.54
632.422	15.5
632.837	15.43
633.252	15.36
633.667	15.26
634.082	15.17
634.497	15.07
634.911	14.98
635.326	14.87
635.741	14.77
636.155	14.66
636.57	14.54
636.984	14.39
637.399	14.23
637.813	14.08
638.228	13.93
638.642	13.79
639.056	13.64
639.47	13.47
639.884	13.32
640.298	13.16
640.712	13
641.126	12.82
641.54	12.67
641.954	12.53
642.368	12.38
642.781	12.23
643.195	12.06
643.609	11.91
644.022	11.76
644.436	11.61
644.849	11.44
645.262	11.32
645.676	11.17
646.089	11.04
646.502	10.91
646.915	10.8
647.328	10.69
647.741	10.58
648.154	10.48
648.567	10.4
648.98	10.31
649.393	10.23
649.805	10.15
650.218	10.09
650.631	10.03
651.043	9.94
651.456	9.88
651.868	9.8
652.28	9.73
652.693	9.64
653.105	9.57
653.517	9.49
653.929	9.42
654.341	9.34
654.753	9.24
655.165	9.13
655.577	9.03
655.989	8.9
656.401	8.78
656.813	8.66
657.224	8.54
657.636	8.41
658.047	8.27
658.459	8.12
658.87	7.98
659.282	7.87
659.693	7.74
660.104	7.62
660.515	7.51
660.926	7.41
661.338	7.28
661.749	7.16
662.159	7.04
662.57	6.94
662.981	6.82
663.392	6.71
663.803	6.61
664.213	6.51
664.624	6.44
665.035	6.35
665.445	6.28
665.855	6.2
666.266	6.15
666.676	6.09
667.086	6.04
667.497	5.99
667.907	5.95
668.317	5.91
668.727	5.87
669.137	5.83
669.547	5.8
669.956	5.77
670.366	5.76
670.776	5.75
671.186	5.74
671.595	5.74
672.005	5.75
672.414	5.75
672.824	5.75
673.233	5.77
673.642	5.77
674.052	5.79
674.461	5.8
674.87	5.82
675.279	5.83
675.688	5.85
676.097	5.88
676.506	5.9
676.915	5.94
677.323	5.98
677.732	6.03
678.141	6.1
678.549	6.16
678.958	6.24
679.366	6.31
679.775	6.41
680.183	6.5
680.592	6.61
681	6.71
681.408	6.84
681.816	6.96
682.224	7.11
682.632	7.29
683.04	7.47
683.448	7.67
683.856	7.9
684.264	8.14
684.671	8.43
685.079	8.74
685.487	9.1
685.894	9.48
686.302	9.9
686.709	10.34
687.116	10.81
687.524	11.32
687.931	11.85
688.338	12.44
688.745	13.04
689.152	13.67
689.559	14.33
689.966	15
690.373	15.71
690.78	16.43
691.187	17.16
691.593	17.91
692	18.68
692.407	19.47
692.813	20.26
693.22	21.04
693.626	21.84
694.032	22.64
694.439	23.45
694.845	24.25
695.251	25.04
695.657	25.84
696.063	26.63
696.469	27.42
696.875	28.19
697.281	28.94
697.687	29.74
698.093	30.47
698.498	31.2
698.904	31.92
699.31	32.61
699.715	33.32
700.12	33.97
700.526	34.63
700.931	35.28
701.337	35.92
701.742	36.55
702.147	37.13
702.552	37.73
702.957	38.3
703.362	38.88
703.767	39.46
704.172	40.03
704.577	40.61
704.981	41.14
705.386	41.69
705.791	42.22
706.195	42.72
706.6	43.23
707.004	43.72
707.408	44.23
707.813	44.68
708.217	45.12
708.621	45.57
709.025	45.98
709.43	46.41
709.834	46.82
710.237	47.19
710.641	47.6
711.045	47.97
711.449	48.36
711.853	48.72
712.256	49.1
712.66	49.49
713.064	49.82
713.467	50.18
713.87	50.55
714.274	50.9
714.677	51.25
715.08	51.56
715.484	51.9
715.887	52.21
716.29	52.54
716.693	52.84
717.096	53.14
717.499	53.43
717.901	53.7
718.304	53.99
718.707	54.25
719.109	54.51
719.512	54.8
719.915	55.05
720.317	55.31
720.719	55.54
721.122	55.77
721.524	55.99
721.926	56.24
722.328	56.48
722.731	56.67
723.133	56.86
723.535	57.09
723.937	57.27
724.338	57.41
724.74	57.58
725.142	57.68
725.544	57.83
725.945	57.97
726.347	58.14
726.748	58.25
727.15	58.37
727.551	58.54
727.952	58.64
728.354	58.8
728.755	58.98
729.156	59.1
729.557	59.28
729.958	59.43
730.359	59.55
730.76	59.62
731.161	59.73
731.562	59.84
731.962	59.93
732.363	60.01
732.763	60.06
733.164	60.12
733.564	60.21
733.965	60.3
734.365	60.33
734.766	60.38
735.166	60.44
735.566	60.48
735.966	60.5
736.366	60.53
736.766	60.58
737.166	60.66
737.566	60.74
737.966	60.77
738.365	60.81
738.765	60.89
739.165	60.9
739.564	60.97
739.964	61.04
740.363	61.11
740.763	61.16
741.162	61.18
741.561	61.2
741.96	61.22
742.36	61.25
742.759	61.23
743.158	61.24
743.557	61.29
743.955	61.35
744.354	61.38
744.753	61.46
745.152	61.48
745.55	61.53
745.949	61.57
746.348	61.58
746.746	61.57
747.144	61.65
747.543	61.68
747.941	61.76
748.339	61.8
748.737	61.84
749.136	61.81
749.534	61.86
749.932	61.86
750.33	61.89
750.727	61.94
751.125	62
751.523	61.98
751.921	62.01
752.318	62
752.716	61.97
753.113	61.95
753.511	61.93
753.908	61.91
754.305	61.89
754.703	61.85
755.1	61.8
755.497	61.78
755.894	61.83
756.291	61.81
756.688	61.77
757.085	61.76
757.482	61.77
757.878	61.78
758.275	61.78
758.672	61.8
759.068	61.82
759.465	61.84
759.861	61.82
760.258	61.77
760.654	61.76
761.05	61.79
761.447	61.76
761.843	61.7
762.239	61.68
762.635	61.67
763.031	61.65
763.427	61.64
763.822	61.58
764.218	61.61
764.614	61.6
765.01	61.55
765.405	61.53
765.801	61.51
766.196	61.53
766.592	61.55
766.987	61.55
767.382	61.55
767.778	61.61
768.173	61.68
768.568	61.62
768.963	61.64
769.358	61.67
769.753	61.7
770.148	61.72
770.542	61.72
770.937	61.7
771.332	61.7
771.726	61.69
772.121	61.62
772.515	61.59
772.91	61.63
773.304	61.6
773.699	61.64
774.093	61.58
774.487	61.59
774.881	61.59
775.275	61.62
775.669	61.62
776.063	61.59
776.457	61.58
776.851	61.56
777.245	61.55
777.638	61.56
778.032	61.53
778.425	61.56
778.819	61.57
779.212	61.55
779.606	61.51
779.999	61.48
780.392	61.5
780.786	61.5
781.179	61.52
781.572	61.48
