Data from c_1_dec_ct_2n_035_Splice17_02.txt Node
Date: Sat Feb 29 13:25:13 EST 2020
User: sa697716
Spectrometer: FLMS03696
Trigger mode: 0
Integration Time (sec): 3.180400E-1
Scans to average: 20
Electric dark correction enabled: true
Nonlinearity correction enabled: true
Boxcar width: 5
XAxis mode: Wavelengths
Number of Pixels in Spectrum: 2048
>>>>>Begin Spectral Data<<<<<
187.83	38.22
188.298	21.94
188.766	35.32
189.233	23.7
189.701	44.68
190.169	60.41
190.636	67.6
191.104	58.56
191.571	286.3
192.039	239.81
192.506	349.21
192.974	6555.85
193.441	-244.73
193.908	37.09
194.375	-9.38
194.842	123.5
195.31	144.64
195.777	139.93
196.244	92.52
196.711	78.89
197.177	77.19
197.644	73.94
198.111	73.68
198.578	74.22
199.045	75.49
199.511	75.6
199.978	75.95
200.445	75.6
200.911	75.72
201.378	74.85
201.844	75.81
202.31	75.64
202.777	75.94
203.243	76.17
203.709	75.98
204.176	75.68
204.642	75.3
205.108	74.49
205.574	74.46
206.04	73.83
206.506	73.63
206.972	72.52
207.438	71.95
207.903	71.18
208.369	69.9
208.835	68.75
209.301	67.76
209.766	66.12
210.232	64.93
210.697	63.54
211.163	62.21
211.628	61.11
212.094	59.76
212.559	58.34
213.024	56.84
213.49	55.87
213.955	54.56
214.42	52.81
214.885	51.26
215.35	49.31
215.815	46.52
216.28	43.69
216.745	40.59
217.21	37.31
217.675	34.26
218.14	31.49
218.604	28.79
219.069	26.59
219.534	24.74
219.998	23.16
220.463	21.83
220.927	20.78
221.392	19.89
221.856	19.08
222.32	18.4
222.785	17.78
223.249	17.28
223.713	16.85
224.177	16.43
224.642	16.04
225.106	15.69
225.57	15.35
226.034	15.02
226.497	14.69
226.961	14.36
227.425	14.05
227.889	13.76
228.353	13.49
228.816	13.22
229.28	12.96
229.744	12.72
230.207	12.49
230.671	12.27
231.134	12.06
231.597	11.84
232.061	11.67
232.524	11.49
232.987	11.34
233.45	11.17
233.914	11.01
234.377	10.87
234.84	10.75
235.303	10.62
235.766	10.5
236.229	10.38
236.691	10.28
237.154	10.16
237.617	10.06
238.08	9.93
238.542	9.84
239.005	9.74
239.468	9.65
239.93	9.55
240.393	9.46
240.855	9.35
241.317	9.28
241.78	9.19
242.242	9.1
242.704	9.01
243.166	8.95
243.629	8.86
244.091	8.77
244.553	8.69
245.015	8.61
245.477	8.51
245.939	8.44
246.4	8.33
246.862	8.26
247.324	8.2
247.786	8.11
248.247	8.02
248.709	7.95
249.17	7.88
249.632	7.8
250.093	7.71
250.555	7.65
251.016	7.61
251.477	7.56
251.939	7.49
252.4	7.43
252.861	7.38
253.322	7.32
253.783	7.28
254.244	7.23
254.705	7.19
255.166	7.15
255.627	7.1
256.088	7.03
256.549	6.98
257.009	6.93
257.47	6.88
257.931	6.83
258.391	6.76
258.852	6.7
259.312	6.66
259.773	6.6
260.233	6.55
260.694	6.5
261.154	6.45
261.614	6.4
262.074	6.36
262.534	6.29
262.994	6.25
263.455	6.22
263.915	6.18
264.374	6.14
264.834	6.1
265.294	6.05
265.754	6.01
266.214	5.97
266.673	5.94
267.133	5.91
267.593	5.88
268.052	5.85
268.512	5.82
268.971	5.79
269.431	5.76
269.89	5.73
270.349	5.71
270.809	5.7
271.268	5.68
271.727	5.66
272.186	5.63
272.645	5.61
273.104	5.59
273.563	5.57
274.022	5.55
274.481	5.55
274.94	5.52
275.399	5.5
275.857	5.48
276.316	5.46
276.775	5.43
277.233	5.42
277.692	5.41
278.15	5.39
278.609	5.36
279.067	5.34
279.525	5.31
279.984	5.3
280.442	5.29
280.9	5.28
281.358	5.27
281.816	5.26
282.274	5.24
282.732	5.23
283.19	5.23
283.648	5.22
284.106	5.21
284.564	5.21
285.021	5.21
285.479	5.2
285.937	5.18
286.394	5.16
286.852	5.15
287.309	5.14
287.767	5.12
288.224	5.09
288.682	5.07
289.139	5.05
289.596	5.02
290.053	4.98
290.511	4.95
290.968	4.93
291.425	4.9
291.882	4.88
292.339	4.85
292.796	4.82
293.252	4.8
293.709	4.78
294.166	4.76
294.623	4.75
295.079	4.73
295.536	4.72
295.992	4.7
296.449	4.69
296.905	4.67
297.362	4.65
297.818	4.64
298.274	4.62
298.731	4.6
299.187	4.59
299.643	4.57
300.099	4.56
300.555	4.54
301.011	4.52
301.467	4.5
301.923	4.5
302.379	4.5
302.835	4.49
303.291	4.48
303.746	4.48
304.202	4.47
304.658	4.46
305.113	4.46
305.569	4.45
306.024	4.45
306.479	4.45
306.935	4.45
307.39	4.44
307.845	4.44
308.301	4.44
308.756	4.44
309.211	4.43
309.666	4.43
310.121	4.43
310.576	4.42
311.031	4.41
311.486	4.41
311.94	4.4
312.395	4.4
312.85	4.39
313.305	4.39
313.759	4.39
314.214	4.39
314.668	4.39
315.123	4.39
315.577	4.39
316.032	4.39
316.486	4.38
316.94	4.37
317.394	4.36
317.849	4.35
318.303	4.34
318.757	4.32
319.211	4.29
319.665	4.28
320.119	4.27
320.572	4.26
321.026	4.24
321.48	4.24
321.934	4.23
322.387	4.22
322.841	4.21
323.295	4.2
323.748	4.19
324.202	4.19
324.655	4.18
325.108	4.16
325.562	4.14
326.015	4.13
326.468	4.11
326.921	4.1
327.374	4.1
327.827	4.1
328.28	4.09
328.733	4.08
329.186	4.09
329.639	4.09
330.092	4.1
330.545	4.1
330.997	4.11
331.45	4.11
331.903	4.11
332.355	4.1
332.808	4.11
333.26	4.12
333.713	4.12
334.165	4.11
334.617	4.12
335.069	4.11
335.522	4.12
335.974	4.13
336.426	4.14
336.878	4.14
337.33	4.13
337.782	4.12
338.234	4.12
338.686	4.12
339.137	4.13
339.589	4.11
340.041	4.1
340.493	4.08
340.944	4.06
341.396	4.03
341.847	4.02
342.299	4.01
342.75	3.98
343.201	3.96
343.653	3.94
344.104	3.92
344.555	3.91
345.006	3.9
345.457	3.87
345.908	3.86
346.359	3.86
346.81	3.85
347.261	3.84
347.712	3.83
348.163	3.83
348.613	3.82
349.064	3.8
349.515	3.8
349.965	3.79
350.416	3.8
350.866	3.81
351.317	3.8
351.767	3.8
352.217	3.79
352.668	3.8
353.118	3.79
353.568	3.8
354.018	3.82
354.468	3.82
354.918	3.83
355.368	3.82
355.818	3.81
356.268	3.81
356.718	3.81
357.168	3.81
357.617	3.81
358.067	3.81
358.517	3.79
358.966	3.79
359.416	3.79
359.865	3.78
360.315	3.78
360.764	3.78
361.213	3.77
361.663	3.75
362.112	3.76
362.561	3.75
363.01	3.75
363.459	3.75
363.908	3.74
364.357	3.74
364.806	3.73
365.255	3.74
365.703	3.73
366.152	3.74
366.601	3.74
367.05	3.74
367.498	3.75
367.947	3.74
368.395	3.75
368.844	3.75
369.292	3.74
369.74	3.75
370.189	3.74
370.637	3.74
371.085	3.74
371.533	3.73
371.981	3.73
372.429	3.71
372.877	3.71
373.325	3.7
373.773	3.7
374.221	3.69
374.669	3.69
375.116	3.68
375.564	3.67
376.012	3.68
376.459	3.67
376.907	3.68
377.354	3.68
377.801	3.68
378.249	3.68
378.696	3.68
379.143	3.69
379.591	3.68
380.038	3.69
380.485	3.7
380.932	3.69
381.379	3.68
381.826	3.68
382.273	3.67
382.72	3.68
383.166	3.67
383.613	3.67
384.06	3.66
384.506	3.66
384.953	3.64
385.4	3.62
385.846	3.62
386.292	3.63
386.739	3.62
387.185	3.64
387.631	3.63
388.078	3.63
388.524	3.62
388.97	3.63
389.416	3.62
389.862	3.63
390.308	3.64
390.754	3.64
391.2	3.66
391.645	3.66
392.091	3.65
392.537	3.66
392.983	3.66
393.428	3.68
393.874	3.69
394.319	3.68
394.765	3.69
395.21	3.7
395.655	3.71
396.101	3.71
396.546	3.72
396.991	3.72
397.436	3.71
397.881	3.73
398.326	3.74
398.771	3.76
399.216	3.79
399.661	3.81
400.106	3.83
400.551	3.83
400.995	3.82
401.44	3.82
401.885	3.84
402.329	3.87
402.774	3.86
403.218	3.87
403.663	3.86
404.107	3.87
404.551	3.88
404.995	3.88
405.44	3.9
405.884	3.91
406.328	3.93
406.772	3.94
407.216	3.95
407.66	3.97
408.104	3.98
408.547	4
408.991	4
409.435	4.01
409.879	4.02
410.322	4.05
410.766	4.07
411.209	4.09
411.653	4.09
412.096	4.11
412.54	4.13
412.983	4.15
413.426	4.18
413.869	4.21
414.312	4.25
414.756	4.28
415.199	4.3
415.642	4.34
416.085	4.37
416.527	4.39
416.97	4.42
417.413	4.42
417.856	4.41
418.298	4.41
418.741	4.42
419.184	4.41
419.626	4.39
420.069	4.39
420.511	4.37
420.953	4.37
421.396	4.37
421.838	4.39
422.28	4.4
422.722	4.43
423.164	4.44
423.606	4.45
424.048	4.46
424.49	4.47
424.932	4.47
425.374	4.47
425.816	4.46
426.258	4.45
426.699	4.43
427.141	4.42
427.582	4.42
428.024	4.43
428.465	4.43
428.907	4.44
429.348	4.44
429.789	4.46
430.231	4.47
430.672	4.5
431.113	4.53
431.554	4.56
431.995	4.59
432.436	4.6
432.877	4.59
433.318	4.6
433.759	4.61
434.2	4.64
434.64	4.65
435.081	4.68
435.522	4.7
435.962	4.73
436.403	4.75
436.843	4.75
437.284	4.77
437.724	4.8
438.164	4.84
438.604	4.86
439.045	4.86
439.485	4.87
439.925	4.86
440.365	4.85
440.805	4.84
441.245	4.83
441.685	4.87
442.125	4.86
442.564	4.88
443.004	4.86
443.444	4.87
443.883	4.89
444.323	4.89
444.762	4.93
445.202	4.98
445.641	5
446.081	5.03
446.52	5.01
446.959	5.03
447.398	5.06
447.837	5.1
448.276	5.1
448.716	5.11
449.154	5.12
449.593	5.13
450.032	5.13
450.471	5.13
450.91	5.12
451.349	5.13
451.787	5.11
452.226	5.07
452.664	5.03
453.103	5.02
453.541	5
453.98	4.98
454.418	4.93
454.856	4.9
455.295	4.87
455.733	4.86
456.171	4.84
456.609	4.84
457.047	4.84
457.485	4.84
457.923	4.83
458.361	4.83
458.798	4.85
459.236	4.86
459.674	4.86
460.111	4.87
460.549	4.87
460.987	4.87
461.424	4.86
461.862	4.85
462.299	4.86
462.736	4.86
463.173	4.86
463.611	4.85
464.048	4.87
464.485	4.86
464.922	4.85
465.359	4.86
465.796	4.85
466.233	4.88
466.67	4.87
467.106	4.88
467.543	4.89
467.98	4.89
468.416	4.89
468.853	4.88
469.29	4.89
469.726	4.9
470.162	4.88
470.599	4.89
471.035	4.87
471.471	4.88
471.907	4.87
472.344	4.86
472.78	4.83
473.216	4.82
473.652	4.81
474.088	4.81
474.523	4.8
474.959	4.78
475.395	4.76
475.831	4.75
476.266	4.74
476.702	4.71
477.138	4.7
477.573	4.69
478.008	4.67
478.444	4.65
478.879	4.62
479.314	4.59
479.75	4.59
480.185	4.59
480.62	4.57
481.055	4.55
481.49	4.53
481.925	4.53
482.36	4.51
482.795	4.5
483.229	4.5
483.664	4.49
484.099	4.49
484.534	4.48
484.968	4.46
485.403	4.46
485.837	4.45
486.271	4.44
486.706	4.43
487.14	4.42
487.574	4.42
488.009	4.41
488.443	4.4
488.877	4.4
489.311	4.4
489.745	4.41
490.179	4.41
490.613	4.43
491.046	4.44
491.48	4.46
491.914	4.48
492.348	4.49
492.781	4.5
493.215	4.52
493.648	4.54
494.082	4.57
494.515	4.59
494.948	4.62
495.382	4.64
495.815	4.67
496.248	4.71
496.681	4.74
497.114	4.78
497.547	4.81
497.98	4.86
498.413	4.89
498.846	4.94
499.279	4.99
499.711	5.04
500.144	5.09
500.577	5.15
501.009	5.2
501.442	5.27
501.874	5.34
502.306	5.42
502.739	5.48
503.171	5.57
503.603	5.66
504.036	5.75
504.468	5.85
504.9	5.97
505.332	6.07
505.764	6.2
506.196	6.32
506.627	6.45
507.059	6.59
507.491	6.73
507.923	6.87
508.354	7.02
508.786	7.19
509.217	7.33
509.649	7.51
510.08	7.7
510.512	7.88
510.943	8.07
511.374	8.28
511.805	8.48
512.237	8.7
512.668	8.93
513.099	9.16
513.53	9.4
513.961	9.65
514.391	9.89
514.822	10.15
515.253	10.42
515.684	10.68
516.114	10.94
516.545	11.22
516.975	11.5
517.406	11.8
517.836	12.1
518.267	12.41
518.697	12.71
519.127	13.01
519.558	13.31
519.988	13.62
520.418	13.93
520.848	14.25
521.278	14.56
521.708	14.89
522.138	15.18
522.567	15.48
522.997	15.76
523.427	16.06
523.857	16.34
524.286	16.63
524.716	16.88
525.145	17.15
525.575	17.41
526.004	17.67
526.433	17.91
526.863	18.16
527.292	18.4
527.721	18.62
528.15	18.83
528.579	19.04
529.008	19.24
529.437	19.44
529.866	19.63
530.295	19.81
530.724	19.99
531.152	20.14
531.581	20.29
532.01	20.42
532.438	20.58
532.867	20.72
533.295	20.85
533.723	20.99
534.152	21.1
534.58	21.2
535.008	21.3
535.436	21.4
535.865	21.49
536.293	21.59
536.721	21.69
537.149	21.75
537.576	21.84
538.004	21.91
538.432	21.96
538.86	22.03
539.287	22.11
539.715	22.18
540.143	22.22
540.57	22.28
540.998	22.36
541.425	22.41
541.852	22.47
542.28	22.51
542.707	22.57
543.134	22.62
543.561	22.66
543.988	22.7
544.415	22.76
544.842	22.81
545.269	22.85
545.696	22.88
546.123	22.91
546.549	22.95
546.976	23
547.403	23.03
547.829	23.06
548.256	23.1
548.682	23.13
549.108	23.14
549.535	23.15
549.961	23.16
550.387	23.15
550.813	23.15
551.24	23.15
551.666	23.14
552.092	23.13
552.518	23.12
552.943	23.12
553.369	23.1
553.795	23.08
554.221	23.05
554.646	23.03
555.072	23.01
555.498	22.98
555.923	22.95
556.349	22.88
556.774	22.81
557.199	22.75
557.625	22.67
558.05	22.57
558.475	22.46
558.9	22.36
559.325	22.25
559.75	22.13
560.175	22.01
560.6	21.87
561.025	21.75
561.449	21.61
561.874	21.47
562.299	21.32
562.723	21.18
563.148	21.03
563.572	20.9
563.997	20.73
564.421	20.58
564.846	20.41
565.27	20.23
565.694	20.06
566.118	19.88
566.542	19.71
566.966	19.54
567.39	19.34
567.814	19.15
568.238	18.94
568.662	18.75
569.086	18.57
569.509	18.38
569.933	18.19
570.357	18.01
570.78	17.84
571.204	17.66
571.627	17.48
572.05	17.32
572.474	17.17
572.897	17.02
573.32	16.85
573.743	16.7
574.166	16.55
574.589	16.4
575.012	16.27
575.435	16.13
575.858	15.99
576.281	15.86
576.704	15.74
577.126	15.61
577.549	15.49
577.972	15.38
578.394	15.25
578.817	15.14
579.239	15.04
579.661	14.93
580.084	14.82
580.506	14.72
580.928	14.63
581.35	14.53
581.772	14.44
582.194	14.36
582.616	14.28
583.038	14.19
583.46	14.12
583.882	14.04
584.303	13.96
584.725	13.88
585.147	13.79
585.568	13.7
585.99	13.63
586.411	13.57
586.833	13.49
587.254	13.43
587.675	13.38
588.096	13.33
588.518	13.29
588.939	13.24
589.36	13.19
589.781	13.15
590.202	13.13
590.623	13.08
591.043	13.02
591.464	12.97
591.885	12.91
592.305	12.88
592.726	12.82
593.147	12.76
593.567	12.72
593.987	12.69
594.408	12.66
594.828	12.61
595.248	12.57
595.669	12.54
596.089	12.51
596.509	12.47
596.929	12.42
597.349	12.37
597.769	12.33
598.189	12.27
598.608	12.22
599.028	12.16
599.448	12.11
599.867	12.07
600.287	12.01
600.706	11.96
601.126	11.92
601.545	11.88
601.965	11.83
602.384	11.79
602.803	11.74
603.222	11.67
603.641	11.62
604.061	11.56
604.48	11.51
604.898	11.45
605.317	11.39
605.736	11.32
606.155	11.24
606.574	11.17
606.992	11.09
607.411	11.02
607.829	10.92
608.248	10.85
608.666	10.76
609.085	10.67
609.503	10.6
609.921	10.51
610.339	10.44
610.758	10.36
611.176	10.29
611.594	10.22
612.012	10.14
612.43	10.11
612.847	10.04
613.265	9.98
613.683	9.9
614.101	9.84
614.518	9.77
614.936	9.7
615.353	9.64
615.771	9.57
616.188	9.52
616.606	9.46
617.023	9.39
617.44	9.33
617.857	9.28
618.274	9.24
618.691	9.19
619.108	9.14
619.525	9.1
619.942	9.04
620.359	9.01
620.776	8.97
621.192	8.93
621.609	8.9
622.026	8.87
622.442	8.84
622.859	8.81
623.275	8.8
623.691	8.78
624.108	8.76
624.524	8.75
624.94	8.73
625.356	8.72
625.772	8.71
626.188	8.71
626.604	8.7
627.02	8.68
627.436	8.67
627.852	8.66
628.268	8.64
628.683	8.63
629.099	8.61
629.514	8.59
629.93	8.57
630.345	8.54
630.761	8.51
631.176	8.49
631.591	8.46
632.007	8.42
632.422	8.39
632.837	8.36
633.252	8.32
633.667	8.27
634.082	8.22
634.497	8.16
634.911	8.11
635.326	8.05
635.741	7.98
636.155	7.92
636.57	7.85
636.984	7.76
637.399	7.67
637.813	7.58
638.228	7.5
638.642	7.42
639.056	7.33
639.47	7.25
639.884	7.15
640.298	7.06
640.712	6.97
641.126	6.87
641.54	6.77
641.954	6.71
642.368	6.63
642.781	6.54
643.195	6.45
643.609	6.38
644.022	6.3
644.436	6.23
644.849	6.16
645.262	6.11
645.676	6.05
646.089	5.99
646.502	5.9
646.915	5.84
647.328	5.79
647.741	5.74
648.154	5.7
648.567	5.66
648.98	5.62
649.393	5.58
649.805	5.54
650.218	5.51
650.631	5.48
651.043	5.48
651.456	5.46
651.868	5.43
652.28	5.42
652.693	5.38
653.105	5.35
653.517	5.31
653.929	5.29
654.341	5.27
654.753	5.24
655.165	5.21
655.577	5.15
655.989	5.1
656.401	5.05
656.813	5
657.224	4.96
657.636	4.93
658.047	4.89
658.459	4.83
658.87	4.76
659.282	4.74
659.693	4.69
660.104	4.64
660.515	4.6
660.926	4.58
661.338	4.53
661.749	4.49
662.159	4.44
662.57	4.41
662.981	4.38
663.392	4.35
663.803	4.31
664.213	4.28
664.624	4.27
665.035	4.24
665.445	4.21
665.855	4.19
666.266	4.18
666.676	4.17
667.086	4.15
667.497	4.14
667.907	4.13
668.317	4.13
668.727	4.12
669.137	4.13
669.547	4.14
669.956	4.14
670.366	4.16
670.776	4.16
671.186	4.17
671.595	4.19
672.005	4.21
672.414	4.23
672.824	4.25
673.233	4.28
673.642	4.28
674.052	4.28
674.461	4.3
674.87	4.32
675.279	4.34
675.688	4.35
676.097	4.37
676.506	4.39
676.915	4.41
677.323	4.43
677.732	4.45
678.141	4.48
678.549	4.51
678.958	4.55
679.366	4.57
679.775	4.61
680.183	4.66
680.592	4.7
681	4.73
681.408	4.78
681.816	4.81
682.224	4.87
682.632	4.95
683.04	5.01
683.448	5.08
683.856	5.18
684.264	5.27
684.671	5.37
685.079	5.47
685.487	5.63
685.894	5.79
686.302	5.97
686.709	6.16
687.116	6.35
687.524	6.58
687.931	6.83
688.338	7.1
688.745	7.4
689.152	7.74
689.559	8.1
689.966	8.45
690.373	8.87
690.78	9.3
691.187	9.76
691.593	10.24
692	10.75
692.407	11.28
692.813	11.83
693.22	12.39
693.626	12.97
694.032	13.57
694.439	14.2
694.845	14.81
695.251	15.46
695.657	16.12
696.063	16.78
696.469	17.47
696.875	18.13
697.281	18.81
697.687	19.51
698.093	20.2
698.498	20.9
698.904	21.61
699.31	22.29
699.715	22.98
700.12	23.65
700.526	24.33
700.931	25.01
701.337	25.7
701.742	26.34
702.147	27.01
702.552	27.67
702.957	28.32
703.362	28.96
703.767	29.59
704.172	30.2
704.577	30.83
704.981	31.45
705.386	32.07
705.791	32.64
706.195	33.25
706.6	33.82
707.004	34.39
707.408	34.94
707.813	35.51
708.217	36.06
708.621	36.65
709.025	37.21
709.43	37.74
709.834	38.28
710.237	38.8
710.641	39.34
711.045	39.86
711.449	40.37
711.853	40.9
712.256	41.42
712.66	41.93
713.064	42.4
713.467	42.87
713.87	43.36
714.274	43.83
714.677	44.31
715.08	44.77
715.484	45.25
715.887	45.72
716.29	46.17
716.693	46.58
717.096	47.04
717.499	47.47
717.901	47.87
718.304	48.27
718.707	48.66
719.109	49.03
719.512	49.42
719.915	49.78
720.317	50.14
720.719	50.5
721.122	50.85
721.524	51.17
721.926	51.52
722.328	51.89
722.731	52.2
723.133	52.54
723.535	52.9
723.937	53.19
724.338	53.45
724.74	53.75
725.142	54.02
725.544	54.28
725.945	54.54
726.347	54.77
726.748	54.96
727.15	55.17
727.551	55.4
727.952	55.6
728.354	55.86
728.755	56.1
729.156	56.3
729.557	56.5
729.958	56.7
730.359	56.9
730.76	57.06
731.161	57.25
731.562	57.46
731.962	57.61
732.363	57.76
732.763	57.87
733.164	57.99
733.564	58.11
733.965	58.25
734.365	58.37
734.766	58.49
735.166	58.59
735.566	58.68
735.966	58.77
736.366	58.84
736.766	58.93
737.166	59.04
737.566	59.14
737.966	59.24
738.365	59.34
738.765	59.42
739.165	59.47
739.564	59.58
739.964	59.66
740.363	59.77
740.763	59.83
741.162	59.92
741.561	60
741.96	60.08
742.36	60.13
742.759	60.14
743.158	60.19
743.557	60.28
743.955	60.34
744.354	60.42
744.753	60.45
745.152	60.51
745.55	60.52
745.949	60.54
746.348	60.56
746.746	60.58
747.144	60.67
747.543	60.72
747.941	60.78
748.339	60.84
748.737	60.9
749.136	60.94
749.534	61
749.932	61.04
750.33	61.1
750.727	61.16
751.125	61.22
751.523	61.19
751.921	61.19
752.318	61.2
752.716	61.22
753.113	61.21
753.511	61.2
753.908	61.17
754.305	61.17
754.703	61.14
755.1	61.12
755.497	61.14
755.894	61.16
756.291	61.17
756.688	61.16
757.085	61.12
757.482	61.12
757.878	61.12
758.275	61.15
758.672	61.16
759.068	61.18
759.465	61.22
759.861	61.21
760.258	61.23
760.654	61.25
761.05	61.25
761.447	61.26
761.843	61.26
762.239	61.26
762.635	61.23
763.031	61.27
763.427	61.25
763.822	61.23
764.218	61.21
764.614	61.18
765.01	61.17
765.405	61.16
765.801	61.13
766.196	61.12
766.592	61.14
766.987	61.13
767.382	61.13
767.778	61.13
768.173	61.13
768.568	61.1
768.963	61.11
769.358	61.1
769.753	61.1
770.148	61.14
770.542	61.14
770.937	61.13
771.332	61.17
771.726	61.14
772.121	61.11
772.515	61.08
772.91	61.13
773.304	61.14
773.699	61.15
774.093	61.14
774.487	61.13
774.881	61.16
775.275	61.18
775.669	61.18
776.063	61.17
776.457	61.16
776.851	61.18
777.245	61.14
777.638	61.13
778.032	61.14
778.425	61.17
778.819	61.19
779.212	61.15
779.606	61.13
779.999	61.1
780.392	61.14
780.786	61.15
781.179	61.17
781.572	61.15
781.965	61.17
782.358	61.15
782.751	61.13
783.143	61.14
783.536	61.17
783.929	61.17
