Data from C_1_DIV_PA_2n_Splice17_15.txt Node
Date: Sat Feb 29 13:06:41 EST 2020
User: sa697716
Spectrometer: FLMS03696
Trigger mode: 0
Integration Time (sec): 3.180400E-1
Scans to average: 20
Electric dark correction enabled: true
Nonlinearity correction enabled: true
Boxcar width: 5
XAxis mode: Wavelengths
Number of Pixels in Spectrum: 2048
>>>>>Begin Spectral Data<<<<<
187.83	57.33
188.298	66.85
188.766	66.91
189.233	55.79
189.701	52.72
190.169	49.78
190.636	53.02
191.104	1.67
191.571	-215.21
192.039	-74.21
192.506	538.78
192.974	5607.93
193.441	-521.82
193.908	110.9
194.375	129.34
194.842	56.83
195.31	-17.65
195.777	-14.8
196.244	-36.12
196.711	-1.69
197.177	3.64
197.644	5.67
198.111	6.18
198.578	7.38
199.045	8.39
199.511	8.57
199.978	9.42
200.445	9.73
200.911	10.29
201.378	11.04
201.844	11.57
202.31	11.69
202.777	12.17
203.243	12.86
203.709	13.29
204.176	13.17
204.642	13.37
205.108	13.3
205.574	13.97
206.04	13.72
206.506	13.51
206.972	13.67
207.438	13.59
207.903	13.7
208.369	14.17
208.835	14.13
209.301	14.07
209.766	14.34
210.232	14.54
210.697	14.32
211.163	14.38
211.628	14.56
212.094	14.72
212.559	14.68
213.024	14.39
213.49	13.75
213.955	13.9
214.42	14.05
214.885	13.88
215.35	14.04
215.815	14
216.28	14.13
216.745	14.13
217.21	13.95
217.675	13.98
218.14	13.92
218.604	13.79
219.069	13.6
219.534	13.44
219.998	13.24
220.463	13.16
220.927	13.06
221.392	12.87
221.856	12.71
222.32	12.61
222.785	12.49
223.249	12.35
223.713	12.28
224.177	12.17
224.642	12.07
225.106	12
225.57	11.86
226.034	11.76
226.497	11.69
226.961	11.6
227.425	11.43
227.889	11.32
228.353	11.24
228.816	11.15
229.28	11.05
229.744	10.99
230.207	10.91
230.671	10.8
231.134	10.74
231.597	10.64
232.061	10.55
232.524	10.5
232.987	10.42
233.45	10.35
233.914	10.27
234.377	10.22
234.84	10.13
235.303	10.06
235.766	10
236.229	9.94
236.691	9.88
237.154	9.82
237.617	9.75
238.08	9.7
238.542	9.63
239.005	9.57
239.468	9.47
239.93	9.43
240.393	9.37
240.855	9.29
241.317	9.22
241.78	9.16
242.242	9.1
242.704	9.05
243.166	8.98
243.629	8.93
244.091	8.87
244.553	8.83
245.015	8.77
245.477	8.7
245.939	8.66
246.4	8.61
246.862	8.58
247.324	8.54
247.786	8.5
248.247	8.46
248.709	8.41
249.17	8.37
249.632	8.33
250.093	8.27
250.555	8.23
251.016	8.19
251.477	8.15
251.939	8.1
252.4	8.06
252.861	8.02
253.322	7.98
253.783	7.95
254.244	7.92
254.705	7.88
255.166	7.87
255.627	7.85
256.088	7.82
256.549	7.8
257.009	7.77
257.47	7.75
257.931	7.71
258.391	7.69
258.852	7.65
259.312	7.62
259.773	7.6
260.233	7.56
260.694	7.52
261.154	7.49
261.614	7.45
262.074	7.43
262.534	7.38
262.994	7.35
263.455	7.33
263.915	7.31
264.374	7.28
264.834	7.26
265.294	7.23
265.754	7.2
266.214	7.18
266.673	7.16
267.133	7.14
267.593	7.14
268.052	7.12
268.512	7.09
268.971	7.07
269.431	7.06
269.89	7.04
270.349	7.04
270.809	7.03
271.268	7.01
271.727	6.99
272.186	6.97
272.645	6.95
273.104	6.93
273.563	6.91
274.022	6.89
274.481	6.87
274.94	6.85
275.399	6.83
275.857	6.81
276.316	6.79
276.775	6.76
277.233	6.74
277.692	6.73
278.15	6.7
278.609	6.68
279.067	6.65
279.525	6.63
279.984	6.61
280.442	6.59
280.9	6.57
281.358	6.55
281.816	6.53
282.274	6.51
282.732	6.5
283.19	6.49
283.648	6.48
284.106	6.47
284.564	6.46
285.021	6.45
285.479	6.44
285.937	6.43
286.394	6.42
286.852	6.4
287.309	6.39
287.767	6.38
288.224	6.37
288.682	6.35
289.139	6.34
289.596	6.33
290.053	6.32
290.511	6.3
290.968	6.29
291.425	6.28
291.882	6.27
292.339	6.26
292.796	6.25
293.252	6.23
293.709	6.22
294.166	6.21
294.623	6.19
295.079	6.17
295.536	6.16
295.992	6.14
296.449	6.13
296.905	6.11
297.362	6.09
297.818	6.08
298.274	6.06
298.731	6.05
299.187	6.05
299.643	6.04
300.099	6.04
300.555	6.02
301.011	6.02
301.467	6.01
301.923	6
302.379	6
302.835	6
303.291	5.98
303.746	5.97
304.202	5.95
304.658	5.93
305.113	5.92
305.569	5.91
306.024	5.9
306.479	5.89
306.935	5.88
307.39	5.88
307.845	5.87
308.301	5.86
308.756	5.85
309.211	5.85
309.666	5.84
310.121	5.84
310.576	5.84
311.031	5.82
311.486	5.82
311.94	5.82
312.395	5.81
312.85	5.81
313.305	5.81
313.759	5.8
314.214	5.8
314.668	5.79
315.123	5.79
315.577	5.78
316.032	5.78
316.486	5.78
316.94	5.78
317.394	5.76
317.849	5.76
318.303	5.74
318.757	5.73
319.211	5.71
319.665	5.71
320.119	5.69
320.572	5.69
321.026	5.68
321.48	5.67
321.934	5.66
322.387	5.66
322.841	5.65
323.295	5.65
323.748	5.65
324.202	5.65
324.655	5.64
325.108	5.63
325.562	5.62
326.015	5.61
326.468	5.59
326.921	5.58
327.374	5.57
327.827	5.55
328.28	5.54
328.733	5.52
329.186	5.52
329.639	5.51
330.092	5.51
330.545	5.5
330.997	5.5
331.45	5.5
331.903	5.5
332.355	5.5
332.808	5.49
333.26	5.5
333.713	5.51
334.165	5.51
334.617	5.51
335.069	5.51
335.522	5.52
335.974	5.52
336.426	5.51
336.878	5.51
337.33	5.51
337.782	5.52
338.234	5.51
338.686	5.5
339.137	5.49
339.589	5.49
340.041	5.48
340.493	5.47
340.944	5.46
341.396	5.46
341.847	5.45
342.299	5.43
342.75	5.41
343.201	5.4
343.653	5.4
344.104	5.39
344.555	5.38
345.006	5.37
345.457	5.36
345.908	5.35
346.359	5.35
346.81	5.36
347.261	5.36
347.712	5.36
348.163	5.36
348.613	5.35
349.064	5.33
349.515	5.33
349.965	5.32
350.416	5.33
350.866	5.33
351.317	5.32
351.767	5.31
352.217	5.29
352.668	5.29
353.118	5.29
353.568	5.3
354.018	5.3
354.468	5.3
354.918	5.31
355.368	5.31
355.818	5.3
356.268	5.31
356.718	5.31
357.168	5.32
357.617	5.33
358.067	5.32
358.517	5.32
358.966	5.34
359.416	5.35
359.865	5.36
360.315	5.36
360.764	5.38
361.213	5.36
361.663	5.37
362.112	5.39
362.561	5.4
363.01	5.42
363.459	5.42
363.908	5.41
364.357	5.42
364.806	5.44
365.255	5.46
365.703	5.47
366.152	5.5
366.601	5.52
367.05	5.53
367.498	5.56
367.947	5.57
368.395	5.6
368.844	5.62
369.292	5.64
369.74	5.66
370.189	5.67
370.637	5.7
371.085	5.72
371.533	5.75
371.981	5.77
372.429	5.78
372.877	5.81
373.325	5.83
373.773	5.85
374.221	5.88
374.669	5.91
375.116	5.94
375.564	5.95
376.012	5.97
376.459	5.99
376.907	6.02
377.354	6.04
377.801	6.06
378.249	6.1
378.696	6.14
379.143	6.16
379.591	6.18
380.038	6.22
380.485	6.27
380.932	6.3
381.379	6.33
381.826	6.37
382.273	6.41
382.72	6.45
383.166	6.47
383.613	6.51
384.06	6.54
384.506	6.57
384.953	6.59
385.4	6.61
385.846	6.64
386.292	6.66
386.739	6.68
387.185	6.71
387.631	6.74
388.078	6.78
388.524	6.79
388.97	6.81
389.416	6.83
389.862	6.86
390.308	6.89
390.754	6.91
391.2	6.94
391.645	6.97
392.091	6.99
392.537	7.01
392.983	7.03
393.428	7.06
393.874	7.11
394.319	7.13
394.765	7.16
395.21	7.18
395.655	7.22
396.101	7.25
396.546	7.27
396.991	7.29
397.436	7.31
397.881	7.35
398.326	7.39
398.771	7.4
399.216	7.44
399.661	7.48
400.106	7.52
400.551	7.54
400.995	7.54
401.44	7.56
401.885	7.59
402.329	7.61
402.774	7.61
403.218	7.61
403.663	7.62
404.107	7.63
404.551	7.63
404.995	7.64
405.44	7.63
405.884	7.66
406.328	7.67
406.772	7.68
407.216	7.71
407.66	7.74
408.104	7.76
408.547	7.78
408.991	7.78
409.435	7.8
409.879	7.81
410.322	7.83
410.766	7.84
411.209	7.87
411.653	7.87
412.096	7.87
412.54	7.88
412.983	7.89
413.426	7.89
413.869	7.91
414.312	7.93
414.756	7.95
415.199	7.97
415.642	7.99
416.085	8
416.527	8.03
416.97	8.04
417.413	8.05
417.856	8.05
418.298	8.05
418.741	8.05
419.184	8.05
419.626	8.05
420.069	8.05
420.511	8.04
420.953	8.04
421.396	8.03
421.838	8.03
422.28	8.05
422.722	8.06
423.164	8.07
423.606	8.07
424.048	8.06
424.49	8.07
424.932	8.07
425.374	8.08
425.816	8.06
426.258	8.05
426.699	8.02
427.141	7.98
427.582	7.96
428.024	7.97
428.465	7.99
428.907	8
429.348	8
429.789	8.02
430.231	8.02
430.672	8.05
431.113	8.07
431.554	8.12
431.995	8.14
432.436	8.15
432.877	8.14
433.318	8.13
433.759	8.12
434.2	8.12
434.64	8.12
435.081	8.12
435.522	8.12
435.962	8.12
436.403	8.12
436.843	8.16
437.284	8.19
437.724	8.22
438.164	8.24
438.604	8.25
439.045	8.25
439.485	8.27
439.925	8.26
440.365	8.27
440.805	8.26
441.245	8.25
441.685	8.23
442.125	8.21
442.564	8.21
443.004	8.23
443.444	8.25
443.883	8.25
444.323	8.24
444.762	8.27
445.202	8.31
445.641	8.31
446.081	8.35
446.52	8.36
446.959	8.37
447.398	8.39
447.837	8.4
448.276	8.4
448.716	8.42
449.154	8.46
449.593	8.46
450.032	8.45
450.471	8.46
450.91	8.44
451.349	8.45
451.787	8.45
452.226	8.44
452.664	8.43
453.103	8.4
453.541	8.41
453.98	8.4
454.418	8.41
454.856	8.36
455.295	8.35
455.733	8.35
456.171	8.33
456.609	8.32
457.047	8.28
457.485	8.27
457.923	8.26
458.361	8.25
458.798	8.24
459.236	8.21
459.674	8.22
460.111	8.22
460.549	8.21
460.987	8.22
461.424	8.24
461.862	8.26
462.299	8.25
462.736	8.26
463.173	8.25
463.611	8.25
464.048	8.27
464.485	8.27
464.922	8.28
465.359	8.3
465.796	8.27
466.233	8.27
466.67	8.28
467.106	8.29
467.543	8.31
467.98	8.33
468.416	8.36
468.853	8.38
469.29	8.39
469.726	8.39
470.162	8.39
470.599	8.42
471.035	8.43
471.471	8.42
471.907	8.44
472.344	8.43
472.78	8.45
473.216	8.44
473.652	8.43
474.088	8.43
474.523	8.42
474.959	8.42
475.395	8.41
475.831	8.41
476.266	8.41
476.702	8.41
477.138	8.39
477.573	8.37
478.008	8.35
478.444	8.34
478.879	8.34
479.314	8.32
479.75	8.31
480.185	8.31
480.62	8.28
481.055	8.27
481.49	8.25
481.925	8.22
482.36	8.19
482.795	8.15
483.229	8.13
483.664	8.1
484.099	8.1
484.534	8.07
484.968	8.06
485.403	8.05
485.837	8.04
486.271	8.03
486.706	8.02
487.14	8.04
487.574	8.04
488.009	8.04
488.443	8.05
488.877	8.04
489.311	8.05
489.745	8.05
490.179	8.04
490.613	8.02
491.046	8.03
491.48	8.04
491.914	8.05
492.348	8.05
492.781	8.05
493.215	8.06
493.648	8.07
494.082	8.08
494.515	8.08
494.948	8.08
495.382	8.1
495.815	8.1
496.248	8.1
496.681	8.09
497.114	8.09
497.547	8.08
497.98	8.08
498.413	8.08
498.846	8.09
499.279	8.1
499.711	8.11
500.144	8.12
500.577	8.13
501.009	8.14
501.442	8.17
501.874	8.19
502.306	8.21
502.739	8.22
503.171	8.25
503.603	8.26
504.036	8.28
504.468	8.31
504.9	8.32
505.332	8.35
505.764	8.39
506.196	8.41
506.627	8.43
507.059	8.46
507.491	8.49
507.923	8.52
508.354	8.54
508.786	8.56
509.217	8.57
509.649	8.61
510.08	8.64
510.512	8.66
510.943	8.7
511.374	8.74
511.805	8.77
512.237	8.8
512.668	8.81
513.099	8.84
513.53	8.89
513.961	8.94
514.391	8.97
514.822	9.01
515.253	9.05
515.684	9.09
516.114	9.13
516.545	9.18
516.975	9.24
517.406	9.31
517.836	9.39
518.267	9.47
518.697	9.53
519.127	9.61
519.558	9.68
519.988	9.76
520.418	9.84
520.848	9.92
521.278	10.01
521.708	9.89
522.138	9.97
522.567	10.02
522.997	10.09
523.427	10.15
523.857	10.21
524.286	10.28
524.716	10.35
525.145	10.42
525.575	10.49
526.004	10.56
526.433	10.8
526.863	10.88
527.292	10.95
527.721	11.02
528.15	11.08
528.579	11.14
529.008	11.2
529.437	11.26
529.866	11.29
530.295	11.33
530.724	11.38
531.152	11.44
531.581	11.46
532.01	11.49
532.438	11.53
532.867	11.56
533.295	11.59
533.723	11.62
534.152	11.66
534.58	11.68
535.008	11.69
535.436	11.69
535.865	11.69
536.293	11.73
536.721	11.75
537.149	11.76
537.576	11.78
538.004	11.78
538.432	11.77
538.86	11.77
539.287	11.8
539.715	11.82
540.143	11.84
540.57	11.86
540.998	11.88
541.425	11.88
541.852	11.89
542.28	11.89
542.707	11.92
543.134	11.95
543.561	11.95
543.988	11.95
544.415	11.97
544.842	11.98
545.269	12
545.696	11.99
546.123	12
546.549	12
546.976	12.01
547.403	12.02
547.829	12.02
548.256	12.04
548.682	12.05
549.108	12.04
549.535	12.04
549.961	12.03
550.387	12.03
550.813	12.02
551.24	12.02
551.666	12.01
552.092	12
552.518	11.99
552.943	11.98
553.369	11.97
553.795	11.96
554.221	11.93
554.646	11.91
555.072	11.9
555.498	11.88
555.923	11.85
556.349	11.81
556.774	11.78
557.199	11.75
557.625	11.72
558.05	11.67
558.475	11.63
558.9	11.59
559.325	11.56
559.75	11.51
560.175	11.46
560.6	11.42
561.025	11.38
561.449	11.32
561.874	11.26
562.299	11.19
562.723	11.13
563.148	11.08
563.572	11.03
563.997	10.95
564.421	10.88
564.846	10.83
565.27	10.75
565.694	10.69
566.118	10.63
566.542	10.56
566.966	10.51
567.39	10.45
567.814	10.38
568.238	10.3
568.662	10.25
569.086	10.21
569.509	10.15
569.933	10.1
570.357	10.06
570.78	10
571.204	9.97
571.627	9.9
572.05	9.85
572.474	9.81
572.897	9.77
573.32	9.71
573.743	9.65
574.166	9.6
574.589	9.56
575.012	9.52
575.435	9.47
575.858	9.44
576.281	9.42
576.704	9.39
577.126	9.36
577.549	9.35
577.972	9.34
578.394	9.32
578.817	9.29
579.239	9.26
579.661	9.23
580.084	9.21
580.506	9.2
580.928	9.17
581.35	9.15
581.772	9.13
582.194	9.1
582.616	9.08
583.038	9.05
583.46	9.04
583.882	9.02
584.303	9
584.725	8.98
585.147	8.93
585.568	8.89
585.99	8.87
586.411	8.84
586.833	8.81
587.254	8.81
587.675	8.8
588.096	8.77
588.518	8.77
588.939	8.75
589.36	8.73
589.781	8.75
590.202	8.75
590.623	8.73
591.043	8.71
591.464	8.7
591.885	8.68
592.305	8.67
592.726	8.66
593.147	8.66
593.567	8.65
593.987	8.65
594.408	8.63
594.828	8.63
595.248	8.63
595.669	8.64
596.089	8.62
596.509	8.61
596.929	8.59
597.349	8.58
597.769	8.56
598.189	8.55
598.608	8.53
599.028	8.5
599.448	8.49
599.867	8.46
600.287	8.43
600.706	8.42
601.126	8.41
601.545	8.39
601.965	8.37
602.384	8.37
602.803	8.35
603.222	8.33
603.641	8.31
604.061	8.29
604.48	8.29
604.898	8.28
605.317	8.27
605.736	8.25
606.155	8.24
606.574	8.22
606.992	8.2
607.411	8.19
607.829	8.14
608.248	8.14
608.666	8.12
609.085	8.11
609.503	8.08
609.921	8.06
610.339	8.05
610.758	8.04
611.176	8.01
611.594	7.99
612.012	7.97
612.43	7.99
612.847	7.97
613.265	7.96
613.683	7.94
614.101	7.94
614.518	7.92
614.936	7.91
615.353	7.89
615.771	7.87
616.188	7.86
616.606	7.84
617.023	7.83
617.44	7.82
617.857	7.8
618.274	7.8
618.691	7.79
619.108	7.77
619.525	7.76
619.942	7.76
620.359	7.76
620.776	7.74
621.192	7.73
621.609	7.73
622.026	7.71
622.442	7.71
622.859	7.69
623.275	7.69
623.691	7.68
624.108	7.67
624.524	7.65
624.94	7.64
625.356	7.63
625.772	7.64
626.188	7.66
626.604	7.66
627.02	7.65
627.436	7.64
627.852	7.63
628.268	7.63
628.683	7.64
629.099	7.63
629.514	7.62
629.93	7.61
630.345	7.61
630.761	7.59
631.176	7.58
631.591	7.58
632.007	7.56
632.422	7.55
632.837	7.54
633.252	7.53
633.667	7.51
634.082	7.5
634.497	7.5
634.911	7.47
635.326	7.45
635.741	7.45
636.155	7.45
636.57	7.45
636.984	7.44
637.399	7.42
637.813	7.39
638.228	7.38
638.642	7.37
639.056	7.35
639.47	7.34
639.884	7.33
640.298	7.31
640.712	7.28
641.126	7.27
641.54	7.26
641.954	7.27
642.368	7.26
642.781	7.26
643.195	7.25
643.609	7.24
644.022	7.23
644.436	7.21
644.849	7.2
645.262	7.2
645.676	7.18
646.089	7.15
646.502	7.14
646.915	7.14
647.328	7.13
647.741	7.12
648.154	7.13
648.567	7.13
648.98	7.14
649.393	7.13
649.805	7.12
650.218	7.12
650.631	7.12
651.043	7.12
651.456	7.11
651.868	7.11
652.28	7.1
652.693	7.09
653.105	7.08
653.517	7.06
653.929	7.07
654.341	7.06
654.753	7.06
655.165	7.06
655.577	7.04
655.989	7.03
656.401	7.03
656.813	7.03
657.224	7.02
657.636	7.01
658.047	7.01
658.459	7
658.87	6.99
659.282	6.99
659.693	6.97
660.104	6.98
660.515	6.97
660.926	6.98
661.338	6.97
661.749	6.96
662.159	6.95
662.57	6.96
662.981	6.96
663.392	6.95
663.803	6.94
664.213	6.95
664.624	6.96
665.035	6.96
665.445	6.95
665.855	6.96
666.266	6.96
666.676	6.96
667.086	6.95
667.497	6.94
667.907	6.94
668.317	6.94
668.727	6.94
669.137	6.94
669.547	6.95
669.956	6.95
670.366	6.96
670.776	6.97
671.186	6.99
671.595	7.01
672.005	7.03
672.414	7.04
672.824	7.06
673.233	7.08
673.642	7.09
674.052	7.09
674.461	7.11
674.87	7.12
675.279	7.15
675.688	7.15
676.097	7.17
676.506	7.19
676.915	7.21
677.323	7.24
677.732	7.28
678.141	7.31
678.549	7.35
678.958	7.37
679.366	7.38
679.775	7.4
680.183	7.42
680.592	7.43
681	7.44
681.408	7.45
681.816	7.45
682.224	7.44
682.632	7.44
683.04	7.43
683.448	7.43
683.856	7.44
684.264	7.44
684.671	7.45
685.079	7.46
685.487	7.48
685.894	7.5
686.302	7.52
686.709	7.55
687.116	7.57
687.524	7.6
687.931	7.63
688.338	7.67
688.745	7.71
689.152	7.75
689.559	7.78
689.966	7.83
690.373	7.89
690.78	7.94
691.187	7.99
691.593	8.04
692	8.12
692.407	8.22
692.813	8.3
693.22	8.39
693.626	8.5
694.032	8.63
694.439	8.76
694.845	8.89
695.251	9.04
695.657	9.22
696.063	9.41
696.469	9.59
696.875	9.77
697.281	9.97
697.687	10.19
698.093	10.43
698.498	10.67
698.904	10.92
699.31	11.18
699.715	11.45
700.12	11.72
700.526	12.02
700.931	12.32
701.337	12.64
701.742	12.97
702.147	13.29
702.552	13.62
702.957	13.96
703.362	14.32
703.767	14.67
704.172	15.04
704.577	15.41
704.981	15.8
705.386	16.16
705.791	16.55
706.195	16.95
706.6	17.38
707.004	17.79
707.408	18.2
707.813	18.61
708.217	19.04
708.621	19.49
709.025	19.93
709.43	20.37
709.834	20.83
710.237	21.27
710.641	21.77
711.045	22.2
711.449	22.67
711.853	23.15
712.256	23.64
712.66	24.13
713.064	24.62
713.467	25.11
713.87	25.61
714.274	26.12
714.677	26.62
715.08	27.11
715.484	27.64
715.887	28.14
716.29	28.63
716.693	29.14
717.096	29.65
717.499	30.18
717.901	30.67
718.304	31.2
718.707	31.71
719.109	32.25
719.512	32.76
719.915	33.27
720.317	33.8
720.719	34.31
721.122	34.81
721.524	35.35
721.926	35.81
722.328	36.34
722.731	36.82
723.133	37.31
723.535	37.8
723.937	38.27
724.338	38.73
724.74	39.16
725.142	39.53
725.544	39.98
725.945	40.4
726.347	40.86
726.748	41.28
727.15	41.68
727.551	42.07
727.952	42.46
728.354	42.87
728.755	43.3
729.156	43.71
729.557	44.21
729.958	44.59
730.359	44.92
730.76	45.27
731.161	45.62
731.562	45.99
731.962	46.36
732.363	46.72
732.763	47.03
733.164	47.31
733.564	47.6
733.965	47.85
734.365	48.12
734.766	48.4
735.166	48.64
735.566	48.88
735.966	49.06
736.366	49.26
736.766	49.46
737.166	49.7
737.566	49.93
737.966	50.17
738.365	50.39
738.765	50.64
739.165	50.83
739.564	51.04
739.964	51.24
740.363	51.46
740.763	51.65
741.162	51.78
741.561	51.94
741.96	52.12
742.36	52.25
742.759	52.4
743.158	52.49
743.557	52.62
743.955	52.74
744.354	52.88
744.753	53.05
745.152	53.16
745.55	53.33
745.949	53.43
746.348	53.51
746.746	53.57
747.144	53.67
747.543	53.76
747.941	53.89
748.339	54.02
748.737	54.11
749.136	54.14
749.534	54.23
749.932	54.28
750.33	54.33
750.727	54.41
751.125	54.51
751.523	54.57
751.921	54.63
752.318	54.65
752.716	54.66
753.113	54.68
753.511	54.74
753.908	54.75
754.305	54.77
754.703	54.79
755.1	54.79
755.497	54.78
755.894	54.71
756.291	54.64
756.688	54.59
757.085	54.54
757.482	54.48
757.878	54.44
758.275	54.39
758.672	54.36
759.068	54.32
759.465	54.27
759.861	54.24
760.258	54.26
760.654	54.3
761.05	54.34
761.447	54.35
761.843	54.38
762.239	54.4
762.635	54.41
763.031	54.48
763.427	54.53
763.822	54.57
764.218	54.61
764.614	54.69
765.01	54.72
765.405	54.76
765.801	54.8
766.196	54.88
766.592	54.91
766.987	54.96
767.382	54.94
767.778	54.96
768.173	55
768.568	54.99
768.963	55
769.358	55.01
769.753	55.04
770.148	55.05
770.542	55.03
770.937	55.03
771.332	55.03
771.726	55.04
772.121	55.03
772.515	55.04
772.91	55.07
773.304	55.04
773.699	55.05
774.093	55.02
774.487	55.01
774.881	55.02
775.275	55.02
775.669	55.03
776.063	55
776.457	54.99
776.851	54.96
777.245	54.97
777.638	54.98
778.032	54.97
778.425	54.97
778.819	54.99
779.212	54.94
779.606	54.9
779.999	54.9
780.392	54.92
780.786	54.92
781.179	54.93
781.572	54.86
781.965	54.86
782.358	54.82
782.751	54.83
783.143	54.82
783.536	54.86
783.929	54.9
784.322	54.88
784.714	54.87
785.107	54.88
785.499	54.87
785.891	54.93
786.284	54.91
786.676	54.96
787.068	54.94
787.46	54.94
787.852	54.94
