Data from c_1_dec_nc_4n_039_Splice17_19.txt Node
Date: Sat Feb 29 13:27:46 EST 2020
User: sa697716
Spectrometer: FLMS03696
Trigger mode: 0
Integration Time (sec): 3.180400E-1
Scans to average: 20
Electric dark correction enabled: true
Nonlinearity correction enabled: true
Boxcar width: 5
XAxis mode: Wavelengths
Number of Pixels in Spectrum: 2048
>>>>>Begin Spectral Data<<<<<
187.83	98.21
188.298	101.82
188.766	104.37
189.233	109.18
189.701	111.48
190.169	106
190.636	115.93
191.104	124.61
191.571	332.33
192.039	275.73
192.506	-138.9
192.974	3077.49
193.441	29.32
193.908	122.86
194.375	243.61
194.842	213.05
195.31	82.23
195.777	38.18
196.244	91.53
196.711	102.61
197.177	105.13
197.644	104.84
198.111	104.36
198.578	105.54
199.045	106.05
199.511	106.61
199.978	107.22
200.445	107.36
200.911	107.82
201.378	107.74
201.844	108.41
202.31	108.4
202.777	108.17
203.243	108.61
203.709	108.26
204.176	107.81
204.642	106.68
205.108	105.94
205.574	105.9
206.04	105.36
206.506	104.25
206.972	102.93
207.438	101.83
207.903	100.87
208.369	98.55
208.835	97.47
209.301	95.88
209.766	93.99
210.232	92.12
210.697	89.91
211.163	87.79
211.628	86.26
212.094	84.79
212.559	83.28
213.024	81.42
213.49	79.43
213.955	77.22
214.42	74.77
214.885	72.43
215.35	69.48
215.815	65.69
216.28	61.66
216.745	56.72
217.21	51.71
217.675	47.27
218.14	43.19
218.604	39.76
219.069	36.75
219.534	34.15
219.998	32.02
220.463	30.23
220.927	28.78
221.392	27.45
221.856	26.39
222.32	25.46
222.785	24.57
223.249	23.83
223.713	23.25
224.177	22.62
224.642	22.09
225.106	21.56
225.57	21.08
226.034	20.61
226.497	20.18
226.961	19.75
227.425	19.33
227.889	18.98
228.353	18.62
228.816	18.23
229.28	17.86
229.744	17.58
230.207	17.29
230.671	16.99
231.134	16.72
231.597	16.47
232.061	16.26
232.524	16.05
232.987	15.84
233.45	15.63
233.914	15.44
234.377	15.27
234.84	15.08
235.303	14.91
235.766	14.74
236.229	14.57
236.691	14.42
237.154	14.26
237.617	14.12
238.08	13.96
238.542	13.83
239.005	13.69
239.468	13.55
239.93	13.41
240.393	13.29
240.855	13.15
241.317	13.04
241.78	12.92
242.242	12.8
242.704	12.68
243.166	12.57
243.629	12.45
244.091	12.34
244.553	12.25
245.015	12.15
245.477	12.04
245.939	11.95
246.4	11.84
246.862	11.74
247.324	11.66
247.786	11.57
248.247	11.48
248.709	11.38
249.17	11.31
249.632	11.22
250.093	11.13
250.555	11.06
251.016	10.98
251.477	10.9
251.939	10.83
252.4	10.74
252.861	10.67
253.322	10.61
253.783	10.55
254.244	10.48
254.705	10.41
255.166	10.35
255.627	10.28
256.088	10.2
256.549	10.15
257.009	10.08
257.47	10.02
257.931	9.95
258.391	9.86
258.852	9.79
259.312	9.72
259.773	9.65
260.233	9.58
260.694	9.52
261.154	9.45
261.614	9.39
262.074	9.33
262.534	9.26
262.994	9.2
263.455	9.16
263.915	9.1
264.374	9.06
264.834	9.02
265.294	8.96
265.754	8.91
266.214	8.87
266.673	8.84
267.133	8.8
267.593	8.77
268.052	8.73
268.512	8.69
268.971	8.66
269.431	8.63
269.89	8.59
270.349	8.57
270.809	8.54
271.268	8.52
271.727	8.49
272.186	8.46
272.645	8.44
273.104	8.42
273.563	8.4
274.022	8.37
274.481	8.35
274.94	8.32
275.399	8.29
275.857	8.28
276.316	8.25
276.775	8.21
277.233	8.19
277.692	8.16
278.15	8.13
278.609	8.1
279.067	8.07
279.525	8.05
279.984	8.04
280.442	8.03
280.9	8.01
281.358	8
281.816	7.99
282.274	7.97
282.732	7.96
283.19	7.95
283.648	7.94
284.106	7.93
284.564	7.92
285.021	7.9
285.479	7.87
285.937	7.84
286.394	7.82
286.852	7.8
287.309	7.78
287.767	7.75
288.224	7.72
288.682	7.7
289.139	7.67
289.596	7.63
290.053	7.61
290.511	7.57
290.968	7.54
291.425	7.51
291.882	7.47
292.339	7.44
292.796	7.41
293.252	7.38
293.709	7.34
294.166	7.32
294.623	7.29
295.079	7.26
295.536	7.25
295.992	7.22
296.449	7.2
296.905	7.18
297.362	7.16
297.818	7.14
298.274	7.12
298.731	7.1
299.187	7.09
299.643	7.07
300.099	7.06
300.555	7.03
301.011	7.01
301.467	7
301.923	6.99
302.379	6.97
302.835	6.96
303.291	6.95
303.746	6.94
304.202	6.92
304.658	6.91
305.113	6.89
305.569	6.89
306.024	6.88
306.479	6.88
306.935	6.87
307.39	6.88
307.845	6.87
308.301	6.87
308.756	6.87
309.211	6.87
309.666	6.87
310.121	6.87
310.576	6.87
311.031	6.86
311.486	6.85
311.94	6.84
312.395	6.84
312.85	6.83
313.305	6.83
313.759	6.83
314.214	6.82
314.668	6.82
315.123	6.81
315.577	6.81
316.032	6.81
316.486	6.79
316.94	6.78
317.394	6.76
317.849	6.74
318.303	6.72
318.757	6.71
319.211	6.68
319.665	6.66
320.119	6.63
320.572	6.62
321.026	6.6
321.48	6.59
321.934	6.58
322.387	6.57
322.841	6.55
323.295	6.54
323.748	6.52
324.202	6.51
324.655	6.5
325.108	6.49
325.562	6.48
326.015	6.47
326.468	6.45
326.921	6.43
327.374	6.42
327.827	6.42
328.28	6.41
328.733	6.4
329.186	6.4
329.639	6.38
330.092	6.38
330.545	6.37
330.997	6.38
331.45	6.39
331.903	6.39
332.355	6.39
332.808	6.4
333.26	6.41
333.713	6.42
334.165	6.43
334.617	6.43
335.069	6.43
335.522	6.43
335.974	6.43
336.426	6.43
336.878	6.43
337.33	6.43
337.782	6.43
338.234	6.44
338.686	6.42
339.137	6.42
339.589	6.4
340.041	6.39
340.493	6.37
340.944	6.36
341.396	6.34
341.847	6.31
342.299	6.27
342.75	6.25
343.201	6.22
343.653	6.19
344.104	6.17
344.555	6.15
345.006	6.14
345.457	6.12
345.908	6.11
346.359	6.1
346.81	6.1
347.261	6.09
347.712	6.09
348.163	6.07
348.613	6.08
349.064	6.06
349.515	6.05
349.965	6.05
350.416	6.05
350.866	6.05
351.317	6.04
351.767	6.03
352.217	6.02
352.668	6.02
353.118	6.02
353.568	6.02
354.018	6.03
354.468	6.02
354.918	6.03
355.368	6.03
355.818	6.02
356.268	6.03
356.718	6.03
357.168	6.01
357.617	6
358.067	6
358.517	5.99
358.966	6.01
359.416	6.01
359.865	6.01
360.315	6.01
360.764	6.01
361.213	6
361.663	6
362.112	6.01
362.561	6.01
363.01	6.02
363.459	6.01
363.908	6.01
364.357	6
364.806	5.99
365.255	5.98
365.703	5.98
366.152	5.97
366.601	5.98
367.05	5.99
367.498	5.98
367.947	5.97
368.395	5.98
368.844	5.98
369.292	5.98
369.74	5.98
370.189	5.98
370.637	5.98
371.085	5.99
371.533	5.98
371.981	5.98
372.429	5.97
372.877	5.96
373.325	5.95
373.773	5.94
374.221	5.93
374.669	5.93
375.116	5.92
375.564	5.92
376.012	5.92
376.459	5.92
376.907	5.94
377.354	5.94
377.801	5.96
378.249	5.97
378.696	5.99
379.143	6.01
379.591	6.01
380.038	6.02
380.485	6.04
380.932	6.04
381.379	6.05
381.826	6.05
382.273	6.05
382.72	6.06
383.166	6.06
383.613	6.05
384.06	6.05
384.506	6.07
384.953	6.08
385.4	6.08
385.846	6.1
386.292	6.11
386.739	6.13
387.185	6.15
387.631	6.17
388.078	6.19
388.524	6.2
388.97	6.21
389.416	6.22
389.862	6.25
390.308	6.27
390.754	6.29
391.2	6.32
391.645	6.34
392.091	6.36
392.537	6.39
392.983	6.43
393.428	6.46
393.874	6.5
394.319	6.53
394.765	6.54
395.21	6.57
395.655	6.6
396.101	6.63
396.546	6.67
396.991	6.7
397.436	6.71
397.881	6.75
398.326	6.8
398.771	6.84
399.216	6.88
399.661	6.92
400.106	6.95
400.551	6.97
400.995	6.97
401.44	6.98
401.885	7.01
402.329	7.04
402.774	7.04
403.218	7.05
403.663	7.07
404.107	7.09
404.551	7.11
404.995	7.12
405.44	7.14
405.884	7.17
406.328	7.2
406.772	7.21
407.216	7.22
407.66	7.25
408.104	7.25
408.547	7.27
408.991	7.26
409.435	7.28
409.879	7.3
410.322	7.33
410.766	7.35
411.209	7.36
411.653	7.38
412.096	7.4
412.54	7.41
412.983	7.45
413.426	7.48
413.869	7.5
414.312	7.55
414.756	7.58
415.199	7.58
415.642	7.62
416.085	7.64
416.527	7.66
416.97	7.67
417.413	7.66
417.856	7.65
418.298	7.64
418.741	7.65
419.184	7.64
419.626	7.63
420.069	7.63
420.511	7.61
420.953	7.61
421.396	7.62
421.838	7.63
422.28	7.67
422.722	7.68
423.164	7.69
423.606	7.71
424.048	7.71
424.49	7.71
424.932	7.72
425.374	7.72
425.816	7.71
426.258	7.68
426.699	7.65
427.141	7.63
427.582	7.62
428.024	7.62
428.465	7.6
428.907	7.61
429.348	7.6
429.789	7.61
430.231	7.6
430.672	7.62
431.113	7.66
431.554	7.69
431.995	7.71
432.436	7.73
432.877	7.72
433.318	7.74
433.759	7.77
434.2	7.79
434.64	7.79
435.081	7.81
435.522	7.83
435.962	7.88
436.403	7.88
436.843	7.9
437.284	7.9
437.724	7.95
438.164	7.96
438.604	7.98
439.045	8
439.485	8.05
439.925	8.06
440.365	8.08
440.805	8.08
441.245	8.09
441.685	8.11
442.125	8.14
442.564	8.18
443.004	8.22
443.444	8.23
443.883	8.26
444.323	8.29
444.762	8.35
445.202	8.4
445.641	8.44
446.081	8.51
446.52	8.52
446.959	8.56
447.398	8.59
447.837	8.66
448.276	8.68
448.716	8.72
449.154	8.75
449.593	8.76
450.032	8.78
450.471	8.78
450.91	8.77
451.349	8.81
451.787	8.83
452.226	8.81
452.664	8.79
453.103	8.8
453.541	8.79
453.98	8.79
454.418	8.78
454.856	8.75
455.295	8.73
455.733	8.72
456.171	8.7
456.609	8.69
457.047	8.68
457.485	8.67
457.923	8.65
458.361	8.64
458.798	8.63
459.236	8.62
459.674	8.63
460.111	8.64
460.549	8.63
460.987	8.64
461.424	8.62
461.862	8.62
462.299	8.63
462.736	8.64
463.173	8.62
463.611	8.63
464.048	8.65
464.485	8.64
464.922	8.65
465.359	8.67
465.796	8.68
466.233	8.72
466.67	8.74
467.106	8.74
467.543	8.75
467.98	8.78
468.416	8.77
468.853	8.76
469.29	8.77
469.726	8.77
470.162	8.76
470.599	8.75
471.035	8.75
471.471	8.74
471.907	8.75
472.344	8.76
472.78	8.76
473.216	8.74
473.652	8.75
474.088	8.76
474.523	8.77
474.959	8.77
475.395	8.77
475.831	8.76
476.266	8.75
476.702	8.74
477.138	8.7
477.573	8.68
478.008	8.69
478.444	8.69
478.879	8.67
479.314	8.65
479.75	8.65
480.185	8.63
480.62	8.62
481.055	8.61
481.49	8.6
481.925	8.6
482.36	8.6
482.795	8.59
483.229	8.58
483.664	8.59
484.099	8.58
484.534	8.58
484.968	8.59
485.403	8.6
485.837	8.61
486.271	8.62
486.706	8.63
487.14	8.67
487.574	8.69
488.009	8.73
488.443	8.75
488.877	8.79
489.311	8.84
489.745	8.88
490.179	8.93
490.613	8.98
491.046	9.05
491.48	9.12
491.914	9.17
492.348	9.25
492.781	9.31
493.215	9.38
493.648	9.46
494.082	9.55
494.515	9.64
494.948	9.73
495.382	9.83
495.815	9.92
496.248	10.02
496.681	10.13
497.114	10.24
497.547	10.37
497.98	10.5
498.413	10.62
498.846	10.75
499.279	10.89
499.711	11.02
500.144	11.17
500.577	11.34
501.009	11.51
501.442	11.69
501.874	11.87
502.306	12.06
502.739	12.26
503.171	12.48
503.603	12.7
504.036	12.93
504.468	13.17
504.9	13.43
505.332	13.68
505.764	13.95
506.196	14.23
506.627	14.51
507.059	14.79
507.491	15.08
507.923	15.38
508.354	15.69
508.786	16
509.217	16.31
509.649	16.64
510.08	16.98
510.512	17.31
510.943	17.65
511.374	17.99
511.805	18.36
512.237	18.71
512.668	19.08
513.099	19.46
513.53	19.85
513.961	20.25
514.391	20.62
514.822	20.99
515.253	21.38
515.684	21.76
516.114	22.17
516.545	22.57
516.975	22.96
517.406	23.36
517.836	23.73
518.267	24.11
518.697	24.52
519.127	24.9
519.558	25.29
519.988	25.66
520.418	26.01
520.848	26.35
521.278	26.71
521.708	27.14
522.138	27.48
522.567	27.81
522.997	28.11
523.427	28.42
523.857	28.72
524.286	29.02
524.716	29.33
525.145	29.64
525.575	29.93
526.004	30.18
526.433	30.36
526.863	30.61
527.292	30.85
527.721	31.09
528.15	31.29
528.579	31.51
529.008	31.72
529.437	31.89
529.866	32.05
530.295	32.22
530.724	32.41
531.152	32.6
531.581	32.74
532.01	32.91
532.438	33.07
532.867	33.22
533.295	33.35
533.723	33.51
534.152	33.62
534.58	33.75
535.008	33.85
535.436	33.93
535.865	33.99
536.293	34.1
536.721	34.19
537.149	34.25
537.576	34.34
538.004	34.42
538.432	34.45
538.86	34.51
539.287	34.58
539.715	34.63
540.143	34.68
540.57	34.75
540.998	34.81
541.425	34.84
541.852	34.9
542.28	34.93
542.707	34.97
543.134	35.01
543.561	35.03
543.988	35.09
544.415	35.14
544.842	35.2
545.269	35.21
545.696	35.24
546.123	35.27
546.549	35.3
546.976	35.34
547.403	35.35
547.829	35.38
548.256	35.42
548.682	35.43
549.108	35.45
549.535	35.45
549.961	35.45
550.387	35.45
550.813	35.43
551.24	35.44
551.666	35.44
552.092	35.43
552.518	35.42
552.943	35.41
553.369	35.41
553.795	35.39
554.221	35.39
554.646	35.37
555.072	35.34
555.498	35.32
555.923	35.27
556.349	35.19
556.774	35.15
557.199	35.1
557.625	35.02
558.05	34.91
558.475	34.83
558.9	34.74
559.325	34.65
559.75	34.53
560.175	34.44
560.6	34.35
561.025	34.27
561.449	34.15
561.874	34.02
562.299	33.91
562.723	33.8
563.148	33.69
563.572	33.55
563.997	33.44
564.421	33.31
564.846	33.17
565.27	33.01
565.694	32.84
566.118	32.69
566.542	32.53
566.966	32.37
567.39	32.22
567.814	32.06
568.238	31.87
568.662	31.7
569.086	31.53
569.509	31.36
569.933	31.2
570.357	31.02
570.78	30.86
571.204	30.69
571.627	30.52
572.05	30.37
572.474	30.2
572.897	30.06
573.32	29.91
573.743	29.75
574.166	29.6
574.589	29.44
575.012	29.3
575.435	29.16
575.858	29.02
576.281	28.88
576.704	28.74
577.126	28.6
577.549	28.48
577.972	28.35
578.394	28.23
578.817	28.11
579.239	28.02
579.661	27.92
580.084	27.81
580.506	27.71
580.928	27.59
581.35	27.51
581.772	27.43
582.194	27.33
582.616	27.26
583.038	27.17
583.46	27.09
583.882	26.98
584.303	26.89
584.725	26.83
585.147	26.75
585.568	26.66
585.99	26.57
586.411	26.49
586.833	26.42
587.254	26.34
587.675	26.27
588.096	26.19
588.518	26.12
588.939	26.05
589.36	25.97
589.781	25.9
590.202	25.86
590.623	25.8
591.043	25.74
591.464	25.68
591.885	25.61
592.305	25.59
592.726	25.54
593.147	25.52
593.567	25.47
593.987	25.42
594.408	25.39
594.828	25.34
595.248	25.3
595.669	25.24
596.089	25.2
596.509	25.14
596.929	25.08
597.349	25.02
597.769	24.95
598.189	24.91
598.608	24.86
599.028	24.79
599.448	24.73
599.867	24.67
600.287	24.61
600.706	24.55
601.126	24.5
601.545	24.43
601.965	24.38
602.384	24.33
602.803	24.26
603.222	24.19
603.641	24.12
604.061	24.05
604.48	23.97
604.898	23.89
605.317	23.8
605.736	23.73
606.155	23.63
606.574	23.53
606.992	23.42
607.411	23.32
607.829	23.16
608.248	23.06
608.666	22.97
609.085	22.88
609.503	22.77
609.921	22.67
610.339	22.57
610.758	22.48
611.176	22.39
611.594	22.28
612.012	22.19
612.43	22.15
612.847	22.05
613.265	21.95
613.683	21.85
614.101	21.75
614.518	21.65
614.936	21.54
615.353	21.44
615.771	21.33
616.188	21.27
616.606	21.18
617.023	21.08
617.44	21
617.857	20.93
618.274	20.85
618.691	20.8
619.108	20.75
619.525	20.7
619.942	20.66
620.359	20.62
620.776	20.56
621.192	20.51
621.609	20.47
622.026	20.44
622.442	20.4
622.859	20.36
623.275	20.34
623.691	20.33
624.108	20.31
624.524	20.27
624.94	20.26
625.356	20.24
625.772	20.23
626.188	20.25
626.604	20.22
627.02	20.21
627.436	20.2
627.852	20.16
628.268	20.14
628.683	20.11
629.099	20.11
629.514	20.08
629.93	20.04
630.345	20.01
630.761	19.96
631.176	19.93
631.591	19.89
632.007	19.85
632.422	19.81
632.837	19.75
633.252	19.67
633.667	19.58
634.082	19.5
634.497	19.4
634.911	19.27
635.326	19.15
635.741	19.02
636.155	18.88
636.57	18.73
636.984	18.56
637.399	18.39
637.813	18.23
638.228	18.07
638.642	17.91
639.056	17.74
639.47	17.57
639.884	17.39
640.298	17.19
640.712	17.01
641.126	16.83
641.54	16.65
641.954	16.46
642.368	16.28
642.781	16.08
643.195	15.88
643.609	15.7
644.022	15.52
644.436	15.35
644.849	15.19
645.262	15.04
645.676	14.87
646.089	14.72
646.502	14.59
646.915	14.46
647.328	14.35
647.741	14.24
648.154	14.15
648.567	14.05
648.98	13.98
649.393	13.89
649.805	13.8
650.218	13.73
650.631	13.67
651.043	13.59
651.456	13.54
651.868	13.47
652.28	13.4
652.693	13.31
653.105	13.24
653.517	13.16
653.929	13.09
654.341	13.02
654.753	12.93
655.165	12.85
655.577	12.75
655.989	12.64
656.401	12.52
656.813	12.41
657.224	12.29
657.636	12.17
658.047	12.02
658.459	11.87
658.87	11.72
659.282	11.59
659.693	11.45
660.104	11.31
660.515	11.16
660.926	11.03
661.338	10.88
661.749	10.74
662.159	10.59
662.57	10.45
662.981	10.33
663.392	10.2
663.803	10.05
664.213	9.93
664.624	9.81
665.035	9.7
665.445	9.6
665.855	9.5
666.266	9.41
666.676	9.33
667.086	9.26
667.497	9.2
667.907	9.13
668.317	9.08
668.727	9.03
669.137	8.98
669.547	8.94
669.956	8.9
670.366	8.88
670.776	8.85
671.186	8.83
671.595	8.82
672.005	8.8
672.414	8.8
672.824	8.81
673.233	8.81
673.642	8.82
674.052	8.83
674.461	8.86
674.87	8.87
675.279	8.89
675.688	8.92
676.097	8.95
676.506	8.99
676.915	9.02
677.323	9.08
677.732	9.14
678.141	9.22
678.549	9.32
678.958	9.41
679.366	9.48
679.775	9.59
680.183	9.73
680.592	9.86
681	10
681.408	10.17
681.816	10.35
682.224	10.55
682.632	10.77
683.04	10.99
683.448	11.26
683.856	11.58
684.264	11.93
684.671	12.29
685.079	12.68
685.487	13.11
685.894	13.57
686.302	14.04
686.709	14.56
687.116	15.1
687.524	15.69
687.931	16.3
688.338	16.92
688.745	17.55
689.152	18.24
689.559	18.95
689.966	19.67
690.373	20.41
690.78	21.18
691.187	21.95
691.593	22.71
692	23.48
692.407	24.24
692.813	25.02
693.22	25.8
693.626	26.56
694.032	27.31
694.439	28.09
694.845	28.83
695.251	29.55
695.657	30.27
696.063	31
696.469	31.67
696.875	32.34
697.281	33.02
697.687	33.7
698.093	34.35
698.498	34.98
698.904	35.59
699.31	36.19
699.715	36.78
700.12	37.34
700.526	37.89
700.931	38.43
701.337	38.99
701.742	39.46
702.147	39.95
702.552	40.44
702.957	40.91
703.362	41.36
703.767	41.79
704.172	42.22
704.577	42.65
704.981	43.08
705.386	43.52
705.791	43.9
706.195	44.29
706.6	44.66
707.004	45
707.408	45.36
707.813	45.72
708.217	46.04
708.621	46.39
709.025	46.74
709.43	47.02
709.834	47.32
710.237	47.59
710.641	47.88
711.045	48.13
711.449	48.4
711.853	48.68
712.256	48.93
712.66	49.18
713.064	49.42
713.467	49.63
713.87	49.89
714.274	50.13
714.677	50.38
715.08	50.61
715.484	50.85
715.887	51.08
716.29	51.3
716.693	51.48
717.096	51.73
717.499	51.97
717.901	52.15
718.304	52.34
718.707	52.49
719.109	52.69
719.512	52.89
719.915	53.06
720.317	53.24
720.719	53.39
721.122	53.55
721.524	53.71
721.926	53.84
722.328	54
722.731	54.13
723.133	54.27
723.535	54.41
723.937	54.52
724.338	54.62
724.74	54.74
725.142	54.84
725.544	54.96
725.945	55.05
726.347	55.14
726.748	55.17
727.15	55.27
727.551	55.38
727.952	55.43
728.354	55.53
728.755	55.65
729.156	55.72
729.557	55.79
729.958	55.87
730.359	55.92
730.76	55.97
731.161	56.09
731.562	56.15
731.962	56.19
732.363	56.23
732.763	56.3
733.164	56.32
733.564	56.39
733.965	56.43
734.365	56.47
734.766	56.54
735.166	56.56
735.566	56.57
735.966	56.58
736.366	56.58
736.766	56.61
737.166	56.63
737.566	56.67
737.966	56.67
738.365	56.7
738.765	56.72
739.165	56.7
739.564	56.76
739.964	56.78
740.363	56.82
740.763	56.85
741.162	56.89
741.561	56.93
741.96	56.98
742.36	57.01
742.759	57.01
743.158	57.02
743.557	57.05
743.955	57.07
744.354	57.11
744.753	57.14
745.152	57.16
745.55	57.16
745.949	57.13
746.348	57.11
746.746	57.12
747.144	57.17
747.543	57.21
747.941	57.25
748.339	57.28
748.737	57.32
749.136	57.3
749.534	57.33
749.932	57.35
750.33	57.37
750.727	57.38
751.125	57.39
751.523	57.37
751.921	57.37
752.318	57.38
752.716	57.34
753.113	57.31
753.511	57.3
753.908	57.29
754.305	57.28
754.703	57.26
755.1	57.23
755.497	57.21
755.894	57.21
756.291	57.21
756.688	57.21
757.085	57.22
757.482	57.25
757.878	57.29
758.275	57.3
758.672	57.31
759.068	57.34
759.465	57.37
759.861	57.39
760.258	57.39
760.654	57.37
761.05	57.35
761.447	57.34
761.843	57.27
762.239	57.26
762.635	57.24
763.031	57.22
763.427	57.18
763.822	57.17
764.218	57.16
764.614	57.15
765.01	57.15
765.405	57.15
765.801	57.12
766.196	57.13
766.592	57.13
766.987	57.14
767.382	57.13
767.778	57.17
768.173	57.16
768.568	57.12
768.963	57.1
769.358	57.08
769.753	57.11
770.148	57.11
770.542	57.1
770.937	57.08
771.332	57.08
771.726	57.07
772.121	57.06
772.515	57.07
772.91	57.11
773.304	57.12
773.699	57.11
774.093	57.06
774.487	57.07
774.881	57.1
775.275	57.12
775.669	57.11
776.063	57.08
776.457	57.04
776.851	57.02
