Data from c_1_div_wi_4n_031_Splice17_05.txt Node
Date: Sat Feb 29 13:23:24 EST 2020
User: sa697716
Spectrometer: FLMS03696
Trigger mode: 0
Integration Time (sec): 3.180400E-1
Scans to average: 20
Electric dark correction enabled: true
Nonlinearity correction enabled: true
Boxcar width: 5
XAxis mode: Wavelengths
Number of Pixels in Spectrum: 2048
>>>>>Begin Spectral Data<<<<<
187.83	76.43
188.298	58
188.766	43.62
189.233	46.06
189.701	69.94
190.169	71.12
190.636	73.37
191.104	89.88
191.571	363.98
192.039	272.16
192.506	14.29
192.974	4932.03
193.441	-163
193.908	-23.99
194.375	-46.8
194.842	103.76
195.31	55.4
195.777	48.37
196.244	65.25
196.711	59.3
197.177	58.39
197.644	57.39
198.111	58.06
198.578	57.82
199.045	59.33
199.511	59.35
199.978	59.44
200.445	59.26
200.911	59.55
201.378	59.42
201.844	60.18
202.31	60.29
202.777	60.32
203.243	60.24
203.709	60.26
204.176	59.25
204.642	58.84
205.108	58.87
205.574	59.02
206.04	58.58
206.506	57.85
206.972	57.05
207.438	56.26
207.903	55.91
208.369	54.99
208.835	54.51
209.301	54.3
209.766	53.33
210.232	52.11
210.697	51.29
211.163	50.66
211.628	49.91
212.094	49.26
212.559	48.41
213.024	47.26
213.49	46.37
213.955	45.16
214.42	43.85
214.885	42.42
215.35	41.12
215.815	39.03
216.28	36.82
216.745	34.79
217.21	32.5
217.675	30.41
218.14	28.47
218.604	26.63
219.069	25.18
219.534	23.91
219.998	22.84
220.463	21.88
220.927	21.11
221.392	20.41
221.856	19.73
222.32	19.17
222.785	18.66
223.249	18.24
223.713	17.87
224.177	17.46
224.642	17.17
225.106	16.9
225.57	16.57
226.034	16.28
226.497	16
226.961	15.75
227.425	15.49
227.889	15.24
228.353	15.02
228.816	14.8
229.28	14.6
229.744	14.4
230.207	14.19
230.671	14
231.134	13.83
231.597	13.64
232.061	13.48
232.524	13.33
232.987	13.2
233.45	13.03
233.914	12.89
234.377	12.73
234.84	12.59
235.303	12.45
235.766	12.32
236.229	12.2
236.691	12.1
237.154	11.97
237.617	11.85
238.08	11.73
238.542	11.62
239.005	11.51
239.468	11.39
239.93	11.29
240.393	11.18
240.855	11.07
241.317	10.98
241.78	10.88
242.242	10.78
242.704	10.69
243.166	10.58
243.629	10.49
244.091	10.4
244.553	10.33
245.015	10.25
245.477	10.15
245.939	10.07
246.4	9.96
246.862	9.88
247.324	9.82
247.786	9.74
248.247	9.67
248.709	9.6
249.17	9.53
249.632	9.44
250.093	9.34
250.555	9.26
251.016	9.19
251.477	9.13
251.939	9.04
252.4	8.95
252.861	8.87
253.322	8.79
253.783	8.73
254.244	8.66
254.705	8.6
255.166	8.55
255.627	8.5
256.088	8.43
256.549	8.38
257.009	8.31
257.47	8.26
257.931	8.2
258.391	8.13
258.852	8.05
259.312	8
259.773	7.94
260.233	7.88
260.694	7.81
261.154	7.75
261.614	7.69
262.074	7.65
262.534	7.59
262.994	7.54
263.455	7.49
263.915	7.44
264.374	7.39
264.834	7.34
265.294	7.3
265.754	7.26
266.214	7.22
266.673	7.18
267.133	7.14
267.593	7.1
268.052	7.07
268.512	7.04
268.971	7.02
269.431	6.99
269.89	6.96
270.349	6.93
270.809	6.91
271.268	6.89
271.727	6.85
272.186	6.82
272.645	6.78
273.104	6.75
273.563	6.72
274.022	6.69
274.481	6.66
274.94	6.62
275.399	6.59
275.857	6.56
276.316	6.53
276.775	6.5
277.233	6.47
277.692	6.46
278.15	6.42
278.609	6.39
279.067	6.36
279.525	6.33
279.984	6.31
280.442	6.29
280.9	6.27
281.358	6.24
281.816	6.21
282.274	6.19
282.732	6.18
283.19	6.17
283.648	6.16
284.106	6.14
284.564	6.13
285.021	6.12
285.479	6.11
285.937	6.1
286.394	6.09
286.852	6.08
287.309	6.06
287.767	6.04
288.224	6.02
288.682	5.99
289.139	5.97
289.596	5.93
290.053	5.9
290.511	5.86
290.968	5.83
291.425	5.8
291.882	5.77
292.339	5.74
292.796	5.71
293.252	5.68
293.709	5.66
294.166	5.63
294.623	5.61
295.079	5.59
295.536	5.57
295.992	5.55
296.449	5.54
296.905	5.52
297.362	5.49
297.818	5.48
298.274	5.47
298.731	5.45
299.187	5.44
299.643	5.42
300.099	5.41
300.555	5.39
301.011	5.37
301.467	5.36
301.923	5.34
302.379	5.34
302.835	5.33
303.291	5.31
303.746	5.29
304.202	5.28
304.658	5.27
305.113	5.26
305.569	5.25
306.024	5.25
306.479	5.24
306.935	5.23
307.39	5.23
307.845	5.22
308.301	5.22
308.756	5.22
309.211	5.22
309.666	5.21
310.121	5.21
310.576	5.2
311.031	5.19
311.486	5.18
311.94	5.17
312.395	5.17
312.85	5.16
313.305	5.15
313.759	5.15
314.214	5.13
314.668	5.13
315.123	5.13
315.577	5.12
316.032	5.11
316.486	5.1
316.94	5.1
317.394	5.08
317.849	5.06
318.303	5.05
318.757	5.03
319.211	5.01
319.665	4.99
320.119	4.97
320.572	4.97
321.026	4.95
321.48	4.94
321.934	4.93
322.387	4.91
322.841	4.9
323.295	4.88
323.748	4.88
324.202	4.87
324.655	4.86
325.108	4.84
325.562	4.83
326.015	4.82
326.468	4.8
326.921	4.78
327.374	4.77
327.827	4.77
328.28	4.77
328.733	4.75
329.186	4.75
329.639	4.74
330.092	4.74
330.545	4.73
330.997	4.74
331.45	4.73
331.903	4.74
332.355	4.74
332.808	4.74
333.26	4.73
333.713	4.74
334.165	4.73
334.617	4.74
335.069	4.73
335.522	4.73
335.974	4.73
336.426	4.73
336.878	4.73
337.33	4.71
337.782	4.7
338.234	4.7
338.686	4.69
339.137	4.69
339.589	4.67
340.041	4.67
340.493	4.66
340.944	4.64
341.396	4.64
341.847	4.62
342.299	4.6
342.75	4.59
343.201	4.57
343.653	4.55
344.104	4.53
344.555	4.52
345.006	4.5
345.457	4.49
345.908	4.48
346.359	4.46
346.81	4.46
347.261	4.44
347.712	4.43
348.163	4.42
348.613	4.41
349.064	4.4
349.515	4.39
349.965	4.37
350.416	4.37
350.866	4.36
351.317	4.35
351.767	4.35
352.217	4.35
352.668	4.35
353.118	4.36
353.568	4.37
354.018	4.38
354.468	4.39
354.918	4.41
355.368	4.41
355.818	4.4
356.268	4.41
356.718	4.39
357.168	4.38
357.617	4.38
358.067	4.37
358.517	4.36
358.966	4.36
359.416	4.35
359.865	4.33
360.315	4.33
360.764	4.34
361.213	4.33
361.663	4.34
362.112	4.34
362.561	4.34
363.01	4.34
363.459	4.34
363.908	4.34
364.357	4.34
364.806	4.34
365.255	4.34
365.703	4.33
366.152	4.34
366.601	4.34
367.05	4.34
367.498	4.34
367.947	4.34
368.395	4.34
368.844	4.34
369.292	4.34
369.74	4.34
370.189	4.33
370.637	4.34
371.085	4.34
371.533	4.34
371.981	4.34
372.429	4.34
372.877	4.34
373.325	4.35
373.773	4.35
374.221	4.35
374.669	4.36
375.116	4.36
375.564	4.36
376.012	4.36
376.459	4.37
376.907	4.38
377.354	4.39
377.801	4.4
378.249	4.41
378.696	4.41
379.143	4.43
379.591	4.43
380.038	4.45
380.485	4.46
380.932	4.47
381.379	4.47
381.826	4.48
382.273	4.48
382.72	4.5
383.166	4.51
383.613	4.51
384.06	4.51
384.506	4.53
384.953	4.54
385.4	4.55
385.846	4.57
386.292	4.59
386.739	4.6
387.185	4.63
387.631	4.65
388.078	4.68
388.524	4.69
388.97	4.72
389.416	4.73
389.862	4.75
390.308	4.77
390.754	4.8
391.2	4.82
391.645	4.86
392.091	4.87
392.537	4.89
392.983	4.91
393.428	4.93
393.874	4.96
394.319	4.99
394.765	5.01
395.21	5.03
395.655	5.06
396.101	5.09
396.546	5.11
396.991	5.14
397.436	5.16
397.881	5.19
398.326	5.26
398.771	5.3
399.216	5.34
399.661	5.37
400.106	5.43
400.551	5.44
400.995	5.46
401.44	5.49
401.885	5.51
402.329	5.55
402.774	5.58
403.218	5.59
403.663	5.62
404.107	5.65
404.551	5.69
404.995	5.71
405.44	5.75
405.884	5.79
406.328	5.83
406.772	5.87
407.216	5.89
407.66	5.93
408.104	5.97
408.547	5.99
408.991	6.01
409.435	6.03
409.879	6.06
410.322	6.11
410.766	6.14
411.209	6.16
411.653	6.18
412.096	6.21
412.54	6.23
412.983	6.25
413.426	6.3
413.869	6.33
414.312	6.37
414.756	6.4
415.199	6.42
415.642	6.46
416.085	6.5
416.527	6.53
416.97	6.56
417.413	6.58
417.856	6.59
418.298	6.59
418.741	6.61
419.184	6.62
419.626	6.63
420.069	6.64
420.511	6.65
420.953	6.64
421.396	6.66
421.838	6.69
422.28	6.73
422.722	6.76
423.164	6.78
423.606	6.8
424.048	6.81
424.49	6.83
424.932	6.84
425.374	6.85
425.816	6.84
426.258	6.84
426.699	6.81
427.141	6.79
427.582	6.79
428.024	6.8
428.465	6.82
428.907	6.82
429.348	6.82
429.789	6.83
430.231	6.85
430.672	6.88
431.113	6.91
431.554	6.95
431.995	6.99
432.436	7.01
432.877	7
433.318	7.03
433.759	7.05
434.2	7.07
434.64	7.09
435.081	7.09
435.522	7.13
435.962	7.15
436.403	7.18
436.843	7.19
437.284	7.22
437.724	7.26
438.164	7.25
438.604	7.29
439.045	7.28
439.485	7.29
439.925	7.32
440.365	7.31
440.805	7.3
441.245	7.29
441.685	7.31
442.125	7.31
442.564	7.32
443.004	7.33
443.444	7.35
443.883	7.38
444.323	7.41
444.762	7.45
445.202	7.49
445.641	7.53
446.081	7.58
446.52	7.58
446.959	7.6
447.398	7.65
447.837	7.69
448.276	7.7
448.716	7.71
449.154	7.74
449.593	7.75
450.032	7.78
450.471	7.77
450.91	7.75
451.349	7.78
451.787	7.8
452.226	7.78
452.664	7.76
453.103	7.78
453.541	7.78
453.98	7.76
454.418	7.73
454.856	7.68
455.295	7.68
455.733	7.68
456.171	7.66
456.609	7.63
457.047	7.62
457.485	7.62
457.923	7.6
458.361	7.58
458.798	7.59
459.236	7.59
459.674	7.61
460.111	7.61
460.549	7.58
460.987	7.59
461.424	7.6
461.862	7.61
462.299	7.6
462.736	7.6
463.173	7.62
463.611	7.61
464.048	7.62
464.485	7.61
464.922	7.61
465.359	7.64
465.796	7.63
466.233	7.63
466.67	7.63
467.106	7.63
467.543	7.63
467.98	7.62
468.416	7.63
468.853	7.61
469.29	7.62
469.726	7.61
470.162	7.59
470.599	7.59
471.035	7.6
471.471	7.58
471.907	7.55
472.344	7.55
472.78	7.55
473.216	7.53
473.652	7.52
474.088	7.52
474.523	7.5
474.959	7.48
475.395	7.48
475.831	7.45
476.266	7.45
476.702	7.46
477.138	7.44
477.573	7.41
478.008	7.41
478.444	7.4
478.879	7.4
479.314	7.38
479.75	7.38
480.185	7.37
480.62	7.36
481.055	7.34
481.49	7.32
481.925	7.32
482.36	7.3
482.795	7.28
483.229	7.27
483.664	7.25
484.099	7.25
484.534	7.24
484.968	7.22
485.403	7.22
485.837	7.22
486.271	7.22
486.706	7.2
487.14	7.2
487.574	7.2
488.009	7.21
488.443	7.21
488.877	7.22
489.311	7.23
489.745	7.25
490.179	7.27
490.613	7.28
491.046	7.3
491.48	7.33
491.914	7.35
492.348	7.38
492.781	7.38
493.215	7.41
493.648	7.43
494.082	7.46
494.515	7.48
494.948	7.51
495.382	7.55
495.815	7.58
496.248	7.61
496.681	7.64
497.114	7.67
497.547	7.72
497.98	7.75
498.413	7.8
498.846	7.85
499.279	7.9
499.711	7.95
500.144	8
500.577	8.06
501.009	8.12
501.442	8.19
501.874	8.27
502.306	8.35
502.739	8.43
503.171	8.52
503.603	8.61
504.036	8.69
504.468	8.8
504.9	8.9
505.332	9.02
505.764	9.13
506.196	9.26
506.627	9.37
507.059	9.5
507.491	9.64
507.923	9.77
508.354	9.92
508.786	10.07
509.217	10.2
509.649	10.37
510.08	10.53
510.512	10.7
510.943	10.88
511.374	11.07
511.805	11.24
512.237	11.43
512.668	11.62
513.099	11.84
513.53	12.04
513.961	12.28
514.391	12.48
514.822	12.69
515.253	12.91
515.684	13.13
516.114	13.37
516.545	13.6
516.975	13.85
517.406	14.1
517.836	14.32
518.267	14.58
518.697	14.82
519.127	15.08
519.558	15.35
519.988	15.62
520.418	15.87
520.848	16.13
521.278	16.4
521.708	16.65
522.138	16.88
522.567	17.13
522.997	17.36
523.427	17.59
523.857	17.8
524.286	18.02
524.716	18.23
525.145	18.44
525.575	18.65
526.004	18.86
526.433	19.06
526.863	19.27
527.292	19.48
527.721	19.66
528.15	19.82
528.579	20.03
529.008	20.19
529.437	20.35
529.866	20.5
530.295	20.64
530.724	20.77
531.152	20.91
531.581	21.03
532.01	21.15
532.438	21.27
532.867	21.4
533.295	21.48
533.723	21.58
534.152	21.67
534.58	21.74
535.008	21.82
535.436	21.9
535.865	21.96
536.293	22.04
536.721	22.09
537.149	22.15
537.576	22.2
538.004	22.26
538.432	22.3
538.86	22.36
539.287	22.41
539.715	22.44
540.143	22.46
540.57	22.5
540.998	22.53
541.425	22.57
541.852	22.61
542.28	22.65
542.707	22.68
543.134	22.71
543.561	22.72
543.988	22.76
544.415	22.81
544.842	22.84
545.269	22.89
545.696	22.9
546.123	22.92
546.549	22.93
546.976	22.96
547.403	22.98
547.829	23.02
548.256	23.02
548.682	23.03
549.108	23.04
549.535	23.06
549.961	23.05
550.387	23.05
550.813	23.02
551.24	23.02
551.666	23
552.092	22.96
552.518	22.94
552.943	22.95
553.369	22.94
553.795	22.89
554.221	22.85
554.646	22.82
555.072	22.78
555.498	22.74
555.923	22.71
556.349	22.64
556.774	22.6
557.199	22.53
557.625	22.45
558.05	22.35
558.475	22.27
558.9	22.18
559.325	22.09
559.75	21.99
560.175	21.9
560.6	21.79
561.025	21.7
561.449	21.58
561.874	21.45
562.299	21.33
562.723	21.22
563.148	21.09
563.572	20.96
563.997	20.84
564.421	20.7
564.846	20.57
565.27	20.41
565.694	20.26
566.118	20.11
566.542	19.98
566.966	19.82
567.39	19.67
567.814	19.51
568.238	19.35
568.662	19.19
569.086	19.03
569.509	18.88
569.933	18.73
570.357	18.57
570.78	18.45
571.204	18.29
571.627	18.14
572.05	18
572.474	17.87
572.897	17.74
573.32	17.6
573.743	17.45
574.166	17.31
574.589	17.18
575.012	17.05
575.435	16.92
575.858	16.81
576.281	16.72
576.704	16.62
577.126	16.5
577.549	16.4
577.972	16.3
578.394	16.21
578.817	16.12
579.239	16.03
579.661	15.95
580.084	15.87
580.506	15.77
580.928	15.68
581.35	15.6
581.772	15.54
582.194	15.45
582.616	15.39
583.038	15.31
583.46	15.25
583.882	15.2
584.303	15.13
584.725	15.06
585.147	15
585.568	14.92
585.99	14.85
586.411	14.79
586.833	14.74
587.254	14.69
587.675	14.65
588.096	14.58
588.518	14.53
588.939	14.49
589.36	14.45
589.781	14.4
590.202	14.36
590.623	14.31
591.043	14.26
591.464	14.2
591.885	14.16
592.305	14.13
592.726	14.1
593.147	14.08
593.567	14.04
593.987	14.02
594.408	14
594.828	13.97
595.248	13.94
595.669	13.92
596.089	13.9
596.509	13.85
596.929	13.82
597.349	13.79
597.769	13.74
598.189	13.71
598.608	13.67
599.028	13.63
599.448	13.6
599.867	13.57
600.287	13.54
600.706	13.49
601.126	13.44
601.545	13.38
601.965	13.34
602.384	13.3
602.803	13.24
603.222	13.19
603.641	13.14
604.061	13.08
604.48	13.03
604.898	12.97
605.317	12.91
605.736	12.86
606.155	12.81
606.574	12.75
606.992	12.69
607.411	12.64
607.829	12.53
608.248	12.47
608.666	12.41
609.085	12.34
609.503	12.27
609.921	12.2
610.339	12.14
610.758	12.08
611.176	12
611.594	11.93
612.012	11.87
612.43	11.85
612.847	11.79
613.265	11.74
613.683	11.67
614.101	11.61
614.518	11.56
614.936	11.5
615.353	11.45
615.771	11.4
616.188	11.37
616.606	11.32
617.023	11.27
617.44	11.22
617.857	11.17
618.274	11.14
618.691	11.11
619.108	11.08
619.525	11.05
619.942	11
620.359	10.97
620.776	10.93
621.192	10.89
621.609	10.86
622.026	10.84
622.442	10.82
622.859	10.79
623.275	10.78
623.691	10.77
624.108	10.74
624.524	10.74
624.94	10.72
625.356	10.7
625.772	10.7
626.188	10.68
626.604	10.66
627.02	10.66
627.436	10.65
627.852	10.63
628.268	10.62
628.683	10.61
629.099	10.59
629.514	10.58
629.93	10.57
630.345	10.54
630.761	10.53
631.176	10.53
631.591	10.48
632.007	10.45
632.422	10.43
632.837	10.4
633.252	10.35
633.667	10.3
634.082	10.27
634.497	10.21
634.911	10.16
635.326	10.1
635.741	10.03
636.155	9.97
636.57	9.91
636.984	9.82
637.399	9.73
637.813	9.65
638.228	9.58
638.642	9.5
639.056	9.43
639.47	9.35
639.884	9.26
640.298	9.18
640.712	9.08
641.126	8.98
641.54	8.92
641.954	8.86
642.368	8.8
642.781	8.71
643.195	8.64
643.609	8.56
644.022	8.5
644.436	8.43
644.849	8.37
645.262	8.35
645.676	8.31
646.089	8.25
646.502	8.18
646.915	8.13
647.328	8.09
647.741	8.05
648.154	8.02
648.567	7.97
648.98	7.94
649.393	7.91
649.805	7.85
650.218	7.81
650.631	7.79
651.043	7.77
651.456	7.74
651.868	7.72
652.28	7.72
652.693	7.68
653.105	7.65
653.517	7.63
653.929	7.62
654.341	7.61
654.753	7.58
655.165	7.55
655.577	7.51
655.989	7.47
656.401	7.41
656.813	7.36
657.224	7.34
657.636	7.31
658.047	7.27
658.459	7.22
658.87	7.17
659.282	7.14
659.693	7.1
660.104	7.06
660.515	7.03
660.926	7.01
661.338	6.98
661.749	6.92
662.159	6.87
662.57	6.84
662.981	6.82
663.392	6.78
663.803	6.75
664.213	6.72
664.624	6.7
665.035	6.68
665.445	6.66
665.855	6.63
666.266	6.63
666.676	6.62
667.086	6.61
667.497	6.58
667.907	6.57
668.317	6.55
668.727	6.55
669.137	6.55
669.547	6.56
669.956	6.56
670.366	6.58
670.776	6.57
671.186	6.58
671.595	6.6
672.005	6.62
672.414	6.65
672.824	6.68
673.233	6.7
673.642	6.71
674.052	6.71
674.461	6.74
674.87	6.78
675.279	6.8
675.688	6.82
676.097	6.84
676.506	6.86
676.915	6.89
677.323	6.92
677.732	6.97
678.141	7.03
678.549	7.08
678.958	7.11
679.366	7.14
679.775	7.2
680.183	7.25
680.592	7.31
681	7.37
681.408	7.42
681.816	7.47
682.224	7.53
682.632	7.6
683.04	7.67
683.448	7.74
683.856	7.84
684.264	7.95
684.671	8.06
685.079	8.16
685.487	8.3
685.894	8.46
686.302	8.62
686.709	8.79
687.116	8.96
687.524	9.16
687.931	9.38
688.338	9.6
688.745	9.84
689.152	10.13
689.559	10.43
689.966	10.74
690.373	11.08
690.78	11.46
691.187	11.85
691.593	12.26
692	12.68
692.407	13.13
692.813	13.59
693.22	14.07
693.626	14.54
694.032	15.06
694.439	15.56
694.845	16.09
695.251	16.61
695.657	17.13
696.063	17.68
696.469	18.26
696.875	18.83
697.281	19.39
697.687	19.96
698.093	20.53
698.498	21.09
698.904	21.7
699.31	22.27
699.715	22.86
700.12	23.44
700.526	24.02
700.931	24.56
701.337	25.13
701.742	25.69
702.147	26.26
702.552	26.85
702.957	27.41
703.362	27.95
703.767	28.48
704.172	29.04
704.577	29.58
704.981	30.14
705.386	30.67
705.791	31.24
706.195	31.77
706.6	32.28
707.004	32.78
707.408	33.29
707.813	33.8
708.217	34.31
708.621	34.79
709.025	35.29
709.43	35.74
709.834	36.29
710.237	36.74
710.641	37.25
711.045	37.72
711.449	38.19
711.853	38.66
712.256	39.13
712.66	39.58
713.064	40.02
713.467	40.47
713.87	40.93
714.274	41.35
714.677	41.78
715.08	42.2
715.484	42.64
715.887	43.05
716.29	43.47
716.693	43.85
717.096	44.27
717.499	44.65
717.901	45.03
718.304	45.41
718.707	45.75
719.109	46.14
719.512	46.52
719.915	46.85
720.317	47.21
720.719	47.55
721.122	47.94
721.524	48.29
721.926	48.65
722.328	48.98
722.731	49.32
723.133	49.65
723.535	49.93
723.937	50.23
724.338	50.52
724.74	50.8
725.142	51.01
725.544	51.25
725.945	51.47
726.347	51.72
726.748	51.95
727.15	52.18
727.551	52.39
727.952	52.6
728.354	52.82
728.755	53.04
729.156	53.26
729.557	53.54
729.958	53.73
730.359	53.91
730.76	54.07
731.161	54.21
731.562	54.37
731.962	54.52
732.363	54.67
732.763	54.81
733.164	54.93
733.564	55.03
733.965	55.13
734.365	55.23
734.766	55.36
735.166	55.47
735.566	55.58
735.966	55.64
736.366	55.74
736.766	55.82
737.166	55.9
737.566	55.96
737.966	56.07
738.365	56.14
738.765	56.23
739.165	56.28
739.564	56.36
739.964	56.44
740.363	56.55
740.763	56.61
741.162	56.69
741.561	56.77
741.96	56.88
742.36	56.93
742.759	56.99
743.158	57.02
743.557	57.11
743.955	57.17
744.354	57.25
744.753	57.31
745.152	57.36
745.55	57.39
745.949	57.42
746.348	57.46
746.746	57.49
747.144	57.55
747.543	57.61
747.941	57.65
748.339	57.72
748.737	57.74
749.136	57.75
749.534	57.79
749.932	57.82
750.33	57.84
750.727	57.83
751.125	57.84
751.523	57.86
751.921	57.88
752.318	57.87
752.716	57.83
753.113	57.82
753.511	57.83
753.908	57.82
754.305	57.82
754.703	57.8
755.1	57.81
755.497	57.84
755.894	57.86
756.291	57.85
756.688	57.85
757.085	57.86
757.482	57.87
757.878	57.91
758.275	57.89
758.672	57.92
759.068	57.95
759.465	57.97
759.861	57.97
760.258	57.93
760.654	57.97
761.05	57.97
761.447	57.97
761.843	57.97
762.239	57.93
762.635	57.92
763.031	57.92
763.427	57.89
763.822	57.86
764.218	57.83
764.614	57.81
765.01	57.78
765.405	57.76
765.801	57.75
766.196	57.73
766.592	57.73
766.987	57.72
767.382	57.7
767.778	57.7
768.173	57.7
768.568	57.69
768.963	57.69
769.358	57.72
769.753	57.73
770.148	57.72
770.542	57.71
770.937	57.67
771.332	57.67
771.726	57.64
772.121	57.59
772.515	57.6
772.91	57.59
773.304	57.57
773.699	57.53
774.093	57.51
774.487	57.54
774.881	57.55
775.275	57.57
775.669	57.57
776.063	57.58
776.457	57.6
776.851	57.55
777.245	57.59
777.638	57.58
778.032	57.58
778.425	57.58
778.819	57.53
779.212	57.53
779.606	57.54
779.999	57.5
780.392	57.55
780.786	57.55
781.179	57.6
781.572	57.56
781.965	57.59
