Data from c_1_dec_va_2n_011_Splice17_04.txt Node
Date: Sat Feb 29 13:12:34 EST 2020
User: sa697716
Spectrometer: FLMS03696
Trigger mode: 0
Integration Time (sec): 3.180400E-1
Scans to average: 20
Electric dark correction enabled: true
Nonlinearity correction enabled: true
Boxcar width: 5
XAxis mode: Wavelengths
Number of Pixels in Spectrum: 2048
>>>>>Begin Spectral Data<<<<<
187.83	81.3
188.298	85.86
188.766	69.08
189.233	63.09
189.701	70.39
190.169	66.41
190.636	66.94
191.104	67.57
191.571	228.31
192.039	160.9
192.506	-103.16
192.974	2583.82
193.441	-165.92
193.908	64.92
194.375	25.77
194.842	150.45
195.31	86.76
195.777	11.83
196.244	5.55
196.711	19.99
197.177	18.94
197.644	20.27
198.111	21.31
198.578	22.23
199.045	22.04
199.511	22.6
199.978	23.02
200.445	22.7
200.911	23.41
201.378	23.83
201.844	24.16
202.31	24.4
202.777	24.61
203.243	25.13
203.709	25.19
204.176	25.06
204.642	25.13
205.108	24.86
205.574	25.23
206.04	25.08
206.506	24.66
206.972	24.39
207.438	24.44
207.903	24.43
208.369	23.86
208.835	23.4
209.301	23.39
209.766	23.05
210.232	22.87
210.697	22.62
211.163	22.46
211.628	22.55
212.094	22.36
212.559	21.82
213.024	21.31
213.49	21.23
213.955	20.98
214.42	20.59
214.885	20.22
215.35	19.74
215.815	19.05
216.28	18.42
216.745	17.82
217.21	17.08
217.675	16.53
218.14	15.84
218.604	15.03
219.069	14.59
219.534	14.04
219.998	13.5
220.463	13.05
220.927	12.75
221.392	12.41
221.856	12.1
222.32	11.88
222.785	11.65
223.249	11.44
223.713	11.31
224.177	11.08
224.642	10.93
225.106	10.8
225.57	10.64
226.034	10.48
226.497	10.34
226.961	10.16
227.425	9.97
227.889	9.77
228.353	9.62
228.816	9.48
229.28	9.33
229.744	9.21
230.207	9.07
230.671	8.95
231.134	8.83
231.597	8.7
232.061	8.61
232.524	8.53
232.987	8.45
233.45	8.34
233.914	8.23
234.377	8.15
234.84	8.04
235.303	7.97
235.766	7.88
236.229	7.79
236.691	7.71
237.154	7.64
237.617	7.54
238.08	7.46
238.542	7.39
239.005	7.32
239.468	7.23
239.93	7.18
240.393	7.1
240.855	7.03
241.317	6.97
241.78	6.92
242.242	6.83
242.704	6.77
243.166	6.72
243.629	6.66
244.091	6.6
244.553	6.56
245.015	6.5
245.477	6.44
245.939	6.37
246.4	6.31
246.862	6.25
247.324	6.22
247.786	6.18
248.247	6.13
248.709	6.07
249.17	6.02
249.632	5.96
250.093	5.89
250.555	5.84
251.016	5.81
251.477	5.76
251.939	5.71
252.4	5.67
252.861	5.62
253.322	5.57
253.783	5.56
254.244	5.52
254.705	5.49
255.166	5.47
255.627	5.45
256.088	5.41
256.549	5.39
257.009	5.36
257.47	5.34
257.931	5.31
258.391	5.28
258.852	5.23
259.312	5.2
259.773	5.18
260.233	5.15
260.694	5.12
261.154	5.09
261.614	5.05
262.074	5.03
262.534	4.98
262.994	4.96
263.455	4.94
263.915	4.91
264.374	4.88
264.834	4.85
265.294	4.83
265.754	4.8
266.214	4.77
266.673	4.76
267.133	4.73
267.593	4.72
268.052	4.7
268.512	4.67
268.971	4.65
269.431	4.64
269.89	4.63
270.349	4.61
270.809	4.6
271.268	4.6
271.727	4.57
272.186	4.56
272.645	4.54
273.104	4.53
273.563	4.52
274.022	4.51
274.481	4.49
274.94	4.47
275.399	4.45
275.857	4.44
276.316	4.42
276.775	4.4
277.233	4.38
277.692	4.37
278.15	4.35
278.609	4.33
279.067	4.29
279.525	4.28
279.984	4.27
280.442	4.26
280.9	4.23
281.358	4.23
281.816	4.21
282.274	4.2
282.732	4.19
283.19	4.18
283.648	4.18
284.106	4.17
284.564	4.17
285.021	4.15
285.479	4.15
285.937	4.15
286.394	4.13
286.852	4.13
287.309	4.13
287.767	4.11
288.224	4.11
288.682	4.1
289.139	4.1
289.596	4.08
290.053	4.07
290.511	4.04
290.968	4.03
291.425	4.02
291.882	4
292.339	3.98
292.796	3.96
293.252	3.95
293.709	3.93
294.166	3.91
294.623	3.91
295.079	3.89
295.536	3.88
295.992	3.87
296.449	3.86
296.905	3.84
297.362	3.83
297.818	3.82
298.274	3.81
298.731	3.8
299.187	3.8
299.643	3.78
300.099	3.78
300.555	3.77
301.011	3.77
301.467	3.76
301.923	3.75
302.379	3.74
302.835	3.74
303.291	3.74
303.746	3.72
304.202	3.71
304.658	3.71
305.113	3.7
305.569	3.69
306.024	3.68
306.479	3.67
306.935	3.67
307.39	3.67
307.845	3.66
308.301	3.66
308.756	3.67
309.211	3.67
309.666	3.67
310.121	3.67
310.576	3.67
311.031	3.66
311.486	3.67
311.94	3.66
312.395	3.66
312.85	3.65
313.305	3.65
313.759	3.65
314.214	3.64
314.668	3.63
315.123	3.63
315.577	3.62
316.032	3.61
316.486	3.61
316.94	3.61
317.394	3.6
317.849	3.59
318.303	3.58
318.757	3.56
319.211	3.54
319.665	3.54
320.119	3.53
320.572	3.53
321.026	3.53
321.48	3.52
321.934	3.51
322.387	3.51
322.841	3.51
323.295	3.51
323.748	3.51
324.202	3.51
324.655	3.5
325.108	3.49
325.562	3.47
326.015	3.47
326.468	3.46
326.921	3.44
327.374	3.44
327.827	3.43
328.28	3.42
328.733	3.41
329.186	3.4
329.639	3.4
330.092	3.4
330.545	3.4
330.997	3.4
331.45	3.39
331.903	3.4
332.355	3.41
332.808	3.41
333.26	3.42
333.713	3.43
334.165	3.44
334.617	3.44
335.069	3.44
335.522	3.44
335.974	3.45
336.426	3.45
336.878	3.45
337.33	3.45
337.782	3.44
338.234	3.44
338.686	3.43
339.137	3.43
339.589	3.43
340.041	3.43
340.493	3.42
340.944	3.41
341.396	3.41
341.847	3.4
342.299	3.38
342.75	3.36
343.201	3.35
343.653	3.35
344.104	3.33
344.555	3.32
345.006	3.3
345.457	3.3
345.908	3.29
346.359	3.29
346.81	3.29
347.261	3.29
347.712	3.28
348.163	3.28
348.613	3.26
349.064	3.25
349.515	3.24
349.965	3.24
350.416	3.24
350.866	3.24
351.317	3.24
351.767	3.24
352.217	3.23
352.668	3.24
353.118	3.25
353.568	3.25
354.018	3.27
354.468	3.27
354.918	3.28
355.368	3.29
355.818	3.28
356.268	3.28
356.718	3.27
357.168	3.27
357.617	3.27
358.067	3.26
358.517	3.26
358.966	3.26
359.416	3.27
359.865	3.26
360.315	3.26
360.764	3.27
361.213	3.26
361.663	3.28
362.112	3.3
362.561	3.3
363.01	3.3
363.459	3.3
363.908	3.31
364.357	3.31
364.806	3.31
365.255	3.32
365.703	3.33
366.152	3.33
366.601	3.34
367.05	3.34
367.498	3.34
367.947	3.35
368.395	3.36
368.844	3.37
369.292	3.37
369.74	3.38
370.189	3.38
370.637	3.39
371.085	3.41
371.533	3.42
371.981	3.43
372.429	3.43
372.877	3.45
373.325	3.45
373.773	3.47
374.221	3.48
374.669	3.49
375.116	3.51
375.564	3.52
376.012	3.52
376.459	3.54
376.907	3.56
377.354	3.59
377.801	3.61
378.249	3.63
378.696	3.65
379.143	3.68
379.591	3.7
380.038	3.73
380.485	3.76
380.932	3.79
381.379	3.8
381.826	3.83
382.273	3.85
382.72	3.88
383.166	3.9
383.613	3.93
384.06	3.96
384.506	3.99
384.953	4.01
385.4	4.04
385.846	4.06
386.292	4.09
386.739	4.11
387.185	4.15
387.631	4.19
388.078	4.21
388.524	4.21
388.97	4.25
389.416	4.27
389.862	4.3
390.308	4.32
390.754	4.34
391.2	4.37
391.645	4.41
392.091	4.43
392.537	4.45
392.983	4.5
393.428	4.55
393.874	4.6
394.319	4.63
394.765	4.65
395.21	4.68
395.655	4.71
396.101	4.74
396.546	4.76
396.991	4.78
397.436	4.79
397.881	4.8
398.326	4.84
398.771	4.85
399.216	4.88
399.661	4.9
400.106	4.93
400.551	4.93
400.995	4.93
401.44	4.93
401.885	4.95
402.329	4.97
402.774	4.98
403.218	4.97
403.663	4.96
404.107	4.96
404.551	4.97
404.995	4.97
405.44	4.98
405.884	4.98
406.328	4.98
406.772	4.98
407.216	4.97
407.66	4.97
408.104	4.97
408.547	4.97
408.991	4.96
409.435	4.96
409.879	4.96
410.322	4.97
410.766	4.97
411.209	4.98
411.653	4.96
412.096	4.96
412.54	4.97
412.983	4.95
413.426	4.97
413.869	4.98
414.312	4.99
414.756	4.99
415.199	5
415.642	5.02
416.085	5.03
416.527	5.06
416.97	5.09
417.413	5.08
417.856	5.09
418.298	5.07
418.741	5.07
419.184	5.06
419.626	5.05
420.069	5.04
420.511	5.02
420.953	5
421.396	5
421.838	5
422.28	5.02
422.722	5.01
423.164	5.01
423.606	5.02
424.048	5
424.49	5
424.932	4.99
425.374	5
425.816	4.99
426.258	4.97
426.699	4.93
427.141	4.91
427.582	4.92
428.024	4.91
428.465	4.9
428.907	4.92
429.348	4.92
429.789	4.92
430.231	4.91
430.672	4.92
431.113	4.92
431.554	4.95
431.995	4.95
432.436	4.95
432.877	4.94
433.318	4.93
433.759	4.91
434.2	4.91
434.64	4.93
435.081	4.94
435.522	4.95
435.962	4.97
436.403	5
436.843	5.03
437.284	5.05
437.724	5.09
438.164	5.11
438.604	5.14
439.045	5.15
439.485	5.15
439.925	5.17
440.365	5.17
440.805	5.18
441.245	5.17
441.685	5.19
442.125	5.2
442.564	5.21
443.004	5.25
443.444	5.28
443.883	5.31
444.323	5.35
444.762	5.39
445.202	5.46
445.641	5.51
446.081	5.58
446.52	5.6
446.959	5.65
447.398	5.7
447.837	5.76
448.276	5.81
448.716	5.88
449.154	5.92
449.593	5.95
450.032	5.96
450.471	6.01
450.91	6.02
451.349	6.06
451.787	6.09
452.226	6.07
452.664	6.06
453.103	6.05
453.541	6.05
453.98	6.05
454.418	6.05
454.856	6.04
455.295	6.02
455.733	6.02
456.171	6.02
456.609	6.01
457.047	6.02
457.485	6.02
457.923	6.02
458.361	6.01
458.798	6.01
459.236	6.02
459.674	6.02
460.111	6.03
460.549	6.02
460.987	6.01
461.424	6
461.862	6
462.299	6
462.736	6
463.173	5.99
463.611	5.97
464.048	5.98
464.485	5.98
464.922	5.97
465.359	5.98
465.796	5.98
466.233	5.99
466.67	6
467.106	5.99
467.543	5.99
467.98	6.01
468.416	6.04
468.853	6.04
469.29	6.06
469.726	6.06
470.162	6.04
470.599	6.06
471.035	6.07
471.471	6.07
471.907	6.07
472.344	6.09
472.78	6.08
473.216	6.08
473.652	6.1
474.088	6.11
474.523	6.13
474.959	6.14
475.395	6.13
475.831	6.14
476.266	6.16
476.702	6.16
477.138	6.15
477.573	6.14
478.008	6.15
478.444	6.13
478.879	6.12
479.314	6.12
479.75	6.13
480.185	6.13
480.62	6.12
481.055	6.13
481.49	6.13
481.925	6.13
482.36	6.13
482.795	6.13
483.229	6.14
483.664	6.15
484.099	6.15
484.534	6.16
484.968	6.18
485.403	6.19
485.837	6.2
486.271	6.22
486.706	6.24
487.14	6.27
487.574	6.29
488.009	6.32
488.443	6.34
488.877	6.37
489.311	6.4
489.745	6.43
490.179	6.47
490.613	6.5
491.046	6.54
491.48	6.59
491.914	6.65
492.348	6.7
492.781	6.76
493.215	6.82
493.648	6.89
494.082	6.98
494.515	7.05
494.948	7.13
495.382	7.21
495.815	7.31
496.248	7.4
496.681	7.49
497.114	7.58
497.547	7.68
497.98	7.79
498.413	7.89
498.846	8
499.279	8.14
499.711	8.26
500.144	8.39
500.577	8.53
501.009	8.68
501.442	8.84
501.874	9
502.306	9.18
502.739	9.34
503.171	9.55
503.603	9.75
504.036	9.95
504.468	10.17
504.9	10.4
505.332	10.63
505.764	10.88
506.196	11.12
506.627	11.38
507.059	11.65
507.491	11.94
507.923	12.21
508.354	12.5
508.786	12.78
509.217	13.07
509.649	13.39
510.08	13.72
510.512	14.03
510.943	14.36
511.374	14.7
511.805	15.04
512.237	15.41
512.668	15.76
513.099	16.14
513.53	16.53
513.961	16.92
514.391	17.28
514.822	17.65
515.253	18.05
515.684	18.44
516.114	18.84
516.545	19.23
516.975	19.62
517.406	20.05
517.836	20.44
518.267	20.84
518.697	21.24
519.127	21.66
519.558	22.06
519.988	22.45
520.418	22.84
520.848	23.24
521.278	23.65
521.708	23.96
522.138	24.33
522.567	24.69
522.997	25.05
523.427	25.41
523.857	25.72
524.286	26.06
524.716	26.39
525.145	26.71
525.575	27.01
526.004	27.31
526.433	27.66
526.863	27.92
527.292	28.21
527.721	28.46
528.15	28.67
528.579	28.91
529.008	29.13
529.437	29.34
529.866	29.54
530.295	29.73
530.724	29.92
531.152	30.09
531.581	30.27
532.01	30.4
532.438	30.56
532.867	30.73
533.295	30.88
533.723	31.03
534.152	31.16
534.58	31.27
535.008	31.36
535.436	31.44
535.865	31.54
536.293	31.63
536.721	31.74
537.149	31.83
537.576	31.9
538.004	31.96
538.432	32.02
538.86	32.08
539.287	32.16
539.715	32.25
540.143	32.32
540.57	32.37
540.998	32.43
541.425	32.48
541.852	32.52
542.28	32.56
542.707	32.64
543.134	32.71
543.561	32.74
543.988	32.78
544.415	32.81
544.842	32.86
545.269	32.92
545.696	32.94
546.123	32.97
546.549	33.03
546.976	33.08
547.403	33.1
547.829	33.12
548.256	33.16
548.682	33.18
549.108	33.22
549.535	33.26
549.961	33.28
550.387	33.31
550.813	33.31
551.24	33.29
551.666	33.3
552.092	33.3
552.518	33.28
552.943	33.26
553.369	33.25
553.795	33.2
554.221	33.16
554.646	33.13
555.072	33.06
555.498	33.01
555.923	32.95
556.349	32.86
556.774	32.79
557.199	32.72
557.625	32.63
558.05	32.54
558.475	32.43
558.9	32.32
559.325	32.19
559.75	32.09
560.175	31.96
560.6	31.83
561.025	31.69
561.449	31.52
561.874	31.34
562.299	31.17
562.723	31.02
563.148	30.84
563.572	30.67
563.997	30.48
564.421	30.28
564.846	30.07
565.27	29.9
565.694	29.69
566.118	29.51
566.542	29.32
566.966	29.13
567.39	28.89
567.814	28.68
568.238	28.44
568.662	28.24
569.086	28.02
569.509	27.81
569.933	27.56
570.357	27.34
570.78	27.13
571.204	26.89
571.627	26.66
572.05	26.47
572.474	26.26
572.897	26.08
573.32	25.88
573.743	25.68
574.166	25.48
574.589	25.31
575.012	25.14
575.435	24.95
575.858	24.79
576.281	24.65
576.704	24.5
577.126	24.34
577.549	24.2
577.972	24.06
578.394	23.92
578.817	23.79
579.239	23.68
579.661	23.54
580.084	23.41
580.506	23.29
580.928	23.16
581.35	23.03
581.772	22.95
582.194	22.81
582.616	22.71
583.038	22.62
583.46	22.52
583.882	22.4
584.303	22.31
584.725	22.2
585.147	22.08
585.568	21.98
585.99	21.89
586.411	21.78
586.833	21.69
587.254	21.6
587.675	21.5
588.096	21.42
588.518	21.34
588.939	21.28
589.36	21.21
589.781	21.16
590.202	21.08
590.623	21.02
591.043	20.96
591.464	20.9
591.885	20.84
592.305	20.79
592.726	20.74
593.147	20.7
593.567	20.63
593.987	20.61
594.408	20.57
594.828	20.55
595.248	20.5
595.669	20.46
596.089	20.4
596.509	20.33
596.929	20.29
597.349	20.23
597.769	20.18
598.189	20.14
598.608	20.08
599.028	20.02
599.448	19.98
599.867	19.9
600.287	19.84
600.706	19.79
601.126	19.72
601.545	19.64
601.965	19.57
602.384	19.51
602.803	19.42
603.222	19.33
603.641	19.25
604.061	19.14
604.48	19.06
604.898	18.97
605.317	18.88
605.736	18.81
606.155	18.72
606.574	18.62
606.992	18.51
607.411	18.42
607.829	18.29
608.248	18.2
608.666	18.1
609.085	18
609.503	17.88
609.921	17.77
610.339	17.66
610.758	17.55
611.176	17.46
611.594	17.34
612.012	17.24
612.43	17.17
612.847	17.06
613.265	16.96
613.683	16.85
614.101	16.76
614.518	16.68
614.936	16.58
615.353	16.48
615.771	16.38
616.188	16.31
616.606	16.22
617.023	16.14
617.44	16.06
617.857	15.98
618.274	15.91
618.691	15.83
619.108	15.74
619.525	15.69
619.942	15.63
620.359	15.59
620.776	15.53
621.192	15.49
621.609	15.45
622.026	15.42
622.442	15.38
622.859	15.35
623.275	15.34
623.691	15.33
624.108	15.32
624.524	15.31
624.94	15.27
625.356	15.25
625.772	15.24
626.188	15.24
626.604	15.21
627.02	15.2
627.436	15.2
627.852	15.18
628.268	15.16
628.683	15.11
629.099	15.08
629.514	15.06
629.93	15.03
630.345	14.97
630.761	14.92
631.176	14.88
631.591	14.82
632.007	14.75
632.422	14.68
632.837	14.61
633.252	14.53
633.667	14.44
634.082	14.34
634.497	14.24
634.911	14.1
635.326	13.99
635.741	13.86
636.155	13.73
636.57	13.59
636.984	13.42
637.399	13.26
637.813	13.11
638.228	12.96
638.642	12.82
639.056	12.65
639.47	12.52
639.884	12.33
640.298	12.17
640.712	12
641.126	11.83
641.54	11.69
641.954	11.54
642.368	11.37
642.781	11.19
643.195	11.03
643.609	10.89
644.022	10.74
644.436	10.61
644.849	10.46
645.262	10.33
645.676	10.22
646.089	10.09
646.502	9.98
646.915	9.89
647.328	9.81
647.741	9.72
648.154	9.63
648.567	9.55
648.98	9.47
649.393	9.39
649.805	9.33
650.218	9.25
650.631	9.2
651.043	9.14
651.456	9.09
651.868	9.03
652.28	8.98
652.693	8.93
653.105	8.88
653.517	8.83
653.929	8.78
654.341	8.73
654.753	8.66
655.165	8.6
655.577	8.5
655.989	8.4
656.401	8.3
656.813	8.2
657.224	8.09
657.636	8
658.047	7.9
658.459	7.78
658.87	7.67
659.282	7.57
659.693	7.44
660.104	7.34
660.515	7.25
660.926	7.17
661.338	7.06
661.749	6.95
662.159	6.85
662.57	6.76
662.981	6.68
663.392	6.59
663.803	6.5
664.213	6.44
664.624	6.37
665.035	6.29
665.445	6.23
665.855	6.17
666.266	6.13
666.676	6.08
667.086	6.02
667.497	5.97
667.907	5.92
668.317	5.88
668.727	5.84
669.137	5.82
669.547	5.81
669.956	5.79
670.366	5.78
670.776	5.77
671.186	5.77
671.595	5.77
672.005	5.79
672.414	5.79
672.824	5.81
673.233	5.84
673.642	5.85
674.052	5.86
674.461	5.88
674.87	5.91
675.279	5.93
675.688	5.96
676.097	6
676.506	6.03
676.915	6.09
677.323	6.13
677.732	6.17
678.141	6.24
678.549	6.31
678.958	6.38
679.366	6.45
679.775	6.54
680.183	6.63
680.592	6.73
681	6.85
681.408	6.97
681.816	7.11
682.224	7.26
682.632	7.43
683.04	7.61
683.448	7.82
683.856	8.06
684.264	8.32
684.671	8.61
685.079	8.92
685.487	9.28
685.894	9.66
686.302	10.05
686.709	10.48
687.116	10.93
687.524	11.43
687.931	11.95
688.338	12.5
688.745	13.1
689.152	13.74
689.559	14.4
689.966	15.08
690.373	15.79
690.78	16.53
691.187	17.32
691.593	18.11
692	18.93
692.407	19.76
692.813	20.61
693.22	21.44
693.626	22.27
694.032	23.12
694.439	23.99
694.845	24.86
695.251	25.72
695.657	26.56
696.063	27.42
696.469	28.29
696.875	29.12
697.281	29.94
697.687	30.77
698.093	31.59
698.498	32.41
698.904	33.21
699.31	33.98
699.715	34.77
700.12	35.53
700.526	36.27
700.931	36.96
701.337	37.68
701.742	38.36
702.147	39.04
702.552	39.74
702.957	40.42
703.362	41.07
703.767	41.76
704.172	42.39
704.577	43
704.981	43.62
705.386	44.23
705.791	44.84
706.195	45.43
706.6	46.03
707.004	46.59
707.408	47.11
707.813	47.63
708.217	48.11
708.621	48.64
709.025	49.17
709.43	49.66
709.834	50.18
710.237	50.63
710.641	51.13
711.045	51.56
711.449	51.98
711.853	52.43
712.256	52.9
712.66	53.34
713.064	53.77
713.467	54.19
713.87	54.6
714.274	55
714.677	55.39
715.08	55.78
715.484	56.18
715.887	56.57
716.29	56.97
716.693	57.26
717.096	57.63
717.499	57.95
717.901	58.28
718.304	58.59
718.707	58.89
719.109	59.21
719.512	59.54
719.915	59.85
720.317	60.12
720.719	60.39
721.122	60.69
721.524	60.98
721.926	61.26
722.328	61.48
722.731	61.74
723.133	62
723.535	62.27
723.937	62.47
724.338	62.64
724.74	62.86
725.142	62.97
725.544	63.14
725.945	63.3
726.347	63.51
726.748	63.66
727.15	63.84
727.551	64
727.952	64.15
728.354	64.35
728.755	64.57
729.156	64.73
729.557	64.99
729.958	65.18
730.359	65.31
730.76	65.42
731.161	65.58
731.562	65.72
731.962	65.88
732.363	65.95
732.763	66.04
733.164	66.15
733.564	66.24
733.965	66.32
734.365	66.41
734.766	66.48
735.166	66.53
735.566	66.56
735.966	66.58
736.366	66.58
736.766	66.65
737.166	66.7
737.566	66.73
737.966	66.8
738.365	66.87
738.765	66.9
739.165	66.94
739.564	67.01
739.964	67.08
740.363	67.14
740.763	67.2
741.162	67.26
741.561	67.33
741.96	67.37
742.36	67.39
742.759	67.38
743.158	67.4
743.557	67.45
743.955	67.51
744.354	67.55
744.753	67.62
745.152	67.63
745.55	67.66
745.949	67.69
746.348	67.73
746.746	67.78
747.144	67.87
747.543	67.91
747.941	67.94
748.339	68.02
748.737	68.08
749.136	68.12
749.534	68.18
749.932	68.22
750.33	68.24
750.727	68.24
751.125	68.28
751.523	68.25
751.921	68.25
752.318	68.27
752.716	68.23
753.113	68.18
753.511	68.12
753.908	68.1
754.305	68.06
754.703	68.02
755.1	68.02
755.497	68.01
755.894	68.03
756.291	68.03
756.688	68.01
757.085	68
757.482	68.02
757.878	68.07
758.275	68.11
758.672	68.14
759.068	68.18
759.465	68.18
759.861	68.19
760.258	68.16
760.654	68.18
761.05	68.18
761.447	68.18
761.843	68.12
762.239	68.07
762.635	68.04
763.031	68
763.427	67.97
763.822	67.91
764.218	67.84
764.614	67.82
765.01	67.8
765.405	67.77
765.801	67.73
766.196	67.74
766.592	67.73
766.987	67.71
767.382	67.71
767.778	67.73
768.173	67.75
768.568	67.76
768.963	67.77
769.358	67.76
769.753	67.8
770.148	67.8
770.542	67.78
770.937	67.77
771.332	67.77
771.726	67.74
772.121	67.67
772.515	67.66
772.91	67.64
773.304	67.6
773.699	67.58
774.093	67.53
774.487	67.52
774.881	67.58
775.275	67.6
775.669	67.61
776.063	67.62
776.457	67.61
776.851	67.56
777.245	67.6
777.638	67.6
778.032	67.6
778.425	67.62
778.819	67.62
779.212	67.58
779.606	67.53
779.999	67.51
780.392	67.53
780.786	67.55
781.179	67.61
781.572	67.57
781.965	67.61
782.358	67.58
