Data from c_1_hir_wi_4n_043_Splice17_09.txt Node
Date: Sat Feb 29 13:29:23 EST 2020
User: sa697716
Spectrometer: FLMS03696
Trigger mode: 0
Integration Time (sec): 3.180400E-1
Scans to average: 20
Electric dark correction enabled: true
Nonlinearity correction enabled: true
Boxcar width: 5
XAxis mode: Wavelengths
Number of Pixels in Spectrum: 2048
>>>>>Begin Spectral Data<<<<<
187.83	67.1
188.298	80.69
188.766	85.31
189.233	82.28
189.701	83.32
190.169	83.53
190.636	82.68
191.104	114.34
191.571	469.81
192.039	227.97
192.506	-302.34
192.974	434.47
193.441	-85.36
193.908	147.57
194.375	249.11
194.842	248.46
195.31	131.63
195.777	75.19
196.244	94.67
196.711	93.62
197.177	89.99
197.644	89.95
198.111	90.02
198.578	91.08
199.045	91.89
199.511	91.98
199.978	92.06
200.445	92.25
200.911	92.82
201.378	92.81
201.844	93.42
202.31	93.96
202.777	93.95
203.243	93.93
203.709	93.67
204.176	93.21
204.642	92.59
205.108	92.33
205.574	92.35
206.04	91.18
206.506	90.52
206.972	89
207.438	88.06
207.903	87.08
208.369	85.33
208.835	83.96
209.301	82.24
209.766	80.2
210.232	78.22
210.697	76.27
211.163	74.87
211.628	72.68
212.094	71.41
212.559	69.61
213.024	67.74
213.49	66.28
213.955	64.57
214.42	62.35
214.885	60.32
215.35	57.65
215.815	54.04
216.28	50
216.745	45.91
217.21	41.28
217.675	36.95
218.14	33.1
218.604	29.47
219.069	26.47
219.534	23.98
219.998	21.87
220.463	20.12
220.927	18.59
221.392	17.39
221.856	16.3
222.32	15.44
222.785	14.69
223.249	14.04
223.713	13.53
224.177	12.95
224.642	12.5
225.106	12.1
225.57	11.67
226.034	11.34
226.497	10.98
226.961	10.66
227.425	10.34
227.889	10.04
228.353	9.76
228.816	9.51
229.28	9.29
229.744	9.09
230.207	8.88
230.671	8.71
231.134	8.49
231.597	8.31
232.061	8.15
232.524	8
232.987	7.87
233.45	7.72
233.914	7.59
234.377	7.47
234.84	7.36
235.303	7.25
235.766	7.16
236.229	7.07
236.691	7
237.154	6.94
237.617	6.85
238.08	6.78
238.542	6.72
239.005	6.65
239.468	6.57
239.93	6.5
240.393	6.42
240.855	6.34
241.317	6.28
241.78	6.21
242.242	6.12
242.704	6.06
243.166	6
243.629	5.94
244.091	5.87
244.553	5.83
245.015	5.76
245.477	5.69
245.939	5.63
246.4	5.55
246.862	5.51
247.324	5.47
247.786	5.41
248.247	5.35
248.709	5.3
249.17	5.26
249.632	5.21
250.093	5.15
250.555	5.12
251.016	5.09
251.477	5.05
251.939	4.99
252.4	4.95
252.861	4.91
253.322	4.86
253.783	4.83
254.244	4.77
254.705	4.73
255.166	4.7
255.627	4.66
256.088	4.61
256.549	4.57
257.009	4.53
257.47	4.48
257.931	4.45
258.391	4.4
258.852	4.34
259.312	4.3
259.773	4.25
260.233	4.2
260.694	4.16
261.154	4.12
261.614	4.07
262.074	4.04
262.534	3.99
262.994	3.95
263.455	3.92
263.915	3.87
264.374	3.83
264.834	3.81
265.294	3.76
265.754	3.74
266.214	3.71
266.673	3.69
267.133	3.66
267.593	3.63
268.052	3.61
268.512	3.58
268.971	3.57
269.431	3.56
269.89	3.54
270.349	3.53
270.809	3.52
271.268	3.51
271.727	3.49
272.186	3.48
272.645	3.47
273.104	3.47
273.563	3.45
274.022	3.44
274.481	3.43
274.94	3.42
275.399	3.41
275.857	3.4
276.316	3.38
276.775	3.37
277.233	3.37
277.692	3.36
278.15	3.35
278.609	3.35
279.067	3.34
279.525	3.33
279.984	3.32
280.442	3.32
280.9	3.32
281.358	3.32
281.816	3.32
282.274	3.31
282.732	3.31
283.19	3.31
283.648	3.32
284.106	3.32
284.564	3.33
285.021	3.33
285.479	3.33
285.937	3.32
286.394	3.31
286.852	3.31
287.309	3.31
287.767	3.31
288.224	3.3
288.682	3.28
289.139	3.27
289.596	3.25
290.053	3.22
290.511	3.19
290.968	3.16
291.425	3.14
291.882	3.12
292.339	3.09
292.796	3.07
293.252	3.04
293.709	3.02
294.166	3.01
294.623	3
295.079	2.99
295.536	2.99
295.992	2.97
296.449	2.97
296.905	2.95
297.362	2.94
297.818	2.93
298.274	2.93
298.731	2.92
299.187	2.91
299.643	2.91
300.099	2.91
300.555	2.89
301.011	2.89
301.467	2.89
301.923	2.89
302.379	2.9
302.835	2.9
303.291	2.89
303.746	2.89
304.202	2.89
304.658	2.88
305.113	2.87
305.569	2.88
306.024	2.88
306.479	2.89
306.935	2.89
307.39	2.89
307.845	2.9
308.301	2.9
308.756	2.92
309.211	2.92
309.666	2.93
310.121	2.93
310.576	2.93
311.031	2.93
311.486	2.94
311.94	2.94
312.395	2.95
312.85	2.94
313.305	2.95
313.759	2.95
314.214	2.95
314.668	2.95
315.123	2.96
315.577	2.96
316.032	2.96
316.486	2.95
316.94	2.94
317.394	2.94
317.849	2.93
318.303	2.92
318.757	2.9
319.211	2.88
319.665	2.87
320.119	2.85
320.572	2.84
321.026	2.83
321.48	2.84
321.934	2.82
322.387	2.81
322.841	2.81
323.295	2.8
323.748	2.8
324.202	2.8
324.655	2.8
325.108	2.8
325.562	2.79
326.015	2.78
326.468	2.77
326.921	2.77
327.374	2.77
327.827	2.77
328.28	2.77
328.733	2.76
329.186	2.77
329.639	2.77
330.092	2.78
330.545	2.79
330.997	2.81
331.45	2.81
331.903	2.81
332.355	2.83
332.808	2.83
333.26	2.84
333.713	2.85
334.165	2.86
334.617	2.87
335.069	2.87
335.522	2.89
335.974	2.89
336.426	2.9
336.878	2.9
337.33	2.91
337.782	2.91
338.234	2.92
338.686	2.92
339.137	2.93
339.589	2.91
340.041	2.9
340.493	2.88
340.944	2.88
341.396	2.86
341.847	2.85
342.299	2.84
342.75	2.82
343.201	2.79
343.653	2.77
344.104	2.75
344.555	2.73
345.006	2.72
345.457	2.72
345.908	2.71
346.359	2.71
346.81	2.7
347.261	2.69
347.712	2.69
348.163	2.7
348.613	2.7
349.064	2.68
349.515	2.68
349.965	2.68
350.416	2.67
350.866	2.66
351.317	2.64
351.767	2.64
352.217	2.63
352.668	2.63
353.118	2.63
353.568	2.63
354.018	2.65
354.468	2.65
354.918	2.67
355.368	2.67
355.818	2.68
356.268	2.7
356.718	2.71
357.168	2.72
357.617	2.72
358.067	2.71
358.517	2.71
358.966	2.73
359.416	2.73
359.865	2.72
360.315	2.72
360.764	2.72
361.213	2.71
361.663	2.7
362.112	2.7
362.561	2.7
363.01	2.72
363.459	2.71
363.908	2.7
364.357	2.7
364.806	2.71
365.255	2.72
365.703	2.72
366.152	2.73
366.601	2.75
367.05	2.75
367.498	2.77
367.947	2.76
368.395	2.77
368.844	2.77
369.292	2.77
369.74	2.77
370.189	2.77
370.637	2.77
371.085	2.78
371.533	2.77
371.981	2.78
372.429	2.77
372.877	2.78
373.325	2.77
373.773	2.78
374.221	2.78
374.669	2.78
375.116	2.78
375.564	2.78
376.012	2.78
376.459	2.78
376.907	2.79
377.354	2.79
377.801	2.8
378.249	2.81
378.696	2.83
379.143	2.84
379.591	2.84
380.038	2.85
380.485	2.87
380.932	2.87
381.379	2.88
381.826	2.89
382.273	2.89
382.72	2.9
383.166	2.91
383.613	2.92
384.06	2.93
384.506	2.94
384.953	2.95
385.4	2.94
385.846	2.95
386.292	2.96
386.739	2.96
387.185	2.98
387.631	3
388.078	3.01
388.524	3
388.97	3.01
389.416	3.02
389.862	3.03
390.308	3.06
390.754	3.08
391.2	3.1
391.645	3.13
392.091	3.13
392.537	3.15
392.983	3.18
393.428	3.21
393.874	3.24
394.319	3.27
394.765	3.28
395.21	3.3
395.655	3.33
396.101	3.34
396.546	3.36
396.991	3.38
397.436	3.38
397.881	3.4
398.326	3.43
398.771	3.45
399.216	3.48
399.661	3.5
400.106	3.52
400.551	3.53
400.995	3.55
401.44	3.56
401.885	3.58
402.329	3.6
402.774	3.62
403.218	3.62
403.663	3.63
404.107	3.64
404.551	3.68
404.995	3.69
405.44	3.71
405.884	3.73
406.328	3.75
406.772	3.78
407.216	3.81
407.66	3.82
408.104	3.83
408.547	3.85
408.991	3.87
409.435	3.87
409.879	3.9
410.322	3.94
410.766	3.97
411.209	4
411.653	4.01
412.096	4.03
412.54	4.05
412.983	4.09
413.426	4.14
413.869	4.17
414.312	4.21
414.756	4.23
415.199	4.24
415.642	4.26
416.085	4.29
416.527	4.32
416.97	4.33
417.413	4.34
417.856	4.33
418.298	4.32
418.741	4.32
419.184	4.32
419.626	4.32
420.069	4.32
420.511	4.32
420.953	4.33
421.396	4.33
421.838	4.36
422.28	4.39
422.722	4.41
423.164	4.43
423.606	4.47
424.048	4.47
424.49	4.49
424.932	4.49
425.374	4.49
425.816	4.47
426.258	4.47
426.699	4.45
427.141	4.45
427.582	4.45
428.024	4.47
428.465	4.45
428.907	4.46
429.348	4.46
429.789	4.48
430.231	4.52
430.672	4.54
431.113	4.57
431.554	4.59
431.995	4.61
432.436	4.63
432.877	4.63
433.318	4.64
433.759	4.66
434.2	4.67
434.64	4.69
435.081	4.69
435.522	4.74
435.962	4.76
436.403	4.8
436.843	4.81
437.284	4.82
437.724	4.85
438.164	4.89
438.604	4.92
439.045	4.94
439.485	4.96
439.925	4.97
440.365	4.95
440.805	4.96
441.245	4.93
441.685	4.95
442.125	4.95
442.564	4.96
443.004	4.95
443.444	4.94
443.883	4.95
444.323	4.93
444.762	4.96
445.202	4.99
445.641	4.99
446.081	5.05
446.52	5.04
446.959	5.07
447.398	5.1
447.837	5.13
448.276	5.12
448.716	5.11
449.154	5.14
449.593	5.16
450.032	5.16
450.471	5.16
450.91	5.11
451.349	5.13
451.787	5.09
452.226	5.05
452.664	5.02
453.103	5.02
453.541	5
453.98	4.97
454.418	4.92
454.856	4.89
455.295	4.87
455.733	4.87
456.171	4.84
456.609	4.84
457.047	4.82
457.485	4.81
457.923	4.79
458.361	4.79
458.798	4.79
459.236	4.81
459.674	4.79
460.111	4.79
460.549	4.8
460.987	4.79
461.424	4.79
461.862	4.81
462.299	4.82
462.736	4.83
463.173	4.83
463.611	4.82
464.048	4.83
464.485	4.84
464.922	4.84
465.359	4.84
465.796	4.85
466.233	4.89
466.67	4.88
467.106	4.89
467.543	4.88
467.98	4.88
468.416	4.9
468.853	4.89
469.29	4.89
469.726	4.9
470.162	4.89
470.599	4.87
471.035	4.85
471.471	4.85
471.907	4.85
472.344	4.84
472.78	4.83
473.216	4.81
473.652	4.8
474.088	4.79
474.523	4.76
474.959	4.73
475.395	4.72
475.831	4.71
476.266	4.68
476.702	4.65
477.138	4.62
477.573	4.59
478.008	4.58
478.444	4.56
478.879	4.53
479.314	4.52
479.75	4.52
480.185	4.49
480.62	4.47
481.055	4.44
481.49	4.42
481.925	4.41
482.36	4.41
482.795	4.39
483.229	4.37
483.664	4.36
484.099	4.34
484.534	4.33
484.968	4.32
485.403	4.31
485.837	4.31
486.271	4.29
486.706	4.28
487.14	4.28
487.574	4.28
488.009	4.28
488.443	4.28
488.877	4.29
489.311	4.28
489.745	4.29
490.179	4.29
490.613	4.3
491.046	4.32
491.48	4.34
491.914	4.35
492.348	4.36
492.781	4.37
493.215	4.39
493.648	4.4
494.082	4.43
494.515	4.45
494.948	4.47
495.382	4.48
495.815	4.51
496.248	4.54
496.681	4.56
497.114	4.59
497.547	4.63
497.98	4.66
498.413	4.7
498.846	4.73
499.279	4.77
499.711	4.8
500.144	4.85
500.577	4.9
501.009	4.95
501.442	5.01
501.874	5.07
502.306	5.13
502.739	5.19
503.171	5.25
503.603	5.33
504.036	5.41
504.468	5.5
504.9	5.6
505.332	5.68
505.764	5.78
506.196	5.87
506.627	5.97
507.059	6.08
507.491	6.19
507.923	6.31
508.354	6.43
508.786	6.55
509.217	6.68
509.649	6.82
510.08	6.98
510.512	7.12
510.943	7.28
511.374	7.44
511.805	7.6
512.237	7.78
512.668	7.94
513.099	8.13
513.53	8.31
513.961	8.51
514.391	8.68
514.822	8.88
515.253	9.09
515.684	9.29
516.114	9.51
516.545	9.72
516.975	9.95
517.406	10.19
517.836	10.41
518.267	10.64
518.697	10.88
519.127	11.14
519.558	11.36
519.988	11.59
520.418	11.81
520.848	12.05
521.278	12.28
521.708	12.58
522.138	12.8
522.567	13.02
522.997	13.25
523.427	13.44
523.857	13.65
524.286	13.87
524.716	14.08
525.145	14.29
525.575	14.49
526.004	14.69
526.433	14.8
526.863	14.99
527.292	15.16
527.721	15.34
528.15	15.51
528.579	15.68
529.008	15.83
529.437	15.98
529.866	16.12
530.295	16.26
530.724	16.4
531.152	16.54
531.581	16.66
532.01	16.78
532.438	16.89
532.867	17
533.295	17.11
533.723	17.23
534.152	17.3
534.58	17.38
535.008	17.46
535.436	17.53
535.865	17.58
536.293	17.67
536.721	17.73
537.149	17.78
537.576	17.84
538.004	17.89
538.432	17.92
538.86	17.99
539.287	18.02
539.715	18.07
540.143	18.12
540.57	18.18
540.998	18.2
541.425	18.25
541.852	18.28
542.28	18.29
542.707	18.35
543.134	18.39
543.561	18.39
543.988	18.44
544.415	18.47
544.842	18.49
545.269	18.53
545.696	18.55
546.123	18.56
546.549	18.59
546.976	18.64
547.403	18.65
547.829	18.67
548.256	18.71
548.682	18.73
549.108	18.75
549.535	18.76
549.961	18.75
550.387	18.76
550.813	18.75
551.24	18.75
551.666	18.73
552.092	18.72
552.518	18.71
552.943	18.69
553.369	18.66
553.795	18.64
554.221	18.61
554.646	18.58
555.072	18.55
555.498	18.52
555.923	18.49
556.349	18.44
556.774	18.39
557.199	18.34
557.625	18.28
558.05	18.21
558.475	18.12
558.9	18.04
559.325	17.96
559.75	17.85
560.175	17.75
560.6	17.66
561.025	17.56
561.449	17.44
561.874	17.32
562.299	17.2
562.723	17.09
563.148	16.96
563.572	16.84
563.997	16.7
564.421	16.57
564.846	16.43
565.27	16.27
565.694	16.13
566.118	15.98
566.542	15.85
566.966	15.71
567.39	15.57
567.814	15.42
568.238	15.26
568.662	15.11
569.086	14.96
569.509	14.81
569.933	14.66
570.357	14.53
570.78	14.4
571.204	14.25
571.627	14.11
572.05	13.98
572.474	13.87
572.897	13.74
573.32	13.64
573.743	13.52
574.166	13.41
574.589	13.31
575.012	13.21
575.435	13.09
575.858	13.01
576.281	12.9
576.704	12.8
577.126	12.69
577.549	12.62
577.972	12.52
578.394	12.43
578.817	12.35
579.239	12.26
579.661	12.17
580.084	12.1
580.506	12.02
580.928	11.94
581.35	11.88
581.772	11.84
582.194	11.76
582.616	11.7
583.038	11.65
583.46	11.61
583.882	11.55
584.303	11.48
584.725	11.43
585.147	11.36
585.568	11.32
585.99	11.28
586.411	11.22
586.833	11.17
587.254	11.14
587.675	11.09
588.096	11.04
588.518	10.99
588.939	10.96
589.36	10.92
589.781	10.89
590.202	10.86
590.623	10.81
591.043	10.75
591.464	10.71
591.885	10.68
592.305	10.65
592.726	10.61
593.147	10.6
593.567	10.57
593.987	10.54
594.408	10.5
594.828	10.46
595.248	10.44
595.669	10.43
596.089	10.4
596.509	10.35
596.929	10.31
597.349	10.28
597.769	10.24
598.189	10.22
598.608	10.19
599.028	10.17
599.448	10.13
599.867	10.09
600.287	10.05
600.706	10.03
601.126	9.99
601.545	9.96
601.965	9.93
602.384	9.88
602.803	9.83
603.222	9.77
603.641	9.73
604.061	9.68
604.48	9.62
604.898	9.56
605.317	9.51
605.736	9.46
606.155	9.4
606.574	9.34
606.992	9.27
607.411	9.21
607.829	9.12
608.248	9.05
608.666	8.99
609.085	8.93
609.503	8.88
609.921	8.81
610.339	8.75
610.758	8.7
611.176	8.65
611.594	8.59
612.012	8.53
612.43	8.52
612.847	8.46
613.265	8.41
613.683	8.35
614.101	8.3
614.518	8.24
614.936	8.18
615.353	8.11
615.771	8.06
616.188	8.04
616.606	7.99
617.023	7.95
617.44	7.9
617.857	7.85
618.274	7.82
618.691	7.79
619.108	7.75
619.525	7.73
619.942	7.7
620.359	7.68
620.776	7.63
621.192	7.6
621.609	7.58
622.026	7.57
622.442	7.55
622.859	7.54
623.275	7.53
623.691	7.53
624.108	7.52
624.524	7.51
624.94	7.5
625.356	7.5
625.772	7.5
626.188	7.5
626.604	7.48
627.02	7.48
627.436	7.48
627.852	7.47
628.268	7.46
628.683	7.46
629.099	7.47
629.514	7.46
629.93	7.45
630.345	7.43
630.761	7.4
631.176	7.41
631.591	7.39
632.007	7.36
632.422	7.35
632.837	7.32
633.252	7.29
633.667	7.26
634.082	7.23
634.497	7.18
634.911	7.17
635.326	7.14
635.741	7.09
636.155	7.05
636.57	7.02
636.984	6.96
637.399	6.9
637.813	6.84
638.228	6.78
638.642	6.73
639.056	6.68
639.47	6.62
639.884	6.56
640.298	6.5
640.712	6.44
641.126	6.36
641.54	6.31
641.954	6.27
642.368	6.2
642.781	6.17
643.195	6.11
643.609	6.07
644.022	6.02
644.436	5.96
644.849	5.92
645.262	5.88
645.676	5.84
646.089	5.79
646.502	5.74
646.915	5.72
647.328	5.67
647.741	5.63
648.154	5.58
648.567	5.57
648.98	5.55
649.393	5.53
649.805	5.49
650.218	5.48
650.631	5.46
651.043	5.43
651.456	5.39
651.868	5.38
652.28	5.36
652.693	5.34
653.105	5.31
653.517	5.28
653.929	5.27
654.341	5.25
654.753	5.22
655.165	5.2
655.577	5.17
655.989	5.14
656.401	5.09
656.813	5.06
657.224	5.03
657.636	5
658.047	4.97
658.459	4.93
658.87	4.88
659.282	4.85
659.693	4.81
660.104	4.79
660.515	4.77
660.926	4.75
661.338	4.72
661.749	4.69
662.159	4.66
662.57	4.63
662.981	4.6
663.392	4.58
663.803	4.56
664.213	4.56
664.624	4.54
665.035	4.52
665.445	4.51
665.855	4.5
666.266	4.5
666.676	4.49
667.086	4.48
667.497	4.47
667.907	4.47
668.317	4.46
668.727	4.46
669.137	4.46
669.547	4.48
669.956	4.48
670.366	4.49
670.776	4.5
671.186	4.52
671.595	4.54
672.005	4.57
672.414	4.58
672.824	4.6
673.233	4.62
673.642	4.62
674.052	4.64
674.461	4.66
674.87	4.68
675.279	4.7
675.688	4.71
676.097	4.74
676.506	4.76
676.915	4.78
677.323	4.82
677.732	4.85
678.141	4.89
678.549	4.92
678.958	4.96
679.366	4.98
679.775	5.02
680.183	5.07
680.592	5.12
681	5.16
681.408	5.2
681.816	5.24
682.224	5.29
682.632	5.36
683.04	5.41
683.448	5.46
683.856	5.54
684.264	5.61
684.671	5.69
685.079	5.76
685.487	5.85
685.894	5.96
686.302	6.08
686.709	6.21
687.116	6.34
687.524	6.5
687.931	6.67
688.338	6.87
688.745	7.07
689.152	7.31
689.559	7.56
689.966	7.83
690.373	8.11
690.78	8.41
691.187	8.74
691.593	9.07
692	9.43
692.407	9.81
692.813	10.19
693.22	10.6
693.626	11.02
694.032	11.45
694.439	11.91
694.845	12.38
695.251	12.85
695.657	13.32
696.063	13.82
696.469	14.33
696.875	14.83
697.281	15.32
697.687	15.85
698.093	16.35
698.498	16.87
698.904	17.39
699.31	17.92
699.715	18.46
700.12	18.99
700.526	19.51
700.931	20.03
701.337	20.55
701.742	21.07
702.147	21.58
702.552	22.1
702.957	22.62
703.362	23.12
703.767	23.62
704.172	24.13
704.577	24.63
704.981	25.11
705.386	25.59
705.791	26.08
706.195	26.58
706.6	27.06
707.004	27.52
707.408	27.98
707.813	28.45
708.217	28.9
708.621	29.33
709.025	29.77
709.43	30.21
709.834	30.68
710.237	31.1
710.641	31.53
711.045	31.94
711.449	32.36
711.853	32.77
712.256	33.17
712.66	33.57
713.064	33.98
713.467	34.37
713.87	34.76
714.274	35.14
714.677	35.51
715.08	35.86
715.484	36.24
715.887	36.6
716.29	36.98
716.693	37.35
717.096	37.72
717.499	38.08
717.901	38.41
718.304	38.74
718.707	39.07
719.109	39.42
719.512	39.77
719.915	40.08
720.317	40.41
720.719	40.68
721.122	40.96
721.524	41.24
721.926	41.52
722.328	41.82
722.731	42.1
723.133	42.36
723.535	42.6
723.937	42.85
724.338	43.07
724.74	43.29
725.142	43.53
725.544	43.75
725.945	43.95
726.347	44.16
726.748	44.35
727.15	44.53
727.551	44.73
727.952	44.93
728.354	45.11
728.755	45.3
729.156	45.49
729.557	45.66
729.958	45.83
730.359	46.01
730.76	46.1
731.161	46.26
731.562	46.41
731.962	46.53
732.363	46.67
732.763	46.82
733.164	46.95
733.564	47.04
733.965	47.16
734.365	47.27
734.766	47.36
735.166	47.49
735.566	47.58
735.966	47.63
736.366	47.7
736.766	47.79
737.166	47.87
737.566	47.93
737.966	48.02
738.365	48.09
738.765	48.16
739.165	48.2
739.564	48.28
739.964	48.35
740.363	48.46
740.763	48.52
741.162	48.58
741.561	48.65
741.96	48.72
742.36	48.77
742.759	48.8
743.158	48.83
743.557	48.88
743.955	48.93
744.354	48.98
744.753	49.03
745.152	49.1
745.55	49.14
745.949	49.14
746.348	49.17
746.746	49.2
747.144	49.28
747.543	49.32
747.941	49.36
748.339	49.38
748.737	49.41
749.136	49.42
749.534	49.43
749.932	49.44
750.33	49.47
750.727	49.48
751.125	49.46
751.523	49.45
751.921	49.49
752.318	49.5
752.716	49.48
753.113	49.5
753.511	49.48
753.908	49.48
754.305	49.51
754.703	49.5
755.1	49.51
755.497	49.54
755.894	49.56
756.291	49.54
756.688	49.53
757.085	49.59
757.482	49.6
757.878	49.67
758.275	49.69
758.672	49.7
759.068	49.73
759.465	49.77
759.861	49.77
760.258	49.76
760.654	49.78
761.05	49.8
761.447	49.79
761.843	49.78
762.239	49.75
762.635	49.76
763.031	49.75
763.427	49.73
763.822	49.71
764.218	49.7
764.614	49.7
765.01	49.7
765.405	49.7
765.801	49.68
766.196	49.65
766.592	49.66
766.987	49.65
767.382	49.65
767.778	49.65
768.173	49.66
768.568	49.64
768.963	49.64
769.358	49.62
769.753	49.63
770.148	49.65
770.542	49.65
770.937	49.63
771.332	49.65
771.726	49.63
772.121	49.61
772.515	49.6
772.91	49.65
773.304	49.66
773.699	49.66
774.093	49.64
774.487	49.64
774.881	49.69
775.275	49.69
775.669	49.72
776.063	49.72
776.457	49.73
776.851	49.71
777.245	49.7
777.638	49.73
778.032	49.74
778.425	49.76
778.819	49.79
779.212	49.79
779.606	49.77
779.999	49.74
780.392	49.79
780.786	49.78
781.179	49.81
781.572	49.79
781.965	49.79
782.358	49.77
782.751	49.75
783.143	49.73
783.536	49.73
783.929	49.75
784.322	49.74
784.714	49.74
785.107	49.8
785.499	49.84
