Data from C_2_dec_on_6n_058_Splice17_03.txt Node
Date: Sat Feb 29 14:30:26 EST 2020
User: sa697716
Spectrometer: FLMS03696
Trigger mode: 0
Integration Time (sec): 3.180400E-1
Scans to average: 20
Electric dark correction enabled: true
Nonlinearity correction enabled: true
Boxcar width: 5
XAxis mode: Wavelengths
Number of Pixels in Spectrum: 2048
>>>>>Begin Spectral Data<<<<<
187.83	102.92
188.298	102.88
188.766	96.09
189.233	92.65
189.701	93.29
190.169	100.02
190.636	91.46
191.104	53.71
191.571	13.09
192.039	194.27
192.506	-294.02
192.974	-458.87
193.441	277.09
193.908	38.97
194.375	13.25
194.842	64.38
195.31	49.98
195.777	-2.88
196.244	-15.72
196.711	6.98
197.177	7.97
197.644	9.86
198.111	10.24
198.578	11.17
199.045	11.82
199.511	12.24
199.978	12.85
200.445	13.72
200.911	14.1
201.378	14.65
201.844	15.16
202.31	16.11
202.777	16.68
203.243	17.24
203.709	17.7
204.176	17.51
204.642	17.72
205.108	17.72
205.574	17.91
206.04	18.46
206.506	18.51
206.972	19.16
207.438	18.97
207.903	19.35
208.369	19.3
208.835	19.38
209.301	19.54
209.766	19.82
210.232	20.13
210.697	20.06
211.163	19.87
211.628	19.91
212.094	19.93
212.559	19.91
213.024	19.58
213.49	19.49
213.955	19.51
214.42	19.59
214.885	19.51
215.35	19.31
215.815	19.23
216.28	19.48
216.745	19.88
217.21	19.71
217.675	19.81
218.14	19.76
218.604	19.63
219.069	19.57
219.534	19.4
219.998	19.22
220.463	19.13
220.927	19.01
221.392	18.81
221.856	18.56
222.32	18.41
222.785	18.25
223.249	18.11
223.713	18.04
224.177	17.88
224.642	17.8
225.106	17.69
225.57	17.57
226.034	17.44
226.497	17.28
226.961	17.17
227.425	17.04
227.889	16.9
228.353	16.75
228.816	16.6
229.28	16.43
229.744	16.26
230.207	16.13
230.671	15.95
231.134	15.8
231.597	15.66
232.061	15.51
232.524	15.37
232.987	15.24
233.45	15.1
233.914	14.97
234.377	14.86
234.84	14.72
235.303	14.57
235.766	14.44
236.229	14.3
236.691	14.2
237.154	14.07
237.617	13.94
238.08	13.82
238.542	13.7
239.005	13.56
239.468	13.42
239.93	13.31
240.393	13.21
240.855	13.09
241.317	13
241.78	12.89
242.242	12.8
242.704	12.68
243.166	12.58
243.629	12.5
244.091	12.42
244.553	12.34
245.015	12.26
245.477	12.18
245.939	12.11
246.4	12.03
246.862	11.97
247.324	11.9
247.786	11.86
248.247	11.79
248.709	11.72
249.17	11.65
249.632	11.57
250.093	11.48
250.555	11.43
251.016	11.37
251.477	11.3
251.939	11.24
252.4	11.18
252.861	11.12
253.322	11.06
253.783	11.01
254.244	10.97
254.705	10.94
255.166	10.92
255.627	10.87
256.088	10.81
256.549	10.78
257.009	10.73
257.47	10.69
257.931	10.65
258.391	10.6
258.852	10.56
259.312	10.52
259.773	10.47
260.233	10.42
260.694	10.38
261.154	10.35
261.614	10.3
262.074	10.27
262.534	10.22
262.994	10.18
263.455	10.15
263.915	10.11
264.374	10.08
264.834	10.04
265.294	10
265.754	9.96
266.214	9.93
266.673	9.91
267.133	9.87
267.593	9.84
268.052	9.81
268.512	9.78
268.971	9.75
269.431	9.73
269.89	9.71
270.349	9.68
270.809	9.67
271.268	9.65
271.727	9.61
272.186	9.59
272.645	9.55
273.104	9.53
273.563	9.51
274.022	9.49
274.481	9.45
274.94	9.43
275.399	9.4
275.857	9.37
276.316	9.34
276.775	9.3
277.233	9.27
277.692	9.24
278.15	9.2
278.609	9.17
279.067	9.13
279.525	9.1
279.984	9.06
280.442	9.03
280.9	8.99
281.358	8.96
281.816	8.93
282.274	8.91
282.732	8.89
283.19	8.87
283.648	8.86
284.106	8.83
284.564	8.81
285.021	8.79
285.479	8.78
285.937	8.75
286.394	8.73
286.852	8.72
287.309	8.7
287.767	8.69
288.224	8.67
288.682	8.65
289.139	8.65
289.596	8.61
290.053	8.58
290.511	8.55
290.968	8.53
291.425	8.51
291.882	8.49
292.339	8.46
292.796	8.44
293.252	8.4
293.709	8.38
294.166	8.35
294.623	8.34
295.079	8.32
295.536	8.31
295.992	8.28
296.449	8.27
296.905	8.24
297.362	8.22
297.818	8.2
298.274	8.2
298.731	8.18
299.187	8.15
299.643	8.14
300.099	8.13
300.555	8.1
301.011	8.09
301.467	8.07
301.923	8.06
302.379	8.04
302.835	8.03
303.291	8.01
303.746	7.99
304.202	7.97
304.658	7.95
305.113	7.93
305.569	7.92
306.024	7.91
306.479	7.89
306.935	7.87
307.39	7.86
307.845	7.85
308.301	7.84
308.756	7.83
309.211	7.82
309.666	7.82
310.121	7.8
310.576	7.79
311.031	7.78
311.486	7.77
311.94	7.76
312.395	7.75
312.85	7.74
313.305	7.73
313.759	7.72
314.214	7.71
314.668	7.7
315.123	7.69
315.577	7.69
316.032	7.69
316.486	7.67
316.94	7.66
317.394	7.65
317.849	7.64
318.303	7.64
318.757	7.62
319.211	7.6
319.665	7.59
320.119	7.58
320.572	7.56
321.026	7.54
321.48	7.52
321.934	7.52
322.387	7.5
322.841	7.48
323.295	7.46
323.748	7.45
324.202	7.43
324.655	7.4
325.108	7.38
325.562	7.35
326.015	7.34
326.468	7.32
326.921	7.29
327.374	7.28
327.827	7.26
328.28	7.24
328.733	7.22
329.186	7.2
329.639	7.18
330.092	7.18
330.545	7.18
330.997	7.17
331.45	7.15
331.903	7.14
332.355	7.13
332.808	7.12
333.26	7.11
333.713	7.11
334.165	7.11
334.617	7.11
335.069	7.12
335.522	7.11
335.974	7.11
336.426	7.11
336.878	7.1
337.33	7.09
337.782	7.1
338.234	7.08
338.686	7.07
339.137	7.07
339.589	7.06
340.041	7.04
340.493	7.02
340.944	7
341.396	6.99
341.847	6.98
342.299	6.96
342.75	6.94
343.201	6.93
343.653	6.9
344.104	6.89
344.555	6.87
345.006	6.85
345.457	6.85
345.908	6.84
346.359	6.83
346.81	6.83
347.261	6.81
347.712	6.8
348.163	6.8
348.613	6.79
349.064	6.77
349.515	6.75
349.965	6.73
350.416	6.72
350.866	6.71
351.317	6.7
351.767	6.68
352.217	6.67
352.668	6.67
353.118	6.67
353.568	6.68
354.018	6.71
354.468	6.71
354.918	6.73
355.368	6.74
355.818	6.73
356.268	6.74
356.718	6.74
357.168	6.73
357.617	6.73
358.067	6.73
358.517	6.71
358.966	6.7
359.416	6.7
359.865	6.69
360.315	6.69
360.764	6.7
361.213	6.69
361.663	6.7
362.112	6.72
362.561	6.73
363.01	6.74
363.459	6.75
363.908	6.76
364.357	6.76
364.806	6.77
365.255	6.78
365.703	6.78
366.152	6.79
366.601	6.78
367.05	6.77
367.498	6.78
367.947	6.79
368.395	6.81
368.844	6.82
369.292	6.83
369.74	6.84
370.189	6.85
370.637	6.85
371.085	6.87
371.533	6.89
371.981	6.91
372.429	6.91
372.877	6.92
373.325	6.93
373.773	6.94
374.221	6.95
374.669	6.97
375.116	6.98
375.564	6.99
376.012	7
376.459	7.01
376.907	7.03
377.354	7.05
377.801	7.06
378.249	7.08
378.696	7.1
379.143	7.12
379.591	7.14
380.038	7.16
380.485	7.18
380.932	7.2
381.379	7.21
381.826	7.23
382.273	7.26
382.72	7.29
383.166	7.3
383.613	7.32
384.06	7.33
384.506	7.35
384.953	7.37
385.4	7.39
385.846	7.4
386.292	7.43
386.739	7.45
387.185	7.48
387.631	7.49
388.078	7.52
388.524	7.52
388.97	7.54
389.416	7.55
389.862	7.56
390.308	7.56
390.754	7.59
391.2	7.61
391.645	7.62
392.091	7.63
392.537	7.64
392.983	7.66
393.428	7.68
393.874	7.71
394.319	7.73
394.765	7.74
395.21	7.75
395.655	7.76
396.101	7.77
396.546	7.78
396.991	7.78
397.436	7.77
397.881	7.78
398.326	7.8
398.771	7.8
399.216	7.83
399.661	7.85
400.106	7.89
400.551	7.9
400.995	7.9
401.44	7.9
401.885	7.9
402.329	7.9
402.774	7.89
403.218	7.88
403.663	7.87
404.107	7.86
404.551	7.86
404.995	7.84
405.44	7.83
405.884	7.84
406.328	7.84
406.772	7.84
407.216	7.85
407.66	7.86
408.104	7.88
408.547	7.87
408.991	7.84
409.435	7.83
409.879	7.82
410.322	7.81
410.766	7.8
411.209	7.8
411.653	7.79
412.096	7.77
412.54	7.77
412.983	7.75
413.426	7.77
413.869	7.77
414.312	7.79
414.756	7.8
415.199	7.81
415.642	7.83
416.085	7.84
416.527	7.86
416.97	7.88
417.413	7.88
417.856	7.86
418.298	7.85
418.741	7.84
419.184	7.83
419.626	7.82
420.069	7.82
420.511	7.79
420.953	7.78
421.396	7.76
421.838	7.76
422.28	7.77
422.722	7.79
423.164	7.79
423.606	7.79
424.048	7.76
424.49	7.77
424.932	7.76
425.374	7.77
425.816	7.76
426.258	7.73
426.699	7.7
427.141	7.63
427.582	7.6
428.024	7.58
428.465	7.57
428.907	7.6
429.348	7.59
429.789	7.61
430.231	7.58
430.672	7.58
431.113	7.58
431.554	7.58
431.995	7.61
432.436	7.61
432.877	7.61
433.318	7.61
433.759	7.58
434.2	7.56
434.64	7.53
435.081	7.52
435.522	7.53
435.962	7.56
436.403	7.58
436.843	7.59
437.284	7.61
437.724	7.64
438.164	7.64
438.604	7.65
439.045	7.64
439.485	7.68
439.925	7.7
440.365	7.68
440.805	7.66
441.245	7.63
441.685	7.63
442.125	7.63
442.564	7.63
443.004	7.66
443.444	7.67
443.883	7.68
444.323	7.67
444.762	7.72
445.202	7.77
445.641	7.8
446.081	7.85
446.52	7.86
446.959	7.87
447.398	7.9
447.837	7.93
448.276	7.94
448.716	7.95
449.154	7.99
449.593	8.01
450.032	8.01
450.471	8.03
450.91	8.04
451.349	8.06
451.787	8.06
452.226	8.04
452.664	8.02
453.103	8.04
453.541	8.05
453.98	8.03
454.418	8.01
454.856	8
455.295	7.98
455.733	7.97
456.171	7.96
456.609	7.96
457.047	7.94
457.485	7.93
457.923	7.91
458.361	7.91
458.798	7.9
459.236	7.9
459.674	7.91
460.111	7.9
460.549	7.88
460.987	7.87
461.424	7.87
461.862	7.87
462.299	7.87
462.736	7.87
463.173	7.86
463.611	7.85
464.048	7.84
464.485	7.84
464.922	7.82
465.359	7.84
465.796	7.82
466.233	7.82
466.67	7.82
467.106	7.8
467.543	7.81
467.98	7.8
468.416	7.83
468.853	7.82
469.29	7.83
469.726	7.85
470.162	7.84
470.599	7.86
471.035	7.86
471.471	7.86
471.907	7.89
472.344	7.89
472.78	7.9
473.216	7.89
473.652	7.9
474.088	7.88
474.523	7.88
474.959	7.88
475.395	7.88
475.831	7.88
476.266	7.88
476.702	7.89
477.138	7.89
477.573	7.88
478.008	7.89
478.444	7.89
478.879	7.88
479.314	7.87
479.75	7.87
480.185	7.87
480.62	7.87
481.055	7.88
481.49	7.85
481.925	7.84
482.36	7.83
482.795	7.82
483.229	7.81
483.664	7.8
484.099	7.8
484.534	7.8
484.968	7.8
485.403	7.79
485.837	7.78
486.271	7.78
486.706	7.79
487.14	7.81
487.574	7.83
488.009	7.84
488.443	7.86
488.877	7.87
489.311	7.89
489.745	7.91
490.179	7.93
490.613	7.96
491.046	8
491.48	8.04
491.914	8.05
492.348	8.08
492.781	8.11
493.215	8.13
493.648	8.17
494.082	8.21
494.515	8.23
494.948	8.27
495.382	8.31
495.815	8.36
496.248	8.4
496.681	8.44
497.114	8.5
497.547	8.56
497.98	8.62
498.413	8.68
498.846	8.75
499.279	8.81
499.711	8.87
500.144	8.94
500.577	9
501.009	9.07
501.442	9.16
501.874	9.23
502.306	9.31
502.739	9.4
503.171	9.49
503.603	9.59
504.036	9.71
504.468	9.84
504.9	9.96
505.332	10.1
505.764	10.26
506.196	10.41
506.627	10.56
507.059	10.71
507.491	10.89
507.923	11.05
508.354	11.22
508.786	11.4
509.217	11.56
509.649	11.76
510.08	11.95
510.512	12.13
510.943	12.33
511.374	12.54
511.805	12.74
512.237	12.95
512.668	13.15
513.099	13.37
513.53	13.59
513.961	13.83
514.391	14.06
514.822	14.29
515.253	14.52
515.684	14.75
516.114	15
516.545	15.25
516.975	15.52
517.406	15.79
517.836	16.02
518.267	16.29
518.697	16.55
519.127	16.82
519.558	17.07
519.988	17.33
520.418	17.59
520.848	17.84
521.278	18.09
521.708	18.27
522.138	18.5
522.567	18.75
522.997	18.98
523.427	19.21
523.857	19.39
524.286	19.62
524.716	19.83
525.145	20.05
525.575	20.25
526.004	20.45
526.433	20.69
526.863	20.91
527.292	21.09
527.721	21.25
528.15	21.41
528.579	21.58
529.008	21.74
529.437	21.88
529.866	21.99
530.295	22.12
530.724	22.24
531.152	22.37
531.581	22.47
532.01	22.58
532.438	22.69
532.867	22.8
533.295	22.9
533.723	23
534.152	23.09
534.58	23.17
535.008	23.22
535.436	23.26
535.865	23.3
536.293	23.35
536.721	23.4
537.149	23.43
537.576	23.48
538.004	23.5
538.432	23.52
538.86	23.56
539.287	23.59
539.715	23.66
540.143	23.72
540.57	23.77
540.998	23.81
541.425	23.84
541.852	23.88
542.28	23.89
542.707	23.93
543.134	23.94
543.561	23.97
543.988	23.98
544.415	24.02
544.842	24.03
545.269	24.06
545.696	24.06
546.123	24.07
546.549	24.09
546.976	24.13
547.403	24.14
547.829	24.18
548.256	24.21
548.682	24.23
549.108	24.24
549.535	24.27
549.961	24.28
550.387	24.31
550.813	24.32
551.24	24.32
551.666	24.33
552.092	24.33
552.518	24.32
552.943	24.3
553.369	24.28
553.795	24.26
554.221	24.22
554.646	24.18
555.072	24.13
555.498	24.1
555.923	24.09
556.349	24.05
556.774	24
557.199	23.96
557.625	23.89
558.05	23.82
558.475	23.74
558.9	23.68
559.325	23.6
559.75	23.52
560.175	23.43
560.6	23.3
561.025	23.19
561.449	23.07
561.874	22.96
562.299	22.86
562.723	22.76
563.148	22.64
563.572	22.5
563.997	22.38
564.421	22.25
564.846	22.12
565.27	22
565.694	21.86
566.118	21.71
566.542	21.56
566.966	21.4
567.39	21.23
567.814	21.09
568.238	20.92
568.662	20.78
569.086	20.63
569.509	20.47
569.933	20.3
570.357	20.14
570.78	20
571.204	19.85
571.627	19.7
572.05	19.57
572.474	19.43
572.897	19.32
573.32	19.17
573.743	19.03
574.166	18.9
574.589	18.79
575.012	18.69
575.435	18.56
575.858	18.46
576.281	18.36
576.704	18.25
577.126	18.16
577.549	18.07
577.972	17.98
578.394	17.88
578.817	17.82
579.239	17.72
579.661	17.63
580.084	17.56
580.506	17.48
580.928	17.41
581.35	17.34
581.772	17.28
582.194	17.2
582.616	17.12
583.038	17.07
583.46	16.99
583.882	16.94
584.303	16.88
584.725	16.81
585.147	16.73
585.568	16.65
585.99	16.6
586.411	16.52
586.833	16.47
587.254	16.43
587.675	16.38
588.096	16.32
588.518	16.27
588.939	16.22
589.36	16.15
589.781	16.12
590.202	16.07
590.623	16.02
591.043	15.98
591.464	15.93
591.885	15.88
592.305	15.83
592.726	15.79
593.147	15.77
593.567	15.73
593.987	15.75
594.408	15.72
594.828	15.7
595.248	15.67
595.669	15.65
596.089	15.64
596.509	15.6
596.929	15.57
597.349	15.54
597.769	15.5
598.189	15.47
598.608	15.41
599.028	15.36
599.448	15.32
599.867	15.28
600.287	15.23
600.706	15.17
601.126	15.14
601.545	15.08
601.965	15.04
602.384	15
602.803	14.95
603.222	14.9
603.641	14.86
604.061	14.8
604.48	14.75
604.898	14.69
605.317	14.64
605.736	14.57
606.155	14.51
606.574	14.45
606.992	14.38
607.411	14.33
607.829	14.22
608.248	14.16
608.666	14.1
609.085	14.06
609.503	14
609.921	13.93
610.339	13.89
610.758	13.84
611.176	13.79
611.594	13.73
612.012	13.66
612.43	13.65
612.847	13.59
613.265	13.53
613.683	13.45
614.101	13.39
614.518	13.33
614.936	13.28
615.353	13.23
615.771	13.18
616.188	13.13
616.606	13.07
617.023	13.02
617.44	12.97
617.857	12.91
618.274	12.88
618.691	12.85
619.108	12.82
619.525	12.77
619.942	12.72
620.359	12.69
620.776	12.65
621.192	12.63
621.609	12.6
622.026	12.58
622.442	12.56
622.859	12.53
623.275	12.52
623.691	12.5
624.108	12.49
624.524	12.48
624.94	12.46
625.356	12.46
625.772	12.44
626.188	12.44
626.604	12.43
627.02	12.43
627.436	12.41
627.852	12.39
628.268	12.37
628.683	12.35
629.099	12.34
629.514	12.31
629.93	12.29
630.345	12.24
630.761	12.2
631.176	12.17
631.591	12.12
632.007	12.08
632.422	12.05
632.837	12
633.252	11.95
633.667	11.88
634.082	11.83
634.497	11.74
634.911	11.68
635.326	11.6
635.741	11.52
636.155	11.45
636.57	11.35
636.984	11.24
637.399	11.13
637.813	11.01
638.228	10.9
638.642	10.78
639.056	10.67
639.47	10.56
639.884	10.45
640.298	10.35
640.712	10.24
641.126	10.14
641.54	10.05
641.954	9.96
642.368	9.87
642.781	9.78
643.195	9.69
643.609	9.6
644.022	9.52
644.436	9.44
644.849	9.35
645.262	9.28
645.676	9.21
646.089	9.13
646.502	9.07
646.915	9.01
647.328	8.96
647.741	8.91
648.154	8.89
648.567	8.86
648.98	8.84
649.393	8.82
649.805	8.78
650.218	8.75
650.631	8.72
651.043	8.69
651.456	8.69
651.868	8.66
652.28	8.64
652.693	8.61
653.105	8.58
653.517	8.55
653.929	8.51
654.341	8.49
654.753	8.46
655.165	8.43
655.577	8.39
655.989	8.33
656.401	8.3
656.813	8.26
657.224	8.21
657.636	8.18
658.047	8.13
658.459	8.07
658.87	8.02
659.282	7.97
659.693	7.93
660.104	7.89
660.515	7.85
660.926	7.81
661.338	7.77
661.749	7.72
662.159	7.66
662.57	7.63
662.981	7.6
663.392	7.56
663.803	7.52
664.213	7.48
664.624	7.45
665.035	7.41
665.445	7.37
665.855	7.34
666.266	7.31
666.676	7.28
667.086	7.26
667.497	7.23
667.907	7.21
668.317	7.21
668.727	7.21
669.137	7.19
669.547	7.19
669.956	7.18
670.366	7.19
670.776	7.2
671.186	7.2
671.595	7.21
672.005	7.22
672.414	7.25
672.824	7.27
673.233	7.29
673.642	7.31
674.052	7.33
674.461	7.35
674.87	7.36
675.279	7.39
675.688	7.41
676.097	7.44
676.506	7.46
676.915	7.49
677.323	7.52
677.732	7.55
678.141	7.6
678.549	7.66
678.958	7.72
679.366	7.77
679.775	7.82
680.183	7.89
680.592	7.97
681	8.04
681.408	8.12
681.816	8.18
682.224	8.27
682.632	8.37
683.04	8.46
683.448	8.57
683.856	8.71
684.264	8.85
684.671	9.01
685.079	9.18
685.487	9.39
685.894	9.61
686.302	9.85
686.709	10.09
687.116	10.36
687.524	10.65
687.931	10.96
688.338	11.3
688.745	11.67
689.152	12.05
689.559	12.44
689.966	12.86
690.373	13.3
690.78	13.76
691.187	14.24
691.593	14.73
692	15.25
692.407	15.79
692.813	16.34
693.22	16.86
693.626	17.41
694.032	17.98
694.439	18.57
694.845	19.13
695.251	19.72
695.657	20.29
696.063	20.87
696.469	21.45
696.875	22.01
697.281	22.54
697.687	23.13
698.093	23.68
698.498	24.24
698.904	24.78
699.31	25.34
699.715	25.87
700.12	26.39
700.526	26.93
700.931	27.45
701.337	27.98
701.742	28.49
702.147	28.99
702.552	29.51
702.957	29.99
703.362	30.48
703.767	30.94
704.172	31.42
704.577	31.9
704.981	32.35
705.386	32.8
705.791	33.24
706.195	33.68
706.6	34.09
707.004	34.53
707.408	34.95
707.813	35.35
708.217	35.71
708.621	36.12
709.025	36.5
709.43	36.84
709.834	37.22
710.237	37.58
710.641	37.96
711.045	38.31
711.449	38.65
711.853	39
712.256	39.37
712.66	39.76
713.064	40.07
713.467	40.38
713.87	40.73
714.274	41.07
714.677	41.36
715.08	41.66
715.484	42
715.887	42.31
716.29	42.6
716.693	42.87
717.096	43.15
717.499	43.46
717.901	43.74
718.304	44.01
718.707	44.28
719.109	44.57
719.512	44.85
719.915	45.07
720.317	45.31
720.719	45.56
721.122	45.75
721.524	45.99
721.926	46.19
722.328	46.41
722.731	46.64
723.133	46.85
723.535	47.05
723.937	47.23
724.338	47.41
724.74	47.59
725.142	47.7
725.544	47.92
725.945	48.08
726.347	48.24
726.748	48.38
727.15	48.5
727.551	48.65
727.952	48.8
728.354	48.96
728.755	49.12
729.156	49.27
729.557	49.47
729.958	49.63
730.359	49.78
730.76	49.87
731.161	50.03
731.562	50.14
731.962	50.26
732.363	50.36
732.763	50.45
733.164	50.55
733.564	50.6
733.965	50.68
734.365	50.7
734.766	50.75
735.166	50.83
735.566	50.83
735.966	50.89
736.366	50.91
736.766	50.92
737.166	50.95
737.566	50.97
737.966	51.03
738.365	51.07
738.765	51.12
739.165	51.14
739.564	51.18
739.964	51.25
740.363	51.32
740.763	51.35
741.162	51.39
741.561	51.43
741.96	51.48
742.36	51.53
742.759	51.55
743.158	51.57
743.557	51.63
743.955	51.7
744.354	51.78
744.753	51.81
745.152	51.85
745.55	51.91
745.949	51.93
746.348	51.98
746.746	52
747.144	52.07
747.543	52.11
747.941	52.13
748.339	52.2
748.737	52.21
749.136	52.23
749.534	52.25
749.932	52.26
750.33	52.3
750.727	52.3
751.125	52.33
751.523	52.33
751.921	52.37
752.318	52.41
752.716	52.36
753.113	52.35
753.511	52.34
753.908	52.32
754.305	52.31
754.703	52.3
755.1	52.29
755.497	52.22
755.894	52.18
756.291	52.08
756.688	52
757.085	51.98
757.482	51.93
757.878	51.9
758.275	51.88
758.672	51.88
759.068	51.86
759.465	51.83
759.861	51.83
760.258	51.81
760.654	51.84
761.05	51.84
761.447	51.83
761.843	51.83
762.239	51.81
762.635	51.8
763.031	51.77
763.427	51.75
763.822	51.73
764.218	51.73
764.614	51.74
765.01	51.74
765.405	51.72
765.801	51.7
766.196	51.7
766.592	51.69
766.987	51.68
767.382	51.69
767.778	51.7
768.173	51.72
768.568	51.72
768.963	51.71
769.358	51.67
769.753	51.69
770.148	51.68
770.542	51.67
770.937	51.69
771.332	51.7
771.726	51.67
772.121	51.64
772.515	51.62
772.91	51.6
773.304	51.61
773.699	51.62
774.093	51.6
774.487	51.62
774.881	51.64
775.275	51.63
775.669	51.62
776.063	51.6
776.457	51.6
776.851	51.59
777.245	51.62
777.638	51.61
778.032	51.63
778.425	51.63
778.819	51.64
779.212	51.62
779.606	51.59
779.999	51.62
780.392	51.62
780.786	51.61
