Data from C_2_div_wi_4n_062_Splice17_20.txt Node
Date: Sat Feb 29 14:29:27 EST 2020
User: sa697716
Spectrometer: FLMS03696
Trigger mode: 0
Integration Time (sec): 3.180400E-1
Scans to average: 20
Electric dark correction enabled: true
Nonlinearity correction enabled: true
Boxcar width: 5
XAxis mode: Wavelengths
Number of Pixels in Spectrum: 2048
>>>>>Begin Spectral Data<<<<<
187.83	102.24
188.298	118.57
188.766	97.17
189.233	92.13
189.701	95.25
190.169	92.08
190.636	89.4
191.104	75.29
191.571	285.38
192.039	228.32
192.506	146.24
192.974	10908.58
193.441	-1538.09
193.908	216.1
194.375	257.52
194.842	218.16
195.31	90.48
195.777	-12.52
196.244	-16.6
196.711	11.23
197.177	10.49
197.644	12.74
198.111	12.14
198.578	12.26
199.045	13.09
199.511	14.13
199.978	14.94
200.445	15.53
200.911	16.16
201.378	16.75
201.844	17.33
202.31	18.31
202.777	18.51
203.243	19.49
203.709	19.88
204.176	19.73
204.642	19.85
205.108	20.11
205.574	20.39
206.04	20.76
206.506	20.89
206.972	20.69
207.438	20.3
207.903	20.24
208.369	19.92
208.835	20.22
209.301	20.4
209.766	20.43
210.232	20.3
210.697	20.13
211.163	19.68
211.628	19.15
212.094	19.18
212.559	18.66
213.024	18.71
213.49	18.31
213.955	18.08
214.42	17.65
214.885	17.27
215.35	16.93
215.815	16.21
216.28	15.95
216.745	15.59
217.21	14.85
217.675	14.52
218.14	13.77
218.604	13.29
219.069	12.9
219.534	12.49
219.998	12.19
220.463	11.86
220.927	11.65
221.392	11.35
221.856	11.09
222.32	10.87
222.785	10.69
223.249	10.54
223.713	10.41
224.177	10.2
224.642	10.12
225.106	9.97
225.57	9.81
226.034	9.68
226.497	9.61
226.961	9.49
227.425	9.35
227.889	9.23
228.353	9.09
228.816	8.98
229.28	8.85
229.744	8.73
230.207	8.63
230.671	8.56
231.134	8.47
231.597	8.31
232.061	8.22
232.524	8.17
232.987	8.05
233.45	7.97
233.914	7.87
234.377	7.82
234.84	7.72
235.303	7.64
235.766	7.55
236.229	7.46
236.691	7.4
237.154	7.33
237.617	7.24
238.08	7.19
238.542	7.12
239.005	7.05
239.468	6.94
239.93	6.87
240.393	6.8
240.855	6.73
241.317	6.67
241.78	6.62
242.242	6.55
242.704	6.49
243.166	6.42
243.629	6.35
244.091	6.29
244.553	6.26
245.015	6.22
245.477	6.15
245.939	6.1
246.4	6.04
246.862	5.99
247.324	5.95
247.786	5.9
248.247	5.85
248.709	5.81
249.17	5.77
249.632	5.71
250.093	5.64
250.555	5.61
251.016	5.57
251.477	5.53
251.939	5.48
252.4	5.44
252.861	5.41
253.322	5.36
253.783	5.34
254.244	5.3
254.705	5.27
255.166	5.26
255.627	5.24
256.088	5.2
256.549	5.17
257.009	5.14
257.47	5.11
257.931	5.07
258.391	5.04
258.852	5.01
259.312	4.98
259.773	4.95
260.233	4.91
260.694	4.87
261.154	4.84
261.614	4.81
262.074	4.79
262.534	4.75
262.994	4.72
263.455	4.69
263.915	4.66
264.374	4.63
264.834	4.61
265.294	4.58
265.754	4.55
266.214	4.54
266.673	4.51
267.133	4.49
267.593	4.47
268.052	4.44
268.512	4.42
268.971	4.4
269.431	4.38
269.89	4.36
270.349	4.34
270.809	4.32
271.268	4.3
271.727	4.28
272.186	4.26
272.645	4.24
273.104	4.22
273.563	4.21
274.022	4.19
274.481	4.17
274.94	4.15
275.399	4.13
275.857	4.12
276.316	4.1
276.775	4.08
277.233	4.06
277.692	4.04
278.15	4.02
278.609	4
279.067	3.98
279.525	3.96
279.984	3.94
280.442	3.93
280.9	3.91
281.358	3.89
281.816	3.88
282.274	3.87
282.732	3.85
283.19	3.84
283.648	3.84
284.106	3.82
284.564	3.82
285.021	3.8
285.479	3.79
285.937	3.78
286.394	3.77
286.852	3.76
287.309	3.75
287.767	3.74
288.224	3.73
288.682	3.71
289.139	3.7
289.596	3.68
290.053	3.66
290.511	3.64
290.968	3.62
291.425	3.61
291.882	3.6
292.339	3.58
292.796	3.56
293.252	3.55
293.709	3.54
294.166	3.52
294.623	3.51
295.079	3.5
295.536	3.49
295.992	3.48
296.449	3.47
296.905	3.46
297.362	3.44
297.818	3.43
298.274	3.42
298.731	3.41
299.187	3.4
299.643	3.4
300.099	3.39
300.555	3.37
301.011	3.36
301.467	3.34
301.923	3.35
302.379	3.34
302.835	3.33
303.291	3.32
303.746	3.3
304.202	3.3
304.658	3.28
305.113	3.28
305.569	3.28
306.024	3.27
306.479	3.26
306.935	3.25
307.39	3.25
307.845	3.24
308.301	3.24
308.756	3.25
309.211	3.24
309.666	3.24
310.121	3.24
310.576	3.23
311.031	3.23
311.486	3.23
311.94	3.23
312.395	3.23
312.85	3.22
313.305	3.23
313.759	3.22
314.214	3.22
314.668	3.22
315.123	3.22
315.577	3.22
316.032	3.21
316.486	3.21
316.94	3.21
317.394	3.19
317.849	3.19
318.303	3.17
318.757	3.16
319.211	3.14
319.665	3.13
320.119	3.12
320.572	3.12
321.026	3.11
321.48	3.1
321.934	3.09
322.387	3.09
322.841	3.08
323.295	3.08
323.748	3.07
324.202	3.08
324.655	3.07
325.108	3.06
325.562	3.05
326.015	3.04
326.468	3.03
326.921	3.02
327.374	3.01
327.827	3
328.28	2.99
328.733	2.98
329.186	2.97
329.639	2.96
330.092	2.95
330.545	2.94
330.997	2.94
331.45	2.94
331.903	2.94
332.355	2.94
332.808	2.94
333.26	2.94
333.713	2.94
334.165	2.94
334.617	2.94
335.069	2.94
335.522	2.95
335.974	2.95
336.426	2.96
336.878	2.95
337.33	2.95
337.782	2.95
338.234	2.94
338.686	2.94
339.137	2.94
339.589	2.94
340.041	2.93
340.493	2.91
340.944	2.9
341.396	2.89
341.847	2.88
342.299	2.87
342.75	2.85
343.201	2.84
343.653	2.82
344.104	2.82
344.555	2.81
345.006	2.8
345.457	2.79
345.908	2.79
346.359	2.79
346.81	2.79
347.261	2.77
347.712	2.78
348.163	2.78
348.613	2.77
349.064	2.75
349.515	2.74
349.965	2.74
350.416	2.73
350.866	2.72
351.317	2.7
351.767	2.7
352.217	2.7
352.668	2.7
353.118	2.7
353.568	2.7
354.018	2.71
354.468	2.7
354.918	2.71
355.368	2.72
355.818	2.72
356.268	2.73
356.718	2.74
357.168	2.73
357.617	2.72
358.067	2.72
358.517	2.71
358.966	2.72
359.416	2.73
359.865	2.72
360.315	2.71
360.764	2.72
361.213	2.71
361.663	2.71
362.112	2.73
362.561	2.74
363.01	2.75
363.459	2.77
363.908	2.76
364.357	2.76
364.806	2.78
365.255	2.79
365.703	2.81
366.152	2.83
366.601	2.85
367.05	2.86
367.498	2.89
367.947	2.9
368.395	2.91
368.844	2.93
369.292	2.96
369.74	2.98
370.189	3
370.637	3.02
371.085	3.04
371.533	3.06
371.981	3.07
372.429	3.08
372.877	3.1
373.325	3.12
373.773	3.14
374.221	3.16
374.669	3.17
375.116	3.19
375.564	3.22
376.012	3.25
376.459	3.29
376.907	3.33
377.354	3.37
377.801	3.4
378.249	3.45
378.696	3.5
379.143	3.54
379.591	3.58
380.038	3.63
380.485	3.68
380.932	3.71
381.379	3.74
381.826	3.78
382.273	3.81
382.72	3.86
383.166	3.91
383.613	3.94
384.06	3.98
384.506	4.01
384.953	4.04
385.4	4.08
385.846	4.12
386.292	4.16
386.739	4.19
387.185	4.23
387.631	4.27
388.078	4.3
388.524	4.32
388.97	4.35
389.416	4.37
389.862	4.4
390.308	4.42
390.754	4.46
391.2	4.5
391.645	4.52
392.091	4.54
392.537	4.57
392.983	4.61
393.428	4.65
393.874	4.68
394.319	4.72
394.765	4.73
395.21	4.74
395.655	4.77
396.101	4.78
396.546	4.8
396.991	4.82
397.436	4.83
397.881	4.83
398.326	4.85
398.771	4.86
399.216	4.89
399.661	4.93
400.106	4.96
400.551	4.96
400.995	4.98
401.44	4.98
401.885	4.98
402.329	4.98
402.774	4.98
403.218	4.98
403.663	4.98
404.107	4.98
404.551	4.97
404.995	4.97
405.44	4.97
405.884	4.96
406.328	4.95
406.772	4.96
407.216	4.97
407.66	4.97
408.104	4.97
408.547	4.98
408.991	4.97
409.435	4.98
409.879	4.97
410.322	4.98
410.766	4.99
411.209	5.01
411.653	5
412.096	4.99
412.54	4.99
412.983	4.98
413.426	4.99
413.869	4.99
414.312	5.01
414.756	5.02
415.199	5.03
415.642	5.05
416.085	5.06
416.527	5.08
416.97	5.09
417.413	5.11
417.856	5.11
418.298	5.09
418.741	5.09
419.184	5.07
419.626	5.06
420.069	5.06
420.511	5.04
420.953	5.03
421.396	5.03
421.838	5.03
422.28	5.03
422.722	5.05
423.164	5.06
423.606	5.06
424.048	5.06
424.49	5.08
424.932	5.08
425.374	5.08
425.816	5.06
426.258	5.05
426.699	5.02
427.141	5
427.582	4.99
428.024	4.99
428.465	4.98
428.907	4.98
429.348	4.98
429.789	4.99
430.231	4.98
430.672	4.97
431.113	4.99
431.554	5.01
431.995	5.02
432.436	5.03
432.877	5.01
433.318	5.01
433.759	5
434.2	4.99
434.64	4.99
435.081	5
435.522	5.01
435.962	5.01
436.403	5.01
436.843	4.99
437.284	5
437.724	5.02
438.164	5.05
438.604	5.07
439.045	5.08
439.485	5.08
439.925	5.11
440.365	5.13
440.805	5.15
441.245	5.15
441.685	5.19
442.125	5.18
442.564	5.21
443.004	5.22
443.444	5.23
443.883	5.24
444.323	5.24
444.762	5.26
445.202	5.29
445.641	5.31
446.081	5.36
446.52	5.36
446.959	5.39
447.398	5.41
447.837	5.45
448.276	5.48
448.716	5.5
449.154	5.54
449.593	5.54
450.032	5.57
450.471	5.58
450.91	5.57
451.349	5.57
451.787	5.58
452.226	5.56
452.664	5.55
453.103	5.55
453.541	5.55
453.98	5.53
454.418	5.53
454.856	5.51
455.295	5.51
455.733	5.52
456.171	5.53
456.609	5.53
457.047	5.52
457.485	5.52
457.923	5.52
458.361	5.51
458.798	5.53
459.236	5.53
459.674	5.52
460.111	5.52
460.549	5.5
460.987	5.51
461.424	5.5
461.862	5.5
462.299	5.49
462.736	5.49
463.173	5.49
463.611	5.47
464.048	5.47
464.485	5.47
464.922	5.46
465.359	5.45
465.796	5.42
466.233	5.43
466.67	5.44
467.106	5.43
467.543	5.43
467.98	5.43
468.416	5.43
468.853	5.43
469.29	5.45
469.726	5.45
470.162	5.45
470.599	5.46
471.035	5.47
471.471	5.46
471.907	5.48
472.344	5.48
472.78	5.48
473.216	5.5
473.652	5.5
474.088	5.49
474.523	5.5
474.959	5.51
475.395	5.51
475.831	5.52
476.266	5.53
476.702	5.52
477.138	5.52
477.573	5.52
478.008	5.52
478.444	5.51
478.879	5.52
479.314	5.51
479.75	5.52
480.185	5.52
480.62	5.52
481.055	5.51
481.49	5.51
481.925	5.5
482.36	5.5
482.795	5.49
483.229	5.49
483.664	5.5
484.099	5.5
484.534	5.51
484.968	5.5
485.403	5.51
485.837	5.51
486.271	5.52
486.706	5.52
487.14	5.54
487.574	5.56
488.009	5.58
488.443	5.58
488.877	5.6
489.311	5.6
489.745	5.63
490.179	5.65
490.613	5.68
491.046	5.7
491.48	5.74
491.914	5.76
492.348	5.8
492.781	5.83
493.215	5.86
493.648	5.91
494.082	5.97
494.515	6
494.948	6.05
495.382	6.11
495.815	6.17
496.248	6.22
496.681	6.28
497.114	6.33
497.547	6.4
497.98	6.47
498.413	6.54
498.846	6.61
499.279	6.71
499.711	6.79
500.144	6.88
500.577	6.97
501.009	7.06
501.442	7.17
501.874	7.28
502.306	7.41
502.739	7.52
503.171	7.65
503.603	7.78
504.036	7.91
504.468	8.07
504.9	8.23
505.332	8.4
505.764	8.57
506.196	8.75
506.627	8.94
507.059	9.13
507.491	9.35
507.923	9.56
508.354	9.78
508.786	10
509.217	10.22
509.649	10.47
510.08	10.73
510.512	10.99
510.943	11.24
511.374	11.51
511.805	11.79
512.237	12.07
512.668	12.36
513.099	12.65
513.53	12.97
513.961	13.28
514.391	13.57
514.822	13.87
515.253	14.18
515.684	14.5
516.114	14.84
516.545	15.16
516.975	15.5
517.406	15.82
517.836	16.15
518.267	16.48
518.697	16.83
519.127	17.16
519.558	17.51
519.988	17.82
520.418	18.13
520.848	18.43
521.278	18.73
521.708	18.98
522.138	19.27
522.567	19.57
522.997	19.84
523.427	20.12
523.857	20.4
524.286	20.66
524.716	20.94
525.145	21.23
525.575	21.49
526.004	21.73
526.433	22.04
526.863	22.3
527.292	22.54
527.721	22.79
528.15	22.99
528.579	23.2
529.008	23.41
529.437	23.59
529.866	23.76
530.295	23.95
530.724	24.15
531.152	24.3
531.581	24.43
532.01	24.57
532.438	24.69
532.867	24.82
533.295	24.91
533.723	25.01
534.152	25.12
534.58	25.22
535.008	25.29
535.436	25.35
535.865	25.41
536.293	25.5
536.721	25.55
537.149	25.6
537.576	25.65
538.004	25.72
538.432	25.77
538.86	25.81
539.287	25.87
539.715	25.91
540.143	25.93
540.57	25.98
540.998	26
541.425	26.04
541.852	26.08
542.28	26.11
542.707	26.15
543.134	26.18
543.561	26.22
543.988	26.25
544.415	26.29
544.842	26.33
545.269	26.36
545.696	26.38
546.123	26.41
546.549	26.43
546.976	26.47
547.403	26.48
547.829	26.5
548.256	26.52
548.682	26.54
549.108	26.55
549.535	26.56
549.961	26.56
550.387	26.56
550.813	26.58
551.24	26.59
551.666	26.61
552.092	26.6
552.518	26.59
552.943	26.58
553.369	26.57
553.795	26.56
554.221	26.55
554.646	26.56
555.072	26.54
555.498	26.5
555.923	26.44
556.349	26.37
556.774	26.31
557.199	26.26
557.625	26.19
558.05	26.11
558.475	26.03
558.9	25.94
559.325	25.83
559.75	25.72
560.175	25.61
560.6	25.5
561.025	25.37
561.449	25.26
561.874	25.15
562.299	25.01
562.723	24.86
563.148	24.69
563.572	24.55
563.997	24.41
564.421	24.25
564.846	24.11
565.27	23.94
565.694	23.77
566.118	23.58
566.542	23.39
566.966	23.23
567.39	23.05
567.814	22.88
568.238	22.67
568.662	22.47
569.086	22.28
569.509	22.09
569.933	21.89
570.357	21.72
570.78	21.55
571.204	21.36
571.627	21.18
572.05	21.01
572.474	20.85
572.897	20.7
573.32	20.55
573.743	20.39
574.166	20.23
574.589	20.11
575.012	19.99
575.435	19.84
575.858	19.72
576.281	19.58
576.704	19.46
577.126	19.34
577.549	19.24
577.972	19.12
578.394	19.01
578.817	18.9
579.239	18.78
579.661	18.68
580.084	18.59
580.506	18.49
580.928	18.4
581.35	18.3
581.772	18.23
582.194	18.13
582.616	18.08
583.038	17.99
583.46	17.94
583.882	17.86
584.303	17.77
584.725	17.68
585.147	17.59
585.568	17.51
585.99	17.46
586.411	17.35
586.833	17.26
587.254	17.17
587.675	17.11
588.096	17.03
588.518	16.95
588.939	16.9
589.36	16.84
589.781	16.8
590.202	16.74
590.623	16.67
591.043	16.63
591.464	16.59
591.885	16.54
592.305	16.5
592.726	16.45
593.147	16.43
593.567	16.37
593.987	16.34
594.408	16.28
594.828	16.24
595.248	16.2
595.669	16.17
596.089	16.14
596.509	16.1
596.929	16.06
597.349	16.02
597.769	15.97
598.189	15.94
598.608	15.9
599.028	15.88
599.448	15.84
599.867	15.79
600.287	15.75
600.706	15.69
601.126	15.64
601.545	15.59
601.965	15.53
602.384	15.5
602.803	15.44
603.222	15.37
603.641	15.3
604.061	15.24
604.48	15.18
604.898	15.11
605.317	15.05
605.736	14.98
606.155	14.89
606.574	14.83
606.992	14.74
607.411	14.68
607.829	14.56
608.248	14.49
608.666	14.42
609.085	14.33
609.503	14.23
609.921	14.17
610.339	14.1
610.758	14.03
611.176	13.95
611.594	13.88
612.012	13.79
612.43	13.75
612.847	13.68
613.265	13.6
613.683	13.53
614.101	13.46
614.518	13.39
614.936	13.31
615.353	13.24
615.771	13.16
616.188	13.09
616.606	13.02
617.023	12.95
617.44	12.9
617.857	12.84
618.274	12.79
618.691	12.75
619.108	12.7
619.525	12.65
619.942	12.61
620.359	12.59
620.776	12.56
621.192	12.53
621.609	12.49
622.026	12.46
622.442	12.43
622.859	12.4
623.275	12.39
623.691	12.37
624.108	12.36
624.524	12.34
624.94	12.32
625.356	12.31
625.772	12.3
626.188	12.29
626.604	12.27
627.02	12.26
627.436	12.24
627.852	12.21
628.268	12.19
628.683	12.16
629.099	12.15
629.514	12.12
629.93	12.08
630.345	12.04
630.761	12
631.176	11.97
631.591	11.93
632.007	11.87
632.422	11.82
632.837	11.75
633.252	11.68
633.667	11.59
634.082	11.51
634.497	11.4
634.911	11.3
635.326	11.19
635.741	11.07
636.155	10.96
636.57	10.84
636.984	10.69
637.399	10.55
637.813	10.41
638.228	10.27
638.642	10.13
639.056	10.01
639.47	9.87
639.884	9.72
640.298	9.58
640.712	9.43
641.126	9.29
641.54	9.17
641.954	9.05
642.368	8.92
642.781	8.79
643.195	8.66
643.609	8.55
644.022	8.43
644.436	8.33
644.849	8.23
645.262	8.14
645.676	8.04
646.089	7.95
646.502	7.86
646.915	7.79
647.328	7.74
647.741	7.68
648.154	7.63
648.567	7.59
648.98	7.55
649.393	7.52
649.805	7.48
650.218	7.46
650.631	7.43
651.043	7.4
651.456	7.37
651.868	7.34
652.28	7.33
652.693	7.28
653.105	7.25
653.517	7.22
653.929	7.19
654.341	7.16
654.753	7.11
655.165	7.07
655.577	7.02
655.989	6.98
656.401	6.92
656.813	6.84
657.224	6.79
657.636	6.73
658.047	6.66
658.459	6.58
658.87	6.51
659.282	6.46
659.693	6.4
660.104	6.34
660.515	6.27
660.926	6.22
661.338	6.18
661.749	6.11
662.159	6.06
662.57	6.01
662.981	5.97
663.392	5.93
663.803	5.89
664.213	5.84
664.624	5.8
665.035	5.76
665.445	5.72
665.855	5.69
666.266	5.67
666.676	5.64
667.086	5.61
667.497	5.59
667.907	5.57
668.317	5.54
668.727	5.51
669.137	5.5
669.547	5.51
669.956	5.5
670.366	5.51
670.776	5.51
671.186	5.52
671.595	5.53
672.005	5.56
672.414	5.58
672.824	5.61
673.233	5.66
673.642	5.68
674.052	5.69
674.461	5.71
674.87	5.74
675.279	5.77
675.688	5.79
676.097	5.83
676.506	5.86
676.915	5.9
677.323	5.94
677.732	5.99
678.141	6.04
678.549	6.11
678.958	6.18
679.366	6.24
679.775	6.31
680.183	6.39
680.592	6.46
681	6.54
681.408	6.63
681.816	6.73
682.224	6.83
682.632	6.97
683.04	7.1
683.448	7.24
683.856	7.4
684.264	7.59
684.671	7.79
685.079	8.02
685.487	8.29
685.894	8.57
686.302	8.87
686.709	9.19
687.116	9.54
687.524	9.92
687.931	10.33
688.338	10.78
688.745	11.26
689.152	11.76
689.559	12.26
689.966	12.81
690.373	13.4
690.78	13.99
691.187	14.61
691.593	15.23
692	15.88
692.407	16.56
692.813	17.24
693.22	17.92
693.626	18.61
694.032	19.33
694.439	20.05
694.845	20.75
695.251	21.46
695.657	22.2
696.063	22.95
696.469	23.67
696.875	24.37
697.281	25.06
697.687	25.78
698.093	26.49
698.498	27.2
698.904	27.89
699.31	28.58
699.715	29.25
700.12	29.88
700.526	30.51
700.931	31.15
701.337	31.79
701.742	32.41
702.147	33.03
702.552	33.63
702.957	34.21
703.362	34.78
703.767	35.33
704.172	35.88
704.577	36.45
704.981	36.99
705.386	37.52
705.791	38.03
706.195	38.54
706.6	39.02
707.004	39.52
707.408	40.02
707.813	40.46
708.217	40.91
708.621	41.37
709.025	41.8
709.43	42.23
709.834	42.68
710.237	43.1
710.641	43.54
711.045	43.95
711.449	44.35
711.853	44.7
712.256	45.13
712.66	45.52
713.064	45.9
713.467	46.26
713.87	46.61
714.274	46.99
714.677	47.35
715.08	47.66
715.484	48
715.887	48.32
716.29	48.67
716.693	48.95
717.096	49.28
717.499	49.58
717.901	49.88
718.304	50.15
718.707	50.43
719.109	50.71
719.512	51
719.915	51.26
720.317	51.54
720.719	51.78
721.122	52.04
721.524	52.32
721.926	52.56
722.328	52.82
722.731	53.09
723.133	53.31
723.535	53.5
723.937	53.73
724.338	53.94
724.74	54.13
725.142	54.22
725.544	54.41
725.945	54.56
726.347	54.75
726.748	54.87
727.15	55
727.551	55.16
727.952	55.35
728.354	55.5
728.755	55.65
729.156	55.8
729.557	56.07
729.958	56.22
730.359	56.33
730.76	56.4
731.161	56.56
731.562	56.71
731.962	56.81
732.363	56.87
732.763	56.98
733.164	57.08
733.564	57.17
733.965	57.22
734.365	57.29
734.766	57.36
735.166	57.44
735.566	57.47
735.966	57.52
736.366	57.58
736.766	57.63
737.166	57.65
737.566	57.68
737.966	57.71
738.365	57.79
738.765	57.84
739.165	57.89
739.564	57.97
739.964	58.03
740.363	58.05
740.763	58.08
741.162	58.1
741.561	58.18
741.96	58.23
742.36	58.26
742.759	58.24
743.158	58.22
743.557	58.26
743.955	58.28
744.354	58.31
744.753	58.34
745.152	58.4
745.55	58.49
745.949	58.48
746.348	58.5
746.746	58.55
747.144	58.6
747.543	58.69
747.941	58.76
748.339	58.83
748.737	58.9
749.136	59
749.534	59.03
749.932	59.03
750.33	59.08
750.727	59.12
751.125	59.14
751.523	59.14
751.921	59.14
752.318	59.12
752.716	59.11
753.113	59.07
753.511	58.99
753.908	58.95
754.305	58.91
754.703	58.87
755.1	58.84
755.497	58.83
755.894	58.86
756.291	58.83
756.688	58.8
757.085	58.73
757.482	58.72
757.878	58.74
758.275	58.76
758.672	58.74
759.068	58.76
759.465	58.76
759.861	58.74
760.258	58.7
760.654	58.7
761.05	58.72
761.447	58.75
761.843	58.75
762.239	58.7
762.635	58.68
763.031	58.68
763.427	58.64
763.822	58.6
764.218	58.57
764.614	58.56
765.01	58.52
765.405	58.5
765.801	58.47
766.196	58.45
766.592	58.49
766.987	58.48
767.382	58.5
767.778	58.5
768.173	58.5
768.568	58.49
768.963	58.49
769.358	58.48
769.753	58.48
770.148	58.48
770.542	58.49
770.937	58.46
771.332	58.43
771.726	58.4
772.121	58.39
772.515	58.39
772.91	58.4
773.304	58.37
773.699	58.37
774.093	58.32
774.487	58.31
774.881	58.27
775.275	58.25
775.669	58.27
776.063	58.26
776.457	58.22
776.851	58.19
777.245	58.18
777.638	58.19
778.032	58.21
778.425	58.23
778.819	58.24
779.212	58.24
779.606	58.23
779.999	58.2
780.392	58.2
780.786	58.23
781.179	58.26
781.572	58.28
781.965	58.3
782.358	58.26
782.751	58.24
