Data from C_2_dec_on_6n_058_Splice17_11.txt Node
Date: Sat Feb 29 14:30:44 EST 2020
User: sa697716
Spectrometer: FLMS03696
Trigger mode: 0
Integration Time (sec): 3.180400E-1
Scans to average: 20
Electric dark correction enabled: true
Nonlinearity correction enabled: true
Boxcar width: 5
XAxis mode: Wavelengths
Number of Pixels in Spectrum: 2048
>>>>>Begin Spectral Data<<<<<
187.83	61.44
188.298	46.65
188.766	42.64
189.233	47.73
189.701	59.25
190.169	50.69
190.636	56.7
191.104	41.3
191.571	212.05
192.039	171.36
192.506	-19.87
192.974	6239.47
193.441	4.52
193.908	29.63
194.375	52.9
194.842	110.76
195.31	21.64
195.777	-7.94
196.244	-2.56
196.711	16.12
197.177	13.83
197.644	14.88
198.111	12.81
198.578	12.89
199.045	13.66
199.511	14.43
199.978	15.23
200.445	15.31
200.911	15.69
201.378	16.19
201.844	16.54
202.31	17.21
202.777	17.48
203.243	18.83
203.709	19.87
204.176	19.85
204.642	19.74
205.108	19.92
205.574	20.61
206.04	20.97
206.506	20.99
206.972	21.13
207.438	21.1
207.903	21.27
208.369	20.58
208.835	20.58
209.301	20.7
209.766	21.16
210.232	21.44
210.697	21.58
211.163	21.65
211.628	21.55
212.094	21.5
212.559	21.63
213.024	21.66
213.49	21.92
213.955	21.84
214.42	21.97
214.885	21.87
215.35	21.68
215.815	21.54
216.28	21.74
216.745	21.92
217.21	21.91
217.675	21.9
218.14	21.85
218.604	21.72
219.069	21.65
219.534	21.5
219.998	21.28
220.463	21.24
220.927	21.15
221.392	20.93
221.856	20.75
222.32	20.64
222.785	20.49
223.249	20.35
223.713	20.26
224.177	20.1
224.642	19.97
225.106	19.89
225.57	19.72
226.034	19.52
226.497	19.35
226.961	19.17
227.425	18.98
227.889	18.81
228.353	18.66
228.816	18.49
229.28	18.29
229.744	18.14
230.207	17.95
230.671	17.75
231.134	17.57
231.597	17.41
232.061	17.26
232.524	17.12
232.987	16.97
233.45	16.78
233.914	16.6
234.377	16.47
234.84	16.32
235.303	16.16
235.766	16.01
236.229	15.88
236.691	15.74
237.154	15.6
237.617	15.45
238.08	15.31
238.542	15.18
239.005	15.05
239.468	14.89
239.93	14.77
240.393	14.65
240.855	14.53
241.317	14.43
241.78	14.32
242.242	14.21
242.704	14.11
243.166	13.99
243.629	13.9
244.091	13.82
244.553	13.73
245.015	13.64
245.477	13.54
245.939	13.46
246.4	13.35
246.862	13.28
247.324	13.21
247.786	13.11
248.247	13.05
248.709	12.97
249.17	12.88
249.632	12.8
250.093	12.71
250.555	12.63
251.016	12.56
251.477	12.49
251.939	12.41
252.4	12.33
252.861	12.27
253.322	12.2
253.783	12.16
254.244	12.1
254.705	12.04
255.166	12
255.627	11.96
256.088	11.9
256.549	11.85
257.009	11.82
257.47	11.77
257.931	11.71
258.391	11.65
258.852	11.58
259.312	11.54
259.773	11.49
260.233	11.42
260.694	11.38
261.154	11.33
261.614	11.27
262.074	11.22
262.534	11.17
262.994	11.13
263.455	11.09
263.915	11.06
264.374	11.01
264.834	10.98
265.294	10.93
265.754	10.89
266.214	10.86
266.673	10.83
267.133	10.79
267.593	10.76
268.052	10.72
268.512	10.69
268.971	10.65
269.431	10.62
269.89	10.59
270.349	10.56
270.809	10.53
271.268	10.5
271.727	10.46
272.186	10.43
272.645	10.4
273.104	10.38
273.563	10.35
274.022	10.32
274.481	10.29
274.94	10.26
275.399	10.23
275.857	10.2
276.316	10.16
276.775	10.13
277.233	10.1
277.692	10.07
278.15	10.03
278.609	9.99
279.067	9.95
279.525	9.91
279.984	9.87
280.442	9.84
280.9	9.8
281.358	9.78
281.816	9.75
282.274	9.71
282.732	9.68
283.19	9.66
283.648	9.63
284.106	9.61
284.564	9.6
285.021	9.58
285.479	9.57
285.937	9.55
286.394	9.54
286.852	9.53
287.309	9.51
287.767	9.5
288.224	9.48
288.682	9.46
289.139	9.43
289.596	9.41
290.053	9.37
290.511	9.34
290.968	9.3
291.425	9.29
291.882	9.25
292.339	9.21
292.796	9.17
293.252	9.15
293.709	9.13
294.166	9.11
294.623	9.08
295.079	9.07
295.536	9.05
295.992	9.03
296.449	8.99
296.905	8.97
297.362	8.96
297.818	8.94
298.274	8.91
298.731	8.89
299.187	8.87
299.643	8.86
300.099	8.83
300.555	8.8
301.011	8.78
301.467	8.76
301.923	8.74
302.379	8.73
302.835	8.71
303.291	8.69
303.746	8.67
304.202	8.64
304.658	8.63
305.113	8.6
305.569	8.59
306.024	8.57
306.479	8.54
306.935	8.53
307.39	8.51
307.845	8.49
308.301	8.47
308.756	8.47
309.211	8.46
309.666	8.45
310.121	8.44
310.576	8.43
311.031	8.43
311.486	8.44
311.94	8.42
312.395	8.42
312.85	8.41
313.305	8.41
313.759	8.4
314.214	8.39
314.668	8.39
315.123	8.39
315.577	8.38
316.032	8.36
316.486	8.35
316.94	8.34
317.394	8.33
317.849	8.31
318.303	8.3
318.757	8.26
319.211	8.23
319.665	8.22
320.119	8.2
320.572	8.19
321.026	8.17
321.48	8.15
321.934	8.14
322.387	8.13
322.841	8.11
323.295	8.08
323.748	8.07
324.202	8.06
324.655	8.04
325.108	8.02
325.562	7.98
326.015	7.97
326.468	7.94
326.921	7.92
327.374	7.89
327.827	7.88
328.28	7.86
328.733	7.85
329.186	7.83
329.639	7.8
330.092	7.78
330.545	7.78
330.997	7.76
331.45	7.75
331.903	7.74
332.355	7.73
332.808	7.72
333.26	7.71
333.713	7.7
334.165	7.7
334.617	7.71
335.069	7.71
335.522	7.7
335.974	7.7
336.426	7.7
336.878	7.7
337.33	7.69
337.782	7.7
338.234	7.69
338.686	7.68
339.137	7.67
339.589	7.65
340.041	7.65
340.493	7.63
340.944	7.62
341.396	7.61
341.847	7.59
342.299	7.56
342.75	7.52
343.201	7.51
343.653	7.49
344.104	7.47
344.555	7.45
345.006	7.43
345.457	7.41
345.908	7.39
346.359	7.37
346.81	7.36
347.261	7.35
347.712	7.35
348.163	7.34
348.613	7.33
349.064	7.31
349.515	7.29
349.965	7.28
350.416	7.26
350.866	7.25
351.317	7.25
351.767	7.24
352.217	7.24
352.668	7.24
353.118	7.24
353.568	7.23
354.018	7.24
354.468	7.23
354.918	7.24
355.368	7.25
355.818	7.25
356.268	7.24
356.718	7.24
357.168	7.24
357.617	7.24
358.067	7.23
358.517	7.23
358.966	7.24
359.416	7.25
359.865	7.26
360.315	7.25
360.764	7.25
361.213	7.25
361.663	7.24
362.112	7.26
362.561	7.27
363.01	7.29
363.459	7.28
363.908	7.29
364.357	7.28
364.806	7.27
365.255	7.28
365.703	7.28
366.152	7.28
366.601	7.29
367.05	7.29
367.498	7.29
367.947	7.29
368.395	7.3
368.844	7.3
369.292	7.31
369.74	7.33
370.189	7.34
370.637	7.36
371.085	7.37
371.533	7.38
371.981	7.39
372.429	7.39
372.877	7.41
373.325	7.41
373.773	7.41
374.221	7.42
374.669	7.42
375.116	7.42
375.564	7.42
376.012	7.44
376.459	7.45
376.907	7.46
377.354	7.48
377.801	7.5
378.249	7.53
378.696	7.55
379.143	7.57
379.591	7.59
380.038	7.61
380.485	7.63
380.932	7.65
381.379	7.66
381.826	7.68
382.273	7.7
382.72	7.72
383.166	7.74
383.613	7.76
384.06	7.78
384.506	7.81
384.953	7.83
385.4	7.84
385.846	7.85
386.292	7.87
386.739	7.89
387.185	7.91
387.631	7.93
388.078	7.95
388.524	7.94
388.97	7.95
389.416	7.94
389.862	7.96
390.308	7.98
390.754	7.99
391.2	8.01
391.645	8.04
392.091	8.04
392.537	8.05
392.983	8.08
393.428	8.11
393.874	8.14
394.319	8.16
394.765	8.17
395.21	8.16
395.655	8.19
396.101	8.19
396.546	8.2
396.991	8.21
397.436	8.21
397.881	8.21
398.326	8.23
398.771	8.24
399.216	8.26
399.661	8.28
400.106	8.31
400.551	8.32
400.995	8.31
401.44	8.31
401.885	8.3
402.329	8.3
402.774	8.29
403.218	8.28
403.663	8.26
404.107	8.27
404.551	8.27
404.995	8.25
405.44	8.24
405.884	8.24
406.328	8.25
406.772	8.26
407.216	8.27
407.66	8.27
408.104	8.27
408.547	8.28
408.991	8.25
409.435	8.25
409.879	8.25
410.322	8.25
410.766	8.26
411.209	8.25
411.653	8.24
412.096	8.23
412.54	8.23
412.983	8.24
413.426	8.25
413.869	8.27
414.312	8.27
414.756	8.28
415.199	8.29
415.642	8.31
416.085	8.32
416.527	8.34
416.97	8.36
417.413	8.35
417.856	8.33
418.298	8.3
418.741	8.28
419.184	8.29
419.626	8.26
420.069	8.25
420.511	8.24
420.953	8.21
421.396	8.2
421.838	8.2
422.28	8.22
422.722	8.23
423.164	8.25
423.606	8.27
424.048	8.26
424.49	8.28
424.932	8.28
425.374	8.28
425.816	8.28
426.258	8.26
426.699	8.21
427.141	8.18
427.582	8.16
428.024	8.13
428.465	8.12
428.907	8.13
429.348	8.11
429.789	8.11
430.231	8.09
430.672	8.09
431.113	8.1
431.554	8.11
431.995	8.13
432.436	8.13
432.877	8.12
433.318	8.1
433.759	8.09
434.2	8.08
434.64	8.08
435.081	8.08
435.522	8.1
435.962	8.12
436.403	8.15
436.843	8.14
437.284	8.17
437.724	8.21
438.164	8.22
438.604	8.24
439.045	8.26
439.485	8.26
439.925	8.26
440.365	8.25
440.805	8.23
441.245	8.2
441.685	8.21
442.125	8.21
442.564	8.21
443.004	8.24
443.444	8.25
443.883	8.25
444.323	8.28
444.762	8.34
445.202	8.39
445.641	8.42
446.081	8.47
446.52	8.48
446.959	8.51
447.398	8.54
447.837	8.58
448.276	8.6
448.716	8.64
449.154	8.68
449.593	8.69
450.032	8.69
450.471	8.72
450.91	8.72
451.349	8.73
451.787	8.73
452.226	8.73
452.664	8.71
453.103	8.71
453.541	8.71
453.98	8.68
454.418	8.66
454.856	8.64
455.295	8.63
455.733	8.63
456.171	8.64
456.609	8.64
457.047	8.63
457.485	8.63
457.923	8.63
458.361	8.6
458.798	8.61
459.236	8.61
459.674	8.62
460.111	8.62
460.549	8.58
460.987	8.56
461.424	8.56
461.862	8.54
462.299	8.52
462.736	8.5
463.173	8.5
463.611	8.49
464.048	8.47
464.485	8.45
464.922	8.44
465.359	8.45
465.796	8.43
466.233	8.42
466.67	8.44
467.106	8.43
467.543	8.44
467.98	8.43
468.416	8.44
468.853	8.45
469.29	8.46
469.726	8.45
470.162	8.45
470.599	8.46
471.035	8.47
471.471	8.45
471.907	8.46
472.344	8.46
472.78	8.46
473.216	8.46
473.652	8.46
474.088	8.47
474.523	8.49
474.959	8.48
475.395	8.49
475.831	8.5
476.266	8.51
476.702	8.51
477.138	8.51
477.573	8.5
478.008	8.51
478.444	8.51
478.879	8.51
479.314	8.49
479.75	8.5
480.185	8.5
480.62	8.5
481.055	8.5
481.49	8.49
481.925	8.48
482.36	8.48
482.795	8.46
483.229	8.45
483.664	8.44
484.099	8.46
484.534	8.46
484.968	8.46
485.403	8.45
485.837	8.46
486.271	8.45
486.706	8.45
487.14	8.47
487.574	8.48
488.009	8.49
488.443	8.5
488.877	8.51
489.311	8.53
489.745	8.54
490.179	8.55
490.613	8.56
491.046	8.61
491.48	8.64
491.914	8.65
492.348	8.68
492.781	8.7
493.215	8.73
493.648	8.76
494.082	8.8
494.515	8.83
494.948	8.87
495.382	8.91
495.815	8.94
496.248	8.98
496.681	9.04
497.114	9.09
497.547	9.14
497.98	9.2
498.413	9.25
498.846	9.31
499.279	9.37
499.711	9.44
500.144	9.5
500.577	9.56
501.009	9.64
501.442	9.72
501.874	9.8
502.306	9.88
502.739	9.95
503.171	10.06
503.603	10.16
504.036	10.27
504.468	10.37
504.9	10.51
505.332	10.64
505.764	10.77
506.196	10.9
506.627	11.04
507.059	11.2
507.491	11.37
507.923	11.53
508.354	11.69
508.786	11.85
509.217	12.02
509.649	12.2
510.08	12.4
510.512	12.57
510.943	12.78
511.374	12.98
511.805	13.17
512.237	13.38
512.668	13.59
513.099	13.81
513.53	14.05
513.961	14.29
514.391	14.51
514.822	14.74
515.253	14.99
515.684	15.21
516.114	15.45
516.545	15.69
516.975	15.94
517.406	16.18
517.836	16.43
518.267	16.67
518.697	16.91
519.127	17.16
519.558	17.4
519.988	17.63
520.418	17.87
520.848	18.12
521.278	18.36
521.708	18.53
522.138	18.75
522.567	18.96
522.997	19.18
523.427	19.39
523.857	19.59
524.286	19.81
524.716	20.02
525.145	20.23
525.575	20.42
526.004	20.6
526.433	20.84
526.863	21.03
527.292	21.21
527.721	21.38
528.15	21.55
528.579	21.7
529.008	21.84
529.437	21.97
529.866	22.09
530.295	22.24
530.724	22.38
531.152	22.5
531.581	22.61
532.01	22.72
532.438	22.82
532.867	22.92
533.295	23.02
533.723	23.12
534.152	23.21
534.58	23.27
535.008	23.32
535.436	23.35
535.865	23.4
536.293	23.45
536.721	23.49
537.149	23.53
537.576	23.57
538.004	23.6
538.432	23.61
538.86	23.63
539.287	23.67
539.715	23.7
540.143	23.74
540.57	23.77
540.998	23.8
541.425	23.83
541.852	23.85
542.28	23.86
542.707	23.9
543.134	23.93
543.561	23.96
543.988	23.97
544.415	24
544.842	24.02
545.269	24.04
545.696	24.06
546.123	24.08
546.549	24.1
546.976	24.12
547.403	24.14
547.829	24.17
548.256	24.19
548.682	24.18
549.108	24.2
549.535	24.22
549.961	24.23
550.387	24.23
550.813	24.23
551.24	24.23
551.666	24.25
552.092	24.22
552.518	24.2
552.943	24.22
553.369	24.23
553.795	24.2
554.221	24.18
554.646	24.18
555.072	24.17
555.498	24.13
555.923	24.1
556.349	24.05
556.774	23.99
557.199	23.95
557.625	23.86
558.05	23.79
558.475	23.72
558.9	23.64
559.325	23.54
559.75	23.45
560.175	23.36
560.6	23.26
561.025	23.16
561.449	23.06
561.874	22.96
562.299	22.85
562.723	22.74
563.148	22.63
563.572	22.52
563.997	22.41
564.421	22.29
564.846	22.16
565.27	22.02
565.694	21.89
566.118	21.76
566.542	21.63
566.966	21.48
567.39	21.31
567.814	21.16
568.238	20.99
568.662	20.84
569.086	20.67
569.509	20.52
569.933	20.35
570.357	20.2
570.78	20.05
571.204	19.89
571.627	19.78
572.05	19.65
572.474	19.52
572.897	19.41
573.32	19.28
573.743	19.14
574.166	19.03
574.589	18.93
575.012	18.83
575.435	18.72
575.858	18.62
576.281	18.51
576.704	18.42
577.126	18.33
577.549	18.24
577.972	18.14
578.394	18.07
578.817	17.99
579.239	17.9
579.661	17.81
580.084	17.73
580.506	17.66
580.928	17.58
581.35	17.5
581.772	17.44
582.194	17.37
582.616	17.32
583.038	17.27
583.46	17.22
583.882	17.16
584.303	17.1
584.725	17.05
585.147	16.96
585.568	16.9
585.99	16.84
586.411	16.78
586.833	16.73
587.254	16.69
587.675	16.62
588.096	16.56
588.518	16.51
588.939	16.46
589.36	16.4
589.781	16.38
590.202	16.34
590.623	16.28
591.043	16.25
591.464	16.19
591.885	16.13
592.305	16.1
592.726	16.06
593.147	16.04
593.567	16.01
593.987	16
594.408	15.96
594.828	15.94
595.248	15.93
595.669	15.9
596.089	15.89
596.509	15.84
596.929	15.8
597.349	15.76
597.769	15.72
598.189	15.7
598.608	15.64
599.028	15.6
599.448	15.56
599.867	15.5
600.287	15.46
600.706	15.43
601.126	15.4
601.545	15.36
601.965	15.31
602.384	15.27
602.803	15.21
603.222	15.17
603.641	15.13
604.061	15.09
604.48	15.05
604.898	14.99
605.317	14.93
605.736	14.87
606.155	14.81
606.574	14.77
606.992	14.71
607.411	14.66
607.829	14.56
608.248	14.5
608.666	14.43
609.085	14.37
609.503	14.31
609.921	14.25
610.339	14.2
610.758	14.13
611.176	14.07
611.594	14.01
612.012	13.95
612.43	13.94
612.847	13.88
613.265	13.83
613.683	13.75
614.101	13.69
614.518	13.63
614.936	13.57
615.353	13.51
615.771	13.46
616.188	13.42
616.606	13.36
617.023	13.29
617.44	13.24
617.857	13.18
618.274	13.16
618.691	13.11
619.108	13.07
619.525	13.03
619.942	13
620.359	12.97
620.776	12.94
621.192	12.91
621.609	12.9
622.026	12.89
622.442	12.87
622.859	12.85
623.275	12.84
623.691	12.83
624.108	12.82
624.524	12.82
624.94	12.8
625.356	12.78
625.772	12.78
626.188	12.76
626.604	12.73
627.02	12.73
627.436	12.72
627.852	12.7
628.268	12.69
628.683	12.67
629.099	12.66
629.514	12.63
629.93	12.6
630.345	12.56
630.761	12.54
631.176	12.52
631.591	12.48
632.007	12.44
632.422	12.39
632.837	12.34
633.252	12.29
633.667	12.21
634.082	12.17
634.497	12.1
634.911	12.03
635.326	11.95
635.741	11.87
636.155	11.78
636.57	11.69
636.984	11.59
637.399	11.48
637.813	11.37
638.228	11.29
638.642	11.19
639.056	11.09
639.47	11
639.884	10.89
640.298	10.78
640.712	10.67
641.126	10.55
641.54	10.46
641.954	10.38
642.368	10.28
642.781	10.18
643.195	10.08
643.609	9.99
644.022	9.92
644.436	9.83
644.849	9.76
645.262	9.7
645.676	9.65
646.089	9.57
646.502	9.51
646.915	9.47
647.328	9.41
647.741	9.35
648.154	9.32
648.567	9.29
648.98	9.25
649.393	9.23
649.805	9.19
650.218	9.17
650.631	9.15
651.043	9.11
651.456	9.09
651.868	9.08
652.28	9.06
652.693	9.03
653.105	8.99
653.517	8.98
653.929	8.95
654.341	8.93
654.753	8.89
655.165	8.86
655.577	8.83
655.989	8.8
656.401	8.75
656.813	8.71
657.224	8.67
657.636	8.63
658.047	8.58
658.459	8.53
658.87	8.48
659.282	8.44
659.693	8.39
660.104	8.34
660.515	8.29
660.926	8.26
661.338	8.23
661.749	8.17
662.159	8.12
662.57	8.07
662.981	8.04
663.392	8
663.803	7.96
664.213	7.91
664.624	7.89
665.035	7.86
665.445	7.84
665.855	7.81
666.266	7.81
666.676	7.79
667.086	7.79
667.497	7.77
667.907	7.75
668.317	7.73
668.727	7.73
669.137	7.72
669.547	7.71
669.956	7.71
670.366	7.72
670.776	7.71
671.186	7.72
671.595	7.72
672.005	7.74
672.414	7.75
672.824	7.77
673.233	7.79
673.642	7.8
674.052	7.82
674.461	7.83
674.87	7.85
675.279	7.86
675.688	7.89
676.097	7.91
676.506	7.94
676.915	7.99
677.323	8.04
677.732	8.09
678.141	8.14
678.549	8.2
678.958	8.26
679.366	8.31
679.775	8.39
680.183	8.45
680.592	8.52
681	8.59
681.408	8.66
681.816	8.72
682.224	8.8
682.632	8.9
683.04	8.98
683.448	9.09
683.856	9.21
684.264	9.34
684.671	9.51
685.079	9.68
685.487	9.88
685.894	10.08
686.302	10.31
686.709	10.53
687.116	10.79
687.524	11.07
687.931	11.36
688.338	11.68
688.745	12.03
689.152	12.38
689.559	12.76
689.966	13.14
690.373	13.57
690.78	14.02
691.187	14.49
691.593	14.97
692	15.48
692.407	16
692.813	16.52
693.22	17.04
693.626	17.57
694.032	18.13
694.439	18.69
694.845	19.25
695.251	19.82
695.657	20.36
696.063	20.93
696.469	21.49
696.875	22.04
697.281	22.59
697.687	23.17
698.093	23.75
698.498	24.32
698.904	24.87
699.31	25.41
699.715	25.94
700.12	26.48
700.526	27.03
700.931	27.55
701.337	28.08
701.742	28.59
702.147	29.09
702.552	29.6
702.957	30.05
703.362	30.53
703.767	31.01
704.172	31.48
704.577	31.97
704.981	32.4
705.386	32.85
705.791	33.3
706.195	33.72
706.6	34.14
707.004	34.53
707.408	34.95
707.813	35.36
708.217	35.74
708.621	36.12
709.025	36.48
709.43	36.85
709.834	37.25
710.237	37.59
710.641	37.97
711.045	38.31
711.449	38.65
711.853	39.01
712.256	39.37
712.66	39.7
713.064	40.06
713.467	40.39
713.87	40.71
714.274	41.03
714.677	41.36
715.08	41.66
715.484	41.98
715.887	42.29
716.29	42.59
716.693	42.85
717.096	43.17
717.499	43.41
717.901	43.67
718.304	43.95
718.707	44.16
719.109	44.43
719.512	44.68
719.915	44.91
720.317	45.18
720.719	45.41
721.122	45.66
721.524	45.88
721.926	46.15
722.328	46.37
722.731	46.62
723.133	46.85
723.535	47.09
723.937	47.3
724.338	47.47
724.74	47.65
725.142	47.75
725.544	47.91
725.945	48.07
726.347	48.21
726.748	48.34
727.15	48.45
727.551	48.6
727.952	48.73
728.354	48.87
728.755	49.02
729.156	49.19
729.557	49.41
729.958	49.54
730.359	49.66
730.76	49.77
731.161	49.88
731.562	50.01
731.962	50.11
732.363	50.21
732.763	50.29
733.164	50.39
733.564	50.46
733.965	50.55
734.365	50.62
734.766	50.74
735.166	50.78
735.566	50.86
735.966	50.88
736.366	50.93
736.766	50.99
737.166	51.06
737.566	51.08
737.966	51.11
738.365	51.11
738.765	51.15
739.165	51.14
739.564	51.2
739.964	51.24
740.363	51.29
740.763	51.32
741.162	51.32
741.561	51.33
741.96	51.39
742.36	51.41
742.759	51.43
743.158	51.43
743.557	51.48
743.955	51.54
744.354	51.59
744.753	51.64
745.152	51.66
745.55	51.72
745.949	51.76
746.348	51.75
746.746	51.82
747.144	51.9
747.543	51.96
747.941	52
748.339	52.06
748.737	52.09
749.136	52.13
749.534	52.2
749.932	52.23
750.33	52.26
750.727	52.32
751.125	52.32
751.523	52.3
751.921	52.32
752.318	52.31
752.716	52.26
753.113	52.28
753.511	52.23
753.908	52.19
754.305	52.15
754.703	52.15
755.1	52.12
755.497	52.13
755.894	52.13
756.291	52.11
756.688	52.14
757.085	52.12
757.482	52.11
757.878	52.13
758.275	52.12
758.672	52.14
759.068	52.13
759.465	52.12
759.861	52.12
760.258	52.11
760.654	52.09
761.05	52.05
761.447	52.05
761.843	52.02
762.239	52.01
762.635	52
763.031	51.99
763.427	51.94
763.822	51.9
764.218	51.84
764.614	51.83
765.01	51.81
765.405	51.79
765.801	51.75
766.196	51.73
766.592	51.7
766.987	51.65
767.382	51.63
767.778	51.65
768.173	51.67
768.568	51.65
768.963	51.65
769.358	51.65
769.753	51.65
770.148	51.65
770.542	51.63
770.937	51.61
771.332	51.65
771.726	51.64
772.121	51.58
772.515	51.6
772.91	51.61
773.304	51.59
773.699	51.56
774.093	51.53
774.487	51.54
774.881	51.58
775.275	51.58
775.669	51.57
776.063	51.55
776.457	51.57
776.851	51.52
777.245	51.52
777.638	51.52
778.032	51.55
778.425	51.58
778.819	51.58
