Data from C_2_hir_wi_4n_078_Splice17_07.txt Node
Date: Sat Feb 29 14:19:59 EST 2020
User: sa697716
Spectrometer: FLMS03696
Trigger mode: 0
Integration Time (sec): 3.180400E-1
Scans to average: 20
Electric dark correction enabled: true
Nonlinearity correction enabled: true
Boxcar width: 5
XAxis mode: Wavelengths
Number of Pixels in Spectrum: 2048
>>>>>Begin Spectral Data<<<<<
187.83	73.39
188.298	86.62
188.766	62.94
189.233	51.68
189.701	60.58
190.169	52.22
190.636	45.55
191.104	25.58
191.571	92.36
192.039	236.71
192.506	-510.89
192.974	2907.58
193.441	-623.55
193.908	75.14
194.375	44.13
194.842	126.6
195.31	52.8
195.777	6.95
196.244	26.29
196.711	43.61
197.177	42.06
197.644	42.71
198.111	41.81
198.578	41.85
199.045	42.18
199.511	42.22
199.978	42.28
200.445	41.79
200.911	41.86
201.378	42.22
201.844	42.26
202.31	42.51
202.777	42.72
203.243	43.21
203.709	43.31
204.176	42.89
204.642	42.87
205.108	42.59
205.574	43.06
206.04	43.16
206.506	42.97
206.972	42.75
207.438	42.49
207.903	42.28
208.369	41.46
208.835	40.95
209.301	40.93
209.766	40.49
210.232	40.06
210.697	39.49
211.163	38.96
211.628	38.22
212.094	37.77
212.559	37.24
213.024	36.74
213.49	36.2
213.955	35.77
214.42	34.75
214.885	33.69
215.35	32.79
215.815	31.31
216.28	30.12
216.745	28.58
217.21	26.79
217.675	25.21
218.14	23.71
218.604	22.28
219.069	21.15
219.534	20.14
219.998	19.32
220.463	18.55
220.927	17.99
221.392	17.39
221.856	16.93
222.32	16.51
222.785	16.17
223.249	15.84
223.713	15.61
224.177	15.35
224.642	15.17
225.106	14.96
225.57	14.75
226.034	14.54
226.497	14.35
226.961	14.11
227.425	13.94
227.889	13.74
228.353	13.57
228.816	13.39
229.28	13.18
229.744	12.97
230.207	12.81
230.671	12.66
231.134	12.52
231.597	12.35
232.061	12.23
232.524	12.09
232.987	11.95
233.45	11.8
233.914	11.67
234.377	11.56
234.84	11.45
235.303	11.33
235.766	11.2
236.229	11.08
236.691	11
237.154	10.89
237.617	10.79
238.08	10.71
238.542	10.61
239.005	10.53
239.468	10.43
239.93	10.35
240.393	10.25
240.855	10.17
241.317	10.09
241.78	10.01
242.242	9.92
242.704	9.81
243.166	9.73
243.629	9.66
244.091	9.58
244.553	9.49
245.015	9.42
245.477	9.36
245.939	9.27
246.4	9.19
246.862	9.11
247.324	9.05
247.786	8.99
248.247	8.92
248.709	8.86
249.17	8.79
249.632	8.73
250.093	8.65
250.555	8.59
251.016	8.54
251.477	8.48
251.939	8.43
252.4	8.38
252.861	8.33
253.322	8.27
253.783	8.24
254.244	8.19
254.705	8.14
255.166	8.12
255.627	8.07
256.088	8.02
256.549	7.99
257.009	7.94
257.47	7.9
257.931	7.86
258.391	7.8
258.852	7.74
259.312	7.7
259.773	7.65
260.233	7.59
260.694	7.55
261.154	7.51
261.614	7.46
262.074	7.41
262.534	7.37
262.994	7.33
263.455	7.29
263.915	7.26
264.374	7.22
264.834	7.19
265.294	7.16
265.754	7.11
266.214	7.07
266.673	7.05
267.133	7.01
267.593	6.99
268.052	6.95
268.512	6.92
268.971	6.9
269.431	6.87
269.89	6.84
270.349	6.82
270.809	6.81
271.268	6.79
271.727	6.77
272.186	6.75
272.645	6.72
273.104	6.7
273.563	6.68
274.022	6.66
274.481	6.63
274.94	6.61
275.399	6.59
275.857	6.57
276.316	6.53
276.775	6.5
277.233	6.47
277.692	6.45
278.15	6.42
278.609	6.39
279.067	6.37
279.525	6.34
279.984	6.32
280.442	6.3
280.9	6.28
281.358	6.26
281.816	6.25
282.274	6.23
282.732	6.22
283.19	6.21
283.648	6.2
284.106	6.19
284.564	6.19
285.021	6.2
285.479	6.19
285.937	6.18
286.394	6.17
286.852	6.17
287.309	6.16
287.767	6.15
288.224	6.15
288.682	6.14
289.139	6.13
289.596	6.1
290.053	6.07
290.511	6.05
290.968	6.03
291.425	6.01
291.882	5.98
292.339	5.96
292.796	5.93
293.252	5.9
293.709	5.87
294.166	5.85
294.623	5.83
295.079	5.82
295.536	5.8
295.992	5.79
296.449	5.77
296.905	5.76
297.362	5.74
297.818	5.73
298.274	5.71
298.731	5.69
299.187	5.68
299.643	5.68
300.099	5.67
300.555	5.64
301.011	5.63
301.467	5.62
301.923	5.61
302.379	5.6
302.835	5.59
303.291	5.59
303.746	5.58
304.202	5.57
304.658	5.55
305.113	5.53
305.569	5.52
306.024	5.51
306.479	5.5
306.935	5.5
307.39	5.48
307.845	5.47
308.301	5.47
308.756	5.47
309.211	5.47
309.666	5.47
310.121	5.47
310.576	5.46
311.031	5.45
311.486	5.45
311.94	5.45
312.395	5.45
312.85	5.45
313.305	5.45
313.759	5.45
314.214	5.45
314.668	5.46
315.123	5.47
315.577	5.47
316.032	5.47
316.486	5.47
316.94	5.45
317.394	5.44
317.849	5.42
318.303	5.42
318.757	5.4
319.211	5.38
319.665	5.36
320.119	5.34
320.572	5.33
321.026	5.32
321.48	5.3
321.934	5.3
322.387	5.3
322.841	5.29
323.295	5.27
323.748	5.26
324.202	5.25
324.655	5.23
325.108	5.22
325.562	5.2
326.015	5.19
326.468	5.17
326.921	5.15
327.374	5.13
327.827	5.12
328.28	5.11
328.733	5.1
329.186	5.1
329.639	5.1
330.092	5.1
330.545	5.09
330.997	5.09
331.45	5.1
331.903	5.1
332.355	5.1
332.808	5.1
333.26	5.1
333.713	5.11
334.165	5.1
334.617	5.1
335.069	5.1
335.522	5.11
335.974	5.11
336.426	5.11
336.878	5.11
337.33	5.11
337.782	5.11
338.234	5.11
338.686	5.11
339.137	5.11
339.589	5.1
340.041	5.1
340.493	5.09
340.944	5.08
341.396	5.07
341.847	5.05
342.299	5.03
342.75	5
343.201	4.99
343.653	4.97
344.104	4.96
344.555	4.95
345.006	4.93
345.457	4.91
345.908	4.89
346.359	4.88
346.81	4.87
347.261	4.87
347.712	4.87
348.163	4.87
348.613	4.86
349.064	4.83
349.515	4.82
349.965	4.82
350.416	4.82
350.866	4.83
351.317	4.82
351.767	4.81
352.217	4.8
352.668	4.79
353.118	4.78
353.568	4.78
354.018	4.79
354.468	4.79
354.918	4.79
355.368	4.79
355.818	4.78
356.268	4.79
356.718	4.79
357.168	4.78
357.617	4.78
358.067	4.79
358.517	4.79
358.966	4.8
359.416	4.81
359.865	4.82
360.315	4.82
360.764	4.82
361.213	4.82
361.663	4.82
362.112	4.84
362.561	4.86
363.01	4.87
363.459	4.88
363.908	4.87
364.357	4.88
364.806	4.88
365.255	4.89
365.703	4.9
366.152	4.9
366.601	4.91
367.05	4.92
367.498	4.92
367.947	4.93
368.395	4.95
368.844	4.96
369.292	4.96
369.74	4.98
370.189	4.99
370.637	5
371.085	5.02
371.533	5.03
371.981	5.04
372.429	5.05
372.877	5.05
373.325	5.06
373.773	5.08
374.221	5.1
374.669	5.11
375.116	5.12
375.564	5.13
376.012	5.14
376.459	5.16
376.907	5.18
377.354	5.19
377.801	5.21
378.249	5.24
378.696	5.25
379.143	5.27
379.591	5.29
380.038	5.32
380.485	5.35
380.932	5.37
381.379	5.39
381.826	5.43
382.273	5.46
382.72	5.49
383.166	5.51
383.613	5.54
384.06	5.56
384.506	5.6
384.953	5.62
385.4	5.65
385.846	5.67
386.292	5.71
386.739	5.74
387.185	5.77
387.631	5.8
388.078	5.84
388.524	5.86
388.97	5.89
389.416	5.9
389.862	5.94
390.308	5.96
390.754	6
391.2	6.04
391.645	6.07
392.091	6.1
392.537	6.13
392.983	6.18
393.428	6.23
393.874	6.28
394.319	6.33
394.765	6.36
395.21	6.39
395.655	6.42
396.101	6.45
396.546	6.48
396.991	6.52
397.436	6.53
397.881	6.56
398.326	6.58
398.771	6.62
399.216	6.67
399.661	6.73
400.106	6.77
400.551	6.8
400.995	6.82
401.44	6.84
401.885	6.86
402.329	6.88
402.774	6.88
403.218	6.9
403.663	6.9
404.107	6.92
404.551	6.91
404.995	6.92
405.44	6.93
405.884	6.93
406.328	6.94
406.772	6.96
407.216	6.99
407.66	7.03
408.104	7.05
408.547	7.06
408.991	7.06
409.435	7.05
409.879	7.06
410.322	7.08
410.766	7.1
411.209	7.12
411.653	7.13
412.096	7.12
412.54	7.12
412.983	7.12
413.426	7.13
413.869	7.15
414.312	7.19
414.756	7.22
415.199	7.24
415.642	7.27
416.085	7.3
416.527	7.33
416.97	7.36
417.413	7.37
417.856	7.38
418.298	7.38
418.741	7.36
419.184	7.36
419.626	7.36
420.069	7.35
420.511	7.34
420.953	7.32
421.396	7.31
421.838	7.32
422.28	7.34
422.722	7.35
423.164	7.37
423.606	7.39
424.048	7.4
424.49	7.41
424.932	7.4
425.374	7.41
425.816	7.39
426.258	7.38
426.699	7.34
427.141	7.3
427.582	7.28
428.024	7.29
428.465	7.29
428.907	7.29
429.348	7.29
429.789	7.3
430.231	7.28
430.672	7.28
431.113	7.29
431.554	7.31
431.995	7.32
432.436	7.32
432.877	7.3
433.318	7.27
433.759	7.27
434.2	7.26
434.64	7.27
435.081	7.26
435.522	7.3
435.962	7.33
436.403	7.36
436.843	7.39
437.284	7.43
437.724	7.47
438.164	7.51
438.604	7.53
439.045	7.55
439.485	7.55
439.925	7.57
440.365	7.57
440.805	7.55
441.245	7.53
441.685	7.55
442.125	7.57
442.564	7.59
443.004	7.62
443.444	7.63
443.883	7.65
444.323	7.69
444.762	7.76
445.202	7.82
445.641	7.86
446.081	7.94
446.52	7.97
446.959	8
447.398	8.04
447.837	8.1
448.276	8.12
448.716	8.17
449.154	8.22
449.593	8.26
450.032	8.29
450.471	8.35
450.91	8.36
451.349	8.38
451.787	8.39
452.226	8.37
452.664	8.36
453.103	8.38
453.541	8.37
453.98	8.34
454.418	8.32
454.856	8.28
455.295	8.24
455.733	8.22
456.171	8.23
456.609	8.24
457.047	8.23
457.485	8.22
457.923	8.21
458.361	8.2
458.798	8.21
459.236	8.21
459.674	8.21
460.111	8.21
460.549	8.2
460.987	8.19
461.424	8.18
461.862	8.17
462.299	8.16
462.736	8.15
463.173	8.14
463.611	8.11
464.048	8.11
464.485	8.11
464.922	8.11
465.359	8.12
465.796	8.09
466.233	8.1
466.67	8.1
467.106	8.11
467.543	8.1
467.98	8.12
468.416	8.14
468.853	8.16
469.29	8.19
469.726	8.2
470.162	8.21
470.599	8.24
471.035	8.24
471.471	8.24
471.907	8.26
472.344	8.29
472.78	8.3
473.216	8.31
473.652	8.29
474.088	8.3
474.523	8.3
474.959	8.31
475.395	8.31
475.831	8.33
476.266	8.34
476.702	8.33
477.138	8.32
477.573	8.3
478.008	8.31
478.444	8.3
478.879	8.3
479.314	8.3
479.75	8.29
480.185	8.29
480.62	8.29
481.055	8.29
481.49	8.29
481.925	8.29
482.36	8.29
482.795	8.27
483.229	8.28
483.664	8.28
484.099	8.29
484.534	8.29
484.968	8.31
485.403	8.3
485.837	8.31
486.271	8.33
486.706	8.34
487.14	8.37
487.574	8.39
488.009	8.43
488.443	8.45
488.877	8.47
489.311	8.51
489.745	8.55
490.179	8.59
490.613	8.64
491.046	8.68
491.48	8.75
491.914	8.81
492.348	8.87
492.781	8.93
493.215	9.01
493.648	9.1
494.082	9.19
494.515	9.27
494.948	9.35
495.382	9.45
495.815	9.56
496.248	9.66
496.681	9.77
497.114	9.86
497.547	9.98
497.98	10.11
498.413	10.24
498.846	10.38
499.279	10.52
499.711	10.66
500.144	10.82
500.577	10.96
501.009	11.13
501.442	11.31
501.874	11.52
502.306	11.71
502.739	11.89
503.171	12.1
503.603	12.32
504.036	12.55
504.468	12.8
504.9	13.06
505.332	13.32
505.764	13.58
506.196	13.87
506.627	14.16
507.059	14.45
507.491	14.75
507.923	15.07
508.354	15.38
508.786	15.7
509.217	16.01
509.649	16.35
510.08	16.7
510.512	17.06
510.943	17.42
511.374	17.77
511.805	18.15
512.237	18.55
512.668	18.94
513.099	19.35
513.53	19.76
513.961	20.16
514.391	20.54
514.822	20.93
515.253	21.33
515.684	21.74
516.114	22.16
516.545	22.56
516.975	22.96
517.406	23.39
517.836	23.79
518.267	24.17
518.697	24.6
519.127	25.04
519.558	25.47
519.988	25.87
520.418	26.24
520.848	26.64
521.278	27.03
521.708	27.35
522.138	27.69
522.567	28.04
522.997	28.4
523.427	28.74
523.857	29.06
524.286	29.38
524.716	29.67
525.145	29.98
525.575	30.27
526.004	30.56
526.433	30.89
526.863	31.16
527.292	31.41
527.721	31.66
528.15	31.89
528.579	32.11
529.008	32.31
529.437	32.54
529.866	32.75
530.295	32.92
530.724	33.12
531.152	33.31
531.581	33.5
532.01	33.66
532.438	33.8
532.867	33.97
533.295	34.11
533.723	34.27
534.152	34.41
534.58	34.49
535.008	34.59
535.436	34.68
535.865	34.76
536.293	34.85
536.721	34.93
537.149	35.02
537.576	35.07
538.004	35.13
538.432	35.17
538.86	35.21
539.287	35.29
539.715	35.36
540.143	35.4
540.57	35.43
540.998	35.47
541.425	35.52
541.852	35.56
542.28	35.58
542.707	35.63
543.134	35.67
543.561	35.67
543.988	35.68
544.415	35.71
544.842	35.75
545.269	35.79
545.696	35.8
546.123	35.84
546.549	35.88
546.976	35.92
547.403	35.94
547.829	35.97
548.256	36.04
548.682	36.08
549.108	36.14
549.535	36.15
549.961	36.16
550.387	36.18
550.813	36.2
551.24	36.2
551.666	36.23
552.092	36.25
552.518	36.26
552.943	36.23
553.369	36.21
553.795	36.17
554.221	36.15
554.646	36.14
555.072	36.1
555.498	36.05
555.923	36.03
556.349	35.97
556.774	35.89
557.199	35.83
557.625	35.75
558.05	35.67
558.475	35.6
558.9	35.5
559.325	35.4
559.75	35.3
560.175	35.17
560.6	35.02
561.025	34.89
561.449	34.77
561.874	34.63
562.299	34.49
562.723	34.35
563.148	34.19
563.572	34.05
563.997	33.89
564.421	33.72
564.846	33.57
565.27	33.42
565.694	33.22
566.118	33.05
566.542	32.85
566.966	32.67
567.39	32.47
567.814	32.27
568.238	32.04
568.662	31.83
569.086	31.62
569.509	31.39
569.933	31.15
570.357	30.94
570.78	30.72
571.204	30.49
571.627	30.25
572.05	30.05
572.474	29.84
572.897	29.64
573.32	29.44
573.743	29.26
574.166	29.06
574.589	28.9
575.012	28.73
575.435	28.57
575.858	28.45
576.281	28.31
576.704	28.16
577.126	28.01
577.549	27.88
577.972	27.77
578.394	27.62
578.817	27.5
579.239	27.39
579.661	27.28
580.084	27.16
580.506	27.03
580.928	26.9
581.35	26.81
581.772	26.72
582.194	26.62
582.616	26.51
583.038	26.43
583.46	26.33
583.882	26.22
584.303	26.14
584.725	26.04
585.147	25.92
585.568	25.85
585.99	25.77
586.411	25.67
586.833	25.58
587.254	25.5
587.675	25.43
588.096	25.37
588.518	25.31
588.939	25.23
589.36	25.16
589.781	25.13
590.202	25.08
590.623	24.98
591.043	24.95
591.464	24.91
591.885	24.88
592.305	24.83
592.726	24.78
593.147	24.74
593.567	24.69
593.987	24.66
594.408	24.61
594.828	24.56
595.248	24.55
595.669	24.52
596.089	24.47
596.509	24.41
596.929	24.36
597.349	24.3
597.769	24.23
598.189	24.19
598.608	24.14
599.028	24.08
599.448	24.03
599.867	23.97
600.287	23.88
600.706	23.81
601.126	23.73
601.545	23.66
601.965	23.59
602.384	23.52
602.803	23.43
603.222	23.32
603.641	23.25
604.061	23.15
604.48	23.04
604.898	22.95
605.317	22.85
605.736	22.77
606.155	22.65
606.574	22.53
606.992	22.41
607.411	22.32
607.829	22.18
608.248	22.06
608.666	21.95
609.085	21.86
609.503	21.73
609.921	21.62
610.339	21.5
610.758	21.41
611.176	21.29
611.594	21.17
612.012	21.04
612.43	20.96
612.847	20.86
613.265	20.75
613.683	20.61
614.101	20.5
614.518	20.37
614.936	20.26
615.353	20.16
615.771	20.06
616.188	19.99
616.606	19.89
617.023	19.8
617.44	19.7
617.857	19.61
618.274	19.55
618.691	19.49
619.108	19.44
619.525	19.39
619.942	19.32
620.359	19.27
620.776	19.21
621.192	19.17
621.609	19.13
622.026	19.09
622.442	19.04
622.859	19
623.275	18.98
623.691	18.95
624.108	18.93
624.524	18.9
624.94	18.9
625.356	18.87
625.772	18.87
626.188	18.86
626.604	18.85
627.02	18.84
627.436	18.83
627.852	18.81
628.268	18.8
628.683	18.77
629.099	18.76
629.514	18.72
629.93	18.69
630.345	18.63
630.761	18.59
631.176	18.55
631.591	18.49
632.007	18.42
632.422	18.34
632.837	18.26
633.252	18.18
633.667	18.06
634.082	17.97
634.497	17.86
634.911	17.74
635.326	17.61
635.741	17.47
636.155	17.35
636.57	17.21
636.984	17.07
637.399	16.88
637.813	16.7
638.228	16.55
638.642	16.38
639.056	16.22
639.47	16.05
639.884	15.88
640.298	15.7
640.712	15.51
641.126	15.34
641.54	15.17
641.954	15.02
642.368	14.85
642.781	14.67
643.195	14.49
643.609	14.32
644.022	14.16
644.436	14
644.849	13.85
645.262	13.71
645.676	13.55
646.089	13.4
646.502	13.25
646.915	13.14
647.328	13.03
647.741	12.91
648.154	12.81
648.567	12.71
648.98	12.63
649.393	12.54
649.805	12.45
650.218	12.38
650.631	12.31
651.043	12.25
651.456	12.18
651.868	12.11
652.28	12.05
652.693	11.97
653.105	11.9
653.517	11.8
653.929	11.73
654.341	11.65
654.753	11.55
655.165	11.44
655.577	11.33
655.989	11.2
656.401	11.07
656.813	10.93
657.224	10.81
657.636	10.68
658.047	10.55
658.459	10.4
658.87	10.27
659.282	10.14
659.693	10.01
660.104	9.89
660.515	9.75
660.926	9.63
661.338	9.51
661.749	9.37
662.159	9.24
662.57	9.12
662.981	9.01
663.392	8.89
663.803	8.77
664.213	8.68
664.624	8.6
665.035	8.5
665.445	8.42
665.855	8.34
666.266	8.27
666.676	8.21
667.086	8.15
667.497	8.1
667.907	8.05
668.317	8
668.727	7.94
669.137	7.89
669.547	7.87
669.956	7.84
670.366	7.82
670.776	7.81
671.186	7.81
671.595	7.81
672.005	7.8
672.414	7.81
672.824	7.82
673.233	7.85
673.642	7.86
674.052	7.87
674.461	7.9
674.87	7.92
675.279	7.95
675.688	7.97
676.097	8
676.506	8.04
676.915	8.08
677.323	8.13
677.732	8.19
678.141	8.26
678.549	8.34
678.958	8.42
679.366	8.5
679.775	8.6
680.183	8.71
680.592	8.82
681	8.95
681.408	9.1
681.816	9.24
682.224	9.43
682.632	9.63
683.04	9.84
683.448	10.07
683.856	10.35
684.264	10.66
684.671	11
685.079	11.37
685.487	11.78
685.894	12.22
686.302	12.72
686.709	13.21
687.116	13.75
687.524	14.33
687.931	14.95
688.338	15.59
688.745	16.27
689.152	16.98
689.559	17.72
689.966	18.48
690.373	19.27
690.78	20.05
691.187	20.87
691.593	21.68
692	22.52
692.407	23.37
692.813	24.22
693.22	25.06
693.626	25.92
694.032	26.75
694.439	27.6
694.845	28.41
695.251	29.24
695.657	30.06
696.063	30.88
696.469	31.66
696.875	32.44
697.281	33.18
697.687	33.95
698.093	34.66
698.498	35.4
698.904	36.11
699.31	36.82
699.715	37.51
700.12	38.19
700.526	38.86
700.931	39.52
701.337	40.19
701.742	40.82
702.147	41.42
702.552	42.06
702.957	42.66
703.362	43.25
703.767	43.83
704.172	44.37
704.577	44.92
704.981	45.43
705.386	45.94
705.791	46.43
706.195	46.92
706.6	47.39
707.004	47.84
707.408	48.27
707.813	48.69
708.217	49.11
708.621	49.52
709.025	49.92
709.43	50.31
709.834	50.69
710.237	51.04
710.641	51.44
711.045	51.81
711.449	52.17
711.853	52.51
712.256	52.88
712.66	53.21
713.064	53.53
713.467	53.86
713.87	54.16
714.274	54.51
714.677	54.83
715.08	55.08
715.484	55.39
715.887	55.69
716.29	55.99
716.693	56.22
717.096	56.51
717.499	56.78
717.901	57.04
718.304	57.33
718.707	57.55
719.109	57.84
719.512	58.13
719.915	58.34
720.317	58.56
720.719	58.82
721.122	59.07
721.524	59.3
721.926	59.53
722.328	59.74
722.731	59.93
723.133	60.15
723.535	60.32
723.937	60.5
724.338	60.65
724.74	60.84
725.142	60.86
725.544	61
725.945	61.11
726.347	61.25
726.748	61.34
727.15	61.45
727.551	61.57
727.952	61.68
728.354	61.8
728.755	61.95
729.156	62.05
729.557	62.28
729.958	62.43
730.359	62.55
730.76	62.64
731.161	62.78
731.562	62.89
731.962	62.97
732.363	63.02
732.763	63.1
733.164	63.17
733.564	63.19
733.965	63.22
734.365	63.23
734.766	63.25
735.166	63.26
735.566	63.27
735.966	63.31
736.366	63.33
736.766	63.38
737.166	63.41
737.566	63.43
737.966	63.49
738.365	63.55
738.765	63.6
739.165	63.64
739.564	63.7
739.964	63.73
740.363	63.77
740.763	63.8
741.162	63.82
741.561	63.82
741.96	63.85
742.36	63.91
742.759	63.9
743.158	63.92
743.557	63.95
743.955	64.01
744.354	64.1
744.753	64.11
745.152	64.17
745.55	64.24
745.949	64.3
746.348	64.36
746.746	64.37
747.144	64.48
747.543	64.54
747.941	64.64
748.339	64.7
748.737	64.77
749.136	64.86
749.534	64.91
749.932	64.94
750.33	64.97
750.727	64.97
751.125	64.96
751.523	64.93
751.921	64.92
752.318	64.86
752.716	64.81
753.113	64.76
753.511	64.68
753.908	64.6
754.305	64.53
754.703	64.48
755.1	64.46
755.497	64.47
755.894	64.47
756.291	64.46
756.688	64.42
757.085	64.41
757.482	64.38
757.878	64.43
758.275	64.43
758.672	64.5
759.068	64.51
759.465	64.51
759.861	64.47
760.258	64.43
760.654	64.4
761.05	64.41
761.447	64.41
761.843	64.34
762.239	64.29
762.635	64.27
763.031	64.22
763.427	64.19
763.822	64.17
764.218	64.18
764.614	64.2
765.01	64.19
765.405	64.17
765.801	64.14
766.196	64.18
766.592	64.2
766.987	64.26
767.382	64.23
767.778	64.26
768.173	64.24
768.568	64.2
768.963	64.19
769.358	64.15
769.753	64.16
770.148	64.15
770.542	64.15
770.937	64.12
771.332	64.1
771.726	64.09
772.121	64.01
772.515	64.02
772.91	64.06
773.304	64.01
773.699	64.03
774.093	64.03
774.487	64.04
774.881	64.06
775.275	64.04
775.669	64.02
776.063	64.01
776.457	64.02
776.851	64
777.245	64
777.638	64.04
778.032	64.05
778.425	64.05
778.819	64.06
779.212	64
779.606	64
779.999	64.01
