Data from C_2_dec_va_2n_050_Splice17_01.txt Node
Date: Sat Feb 29 14:34:05 EST 2020
User: sa697716
Spectrometer: FLMS03696
Trigger mode: 0
Integration Time (sec): 3.180400E-1
Scans to average: 20
Electric dark correction enabled: true
Nonlinearity correction enabled: true
Boxcar width: 5
XAxis mode: Wavelengths
Number of Pixels in Spectrum: 2048
>>>>>Begin Spectral Data<<<<<
187.83	82.67
188.298	88.93
188.766	79.99
189.233	74.91
189.701	76.74
190.169	68.54
190.636	80.27
191.104	102.4
191.571	407.13
192.039	347.1
192.506	-774.69
192.974	-1128.99
193.441	-6.65
193.908	91.83
194.375	127.15
194.842	145.41
195.31	34.47
195.777	84.97
196.244	36.76
196.711	23.67
197.177	19.98
197.644	19.34
198.111	17.02
198.578	16.58
199.045	16.32
199.511	16.61
199.978	16.93
200.445	17.01
200.911	17.01
201.378	17.32
201.844	17.57
202.31	18.22
202.777	18.44
203.243	18.83
203.709	19.16
204.176	18.63
204.642	18.87
205.108	18.92
205.574	19.21
206.04	19.09
206.506	18.91
206.972	18.75
207.438	18.28
207.903	18.92
208.369	18.72
208.835	18.63
209.301	19.21
209.766	18.92
210.232	19.12
210.697	19.29
211.163	19.3
211.628	19.26
212.094	19.34
212.559	19.2
213.024	18.69
213.49	18.78
213.955	18.87
214.42	18.53
214.885	18.18
215.35	17.77
215.815	17.3
216.28	16.93
216.745	16.53
217.21	16.03
217.675	15.59
218.14	15.05
218.604	14.61
219.069	14.14
219.534	13.78
219.998	13.49
220.463	13.24
220.927	13.09
221.392	12.87
221.856	12.73
222.32	12.55
222.785	12.43
223.249	12.33
223.713	12.22
224.177	12.11
224.642	12.05
225.106	11.99
225.57	11.89
226.034	11.77
226.497	11.67
226.961	11.53
227.425	11.42
227.889	11.33
228.353	11.23
228.816	11.13
229.28	10.99
229.744	10.87
230.207	10.74
230.671	10.65
231.134	10.52
231.597	10.4
232.061	10.3
232.524	10.22
232.987	10.1
233.45	9.99
233.914	9.89
234.377	9.82
234.84	9.73
235.303	9.64
235.766	9.55
236.229	9.46
236.691	9.39
237.154	9.31
237.617	9.21
238.08	9.13
238.542	9.04
239.005	8.95
239.468	8.85
239.93	8.77
240.393	8.7
240.855	8.61
241.317	8.55
241.78	8.47
242.242	8.39
242.704	8.32
243.166	8.25
243.629	8.18
244.091	8.12
244.553	8.07
245.015	8
245.477	7.93
245.939	7.87
246.4	7.81
246.862	7.76
247.324	7.7
247.786	7.66
248.247	7.61
248.709	7.55
249.17	7.5
249.632	7.46
250.093	7.4
250.555	7.36
251.016	7.32
251.477	7.27
251.939	7.23
252.4	7.19
252.861	7.16
253.322	7.11
253.783	7.09
254.244	7.06
254.705	7.02
255.166	7.02
255.627	6.98
256.088	6.94
256.549	6.91
257.009	6.88
257.47	6.86
257.931	6.82
258.391	6.8
258.852	6.77
259.312	6.74
259.773	6.71
260.233	6.68
260.694	6.66
261.154	6.64
261.614	6.62
262.074	6.6
262.534	6.57
262.994	6.55
263.455	6.54
263.915	6.52
264.374	6.5
264.834	6.48
265.294	6.46
265.754	6.43
266.214	6.41
266.673	6.39
267.133	6.36
267.593	6.35
268.052	6.33
268.512	6.3
268.971	6.28
269.431	6.26
269.89	6.24
270.349	6.22
270.809	6.22
271.268	6.21
271.727	6.2
272.186	6.18
272.645	6.17
273.104	6.16
273.563	6.16
274.022	6.15
274.481	6.13
274.94	6.12
275.399	6.12
275.857	6.1
276.316	6.09
276.775	6.07
277.233	6.05
277.692	6.03
278.15	6
278.609	5.98
279.067	5.95
279.525	5.93
279.984	5.91
280.442	5.87
280.9	5.85
281.358	5.84
281.816	5.81
282.274	5.8
282.732	5.78
283.19	5.78
283.648	5.77
284.106	5.76
284.564	5.75
285.021	5.74
285.479	5.74
285.937	5.74
286.394	5.71
286.852	5.71
287.309	5.71
287.767	5.7
288.224	5.68
288.682	5.67
289.139	5.66
289.596	5.64
290.053	5.62
290.511	5.6
290.968	5.58
291.425	5.57
291.882	5.54
292.339	5.52
292.796	5.5
293.252	5.48
293.709	5.46
294.166	5.45
294.623	5.43
295.079	5.42
295.536	5.41
295.992	5.4
296.449	5.39
296.905	5.37
297.362	5.36
297.818	5.35
298.274	5.33
298.731	5.32
299.187	5.32
299.643	5.3
300.099	5.29
300.555	5.27
301.011	5.26
301.467	5.25
301.923	5.24
302.379	5.23
302.835	5.22
303.291	5.21
303.746	5.19
304.202	5.17
304.658	5.17
305.113	5.14
305.569	5.14
306.024	5.12
306.479	5.11
306.935	5.1
307.39	5.1
307.845	5.08
308.301	5.07
308.756	5.07
309.211	5.06
309.666	5.06
310.121	5.06
310.576	5.05
311.031	5.05
311.486	5.05
311.94	5.04
312.395	5.04
312.85	5.04
313.305	5.04
313.759	5.03
314.214	5.03
314.668	5.02
315.123	5.01
315.577	5.01
316.032	5
316.486	4.99
316.94	4.98
317.394	4.97
317.849	4.95
318.303	4.94
318.757	4.94
319.211	4.92
319.665	4.93
320.119	4.92
320.572	4.91
321.026	4.91
321.48	4.9
321.934	4.9
322.387	4.89
322.841	4.89
323.295	4.88
323.748	4.87
324.202	4.87
324.655	4.86
325.108	4.84
325.562	4.82
326.015	4.81
326.468	4.8
326.921	4.79
327.374	4.79
327.827	4.78
328.28	4.76
328.733	4.75
329.186	4.74
329.639	4.73
330.092	4.73
330.545	4.72
330.997	4.72
331.45	4.71
331.903	4.71
332.355	4.7
332.808	4.69
333.26	4.69
333.713	4.7
334.165	4.69
334.617	4.7
335.069	4.7
335.522	4.71
335.974	4.7
336.426	4.71
336.878	4.7
337.33	4.7
337.782	4.71
338.234	4.71
338.686	4.7
339.137	4.71
339.589	4.69
340.041	4.69
340.493	4.67
340.944	4.67
341.396	4.66
341.847	4.65
342.299	4.63
342.75	4.61
343.201	4.59
343.653	4.57
344.104	4.56
344.555	4.55
345.006	4.54
345.457	4.54
345.908	4.54
346.359	4.54
346.81	4.54
347.261	4.53
347.712	4.53
348.163	4.53
348.613	4.53
349.064	4.51
349.515	4.5
349.965	4.48
350.416	4.47
350.866	4.47
351.317	4.46
351.767	4.46
352.217	4.45
352.668	4.44
353.118	4.44
353.568	4.45
354.018	4.46
354.468	4.46
354.918	4.46
355.368	4.45
355.818	4.44
356.268	4.44
356.718	4.44
357.168	4.43
357.617	4.43
358.067	4.42
358.517	4.42
358.966	4.42
359.416	4.42
359.865	4.42
360.315	4.42
360.764	4.43
361.213	4.43
361.663	4.43
362.112	4.44
362.561	4.43
363.01	4.43
363.459	4.43
363.908	4.42
364.357	4.42
364.806	4.42
365.255	4.43
365.703	4.42
366.152	4.42
366.601	4.42
367.05	4.43
367.498	4.42
367.947	4.42
368.395	4.43
368.844	4.43
369.292	4.43
369.74	4.44
370.189	4.43
370.637	4.44
371.085	4.45
371.533	4.45
371.981	4.46
372.429	4.47
372.877	4.48
373.325	4.5
373.773	4.52
374.221	4.53
374.669	4.55
375.116	4.57
375.564	4.59
376.012	4.62
376.459	4.64
376.907	4.66
377.354	4.67
377.801	4.71
378.249	4.73
378.696	4.75
379.143	4.78
379.591	4.81
380.038	4.83
380.485	4.86
380.932	4.88
381.379	4.9
381.826	4.93
382.273	4.96
382.72	4.98
383.166	5
383.613	5.03
384.06	5.06
384.506	5.07
384.953	5.09
385.4	5.12
385.846	5.14
386.292	5.17
386.739	5.18
387.185	5.22
387.631	5.24
388.078	5.27
388.524	5.28
388.97	5.29
389.416	5.3
389.862	5.31
390.308	5.34
390.754	5.36
391.2	5.39
391.645	5.41
392.091	5.41
392.537	5.42
392.983	5.43
393.428	5.45
393.874	5.48
394.319	5.49
394.765	5.5
395.21	5.51
395.655	5.5
396.101	5.48
396.546	5.48
396.991	5.48
397.436	5.46
397.881	5.46
398.326	5.48
398.771	5.48
399.216	5.49
399.661	5.49
400.106	5.49
400.551	5.48
400.995	5.47
401.44	5.47
401.885	5.45
402.329	5.45
402.774	5.43
403.218	5.4
403.663	5.38
404.107	5.37
404.551	5.36
404.995	5.34
405.44	5.33
405.884	5.32
406.328	5.32
406.772	5.31
407.216	5.31
407.66	5.3
408.104	5.3
408.547	5.3
408.991	5.27
409.435	5.24
409.879	5.24
410.322	5.24
410.766	5.23
411.209	5.22
411.653	5.21
412.096	5.19
412.54	5.18
412.983	5.18
413.426	5.17
413.869	5.17
414.312	5.18
414.756	5.19
415.199	5.21
415.642	5.22
416.085	5.22
416.527	5.24
416.97	5.26
417.413	5.25
417.856	5.25
418.298	5.23
418.741	5.24
419.184	5.22
419.626	5.19
420.069	5.17
420.511	5.15
420.953	5.14
421.396	5.12
421.838	5.11
422.28	5.13
422.722	5.13
423.164	5.13
423.606	5.12
424.048	5.13
424.49	5.14
424.932	5.12
425.374	5.12
425.816	5.11
426.258	5.09
426.699	5.05
427.141	5.01
427.582	4.99
428.024	4.98
428.465	4.97
428.907	4.96
429.348	4.96
429.789	4.95
430.231	4.94
430.672	4.94
431.113	4.94
431.554	4.96
431.995	4.97
432.436	4.97
432.877	4.95
433.318	4.94
433.759	4.95
434.2	4.94
434.64	4.95
435.081	4.94
435.522	4.94
435.962	4.96
436.403	4.96
436.843	4.96
437.284	4.98
437.724	5.02
438.164	5.03
438.604	5.05
439.045	5.06
439.485	5.06
439.925	5.06
440.365	5.06
440.805	5.03
441.245	5.02
441.685	5.03
442.125	5.01
442.564	5.01
443.004	5.02
443.444	5.03
443.883	5.02
444.323	5.03
444.762	5.06
445.202	5.09
445.641	5.13
446.081	5.18
446.52	5.17
446.959	5.19
447.398	5.21
447.837	5.25
448.276	5.25
448.716	5.27
449.154	5.28
449.593	5.3
450.032	5.3
450.471	5.33
450.91	5.32
451.349	5.34
451.787	5.35
452.226	5.33
452.664	5.31
453.103	5.31
453.541	5.32
453.98	5.3
454.418	5.28
454.856	5.26
455.295	5.24
455.733	5.23
456.171	5.23
456.609	5.23
457.047	5.22
457.485	5.22
457.923	5.21
458.361	5.19
458.798	5.19
459.236	5.2
459.674	5.21
460.111	5.2
460.549	5.19
460.987	5.17
461.424	5.15
461.862	5.16
462.299	5.15
462.736	5.15
463.173	5.15
463.611	5.15
464.048	5.15
464.485	5.14
464.922	5.14
465.359	5.15
465.796	5.13
466.233	5.15
466.67	5.16
467.106	5.15
467.543	5.17
467.98	5.17
468.416	5.19
468.853	5.19
469.29	5.2
469.726	5.21
470.162	5.2
470.599	5.22
471.035	5.21
471.471	5.18
471.907	5.19
472.344	5.18
472.78	5.18
473.216	5.16
473.652	5.16
474.088	5.16
474.523	5.16
474.959	5.16
475.395	5.15
475.831	5.14
476.266	5.14
476.702	5.13
477.138	5.14
477.573	5.13
478.008	5.13
478.444	5.13
478.879	5.13
479.314	5.13
479.75	5.15
480.185	5.14
480.62	5.15
481.055	5.15
481.49	5.14
481.925	5.13
482.36	5.14
482.795	5.13
483.229	5.13
483.664	5.12
484.099	5.12
484.534	5.09
484.968	5.1
485.403	5.1
485.837	5.1
486.271	5.11
486.706	5.11
487.14	5.12
487.574	5.12
488.009	5.13
488.443	5.15
488.877	5.16
489.311	5.18
489.745	5.2
490.179	5.22
490.613	5.24
491.046	5.26
491.48	5.29
491.914	5.31
492.348	5.33
492.781	5.36
493.215	5.38
493.648	5.42
494.082	5.46
494.515	5.48
494.948	5.52
495.382	5.57
495.815	5.6
496.248	5.66
496.681	5.7
497.114	5.75
497.547	5.8
497.98	5.86
498.413	5.92
498.846	5.98
499.279	6.06
499.711	6.12
500.144	6.19
500.577	6.27
501.009	6.35
501.442	6.43
501.874	6.53
502.306	6.62
502.739	6.71
503.171	6.82
503.603	6.93
504.036	7.04
504.468	7.17
504.9	7.3
505.332	7.44
505.764	7.58
506.196	7.73
506.627	7.87
507.059	8.03
507.491	8.18
507.923	8.35
508.354	8.53
508.786	8.71
509.217	8.89
509.649	9.09
510.08	9.29
510.512	9.49
510.943	9.69
511.374	9.92
511.805	10.13
512.237	10.38
512.668	10.61
513.099	10.86
513.53	11.12
513.961	11.38
514.391	11.62
514.822	11.88
515.253	12.15
515.684	12.41
516.114	12.69
516.545	12.98
516.975	13.26
517.406	13.53
517.836	13.8
518.267	14.08
518.697	14.37
519.127	14.67
519.558	14.96
519.988	15.23
520.418	15.53
520.848	15.82
521.278	16.12
521.708	16.34
522.138	16.62
522.567	16.9
522.997	17.17
523.427	17.43
523.857	17.67
524.286	17.94
524.716	18.19
525.145	18.43
525.575	18.67
526.004	18.89
526.433	19.16
526.863	19.38
527.292	19.6
527.721	19.8
528.15	19.99
528.579	20.19
529.008	20.36
529.437	20.53
529.866	20.69
530.295	20.85
530.724	21.01
531.152	21.16
531.581	21.31
532.01	21.42
532.438	21.57
532.867	21.69
533.295	21.79
533.723	21.91
534.152	22.02
534.58	22.12
535.008	22.19
535.436	22.28
535.865	22.36
536.293	22.43
536.721	22.49
537.149	22.53
537.576	22.6
538.004	22.67
538.432	22.71
538.86	22.77
539.287	22.82
539.715	22.88
540.143	22.91
540.57	22.96
540.998	23.02
541.425	23.07
541.852	23.12
542.28	23.14
542.707	23.17
543.134	23.2
543.561	23.23
543.988	23.28
544.415	23.32
544.842	23.35
545.269	23.38
545.696	23.4
546.123	23.44
546.549	23.46
546.976	23.51
547.403	23.53
547.829	23.57
548.256	23.59
548.682	23.6
549.108	23.62
549.535	23.62
549.961	23.63
550.387	23.64
550.813	23.64
551.24	23.66
551.666	23.69
552.092	23.71
552.518	23.69
552.943	23.69
553.369	23.68
553.795	23.65
554.221	23.65
554.646	23.64
555.072	23.62
555.498	23.59
555.923	23.55
556.349	23.47
556.774	23.4
557.199	23.37
557.625	23.31
558.05	23.23
558.475	23.15
558.9	23.07
559.325	22.97
559.75	22.87
560.175	22.77
560.6	22.65
561.025	22.56
561.449	22.44
561.874	22.31
562.299	22.18
562.723	22.07
563.148	21.93
563.572	21.81
563.997	21.68
564.421	21.55
564.846	21.41
565.27	21.27
565.694	21.1
566.118	20.94
566.542	20.77
566.966	20.63
567.39	20.47
567.814	20.33
568.238	20.15
568.662	19.97
569.086	19.79
569.509	19.61
569.933	19.45
570.357	19.29
570.78	19.13
571.204	18.96
571.627	18.78
572.05	18.63
572.474	18.47
572.897	18.32
573.32	18.17
573.743	18.04
574.166	17.91
574.589	17.77
575.012	17.64
575.435	17.53
575.858	17.42
576.281	17.32
576.704	17.2
577.126	17.09
577.549	16.99
577.972	16.9
578.394	16.79
578.817	16.68
579.239	16.58
579.661	16.5
580.084	16.39
580.506	16.3
580.928	16.21
581.35	16.13
581.772	16.07
582.194	15.98
582.616	15.91
583.038	15.84
583.46	15.77
583.882	15.69
584.303	15.62
584.725	15.54
585.147	15.46
585.568	15.38
585.99	15.31
586.411	15.22
586.833	15.15
587.254	15.1
587.675	15.04
588.096	14.98
588.518	14.93
588.939	14.87
589.36	14.83
589.781	14.8
590.202	14.76
590.623	14.71
591.043	14.66
591.464	14.62
591.885	14.57
592.305	14.53
592.726	14.49
593.147	14.45
593.567	14.41
593.987	14.38
594.408	14.34
594.828	14.31
595.248	14.28
595.669	14.26
596.089	14.24
596.509	14.2
596.929	14.16
597.349	14.12
597.769	14.09
598.189	14.05
598.608	14.01
599.028	13.98
599.448	13.95
599.867	13.9
600.287	13.84
600.706	13.78
601.126	13.73
601.545	13.68
601.965	13.64
602.384	13.58
602.803	13.53
603.222	13.47
603.641	13.41
604.061	13.34
604.48	13.28
604.898	13.23
605.317	13.17
605.736	13.11
606.155	13.04
606.574	12.97
606.992	12.89
607.411	12.83
607.829	12.71
608.248	12.64
608.666	12.55
609.085	12.5
609.503	12.41
609.921	12.33
610.339	12.26
610.758	12.18
611.176	12.12
611.594	12.06
612.012	11.97
612.43	11.97
612.847	11.9
613.265	11.85
613.683	11.76
614.101	11.69
614.518	11.63
614.936	11.56
615.353	11.49
615.771	11.44
616.188	11.39
616.606	11.34
617.023	11.27
617.44	11.22
617.857	11.16
618.274	11.12
618.691	11.07
619.108	11.02
619.525	10.97
619.942	10.93
620.359	10.9
620.776	10.84
621.192	10.81
621.609	10.77
622.026	10.74
622.442	10.71
622.859	10.69
623.275	10.7
623.691	10.69
624.108	10.69
624.524	10.68
624.94	10.66
625.356	10.66
625.772	10.65
626.188	10.65
626.604	10.64
627.02	10.63
627.436	10.62
627.852	10.59
628.268	10.57
628.683	10.56
629.099	10.55
629.514	10.52
629.93	10.49
630.345	10.46
630.761	10.42
631.176	10.38
631.591	10.32
632.007	10.28
632.422	10.26
632.837	10.2
633.252	10.14
633.667	10.08
634.082	10.02
634.497	9.94
634.911	9.84
635.326	9.77
635.741	9.68
636.155	9.61
636.57	9.51
636.984	9.38
637.399	9.27
637.813	9.16
638.228	9.05
638.642	8.93
639.056	8.82
639.47	8.72
639.884	8.6
640.298	8.48
640.712	8.36
641.126	8.25
641.54	8.15
641.954	8.06
642.368	7.93
642.781	7.82
643.195	7.71
643.609	7.61
644.022	7.52
644.436	7.43
644.849	7.34
645.262	7.26
645.676	7.17
646.089	7.08
646.502	6.99
646.915	6.92
647.328	6.88
647.741	6.82
648.154	6.77
648.567	6.71
648.98	6.68
649.393	6.65
649.805	6.61
650.218	6.58
650.631	6.56
651.043	6.54
651.456	6.52
651.868	6.48
652.28	6.47
652.693	6.43
653.105	6.39
653.517	6.35
653.929	6.31
654.341	6.29
654.753	6.24
655.165	6.2
655.577	6.15
655.989	6.09
656.401	6.03
656.813	5.95
657.224	5.89
657.636	5.85
658.047	5.79
658.459	5.72
658.87	5.65
659.282	5.59
659.693	5.53
660.104	5.47
660.515	5.42
660.926	5.37
661.338	5.33
661.749	5.28
662.159	5.23
662.57	5.17
662.981	5.13
663.392	5.08
663.803	5.04
664.213	5.01
664.624	4.96
665.035	4.92
665.445	4.9
665.855	4.86
666.266	4.83
666.676	4.8
667.086	4.78
667.497	4.75
667.907	4.73
668.317	4.71
668.727	4.68
669.137	4.68
669.547	4.69
669.956	4.66
670.366	4.67
670.776	4.67
671.186	4.66
671.595	4.67
672.005	4.68
672.414	4.68
672.824	4.7
673.233	4.74
673.642	4.74
674.052	4.74
674.461	4.76
674.87	4.77
675.279	4.79
675.688	4.81
676.097	4.83
676.506	4.85
676.915	4.88
677.323	4.91
677.732	4.94
678.141	4.99
678.549	5.04
678.958	5.08
679.366	5.13
679.775	5.2
680.183	5.27
680.592	5.35
681	5.42
681.408	5.5
681.816	5.58
682.224	5.68
682.632	5.8
683.04	5.9
683.448	6.03
683.856	6.17
684.264	6.33
684.671	6.49
685.079	6.67
685.487	6.88
685.894	7.1
686.302	7.34
686.709	7.6
687.116	7.89
687.524	8.22
687.931	8.55
688.338	8.91
688.745	9.28
689.152	9.69
689.559	10.12
689.966	10.56
690.373	11.05
690.78	11.54
691.187	12.05
691.593	12.57
692	13.11
692.407	13.69
692.813	14.25
693.22	14.85
693.626	15.42
694.032	16.03
694.439	16.66
694.845	17.29
695.251	17.91
695.657	18.53
696.063	19.18
696.469	19.8
696.875	20.41
697.281	21.03
697.687	21.65
698.093	22.3
698.498	22.91
698.904	23.51
699.31	24.08
699.715	24.68
700.12	25.24
700.526	25.81
700.931	26.38
701.337	26.95
701.742	27.5
702.147	28.04
702.552	28.56
702.957	29.07
703.362	29.59
703.767	30.12
704.172	30.62
704.577	31.1
704.981	31.59
705.386	32.04
705.791	32.52
706.195	32.94
706.6	33.38
707.004	33.84
707.408	34.29
707.813	34.71
708.217	35.12
708.621	35.54
709.025	36
709.43	36.38
709.834	36.83
710.237	37.21
710.641	37.64
711.045	38.03
711.449	38.4
711.853	38.76
712.256	39.12
712.66	39.49
713.064	39.86
713.467	40.2
713.87	40.56
714.274	40.9
714.677	41.21
715.08	41.53
715.484	41.88
715.887	42.19
716.29	42.5
716.693	42.79
717.096	43.09
717.499	43.37
717.901	43.66
718.304	43.95
718.707	44.2
719.109	44.49
719.512	44.78
719.915	45
720.317	45.26
720.719	45.53
721.122	45.79
721.524	46.04
721.926	46.27
722.328	46.5
722.731	46.71
723.133	46.93
723.535	47.16
723.937	47.36
724.338	47.57
724.74	47.78
725.142	47.9
725.544	48.07
725.945	48.24
726.347	48.44
726.748	48.6
727.15	48.74
727.551	48.88
727.952	48.99
728.354	49.14
728.755	49.3
729.156	49.44
729.557	49.65
729.958	49.82
730.359	49.92
730.76	50.03
731.161	50.14
731.562	50.26
731.962	50.36
732.363	50.48
732.763	50.58
733.164	50.66
733.564	50.71
733.965	50.78
734.365	50.82
734.766	50.91
735.166	50.94
735.566	50.96
735.966	51.01
736.366	51.06
736.766	51.11
737.166	51.14
737.566	51.19
737.966	51.28
738.365	51.32
738.765	51.4
739.165	51.43
739.564	51.48
739.964	51.57
740.363	51.63
740.763	51.67
741.162	51.68
741.561	51.76
741.96	51.81
742.36	51.82
742.759	51.84
743.158	51.87
743.557	51.9
743.955	51.96
744.354	52
744.753	52.06
745.152	52.09
745.55	52.16
745.949	52.17
746.348	52.2
746.746	52.24
747.144	52.33
747.543	52.37
747.941	52.46
748.339	52.53
748.737	52.59
749.136	52.63
749.534	52.66
749.932	52.7
750.33	52.69
750.727	52.74
751.125	52.76
751.523	52.75
751.921	52.75
752.318	52.71
752.716	52.67
753.113	52.66
753.511	52.61
753.908	52.59
754.305	52.57
754.703	52.58
755.1	52.53
755.497	52.51
755.894	52.48
756.291	52.47
756.688	52.48
757.085	52.47
757.482	52.45
757.878	52.47
758.275	52.47
758.672	52.46
759.068	52.48
759.465	52.5
759.861	52.47
760.258	52.45
760.654	52.43
761.05	52.43
761.447	52.4
761.843	52.35
762.239	52.32
762.635	52.33
763.031	52.31
763.427	52.28
763.822	52.23
764.218	52.2
764.614	52.21
765.01	52.19
765.405	52.14
765.801	52.12
766.196	52.12
766.592	52.11
766.987	52.11
767.382	52.11
767.778	52.12
768.173	52.16
768.568	52.15
768.963	52.16
769.358	52.16
769.753	52.2
770.148	52.2
770.542	52.19
770.937	52.17
771.332	52.18
771.726	52.18
772.121	52.15
772.515	52.11
772.91	52.11
773.304	52.07
773.699	52.06
774.093	52.02
774.487	52.05
774.881	52.09
775.275	52.13
775.669	52.09
776.063	52.07
776.457	52.07
776.851	52.04
777.245	52.06
777.638	52.07
778.032	52.08
778.425	52.1
778.819	52.1
779.212	52.1
779.606	52.06
779.999	52.07
780.392	52.1
780.786	52.12
781.179	52.13
781.572	52.13
781.965	52.15
782.358	52.15
