Data from C_2_dec_oh_4n_046_Splice17_07.txt Node
Date: Sat Feb 29 14:35:46 EST 2020
User: sa697716
Spectrometer: FLMS03696
Trigger mode: 0
Integration Time (sec): 3.180400E-1
Scans to average: 20
Electric dark correction enabled: true
Nonlinearity correction enabled: true
Boxcar width: 5
XAxis mode: Wavelengths
Number of Pixels in Spectrum: 2048
>>>>>Begin Spectral Data<<<<<
187.83	26.98
188.298	27.42
188.766	31.99
189.233	27.18
189.701	40.24
190.169	49.88
190.636	36.07
191.104	9.72
191.571	-29.02
192.039	68.15
192.506	315.03
192.974	5850.86
193.441	-421.98
193.908	89.94
194.375	75.87
194.842	155.9
195.31	131.18
195.777	46.53
196.244	18.35
196.711	29.42
197.177	30.63
197.644	32.14
198.111	32.36
198.578	32.81
199.045	34.11
199.511	35.62
199.978	36.47
200.445	35.95
200.911	36.94
201.378	37.49
201.844	38.54
202.31	39.18
202.777	39.47
203.243	40.61
203.709	41.23
204.176	40.91
204.642	40.41
205.108	40.19
205.574	41.14
206.04	40.94
206.506	40.82
206.972	40.58
207.438	40.27
207.903	40.78
208.369	40.34
208.835	40.41
209.301	40.78
209.766	40.86
210.232	41.03
210.697	40.88
211.163	40.69
211.628	40.87
212.094	41
212.559	40.57
213.024	39.81
213.49	39.56
213.955	39.52
214.42	39.28
214.885	38.89
215.35	39.02
215.815	38.83
216.28	38.76
216.745	38.32
217.21	37.66
217.675	37.55
218.14	37.06
218.604	36.36
219.069	35.95
219.534	35.46
219.998	35.03
220.463	34.46
220.927	33.99
221.392	33.49
221.856	33.04
222.32	32.7
222.785	32.25
223.249	31.89
223.713	31.62
224.177	31.18
224.642	30.81
225.106	30.45
225.57	30.07
226.034	29.71
226.497	29.34
226.961	28.95
227.425	28.55
227.889	28.14
228.353	27.78
228.816	27.42
229.28	27.06
229.744	26.74
230.207	26.38
230.671	26.05
231.134	25.72
231.597	25.41
232.061	25.1
232.524	24.82
232.987	24.57
233.45	24.26
233.914	23.95
234.377	23.7
234.84	23.43
235.303	23.18
235.766	22.92
236.229	22.67
236.691	22.44
237.154	22.21
237.617	21.99
238.08	21.78
238.542	21.58
239.005	21.38
239.468	21.13
239.93	20.93
240.393	20.73
240.855	20.53
241.317	20.36
241.78	20.2
242.242	20.01
242.704	19.82
243.166	19.63
243.629	19.45
244.091	19.29
244.553	19.14
245.015	18.98
245.477	18.83
245.939	18.69
246.4	18.52
246.862	18.36
247.324	18.23
247.786	18.11
248.247	17.97
248.709	17.85
249.17	17.72
249.632	17.58
250.093	17.44
250.555	17.31
251.016	17.2
251.477	17.08
251.939	16.98
252.4	16.87
252.861	16.77
253.322	16.67
253.783	16.58
254.244	16.49
254.705	16.41
255.166	16.35
255.627	16.27
256.088	16.18
256.549	16.11
257.009	16.01
257.47	15.93
257.931	15.84
258.391	15.75
258.852	15.66
259.312	15.57
259.773	15.49
260.233	15.39
260.694	15.31
261.154	15.23
261.614	15.15
262.074	15.08
262.534	14.99
262.994	14.92
263.455	14.86
263.915	14.79
264.374	14.71
264.834	14.67
265.294	14.61
265.754	14.55
266.214	14.5
266.673	14.45
267.133	14.4
267.593	14.36
268.052	14.3
268.512	14.25
268.971	14.21
269.431	14.17
269.89	14.11
270.349	14.06
270.809	14.02
271.268	13.97
271.727	13.92
272.186	13.88
272.645	13.82
273.104	13.78
273.563	13.74
274.022	13.68
274.481	13.63
274.94	13.58
275.399	13.53
275.857	13.48
276.316	13.43
276.775	13.37
277.233	13.3
277.692	13.26
278.15	13.2
278.609	13.14
279.067	13.08
279.525	13.02
279.984	12.98
280.442	12.94
280.9	12.88
281.358	12.83
281.816	12.78
282.274	12.74
282.732	12.7
283.19	12.66
283.648	12.63
284.106	12.59
284.564	12.56
285.021	12.52
285.479	12.49
285.937	12.46
286.394	12.42
286.852	12.39
287.309	12.36
287.767	12.32
288.224	12.28
288.682	12.23
289.139	12.19
289.596	12.15
290.053	12.09
290.511	12.04
290.968	11.99
291.425	11.94
291.882	11.89
292.339	11.85
292.796	11.8
293.252	11.75
293.709	11.7
294.166	11.65
294.623	11.61
295.079	11.57
295.536	11.53
295.992	11.49
296.449	11.46
296.905	11.42
297.362	11.39
297.818	11.36
298.274	11.32
298.731	11.29
299.187	11.26
299.643	11.22
300.099	11.18
300.555	11.15
301.011	11.11
301.467	11.08
301.923	11.04
302.379	11.01
302.835	10.98
303.291	10.95
303.746	10.92
304.202	10.9
304.658	10.86
305.113	10.84
305.569	10.81
306.024	10.78
306.479	10.76
306.935	10.74
307.39	10.72
307.845	10.7
308.301	10.68
308.756	10.67
309.211	10.64
309.666	10.63
310.121	10.6
310.576	10.59
311.031	10.57
311.486	10.54
311.94	10.52
312.395	10.5
312.85	10.48
313.305	10.46
313.759	10.44
314.214	10.42
314.668	10.4
315.123	10.4
315.577	10.4
316.032	10.39
316.486	10.38
316.94	10.36
317.394	10.33
317.849	10.31
318.303	10.29
318.757	10.26
319.211	10.22
319.665	10.19
320.119	10.15
320.572	10.12
321.026	10.07
321.48	10.04
321.934	10.02
322.387	10
322.841	9.96
323.295	9.93
323.748	9.9
324.202	9.89
324.655	9.86
325.108	9.84
325.562	9.81
326.015	9.79
326.468	9.75
326.921	9.73
327.374	9.69
327.827	9.67
328.28	9.65
328.733	9.63
329.186	9.61
329.639	9.59
330.092	9.56
330.545	9.55
330.997	9.53
331.45	9.51
331.903	9.49
332.355	9.49
332.808	9.48
333.26	9.47
333.713	9.46
334.165	9.45
334.617	9.45
335.069	9.44
335.522	9.43
335.974	9.43
336.426	9.43
336.878	9.43
337.33	9.41
337.782	9.41
338.234	9.41
338.686	9.39
339.137	9.38
339.589	9.36
340.041	9.35
340.493	9.33
340.944	9.32
341.396	9.3
341.847	9.27
342.299	9.25
342.75	9.21
343.201	9.18
343.653	9.15
344.104	9.13
344.555	9.1
345.006	9.06
345.457	9.04
345.908	9.01
346.359	8.99
346.81	8.97
347.261	8.95
347.712	8.95
348.163	8.94
348.613	8.92
349.064	8.89
349.515	8.88
349.965	8.87
350.416	8.87
350.866	8.86
351.317	8.85
351.767	8.84
352.217	8.83
352.668	8.82
353.118	8.81
353.568	8.81
354.018	8.82
354.468	8.82
354.918	8.81
355.368	8.8
355.818	8.77
356.268	8.76
356.718	8.75
357.168	8.74
357.617	8.73
358.067	8.72
358.517	8.7
358.966	8.69
359.416	8.69
359.865	8.67
360.315	8.66
360.764	8.66
361.213	8.65
361.663	8.64
362.112	8.63
362.561	8.62
363.01	8.62
363.459	8.6
363.908	8.58
364.357	8.57
364.806	8.56
365.255	8.56
365.703	8.55
366.152	8.55
366.601	8.54
367.05	8.54
367.498	8.53
367.947	8.51
368.395	8.52
368.844	8.51
369.292	8.5
369.74	8.5
370.189	8.49
370.637	8.48
371.085	8.48
371.533	8.48
371.981	8.47
372.429	8.47
372.877	8.46
373.325	8.44
373.773	8.44
374.221	8.43
374.669	8.41
375.116	8.38
375.564	8.37
376.012	8.35
376.459	8.34
376.907	8.33
377.354	8.32
377.801	8.31
378.249	8.32
378.696	8.32
379.143	8.32
379.591	8.33
380.038	8.35
380.485	8.35
380.932	8.36
381.379	8.34
381.826	8.34
382.273	8.35
382.72	8.37
383.166	8.36
383.613	8.35
384.06	8.35
384.506	8.34
384.953	8.33
385.4	8.33
385.846	8.33
386.292	8.35
386.739	8.35
387.185	8.37
387.631	8.37
388.078	8.38
388.524	8.38
388.97	8.38
389.416	8.39
389.862	8.39
390.308	8.4
390.754	8.41
391.2	8.42
391.645	8.43
392.091	8.43
392.537	8.44
392.983	8.46
393.428	8.5
393.874	8.54
394.319	8.55
394.765	8.56
395.21	8.56
395.655	8.58
396.101	8.59
396.546	8.6
396.991	8.6
397.436	8.59
397.881	8.6
398.326	8.62
398.771	8.63
399.216	8.66
399.661	8.7
400.106	8.75
400.551	8.77
400.995	8.77
401.44	8.78
401.885	8.79
402.329	8.8
402.774	8.79
403.218	8.78
403.663	8.78
404.107	8.78
404.551	8.8
404.995	8.78
405.44	8.78
405.884	8.8
406.328	8.81
406.772	8.83
407.216	8.85
407.66	8.88
408.104	8.89
408.547	8.9
408.991	8.88
409.435	8.88
409.879	8.87
410.322	8.89
410.766	8.89
411.209	8.91
411.653	8.9
412.096	8.9
412.54	8.9
412.983	8.9
413.426	8.91
413.869	8.93
414.312	8.95
414.756	8.98
415.199	9.01
415.642	9.03
416.085	9.05
416.527	9.09
416.97	9.12
417.413	9.13
417.856	9.14
418.298	9.13
418.741	9.13
419.184	9.13
419.626	9.11
420.069	9.09
420.511	9.08
420.953	9.08
421.396	9.06
421.838	9.08
422.28	9.1
422.722	9.11
423.164	9.14
423.606	9.16
424.048	9.16
424.49	9.19
424.932	9.2
425.374	9.22
425.816	9.2
426.258	9.18
426.699	9.12
427.141	9.1
427.582	9.07
428.024	9.05
428.465	9.06
428.907	9.09
429.348	9.09
429.789	9.09
430.231	9.07
430.672	9.08
431.113	9.09
431.554	9.12
431.995	9.16
432.436	9.18
432.877	9.15
433.318	9.12
433.759	9.1
434.2	9.08
434.64	9.08
435.081	9.08
435.522	9.08
435.962	9.1
436.403	9.13
436.843	9.13
437.284	9.13
437.724	9.18
438.164	9.2
438.604	9.24
439.045	9.26
439.485	9.26
439.925	9.26
440.365	9.25
440.805	9.24
441.245	9.21
441.685	9.23
442.125	9.23
442.564	9.23
443.004	9.25
443.444	9.26
443.883	9.26
444.323	9.27
444.762	9.31
445.202	9.35
445.641	9.38
446.081	9.42
446.52	9.43
446.959	9.44
447.398	9.48
447.837	9.5
448.276	9.5
448.716	9.51
449.154	9.56
449.593	9.57
450.032	9.58
450.471	9.58
450.91	9.56
451.349	9.57
451.787	9.57
452.226	9.58
452.664	9.57
453.103	9.57
453.541	9.57
453.98	9.55
454.418	9.53
454.856	9.49
455.295	9.47
455.733	9.48
456.171	9.45
456.609	9.44
457.047	9.41
457.485	9.4
457.923	9.39
458.361	9.38
458.798	9.39
459.236	9.38
459.674	9.38
460.111	9.39
460.549	9.37
460.987	9.37
461.424	9.36
461.862	9.35
462.299	9.33
462.736	9.31
463.173	9.3
463.611	9.27
464.048	9.26
464.485	9.27
464.922	9.26
465.359	9.27
465.796	9.26
466.233	9.28
466.67	9.29
467.106	9.28
467.543	9.3
467.98	9.31
468.416	9.32
468.853	9.34
469.29	9.37
469.726	9.38
470.162	9.39
470.599	9.4
471.035	9.4
471.471	9.38
471.907	9.4
472.344	9.39
472.78	9.38
473.216	9.38
473.652	9.39
474.088	9.39
474.523	9.39
474.959	9.38
475.395	9.38
475.831	9.39
476.266	9.38
476.702	9.38
477.138	9.38
477.573	9.36
478.008	9.36
478.444	9.33
478.879	9.31
479.314	9.28
479.75	9.29
480.185	9.28
480.62	9.26
481.055	9.26
481.49	9.25
481.925	9.22
482.36	9.22
482.795	9.21
483.229	9.21
483.664	9.2
484.099	9.21
484.534	9.2
484.968	9.19
485.403	9.18
485.837	9.19
486.271	9.19
486.706	9.21
487.14	9.21
487.574	9.22
488.009	9.23
488.443	9.23
488.877	9.24
489.311	9.25
489.745	9.27
490.179	9.29
490.613	9.3
491.046	9.32
491.48	9.35
491.914	9.38
492.348	9.4
492.781	9.42
493.215	9.45
493.648	9.49
494.082	9.53
494.515	9.56
494.948	9.6
495.382	9.64
495.815	9.69
496.248	9.75
496.681	9.8
497.114	9.86
497.547	9.93
497.98	10
498.413	10.07
498.846	10.14
499.279	10.24
499.711	10.32
500.144	10.42
500.577	10.51
501.009	10.6
501.442	10.71
501.874	10.82
502.306	10.95
502.739	11.07
503.171	11.21
503.603	11.37
504.036	11.52
504.468	11.7
504.9	11.88
505.332	12.07
505.764	12.26
506.196	12.47
506.627	12.69
507.059	12.91
507.491	13.16
507.923	13.4
508.354	13.66
508.786	13.92
509.217	14.18
509.649	14.47
510.08	14.76
510.512	15.06
510.943	15.39
511.374	15.72
511.805	16.05
512.237	16.4
512.668	16.75
513.099	17.12
513.53	17.49
513.961	17.88
514.391	18.24
514.822	18.62
515.253	19.01
515.684	19.41
516.114	19.82
516.545	20.24
516.975	20.66
517.406	21.09
517.836	21.5
518.267	21.91
518.697	22.35
519.127	22.8
519.558	23.23
519.988	23.68
520.418	24.1
520.848	24.51
521.278	24.94
521.708	25.31
522.138	25.7
522.567	26.07
522.997	26.47
523.427	26.83
523.857	27.17
524.286	27.55
524.716	27.88
525.145	28.24
525.575	28.56
526.004	28.87
526.433	29.21
526.863	29.51
527.292	29.82
527.721	30.1
528.15	30.36
528.579	30.64
529.008	30.87
529.437	31.11
529.866	31.31
530.295	31.53
530.724	31.75
531.152	31.94
531.581	32.13
532.01	32.3
532.438	32.46
532.867	32.64
533.295	32.78
533.723	32.94
534.152	33.05
534.58	33.18
535.008	33.28
535.436	33.39
535.865	33.47
536.293	33.56
536.721	33.65
537.149	33.72
537.576	33.78
538.004	33.86
538.432	33.91
538.86	33.99
539.287	34.05
539.715	34.1
540.143	34.13
540.57	34.19
540.998	34.24
541.425	34.28
541.852	34.32
542.28	34.35
542.707	34.38
543.134	34.41
543.561	34.43
543.988	34.45
544.415	34.51
544.842	34.55
545.269	34.59
545.696	34.63
546.123	34.67
546.549	34.72
546.976	34.77
547.403	34.81
547.829	34.86
548.256	34.9
548.682	34.93
549.108	34.95
549.535	34.97
549.961	34.99
550.387	34.99
550.813	34.98
551.24	34.98
551.666	34.98
552.092	34.94
552.518	34.92
552.943	34.91
553.369	34.87
553.795	34.83
554.221	34.78
554.646	34.73
555.072	34.67
555.498	34.6
555.923	34.53
556.349	34.4
556.774	34.32
557.199	34.22
557.625	34.12
558.05	34
558.475	33.87
558.9	33.75
559.325	33.6
559.75	33.44
560.175	33.28
560.6	33.11
561.025	32.95
561.449	32.77
561.874	32.58
562.299	32.37
562.723	32.18
563.148	31.97
563.572	31.77
563.997	31.56
564.421	31.35
564.846	31.11
565.27	30.88
565.694	30.66
566.118	30.41
566.542	30.17
566.966	29.91
567.39	29.66
567.814	29.38
568.238	29.09
568.662	28.82
569.086	28.56
569.509	28.31
569.933	28.03
570.357	27.74
570.78	27.48
571.204	27.23
571.627	26.99
572.05	26.75
572.474	26.52
572.897	26.3
573.32	26.07
573.743	25.85
574.166	25.65
574.589	25.46
575.012	25.29
575.435	25.1
575.858	24.92
576.281	24.76
576.704	24.59
577.126	24.42
577.549	24.28
577.972	24.15
578.394	24
578.817	23.83
579.239	23.71
579.661	23.59
580.084	23.47
580.506	23.35
580.928	23.21
581.35	23.09
581.772	22.99
582.194	22.87
582.616	22.75
583.038	22.66
583.46	22.58
583.882	22.49
584.303	22.37
584.725	22.25
585.147	22.15
585.568	22.05
585.99	21.96
586.411	21.87
586.833	21.78
587.254	21.7
587.675	21.62
588.096	21.56
588.518	21.48
588.939	21.41
589.36	21.33
589.781	21.26
590.202	21.21
590.623	21.15
591.043	21.08
591.464	21.03
591.885	20.97
592.305	20.93
592.726	20.87
593.147	20.82
593.567	20.78
593.987	20.76
594.408	20.71
594.828	20.69
595.248	20.64
595.669	20.6
596.089	20.56
596.509	20.52
596.929	20.45
597.349	20.39
597.769	20.34
598.189	20.29
598.608	20.21
599.028	20.17
599.448	20.1
599.867	20.02
600.287	19.94
600.706	19.86
601.126	19.79
601.545	19.72
601.965	19.65
602.384	19.56
602.803	19.48
603.222	19.39
603.641	19.31
604.061	19.22
604.48	19.14
604.898	19.06
605.317	18.98
605.736	18.89
606.155	18.8
606.574	18.69
606.992	18.58
607.411	18.48
607.829	18.37
608.248	18.26
608.666	18.14
609.085	18.04
609.503	17.93
609.921	17.82
610.339	17.71
610.758	17.6
611.176	17.5
611.594	17.42
612.012	17.3
612.43	17.22
612.847	17.13
613.265	17.05
613.683	16.96
614.101	16.84
614.518	16.75
614.936	16.66
615.353	16.57
615.771	16.5
616.188	16.42
616.606	16.36
617.023	16.28
617.44	16.2
617.857	16.12
618.274	16.06
618.691	16.03
619.108	15.99
619.525	15.95
619.942	15.91
620.359	15.87
620.776	15.82
621.192	15.79
621.609	15.76
622.026	15.73
622.442	15.69
622.859	15.68
623.275	15.64
623.691	15.6
624.108	15.59
624.524	15.57
624.94	15.55
625.356	15.55
625.772	15.54
626.188	15.54
626.604	15.53
627.02	15.53
627.436	15.51
627.852	15.51
628.268	15.49
628.683	15.47
629.099	15.46
629.514	15.45
629.93	15.4
630.345	15.36
630.761	15.31
631.176	15.28
631.591	15.23
632.007	15.16
632.422	15.12
632.837	15.06
633.252	15
633.667	14.92
634.082	14.83
634.497	14.74
634.911	14.64
635.326	14.56
635.741	14.44
636.155	14.36
636.57	14.25
636.984	14.12
637.399	13.98
637.813	13.84
638.228	13.71
638.642	13.59
639.056	13.47
639.47	13.35
639.884	13.2
640.298	13.07
640.712	12.93
641.126	12.8
641.54	12.67
641.954	12.56
642.368	12.43
642.781	12.3
643.195	12.17
643.609	12.06
644.022	11.94
644.436	11.84
644.849	11.74
645.262	11.65
645.676	11.56
646.089	11.46
646.502	11.36
646.915	11.31
647.328	11.24
647.741	11.17
648.154	11.12
648.567	11.09
648.98	11.05
649.393	11
649.805	10.94
650.218	10.9
650.631	10.88
651.043	10.84
651.456	10.81
651.868	10.78
652.28	10.76
652.693	10.71
653.105	10.66
653.517	10.61
653.929	10.57
654.341	10.54
654.753	10.49
655.165	10.45
655.577	10.38
655.989	10.31
656.401	10.25
656.813	10.18
657.224	10.12
657.636	10.07
658.047	10.03
658.459	9.96
658.87	9.91
659.282	9.86
659.693	9.8
660.104	9.75
660.515	9.7
660.926	9.65
661.338	9.61
661.749	9.55
662.159	9.49
662.57	9.45
662.981	9.41
663.392	9.37
663.803	9.34
664.213	9.31
664.624	9.3
665.035	9.28
665.445	9.28
665.855	9.27
666.266	9.27
666.676	9.27
667.086	9.27
667.497	9.26
667.907	9.26
668.317	9.24
668.727	9.24
669.137	9.24
669.547	9.23
669.956	9.23
670.366	9.25
670.776	9.25
671.186	9.28
671.595	9.29
672.005	9.31
672.414	9.32
672.824	9.36
673.233	9.38
673.642	9.38
674.052	9.4
674.461	9.43
674.87	9.45
675.279	9.46
675.688	9.48
676.097	9.51
676.506	9.54
676.915	9.57
677.323	9.61
677.732	9.66
678.141	9.71
678.549	9.77
678.958	9.82
679.366	9.88
679.775	9.94
680.183	9.99
680.592	10.04
681	10.1
681.408	10.17
681.816	10.23
682.224	10.29
682.632	10.39
683.04	10.47
683.448	10.57
683.856	10.69
684.264	10.84
684.671	11.01
685.079	11.21
685.487	11.42
685.894	11.67
686.302	11.95
686.709	12.25
687.116	12.58
687.524	12.95
687.931	13.35
688.338	13.81
688.745	14.31
689.152	14.84
689.559	15.41
689.966	16.04
690.373	16.71
690.78	17.41
691.187	18.15
691.593	18.91
692	19.74
692.407	20.57
692.813	21.43
693.22	22.3
693.626	23.22
694.032	24.13
694.439	25.06
694.845	26.01
695.251	26.97
695.657	27.91
696.063	28.9
696.469	29.87
696.875	30.85
697.281	31.81
697.687	32.79
698.093	33.73
698.498	34.69
698.904	35.65
699.31	36.58
699.715	37.54
700.12	38.5
700.526	39.41
700.931	40.32
701.337	41.25
701.742	42.11
702.147	42.99
702.552	43.89
702.957	44.76
703.362	45.62
703.767	46.49
704.172	47.32
704.577	48.12
704.981	48.93
705.386	49.72
705.791	50.5
706.195	51.29
706.6	52.05
707.004	52.83
707.408	53.54
707.813	54.26
708.217	54.95
708.621	55.64
709.025	56.35
709.43	56.99
709.834	57.69
710.237	58.33
710.641	59.01
711.045	59.65
711.449	60.23
711.853	60.87
712.256	61.48
712.66	62.07
713.064	62.65
713.467	63.23
713.87	63.84
714.274	64.4
714.677	64.92
715.08	65.44
715.484	65.98
715.887	66.52
716.29	67.04
716.693	67.51
717.096	68.02
717.499	68.51
717.901	68.99
718.304	69.47
718.707	69.94
719.109	70.46
719.512	70.95
719.915	71.42
720.317	71.84
720.719	72.25
721.122	72.7
721.524	73.11
721.926	73.54
722.328	73.95
722.731	74.32
723.133	74.67
723.535	75
723.937	75.34
724.338	75.65
724.74	76.01
725.142	76.23
725.544	76.55
725.945	76.84
726.347	77.11
726.748	77.35
727.15	77.61
727.551	77.89
727.952	78.14
728.354	78.41
728.755	78.66
729.156	78.89
729.557	79.24
729.958	79.49
730.359	79.74
730.76	79.92
731.161	80.14
731.562	80.33
731.962	80.53
732.363	80.71
732.763	80.88
733.164	81.02
733.564	81.16
733.965	81.23
734.365	81.29
734.766	81.41
735.166	81.48
735.566	81.56
735.966	81.68
736.366	81.75
736.766	81.83
737.166	81.87
737.566	81.97
737.966	82.06
738.365	82.18
738.765	82.34
739.165	82.37
739.564	82.49
739.964	82.55
740.363	82.64
740.763	82.7
741.162	82.77
741.561	82.89
741.96	82.98
742.36	83.06
742.759	83.1
743.158	83.08
743.557	83.17
743.955	83.28
744.354	83.37
744.753	83.44
745.152	83.52
745.55	83.59
745.949	83.65
746.348	83.66
746.746	83.69
747.144	83.79
747.543	83.93
747.941	84.04
748.339	84.14
748.737	84.24
749.136	84.29
749.534	84.34
749.932	84.41
750.33	84.41
750.727	84.51
751.125	84.56
751.523	84.59
751.921	84.57
752.318	84.56
752.716	84.5
753.113	84.47
753.511	84.43
753.908	84.39
754.305	84.32
754.703	84.27
755.1	84.2
755.497	84.17
755.894	84.15
756.291	84.11
756.688	84.08
757.085	84.05
757.482	84.02
757.878	84.04
758.275	84.05
758.672	84.11
759.068	84.16
759.465	84.21
759.861	84.22
760.258	84.19
760.654	84.22
761.05	84.24
761.447	84.23
761.843	84.18
762.239	84.18
762.635	84.16
763.031	84.13
763.427	84.1
763.822	84.03
764.218	84.02
764.614	83.99
765.01	83.96
765.405	83.89
765.801	83.86
766.196	83.88
766.592	83.86
766.987	83.83
767.382	83.85
767.778	83.83
768.173	83.82
768.568	83.82
768.963	83.79
769.358	83.79
769.753	83.84
770.148	83.88
770.542	83.86
770.937	83.84
771.332	83.86
771.726	83.78
772.121	83.78
772.515	83.8
772.91	83.78
773.304	83.8
773.699	83.79
774.093	83.76
