Data from C_2_div_il_4n_082_Splice17_10.txt Node
Date: Sat Feb 29 14:18:24 EST 2020
User: sa697716
Spectrometer: FLMS03696
Trigger mode: 0
Integration Time (sec): 3.180400E-1
Scans to average: 20
Electric dark correction enabled: true
Nonlinearity correction enabled: true
Boxcar width: 5
XAxis mode: Wavelengths
Number of Pixels in Spectrum: 2048
>>>>>Begin Spectral Data<<<<<
187.83	47.27
188.298	47.88
188.766	47.94
189.233	44.82
189.701	57.35
190.169	55.84
190.636	63.26
191.104	49.56
191.571	184.81
192.039	190.89
192.506	-45.17
192.974	1062.77
193.441	-116.69
193.908	89.81
194.375	84.17
194.842	194.39
195.31	90.19
195.777	104.87
196.244	50.45
196.711	40.86
197.177	37.94
197.644	39.16
198.111	39.68
198.578	39.44
199.045	39.61
199.511	39.84
199.978	40.17
200.445	39.76
200.911	39.77
201.378	39.86
201.844	40.41
202.31	41.4
202.777	41.42
203.243	41.93
203.709	42.61
204.176	42.22
204.642	41.99
205.108	41.39
205.574	42.12
206.04	41.79
206.506	41.37
206.972	40.89
207.438	40.27
207.903	39.83
208.369	38.83
208.835	37.91
209.301	37.53
209.766	37.26
210.232	37.1
210.697	36.21
211.163	35.64
211.628	35.11
212.094	34.83
212.559	33.98
213.024	33.34
213.49	32.81
213.955	32.55
214.42	31.67
214.885	30.62
215.35	29.37
215.815	27.92
216.28	26.65
216.745	25.14
217.21	23.33
217.675	21.79
218.14	20.22
218.604	18.87
219.069	17.65
219.534	16.64
219.998	15.76
220.463	15.09
220.927	14.52
221.392	13.97
221.856	13.44
222.32	13.02
222.785	12.63
223.249	12.32
223.713	12.06
224.177	11.74
224.642	11.55
225.106	11.33
225.57	11.14
226.034	10.93
226.497	10.72
226.961	10.54
227.425	10.33
227.889	10.16
228.353	9.99
228.816	9.84
229.28	9.67
229.744	9.5
230.207	9.35
230.671	9.2
231.134	9.07
231.597	8.94
232.061	8.82
232.524	8.74
232.987	8.64
233.45	8.52
233.914	8.4
234.377	8.33
234.84	8.25
235.303	8.17
235.766	8.08
236.229	8
236.691	7.91
237.154	7.82
237.617	7.73
238.08	7.63
238.542	7.56
239.005	7.49
239.468	7.39
239.93	7.31
240.393	7.23
240.855	7.13
241.317	7.07
241.78	7.01
242.242	6.95
242.704	6.88
243.166	6.82
243.629	6.77
244.091	6.71
244.553	6.67
245.015	6.62
245.477	6.56
245.939	6.51
246.4	6.45
246.862	6.4
247.324	6.37
247.786	6.32
248.247	6.27
248.709	6.22
249.17	6.18
249.632	6.14
250.093	6.07
250.555	6.03
251.016	5.99
251.477	5.94
251.939	5.9
252.4	5.86
252.861	5.83
253.322	5.79
253.783	5.76
254.244	5.71
254.705	5.67
255.166	5.67
255.627	5.64
256.088	5.59
256.549	5.57
257.009	5.54
257.47	5.51
257.931	5.48
258.391	5.44
258.852	5.4
259.312	5.37
259.773	5.34
260.233	5.29
260.694	5.26
261.154	5.23
261.614	5.2
262.074	5.17
262.534	5.13
262.994	5.1
263.455	5.08
263.915	5.05
264.374	5.02
264.834	5
265.294	4.97
265.754	4.95
266.214	4.93
266.673	4.9
267.133	4.88
267.593	4.87
268.052	4.83
268.512	4.81
268.971	4.8
269.431	4.78
269.89	4.76
270.349	4.74
270.809	4.73
271.268	4.72
271.727	4.7
272.186	4.69
272.645	4.66
273.104	4.66
273.563	4.64
274.022	4.63
274.481	4.61
274.94	4.59
275.399	4.58
275.857	4.56
276.316	4.54
276.775	4.52
277.233	4.51
277.692	4.5
278.15	4.47
278.609	4.46
279.067	4.44
279.525	4.43
279.984	4.42
280.442	4.41
280.9	4.4
281.358	4.39
281.816	4.37
282.274	4.35
282.732	4.35
283.19	4.34
283.648	4.33
284.106	4.32
284.564	4.32
285.021	4.31
285.479	4.3
285.937	4.29
286.394	4.28
286.852	4.29
287.309	4.28
287.767	4.26
288.224	4.25
288.682	4.24
289.139	4.23
289.596	4.21
290.053	4.19
290.511	4.17
290.968	4.16
291.425	4.15
291.882	4.13
292.339	4.11
292.796	4.1
293.252	4.08
293.709	4.06
294.166	4.05
294.623	4.04
295.079	4.03
295.536	4.02
295.992	4
296.449	3.99
296.905	3.98
297.362	3.97
297.818	3.96
298.274	3.94
298.731	3.94
299.187	3.93
299.643	3.91
300.099	3.9
300.555	3.89
301.011	3.88
301.467	3.86
301.923	3.86
302.379	3.85
302.835	3.84
303.291	3.84
303.746	3.83
304.202	3.81
304.658	3.81
305.113	3.8
305.569	3.8
306.024	3.79
306.479	3.79
306.935	3.79
307.39	3.78
307.845	3.79
308.301	3.79
308.756	3.79
309.211	3.79
309.666	3.79
310.121	3.8
310.576	3.8
311.031	3.79
311.486	3.78
311.94	3.78
312.395	3.78
312.85	3.78
313.305	3.78
313.759	3.78
314.214	3.77
314.668	3.77
315.123	3.77
315.577	3.76
316.032	3.76
316.486	3.76
316.94	3.75
317.394	3.75
317.849	3.74
318.303	3.72
318.757	3.71
319.211	3.69
319.665	3.68
320.119	3.67
320.572	3.67
321.026	3.66
321.48	3.66
321.934	3.65
322.387	3.64
322.841	3.63
323.295	3.62
323.748	3.62
324.202	3.62
324.655	3.62
325.108	3.61
325.562	3.59
326.015	3.58
326.468	3.56
326.921	3.55
327.374	3.54
327.827	3.54
328.28	3.53
328.733	3.53
329.186	3.52
329.639	3.51
330.092	3.51
330.545	3.52
330.997	3.53
331.45	3.53
331.903	3.53
332.355	3.53
332.808	3.53
333.26	3.54
333.713	3.55
334.165	3.55
334.617	3.56
335.069	3.56
335.522	3.56
335.974	3.56
336.426	3.56
336.878	3.57
337.33	3.58
337.782	3.58
338.234	3.58
338.686	3.57
339.137	3.58
339.589	3.57
340.041	3.56
340.493	3.54
340.944	3.54
341.396	3.54
341.847	3.53
342.299	3.51
342.75	3.5
343.201	3.48
343.653	3.47
344.104	3.45
344.555	3.44
345.006	3.44
345.457	3.43
345.908	3.43
346.359	3.43
346.81	3.43
347.261	3.43
347.712	3.42
348.163	3.42
348.613	3.42
349.064	3.4
349.515	3.39
349.965	3.38
350.416	3.38
350.866	3.37
351.317	3.36
351.767	3.35
352.217	3.34
352.668	3.34
353.118	3.35
353.568	3.35
354.018	3.36
354.468	3.36
354.918	3.38
355.368	3.38
355.818	3.38
356.268	3.38
356.718	3.38
357.168	3.39
357.617	3.38
358.067	3.38
358.517	3.38
358.966	3.38
359.416	3.41
359.865	3.4
360.315	3.41
360.764	3.42
361.213	3.42
361.663	3.43
362.112	3.43
362.561	3.43
363.01	3.44
363.459	3.44
363.908	3.45
364.357	3.45
364.806	3.44
365.255	3.45
365.703	3.45
366.152	3.46
366.601	3.47
367.05	3.49
367.498	3.5
367.947	3.51
368.395	3.53
368.844	3.54
369.292	3.56
369.74	3.59
370.189	3.61
370.637	3.62
371.085	3.64
371.533	3.66
371.981	3.68
372.429	3.69
372.877	3.71
373.325	3.72
373.773	3.74
374.221	3.76
374.669	3.78
375.116	3.79
375.564	3.82
376.012	3.85
376.459	3.87
376.907	3.9
377.354	3.93
377.801	3.97
378.249	4.01
378.696	4.06
379.143	4.1
379.591	4.13
380.038	4.18
380.485	4.23
380.932	4.26
381.379	4.3
381.826	4.35
382.273	4.39
382.72	4.44
383.166	4.48
383.613	4.52
384.06	4.56
384.506	4.6
384.953	4.64
385.4	4.68
385.846	4.72
386.292	4.77
386.739	4.81
387.185	4.88
387.631	4.92
388.078	4.98
388.524	5.02
388.97	5.07
389.416	5.11
389.862	5.17
390.308	5.22
390.754	5.28
391.2	5.34
391.645	5.41
392.091	5.45
392.537	5.5
392.983	5.57
393.428	5.63
393.874	5.71
394.319	5.77
394.765	5.82
395.21	5.86
395.655	5.92
396.101	5.96
396.546	6
396.991	6.05
397.436	6.08
397.881	6.12
398.326	6.18
398.771	6.22
399.216	6.28
399.661	6.33
400.106	6.4
400.551	6.44
400.995	6.46
401.44	6.47
401.885	6.5
402.329	6.53
402.774	6.55
403.218	6.57
403.663	6.59
404.107	6.61
404.551	6.64
404.995	6.65
405.44	6.67
405.884	6.7
406.328	6.74
406.772	6.77
407.216	6.81
407.66	6.85
408.104	6.87
408.547	6.89
408.991	6.89
409.435	6.89
409.879	6.91
410.322	6.94
410.766	6.96
411.209	6.98
411.653	6.99
412.096	7
412.54	6.99
412.983	7
413.426	7.03
413.869	7.05
414.312	7.1
414.756	7.15
415.199	7.17
415.642	7.18
416.085	7.2
416.527	7.24
416.97	7.27
417.413	7.29
417.856	7.3
418.298	7.3
418.741	7.33
419.184	7.32
419.626	7.3
420.069	7.3
420.511	7.32
420.953	7.3
421.396	7.29
421.838	7.29
422.28	7.31
422.722	7.33
423.164	7.34
423.606	7.34
424.048	7.34
424.49	7.37
424.932	7.37
425.374	7.38
425.816	7.38
426.258	7.36
426.699	7.34
427.141	7.29
427.582	7.27
428.024	7.25
428.465	7.26
428.907	7.28
429.348	7.26
429.789	7.24
430.231	7.22
430.672	7.22
431.113	7.24
431.554	7.27
431.995	7.31
432.436	7.31
432.877	7.29
433.318	7.27
433.759	7.26
434.2	7.28
434.64	7.28
435.081	7.29
435.522	7.3
435.962	7.33
436.403	7.34
436.843	7.36
437.284	7.4
437.724	7.45
438.164	7.48
438.604	7.51
439.045	7.52
439.485	7.55
439.925	7.58
440.365	7.6
440.805	7.6
441.245	7.59
441.685	7.62
442.125	7.64
442.564	7.66
443.004	7.69
443.444	7.71
443.883	7.74
444.323	7.77
444.762	7.82
445.202	7.87
445.641	7.91
446.081	7.98
446.52	7.99
446.959	8.03
447.398	8.11
447.837	8.18
448.276	8.22
448.716	8.25
449.154	8.31
449.593	8.35
450.032	8.38
450.471	8.39
450.91	8.41
451.349	8.46
451.787	8.49
452.226	8.46
452.664	8.44
453.103	8.45
453.541	8.45
453.98	8.43
454.418	8.42
454.856	8.41
455.295	8.4
455.733	8.4
456.171	8.38
456.609	8.37
457.047	8.37
457.485	8.38
457.923	8.37
458.361	8.37
458.798	8.38
459.236	8.37
459.674	8.36
460.111	8.36
460.549	8.34
460.987	8.34
461.424	8.33
461.862	8.34
462.299	8.32
462.736	8.31
463.173	8.31
463.611	8.3
464.048	8.3
464.485	8.29
464.922	8.3
465.359	8.32
465.796	8.3
466.233	8.31
466.67	8.31
467.106	8.31
467.543	8.34
467.98	8.35
468.416	8.36
468.853	8.38
469.29	8.42
469.726	8.43
470.162	8.42
470.599	8.46
471.035	8.46
471.471	8.46
471.907	8.47
472.344	8.47
472.78	8.49
473.216	8.51
473.652	8.52
474.088	8.53
474.523	8.53
474.959	8.53
475.395	8.54
475.831	8.56
476.266	8.57
476.702	8.57
477.138	8.57
477.573	8.55
478.008	8.55
478.444	8.55
478.879	8.54
479.314	8.54
479.75	8.55
480.185	8.54
480.62	8.53
481.055	8.53
481.49	8.53
481.925	8.52
482.36	8.52
482.795	8.51
483.229	8.52
483.664	8.52
484.099	8.52
484.534	8.53
484.968	8.56
485.403	8.56
485.837	8.57
486.271	8.58
486.706	8.61
487.14	8.65
487.574	8.68
488.009	8.71
488.443	8.75
488.877	8.78
489.311	8.8
489.745	8.84
490.179	8.89
490.613	8.95
491.046	9.01
491.48	9.07
491.914	9.12
492.348	9.18
492.781	9.24
493.215	9.3
493.648	9.38
494.082	9.46
494.515	9.54
494.948	9.62
495.382	9.71
495.815	9.8
496.248	9.92
496.681	10.02
497.114	10.12
497.547	10.25
497.98	10.37
498.413	10.49
498.846	10.62
499.279	10.76
499.711	10.9
500.144	11.05
500.577	11.2
501.009	11.35
501.442	11.51
501.874	11.7
502.306	11.87
502.739	12.04
503.171	12.24
503.603	12.45
504.036	12.67
504.468	12.89
504.9	13.13
505.332	13.36
505.764	13.6
506.196	13.86
506.627	14.11
507.059	14.38
507.491	14.67
507.923	14.95
508.354	15.24
508.786	15.52
509.217	15.82
509.649	16.12
510.08	16.44
510.512	16.74
510.943	17.06
511.374	17.38
511.805	17.71
512.237	18.06
512.668	18.39
513.099	18.74
513.53	19.1
513.961	19.45
514.391	19.79
514.822	20.16
515.253	20.52
515.684	20.88
516.114	21.25
516.545	21.6
516.975	21.96
517.406	22.33
517.836	22.67
518.267	23.02
518.697	23.39
519.127	23.74
519.558	24.06
519.988	24.42
520.418	24.74
520.848	25.08
521.278	25.42
521.708	25.68
522.138	26
522.567	26.29
522.997	26.57
523.427	26.86
523.857	27.13
524.286	27.41
524.716	27.67
525.145	27.94
525.575	28.16
526.004	28.4
526.433	28.68
526.863	28.91
527.292	29.15
527.721	29.37
528.15	29.57
528.579	29.8
529.008	29.98
529.437	30.16
529.866	30.32
530.295	30.5
530.724	30.67
531.152	30.82
531.581	30.95
532.01	31.08
532.438	31.21
532.867	31.33
533.295	31.43
533.723	31.55
534.152	31.64
534.58	31.75
535.008	31.82
535.436	31.91
535.865	31.97
536.293	32.05
536.721	32.11
537.149	32.17
537.576	32.23
538.004	32.28
538.432	32.32
538.86	32.38
539.287	32.42
539.715	32.47
540.143	32.51
540.57	32.56
540.998	32.61
541.425	32.67
541.852	32.72
542.28	32.73
542.707	32.79
543.134	32.84
543.561	32.85
543.988	32.88
544.415	32.92
544.842	32.95
545.269	32.99
545.696	33
546.123	33.01
546.549	33.07
546.976	33.11
547.403	33.11
547.829	33.15
548.256	33.19
548.682	33.2
549.108	33.23
549.535	33.25
549.961	33.25
550.387	33.26
550.813	33.25
551.24	33.24
551.666	33.26
552.092	33.27
552.518	33.26
552.943	33.25
553.369	33.26
553.795	33.24
554.221	33.21
554.646	33.17
555.072	33.15
555.498	33.1
555.923	33.05
556.349	32.98
556.774	32.93
557.199	32.88
557.625	32.83
558.05	32.75
558.475	32.69
558.9	32.62
559.325	32.56
559.75	32.48
560.175	32.41
560.6	32.32
561.025	32.25
561.449	32.14
561.874	32.02
562.299	31.91
562.723	31.8
563.148	31.67
563.572	31.56
563.997	31.43
564.421	31.3
564.846	31.17
565.27	31.03
565.694	30.86
566.118	30.7
566.542	30.54
566.966	30.38
567.39	30.2
567.814	30.04
568.238	29.84
568.662	29.67
569.086	29.48
569.509	29.29
569.933	29.11
570.357	28.93
570.78	28.74
571.204	28.55
571.627	28.37
572.05	28.22
572.474	28.04
572.897	27.9
573.32	27.72
573.743	27.56
574.166	27.4
574.589	27.24
575.012	27.11
575.435	26.96
575.858	26.84
576.281	26.7
576.704	26.58
577.126	26.44
577.549	26.32
577.972	26.22
578.394	26.13
578.817	26.03
579.239	25.95
579.661	25.84
580.084	25.77
580.506	25.69
580.928	25.59
581.35	25.51
581.772	25.45
582.194	25.37
582.616	25.29
583.038	25.2
583.46	25.12
583.882	25.05
584.303	24.97
584.725	24.87
585.147	24.77
585.568	24.69
585.99	24.62
586.411	24.53
586.833	24.44
587.254	24.36
587.675	24.29
588.096	24.24
588.518	24.18
588.939	24.12
589.36	24.06
589.781	24.03
590.202	23.99
590.623	23.94
591.043	23.89
591.464	23.85
591.885	23.82
592.305	23.76
592.726	23.7
593.147	23.67
593.567	23.62
593.987	23.6
594.408	23.56
594.828	23.53
595.248	23.49
595.669	23.48
596.089	23.43
596.509	23.39
596.929	23.35
597.349	23.3
597.769	23.23
598.189	23.21
598.608	23.15
599.028	23.1
599.448	23.06
599.867	23
600.287	22.92
600.706	22.87
601.126	22.81
601.545	22.76
601.965	22.7
602.384	22.63
602.803	22.55
603.222	22.48
603.641	22.41
604.061	22.33
604.48	22.24
604.898	22.16
605.317	22.06
605.736	21.98
606.155	21.89
606.574	21.8
606.992	21.7
607.411	21.62
607.829	21.49
608.248	21.4
608.666	21.29
609.085	21.19
609.503	21.1
609.921	21.01
610.339	20.91
610.758	20.82
611.176	20.73
611.594	20.64
612.012	20.54
612.43	20.48
612.847	20.39
613.265	20.32
613.683	20.23
614.101	20.12
614.518	20.03
614.936	19.95
615.353	19.86
615.771	19.77
616.188	19.69
616.606	19.6
617.023	19.52
617.44	19.44
617.857	19.35
618.274	19.28
618.691	19.23
619.108	19.16
619.525	19.11
619.942	19.06
620.359	19.02
620.776	18.98
621.192	18.95
621.609	18.91
622.026	18.89
622.442	18.86
622.859	18.83
623.275	18.81
623.691	18.79
624.108	18.77
624.524	18.75
624.94	18.72
625.356	18.7
625.772	18.68
626.188	18.66
626.604	18.63
627.02	18.62
627.436	18.61
627.852	18.59
628.268	18.57
628.683	18.54
629.099	18.52
629.514	18.51
629.93	18.46
630.345	18.42
630.761	18.39
631.176	18.36
631.591	18.32
632.007	18.26
632.422	18.21
632.837	18.15
633.252	18.07
633.667	17.97
634.082	17.88
634.497	17.79
634.911	17.68
635.326	17.55
635.741	17.44
636.155	17.3
636.57	17.17
636.984	17
637.399	16.83
637.813	16.67
638.228	16.54
638.642	16.38
639.056	16.21
639.47	16.05
639.884	15.89
640.298	15.71
640.712	15.54
641.126	15.36
641.54	15.21
641.954	15.05
642.368	14.88
642.781	14.68
643.195	14.5
643.609	14.33
644.022	14.16
644.436	14
644.849	13.86
645.262	13.72
645.676	13.58
646.089	13.45
646.502	13.32
646.915	13.22
647.328	13.13
647.741	13.03
648.154	12.96
648.567	12.89
648.98	12.82
649.393	12.73
649.805	12.66
650.218	12.59
650.631	12.53
651.043	12.48
651.456	12.42
651.868	12.35
652.28	12.28
652.693	12.2
653.105	12.13
653.517	12.05
653.929	12
654.341	11.92
654.753	11.84
655.165	11.74
655.577	11.63
655.989	11.49
656.401	11.38
656.813	11.26
657.224	11.15
657.636	11.04
658.047	10.91
658.459	10.77
658.87	10.62
659.282	10.5
659.693	10.38
660.104	10.25
660.515	10.14
660.926	10.03
661.338	9.91
661.749	9.78
662.159	9.65
662.57	9.53
662.981	9.42
663.392	9.32
663.803	9.21
664.213	9.1
664.624	9.03
665.035	8.94
665.445	8.85
665.855	8.78
666.266	8.71
666.676	8.64
667.086	8.58
667.497	8.52
667.907	8.45
668.317	8.42
668.727	8.38
669.137	8.33
669.547	8.31
669.956	8.28
670.366	8.24
670.776	8.22
671.186	8.22
671.595	8.21
672.005	8.22
672.414	8.23
672.824	8.22
673.233	8.24
673.642	8.23
674.052	8.23
674.461	8.25
674.87	8.28
675.279	8.3
675.688	8.32
676.097	8.35
676.506	8.38
676.915	8.41
677.323	8.46
677.732	8.52
678.141	8.57
678.549	8.65
678.958	8.74
679.366	8.82
679.775	8.93
680.183	9.05
680.592	9.19
681	9.33
681.408	9.49
681.816	9.66
682.224	9.86
682.632	10.09
683.04	10.33
683.448	10.6
683.856	10.9
684.264	11.21
684.671	11.56
685.079	11.92
685.487	12.33
685.894	12.76
686.302	13.22
686.709	13.69
687.116	14.19
687.524	14.72
687.931	15.25
688.338	15.86
688.745	16.49
689.152	17.11
689.559	17.77
689.966	18.43
690.373	19.13
690.78	19.83
691.187	20.53
691.593	21.25
692	21.98
692.407	22.73
692.813	23.45
693.22	24.16
693.626	24.89
694.032	25.63
694.439	26.36
694.845	27.05
695.251	27.74
695.657	28.43
696.063	29.12
696.469	29.8
696.875	30.43
697.281	31.05
697.687	31.71
698.093	32.31
698.498	32.9
698.904	33.48
699.31	34.03
699.715	34.62
700.12	35.16
700.526	35.7
700.931	36.22
701.337	36.75
701.742	37.26
702.147	37.73
702.552	38.2
702.957	38.68
703.362	39.14
703.767	39.59
704.172	40.04
704.577	40.48
704.981	40.89
705.386	41.28
705.791	41.69
706.195	42.06
706.6	42.43
707.004	42.8
707.408	43.15
707.813	43.5
708.217	43.83
708.621	44.17
709.025	44.49
709.43	44.8
709.834	45.13
710.237	45.41
710.641	45.74
711.045	46.04
711.449	46.33
711.853	46.61
712.256	46.89
712.66	47.18
713.064	47.44
713.467	47.71
713.87	47.98
714.274	48.26
714.677	48.54
715.08	48.76
715.484	49.02
715.887	49.26
716.29	49.48
716.693	49.69
717.096	49.94
717.499	50.17
717.901	50.38
718.304	50.57
718.707	50.73
719.109	50.94
719.512	51.14
719.915	51.32
720.317	51.49
720.719	51.68
721.122	51.83
721.524	52
721.926	52.15
722.328	52.29
722.731	52.46
723.133	52.61
723.535	52.75
723.937	52.87
724.338	53.02
724.74	53.14
725.142	53.16
725.544	53.3
725.945	53.38
726.347	53.51
726.748	53.6
727.15	53.7
727.551	53.8
727.952	53.88
728.354	54
728.755	54.08
729.156	54.21
729.557	54.4
729.958	54.47
730.359	54.56
730.76	54.6
731.161	54.68
731.562	54.76
731.962	54.83
732.363	54.88
732.763	54.93
733.164	54.99
733.564	55
733.965	55.04
734.365	55.08
734.766	55.16
735.166	55.2
735.566	55.25
735.966	55.27
736.366	55.28
736.766	55.34
737.166	55.37
737.566	55.36
737.966	55.4
738.365	55.46
738.765	55.49
739.165	55.48
739.564	55.5
739.964	55.54
740.363	55.58
740.763	55.62
741.162	55.62
741.561	55.64
741.96	55.69
742.36	55.73
742.759	55.69
743.158	55.67
743.557	55.72
743.955	55.79
744.354	55.85
744.753	55.88
745.152	55.89
745.55	55.9
745.949	55.95
746.348	55.99
746.746	56.04
747.144	56.14
747.543	56.22
747.941	56.27
748.339	56.3
748.737	56.32
749.136	56.33
749.534	56.39
749.932	56.44
750.33	56.46
750.727	56.46
751.125	56.44
751.523	56.41
751.921	56.4
752.318	56.39
752.716	56.35
753.113	56.35
753.511	56.32
753.908	56.3
754.305	56.25
754.703	56.2
755.1	56.17
755.497	56.17
755.894	56.17
756.291	56.16
756.688	56.12
757.085	56.13
757.482	56.08
757.878	56.11
758.275	56.1
758.672	56.12
759.068	56.12
759.465	56.13
759.861	56.13
760.258	56.11
760.654	56.08
761.05	56.09
761.447	56.06
761.843	56.03
762.239	55.98
762.635	55.96
763.031	55.93
763.427	55.92
763.822	55.89
764.218	55.87
764.614	55.84
765.01	55.82
765.405	55.8
765.801	55.79
766.196	55.83
766.592	55.82
766.987	55.83
767.382	55.88
767.778	55.9
768.173	55.9
768.568	55.89
768.963	55.89
769.358	55.89
769.753	55.89
770.148	55.89
770.542	55.8
770.937	55.78
771.332	55.74
771.726	55.68
772.121	55.63
772.515	55.64
772.91	55.64
773.304	55.67
773.699	55.66
774.093	55.64
774.487	55.67
774.881	55.72
775.275	55.73
775.669	55.77
776.063	55.78
776.457	55.78
776.851	55.75
777.245	55.77
777.638	55.78
778.032	55.79
778.425	55.82
778.819	55.81
779.212	55.78
779.606	55.79
779.999	55.79
