Data from C_2_hir_wi_4n_078_Splice17_01.txt Node
Date: Sat Feb 29 14:19:48 EST 2020
User: sa697716
Spectrometer: FLMS03696
Trigger mode: 0
Integration Time (sec): 3.180400E-1
Scans to average: 20
Electric dark correction enabled: true
Nonlinearity correction enabled: true
Boxcar width: 5
XAxis mode: Wavelengths
Number of Pixels in Spectrum: 2048
>>>>>Begin Spectral Data<<<<<
187.83	43.18
188.298	35.38
188.766	39.36
189.233	41.27
189.701	42.24
190.169	42.77
190.636	49.99
191.104	22.42
191.571	216.5
192.039	357.42
192.506	-126.23
192.974	4841.63
193.441	-121.06
193.908	78.44
194.375	80.01
194.842	161.46
195.31	112.76
195.777	96.48
196.244	43.64
196.711	46.57
197.177	45.4
197.644	43.2
198.111	42.23
198.578	42.06
199.045	42.08
199.511	42.8
199.978	42.61
200.445	41.44
200.911	41.39
201.378	40.89
201.844	41.12
202.31	40.5
202.777	40.21
203.243	40.5
203.709	40.67
204.176	39.87
204.642	38.97
205.108	38.31
205.574	38.99
206.04	38.66
206.506	38.4
206.972	37.9
207.438	37.71
207.903	37.58
208.369	36.3
208.835	35.61
209.301	35.13
209.766	34.52
210.232	33.77
210.697	32.5
211.163	31.99
211.628	31.21
212.094	30.09
212.559	28.98
213.024	28.04
213.49	27.56
213.955	26.69
214.42	25.78
214.885	24.5
215.35	23.29
215.815	21.63
216.28	19.64
216.745	17.87
217.21	15.86
217.675	14.08
218.14	12.3
218.604	10.64
219.069	9.32
219.534	8.18
219.998	7.28
220.463	6.49
220.927	5.91
221.392	5.41
221.856	4.92
222.32	4.56
222.785	4.21
223.249	3.92
223.713	3.72
224.177	3.47
224.642	3.32
225.106	3.14
225.57	2.96
226.034	2.82
226.497	2.67
226.961	2.5
227.425	2.37
227.889	2.26
228.353	2.17
228.816	2.06
229.28	1.94
229.744	1.86
230.207	1.81
230.671	1.75
231.134	1.67
231.597	1.61
232.061	1.57
232.524	1.54
232.987	1.5
233.45	1.46
233.914	1.44
234.377	1.42
234.84	1.38
235.303	1.35
235.766	1.33
236.229	1.31
236.691	1.29
237.154	1.28
237.617	1.25
238.08	1.22
238.542	1.2
239.005	1.18
239.468	1.16
239.93	1.15
240.393	1.12
240.855	1.09
241.317	1.09
241.78	1.08
242.242	1.05
242.704	1.03
243.166	1.03
243.629	1.02
244.091	1
244.553	0.99
245.015	0.99
245.477	0.97
245.939	0.95
246.4	0.94
246.862	0.92
247.324	0.94
247.786	0.93
248.247	0.91
248.709	0.9
249.17	0.88
249.632	0.86
250.093	0.83
250.555	0.83
251.016	0.83
251.477	0.82
251.939	0.79
252.4	0.77
252.861	0.77
253.322	0.75
253.783	0.75
254.244	0.74
254.705	0.73
255.166	0.74
255.627	0.73
256.088	0.71
256.549	0.71
257.009	0.71
257.47	0.7
257.931	0.68
258.391	0.65
258.852	0.63
259.312	0.62
259.773	0.6
260.233	0.58
260.694	0.57
261.154	0.56
261.614	0.54
262.074	0.53
262.534	0.5
262.994	0.5
263.455	0.5
263.915	0.48
264.374	0.47
264.834	0.46
265.294	0.46
265.754	0.44
266.214	0.44
266.673	0.43
267.133	0.42
267.593	0.42
268.052	0.41
268.512	0.4
268.971	0.4
269.431	0.4
269.89	0.39
270.349	0.39
270.809	0.39
271.268	0.39
271.727	0.39
272.186	0.39
272.645	0.39
273.104	0.4
273.563	0.4
274.022	0.4
274.481	0.4
274.94	0.4
275.399	0.41
275.857	0.41
276.316	0.41
276.775	0.41
277.233	0.41
277.692	0.41
278.15	0.4
278.609	0.4
279.067	0.4
279.525	0.4
279.984	0.41
280.442	0.41
280.9	0.41
281.358	0.42
281.816	0.43
282.274	0.43
282.732	0.44
283.19	0.46
283.648	0.46
284.106	0.46
284.564	0.47
285.021	0.48
285.479	0.49
285.937	0.49
286.394	0.49
286.852	0.49
287.309	0.49
287.767	0.49
288.224	0.48
288.682	0.48
289.139	0.48
289.596	0.47
290.053	0.46
290.511	0.44
290.968	0.45
291.425	0.45
291.882	0.44
292.339	0.43
292.796	0.43
293.252	0.42
293.709	0.42
294.166	0.41
294.623	0.41
295.079	0.42
295.536	0.42
295.992	0.42
296.449	0.42
296.905	0.41
297.362	0.41
297.818	0.41
298.274	0.41
298.731	0.41
299.187	0.42
299.643	0.41
300.099	0.42
300.555	0.42
301.011	0.42
301.467	0.42
301.923	0.42
302.379	0.43
302.835	0.44
303.291	0.44
303.746	0.43
304.202	0.43
304.658	0.44
305.113	0.44
305.569	0.43
306.024	0.43
306.479	0.43
306.935	0.43
307.39	0.43
307.845	0.44
308.301	0.44
308.756	0.45
309.211	0.46
309.666	0.46
310.121	0.46
310.576	0.47
311.031	0.48
311.486	0.5
311.94	0.5
312.395	0.51
312.85	0.51
313.305	0.52
313.759	0.51
314.214	0.51
314.668	0.51
315.123	0.52
315.577	0.51
316.032	0.51
316.486	0.51
316.94	0.51
317.394	0.51
317.849	0.51
318.303	0.51
318.757	0.5
319.211	0.5
319.665	0.49
320.119	0.5
320.572	0.51
321.026	0.51
321.48	0.5
321.934	0.51
322.387	0.51
322.841	0.51
323.295	0.51
323.748	0.52
324.202	0.52
324.655	0.52
325.108	0.52
325.562	0.51
326.015	0.51
326.468	0.51
326.921	0.5
327.374	0.51
327.827	0.52
328.28	0.51
328.733	0.51
329.186	0.52
329.639	0.51
330.092	0.51
330.545	0.52
330.997	0.53
331.45	0.53
331.903	0.53
332.355	0.54
332.808	0.54
333.26	0.55
333.713	0.56
334.165	0.56
334.617	0.57
335.069	0.58
335.522	0.58
335.974	0.58
336.426	0.6
336.878	0.61
337.33	0.61
337.782	0.61
338.234	0.61
338.686	0.6
339.137	0.59
339.589	0.59
340.041	0.59
340.493	0.58
340.944	0.57
341.396	0.57
341.847	0.56
342.299	0.54
342.75	0.54
343.201	0.53
343.653	0.53
344.104	0.54
344.555	0.53
345.006	0.53
345.457	0.53
345.908	0.54
346.359	0.53
346.81	0.54
347.261	0.54
347.712	0.55
348.163	0.54
348.613	0.54
349.064	0.53
349.515	0.53
349.965	0.53
350.416	0.53
350.866	0.53
351.317	0.53
351.767	0.53
352.217	0.53
352.668	0.54
353.118	0.54
353.568	0.55
354.018	0.56
354.468	0.55
354.918	0.56
355.368	0.57
355.818	0.57
356.268	0.58
356.718	0.58
357.168	0.57
357.617	0.57
358.067	0.56
358.517	0.56
358.966	0.57
359.416	0.59
359.865	0.57
360.315	0.58
360.764	0.58
361.213	0.57
361.663	0.58
362.112	0.58
362.561	0.58
363.01	0.6
363.459	0.6
363.908	0.6
364.357	0.6
364.806	0.6
365.255	0.61
365.703	0.61
366.152	0.62
366.601	0.63
367.05	0.64
367.498	0.64
367.947	0.63
368.395	0.64
368.844	0.64
369.292	0.64
369.74	0.64
370.189	0.64
370.637	0.65
371.085	0.65
371.533	0.65
371.981	0.65
372.429	0.65
372.877	0.65
373.325	0.65
373.773	0.65
374.221	0.65
374.669	0.65
375.116	0.64
375.564	0.63
376.012	0.64
376.459	0.64
376.907	0.65
377.354	0.65
377.801	0.66
378.249	0.68
378.696	0.69
379.143	0.7
379.591	0.72
380.038	0.74
380.485	0.78
380.932	0.81
381.379	0.82
381.826	0.85
382.273	0.88
382.72	0.93
383.166	0.97
383.613	1.03
384.06	1.1
384.506	1.18
384.953	1.28
385.4	1.4
385.846	1.53
386.292	1.71
386.739	1.89
387.185	2.1
387.631	2.28
388.078	2.43
388.524	2.55
388.97	2.69
389.416	2.86
389.862	3.1
390.308	3.39
390.754	3.73
391.2	4.05
391.645	4.32
392.091	4.52
392.537	4.8
392.983	5.24
393.428	5.86
393.874	6.61
394.319	7.43
394.765	8.28
395.21	9.1
395.655	9.98
396.101	10.95
396.546	12.06
396.991	13.31
397.436	14.6
397.881	15.88
398.326	17.1
398.771	18.24
399.216	19.33
399.661	20.33
400.106	21.27
400.551	22.09
400.995	22.79
401.44	23.42
401.885	24.03
402.329	24.67
402.774	25.35
403.218	26.12
403.663	26.98
404.107	27.92
404.551	28.87
404.995	29.76
405.44	30.59
405.884	31.51
406.328	32.61
406.772	33.88
407.216	35.16
407.66	36.35
408.104	37.41
408.547	38.31
408.991	39.13
409.435	40.06
409.879	41.12
410.322	42.35
410.766	43.59
411.209	44.75
411.653	45.77
412.096	46.71
412.54	47.56
412.983	48.45
413.426	49.47
413.869	50.55
414.312	51.59
414.756	52.56
415.199	53.41
415.642	54.19
416.085	54.9
416.527	55.51
416.97	55.9
417.413	56.12
417.856	56.16
418.298	56.14
418.741	56.19
419.184	56.37
419.626	56.69
420.069	57.08
420.511	57.45
420.953	57.82
421.396	58.29
421.838	59.01
422.28	59.97
422.722	61.02
423.164	62.01
423.606	62.87
424.048	63.48
424.49	63.7
424.932	63.39
425.374	62.49
425.816	61.16
426.258	59.81
426.699	58.97
427.141	58.89
427.582	59.52
428.024	60.57
428.465	61.71
428.907	62.81
429.348	63.86
429.789	65.27
430.231	67.56
430.672	70.7
431.113	74.2
431.554	77.51
431.995	80.08
432.436	81.88
432.877	83.22
433.318	84.27
433.759	85.49
434.2	87.08
434.64	89.08
435.081	90.98
435.522	92.57
435.962	93.87
436.403	95.01
436.843	95.99
437.284	97.13
437.724	98.3
438.164	99.83
438.604	101.47
439.045	103.17
439.485	104.69
439.925	105.94
440.365	106.97
440.805	107.71
441.245	108.22
441.685	108.84
442.125	109.61
442.564	110.68
443.004	111.73
443.444	112.88
443.883	114.09
444.323	115.33
444.762	116.58
445.202	118.06
445.641	119.85
446.081	122.02
446.52	124.13
446.959	126.03
447.398	127.41
447.837	128.35
448.276	128.73
448.716	129.01
449.154	129.32
449.593	129.65
450.032	129.79
450.471	129.58
450.91	129.07
451.349	128.52
451.787	128.21
452.226	128
452.664	127.98
453.103	128.09
453.541	128.06
453.98	127.71
454.418	127.17
454.856	126.51
455.295	126.02
455.733	125.55
456.171	125.16
456.609	124.79
457.047	124.42
457.485	124.29
457.923	124.35
458.361	124.6
458.798	125.04
459.236	125.51
459.674	125.98
460.111	126.38
460.549	126.86
460.987	127.45
461.424	127.93
461.862	128.5
462.299	128.93
462.736	129.42
463.173	130.12
463.611	130.95
464.048	132.09
464.485	133.39
464.922	134.83
465.359	136.14
465.796	137.27
466.233	138.52
466.67	139.99
467.106	141.8
467.543	143.72
467.98	145.47
468.416	147.05
468.853	148.35
469.29	149.71
469.726	151.02
470.162	152.53
470.599	154.05
471.035	155.31
471.471	156.12
471.907	156.55
472.344	156.84
472.78	157.05
473.216	157.4
473.652	157.68
474.088	157.77
474.523	157.73
474.959	157.49
475.395	157.24
475.831	156.97
476.266	156.8
476.702	156.58
477.138	156.22
477.573	155.73
478.008	154.89
478.444	154.01
478.879	152.95
479.314	151.75
479.75	150.47
480.185	149
480.62	147.21
481.055	144.86
481.49	141.88
481.925	138.65
482.36	135.75
482.795	133.34
483.229	131.46
483.664	129.83
484.099	128.39
484.534	127.13
484.968	126.13
485.403	125.56
485.837	125.58
486.271	126.12
486.706	126.75
487.14	127.09
487.574	127.03
488.009	126.74
488.443	126.46
488.877	126.2
489.311	125.95
489.745	125.8
490.179	125.68
490.613	125.54
491.046	125.47
491.48	125.57
491.914	125.87
492.348	126.35
492.781	126.77
493.215	127.11
493.648	127.34
494.082	127.49
494.515	127.61
494.948	127.66
495.382	127.71
495.815	127.64
496.248	127.53
496.681	127.3
497.114	127.09
497.547	126.88
497.98	126.88
498.413	127.12
498.846	127.44
499.279	127.67
499.711	127.85
500.144	128.18
500.577	128.78
501.009	129.67
501.442	130.72
501.874	131.8
502.306	132.87
502.739	133.67
503.171	134.44
503.603	135.1
504.036	135.85
504.468	136.78
504.9	137.71
505.332	138.46
505.764	139.13
506.196	139.69
506.627	140.38
507.059	141.15
507.491	141.99
507.923	142.77
508.354	143.59
508.786	144.29
509.217	144.79
509.649	145.27
510.08	145.78
510.512	146.36
510.943	147.01
511.374	147.47
511.805	147.55
512.237	147.33
512.668	146.93
513.099	146.7
513.53	146.56
513.961	146.56
514.391	146.73
514.822	147.14
515.253	147.64
515.684	148.18
516.114	148.93
516.545	149.98
516.975	151.62
517.406	153.46
517.836	155.09
518.267	156.6
518.697	158.04
519.127	159.48
519.558	160.76
519.988	161.94
520.418	163.03
520.848	163.95
521.278	164.7
521.708	164.9
522.138	164.8
522.567	164.76
522.997	164.87
523.427	165.24
523.857	165.55
524.286	166.08
524.716	166.6
525.145	167.03
525.575	167.51
526.004	168.25
526.433	169.44
526.863	170.92
527.292	172.3
527.721	173.3
528.15	173.83
528.579	174.13
529.008	174.13
529.437	174.05
529.866	174.01
530.295	174.1
530.724	174.29
531.152	174.37
531.581	174.44
532.01	174.39
532.438	174.46
532.867	174.75
533.295	175.11
533.723	175.51
534.152	175.77
534.58	175.93
535.008	175.79
535.436	175.37
535.865	174.77
536.293	174.2
536.721	173.95
537.149	173.97
537.576	174.07
538.004	174.2
538.432	174.26
538.86	174.46
539.287	174.85
539.715	175.48
540.143	176.18
540.57	177.13
540.998	178.17
541.425	179.1
541.852	179.98
542.28	180.75
542.707	181.48
543.134	182.14
543.561	182.67
543.988	183.23
544.415	183.84
544.842	184.49
545.269	185.12
545.696	185.64
546.123	186.28
546.549	186.83
546.976	187.37
547.403	187.94
547.829	188.67
548.256	189.3
548.682	189.79
549.108	190.28
549.535	190.78
549.961	191.21
550.387	191.7
550.813	192.14
551.24	192.54
551.666	192.83
552.092	192.92
552.518	192.84
552.943	192.87
553.369	192.89
553.795	192.69
554.221	192.19
554.646	191.58
555.072	190.84
555.498	190.12
555.923	189.52
556.349	189.03
556.774	188.71
557.199	188.43
557.625	188.08
558.05	187.65
558.475	187.34
558.9	187.21
559.325	187.07
559.75	186.89
560.175	186.61
560.6	186.11
561.025	185.36
561.449	184.48
561.874	183.61
562.299	182.84
562.723	182.13
563.148	181.36
563.572	180.49
563.997	179.54
564.421	178.49
564.846	177.48
565.27	176.57
565.694	175.61
566.118	174.58
566.542	173.54
566.966	172.42
567.39	171.37
567.814	170.5
568.238	169.75
568.662	169.21
569.086	168.8
569.509	168.44
569.933	168.05
570.357	167.77
570.78	167.54
571.204	167.32
571.627	167.24
572.05	167.21
572.474	166.99
572.897	166.83
573.32	166.55
573.743	166.25
574.166	165.87
574.589	165.59
575.012	165.55
575.435	165.65
575.858	165.88
576.281	166.09
576.704	166.22
577.126	166.44
577.549	166.74
577.972	167.24
578.394	167.72
578.817	168.25
579.239	168.84
579.661	169.28
580.084	169.67
580.506	169.92
580.928	169.99
581.35	170.04
581.772	169.99
582.194	169.86
582.616	169.66
583.038	169.52
583.46	169.32
583.882	168.75
584.303	167.83
584.725	166.56
585.147	165.25
585.568	164.2
585.99	163.39
586.411	162.77
586.833	162.2
587.254	161.62
587.675	161.05
588.096	160.65
588.518	160.42
588.939	160.57
589.36	161.03
589.781	161.52
590.202	161.8
590.623	161.83
591.043	161.68
591.464	161.41
591.885	161.13
592.305	160.79
592.726	160.34
593.147	159.91
593.567	159.33
593.987	158.76
594.408	158.18
594.828	157.63
595.248	157.08
595.669	156.44
596.089	155.72
596.509	154.91
596.929	154.04
597.349	153.05
597.769	152.11
598.189	151.3
598.608	150.58
599.028	149.93
599.448	149.39
599.867	148.82
600.287	148.35
600.706	147.83
601.126	147.33
601.545	146.89
601.965	146.57
602.384	146.24
602.803	145.89
603.222	145.4
603.641	144.9
604.061	144.25
604.48	143.55
604.898	142.83
605.317	142.2
605.736	141.49
606.155	140.81
606.574	140.16
606.992	139.53
607.411	138.88
607.829	138.29
608.248	137.69
608.666	137.09
609.085	136.51
609.503	135.89
609.921	135.34
610.339	134.89
610.758	134.45
611.176	133.85
611.594	133.16
612.012	132.43
612.43	131.71
612.847	131.08
613.265	130.6
613.683	130.24
614.101	129.89
614.518	129.58
614.936	129.29
615.353	129.02
615.771	128.88
616.188	128.89
616.606	128.9
617.023	128.91
617.44	128.84
617.857	128.6
618.274	128.27
618.691	127.89
619.108	127.43
619.525	126.91
619.942	126.31
620.359	125.63
620.776	124.89
621.192	124.12
621.609	123.43
622.026	122.83
622.442	122.35
622.859	121.79
623.275	121.26
623.691	120.68
624.108	120.17
624.524	119.71
624.94	119.3
625.356	118.88
625.772	118.56
626.188	118.21
626.604	117.82
627.02	117.34
627.436	116.98
627.852	116.72
628.268	116.6
628.683	116.48
629.099	116.4
629.514	116.29
629.93	116.23
630.345	116.2
630.761	116.21
631.176	116.16
631.591	116.16
632.007	116.15
632.422	116.16
632.837	116.14
633.252	116.09
633.667	116.05
634.082	116.08
634.497	116.11
634.911	116.01
635.326	115.79
635.741	115.58
636.155	115.34
636.57	115.06
636.984	114.68
637.399	114.28
637.813	113.92
638.228	113.54
638.642	113.16
639.056	112.74
639.47	112.41
639.884	112.19
640.298	111.97
640.712	111.76
641.126	111.52
641.54	111.29
641.954	111.03
642.368	110.65
642.781	110.28
643.195	109.9
643.609	109.56
644.022	109.17
644.436	108.67
644.849	108.07
645.262	107.45
645.676	106.94
646.089	106.6
646.502	106.32
646.915	106.1
647.328	105.82
647.741	105.59
648.154	105.35
648.567	105.15
648.98	105.04
649.393	105.08
649.805	105.09
650.218	105.01
650.631	104.63
651.043	103.97
651.456	102.82
651.868	101.44
652.28	99.9
652.693	98.57
653.105	97.56
653.517	96.77
653.929	96.19
654.341	95.76
654.753	95.47
655.165	95.34
655.577	95.46
655.989	96.13
656.401	97.06
656.813	98.15
657.224	99.06
657.636	99.66
658.047	100.03
658.459	100.13
658.87	100.09
659.282	99.98
659.693	99.82
660.104	99.64
660.515	99.41
660.926	99.27
661.338	99.01
661.749	98.73
662.159	98.42
662.57	98.08
662.981	97.77
663.392	97.43
663.803	97.13
664.213	96.88
664.624	96.65
665.035	96.31
665.445	95.95
665.855	95.56
666.266	95.18
666.676	94.79
667.086	94.39
667.497	93.95
667.907	93.6
668.317	93.22
668.727	92.83
669.137	92.43
669.547	92.1
669.956	91.75
670.366	91.49
670.776	91.17
671.186	90.91
671.595	90.67
672.005	90.5
672.414	90.27
672.824	90.07
673.233	89.93
673.642	89.73
674.052	89.57
674.461	89.4
674.87	89.23
675.279	89.12
675.688	88.93
676.097	88.8
676.506	88.69
676.915	88.61
677.323	88.55
677.732	88.46
678.141	88.41
678.549	88.39
678.958	88.34
679.366	88.29
679.775	88.18
680.183	88.11
680.592	88.04
681	87.96
681.408	87.84
681.816	87.46
682.224	86.61
682.632	85.32
683.04	83.66
683.448	82.11
683.856	80.72
684.264	79.48
684.671	78.34
685.079	77.23
685.487	76.23
685.894	75.42
686.302	74.94
686.709	75.04
687.116	75.72
687.524	76.9
687.931	78.09
688.338	79.26
688.745	80.4
689.152	81.52
689.559	82.55
689.966	83.5
690.373	84.38
690.78	85.18
691.187	85.92
691.593	86.6
692	87.23
692.407	87.82
692.813	88.35
693.22	88.8
693.626	89.22
694.032	89.65
694.439	90.04
694.845	90.38
695.251	90.67
695.657	90.93
696.063	91.13
696.469	91.2
696.875	91.21
697.281	91.15
697.687	91.14
698.093	91.12
698.498	91.11
698.904	91.19
699.31	91.29
699.715	91.49
700.12	91.69
700.526	91.96
700.931	92.26
701.337	92.59
701.742	92.89
702.147	93.24
702.552	93.57
702.957	93.93
703.362	94.25
703.767	94.48
704.172	94.69
704.577	94.86
704.981	95
705.386	95.11
705.791	95.28
706.195	95.44
706.6	95.52
707.004	95.65
707.408	95.7
707.813	95.74
708.217	95.75
708.621	95.78
709.025	95.85
709.43	95.89
709.834	95.95
710.237	95.92
710.641	95.92
711.045	95.91
711.449	95.79
711.853	95.66
712.256	95.38
712.66	94.94
713.064	94.27
713.467	93.41
713.87	92.4
714.274	91.26
714.677	90.03
715.08	88.8
715.484	87.59
715.887	86.49
716.29	85.57
716.693	84.95
717.096	84.82
717.499	85.06
717.901	85.51
718.304	86.15
718.707	86.87
719.109	87.63
719.512	88.23
719.915	88.78
720.317	89.25
720.719	89.58
721.122	89.77
721.524	89.7
721.926	89.48
722.328	89.24
722.731	88.98
723.133	88.74
723.535	88.58
723.937	88.53
724.338	88.48
724.74	88.42
725.142	88.32
725.544	88.33
725.945	88.33
726.347	88.36
726.748	88.27
727.15	88.27
727.551	88.43
727.952	88.59
728.354	88.94
728.755	89.35
729.156	89.88
729.557	90.54
729.958	91.06
730.359	91.56
730.76	91.92
731.161	92.35
731.562	92.64
731.962	92.85
732.363	93
732.763	93.05
733.164	93.1
733.564	93.04
733.965	92.86
734.365	92.61
734.766	92.33
735.166	92.1
735.566	91.95
735.966	91.8
736.366	91.61
736.766	91.47
737.166	91.28
737.566	91.03
737.966	90.86
738.365	90.77
738.765	90.77
739.165	90.82
739.564	90.92
739.964	90.9
740.363	90.9
740.763	90.94
741.162	90.96
741.561	91.07
741.96	91.21
742.36	91.33
742.759	91.36
743.158	91.36
743.557	91.35
743.955	91.34
744.354	91.35
744.753	91.37
745.152	91.31
745.55	91.24
745.949	91.12
746.348	91
746.746	90.86
747.144	90.79
747.543	90.73
747.941	90.66
748.339	90.58
748.737	90.56
749.136	90.53
749.534	90.59
749.932	90.7
750.33	90.75
750.727	90.78
751.125	90.82
751.523	90.79
751.921	90.77
752.318	90.73
752.716	90.7
753.113	90.66
753.511	90.57
753.908	90.4
754.305	90.03
754.703	89.12
755.1	87.26
755.497	84.07
755.894	79.62
756.291	74.35
756.688	68.89
757.085	63.73
757.482	59
757.878	54.57
758.275	50.17
758.672	45.76
759.068	41.91
759.465	39.17
