Data from C_2_dec_va_2n_050_Splice17_10.txt Node
Date: Sat Feb 29 14:34:23 EST 2020
User: sa697716
Spectrometer: FLMS03696
Trigger mode: 0
Integration Time (sec): 3.180400E-1
Scans to average: 20
Electric dark correction enabled: true
Nonlinearity correction enabled: true
Boxcar width: 5
XAxis mode: Wavelengths
Number of Pixels in Spectrum: 2048
>>>>>Begin Spectral Data<<<<<
187.83	42.84
188.298	29.09
188.766	32.46
189.233	32.24
189.701	42.36
190.169	47.74
190.636	44.21
191.104	14.64
191.571	37.77
192.039	171.17
192.506	-9.85
192.974	4813.96
193.441	396.76
193.908	30.41
194.375	39.85
194.842	93.84
195.31	84.42
195.777	53.15
196.244	8.33
196.711	18.27
197.177	18.63
197.644	17.64
198.111	17
198.578	18.15
199.045	18.5
199.511	18.72
199.978	19.22
200.445	18.75
200.911	19.23
201.378	19.7
201.844	19.87
202.31	20.17
202.777	20.61
203.243	20.96
203.709	21.49
204.176	21.09
204.642	21.07
205.108	20.88
205.574	21.77
206.04	22.08
206.506	21.86
206.972	21.95
207.438	21.81
207.903	22.39
208.369	22.32
208.835	22.12
209.301	22.16
209.766	22.11
210.232	21.72
210.697	21.07
211.163	20.6
211.628	20.61
212.094	20.49
212.559	20.01
213.024	19.3
213.49	19.01
213.955	18.97
214.42	18.78
214.885	18.18
215.35	18.25
215.815	17.73
216.28	17.14
216.745	16.33
217.21	15.59
217.675	14.84
218.14	14.15
218.604	13.46
219.069	12.87
219.534	12.31
219.998	11.93
220.463	11.54
220.927	11.22
221.392	10.94
221.856	10.69
222.32	10.49
222.785	10.39
223.249	10.23
223.713	10.11
224.177	9.92
224.642	9.78
225.106	9.69
225.57	9.51
226.034	9.41
226.497	9.27
226.961	9.12
227.425	8.97
227.889	8.79
228.353	8.67
228.816	8.56
229.28	8.41
229.744	8.31
230.207	8.18
230.671	8.09
231.134	7.98
231.597	7.87
232.061	7.77
232.524	7.69
232.987	7.62
233.45	7.52
233.914	7.4
234.377	7.34
234.84	7.25
235.303	7.16
235.766	7.07
236.229	6.99
236.691	6.92
237.154	6.85
237.617	6.78
238.08	6.7
238.542	6.62
239.005	6.55
239.468	6.47
239.93	6.41
240.393	6.35
240.855	6.29
241.317	6.23
241.78	6.18
242.242	6.11
242.704	6.04
243.166	5.99
243.629	5.94
244.091	5.89
244.553	5.85
245.015	5.8
245.477	5.73
245.939	5.67
246.4	5.6
246.862	5.55
247.324	5.51
247.786	5.46
248.247	5.41
248.709	5.37
249.17	5.32
249.632	5.26
250.093	5.2
250.555	5.17
251.016	5.14
251.477	5.1
251.939	5.06
252.4	5.02
252.861	4.99
253.322	4.95
253.783	4.93
254.244	4.9
254.705	4.88
255.166	4.87
255.627	4.84
256.088	4.8
256.549	4.79
257.009	4.76
257.47	4.74
257.931	4.71
258.391	4.67
258.852	4.63
259.312	4.59
259.773	4.56
260.233	4.53
260.694	4.51
261.154	4.48
261.614	4.45
262.074	4.42
262.534	4.39
262.994	4.37
263.455	4.35
263.915	4.32
264.374	4.3
264.834	4.28
265.294	4.26
265.754	4.23
266.214	4.21
266.673	4.19
267.133	4.17
267.593	4.16
268.052	4.13
268.512	4.12
268.971	4.1
269.431	4.09
269.89	4.07
270.349	4.06
270.809	4.04
271.268	4.03
271.727	4.02
272.186	4
272.645	3.97
273.104	3.96
273.563	3.95
274.022	3.94
274.481	3.93
274.94	3.91
275.399	3.9
275.857	3.89
276.316	3.87
276.775	3.85
277.233	3.84
277.692	3.83
278.15	3.82
278.609	3.8
279.067	3.78
279.525	3.76
279.984	3.74
280.442	3.72
280.9	3.71
281.358	3.7
281.816	3.69
282.274	3.67
282.732	3.67
283.19	3.66
283.648	3.66
284.106	3.65
284.564	3.64
285.021	3.64
285.479	3.64
285.937	3.63
286.394	3.61
286.852	3.61
287.309	3.61
287.767	3.59
288.224	3.58
288.682	3.57
289.139	3.55
289.596	3.54
290.053	3.52
290.511	3.49
290.968	3.48
291.425	3.47
291.882	3.45
292.339	3.43
292.796	3.41
293.252	3.39
293.709	3.37
294.166	3.36
294.623	3.35
295.079	3.34
295.536	3.33
295.992	3.32
296.449	3.3
296.905	3.28
297.362	3.26
297.818	3.25
298.274	3.24
298.731	3.23
299.187	3.22
299.643	3.21
300.099	3.21
300.555	3.19
301.011	3.19
301.467	3.18
301.923	3.18
302.379	3.18
302.835	3.17
303.291	3.17
303.746	3.16
304.202	3.15
304.658	3.14
305.113	3.13
305.569	3.13
306.024	3.12
306.479	3.11
306.935	3.11
307.39	3.11
307.845	3.1
308.301	3.1
308.756	3.1
309.211	3.1
309.666	3.1
310.121	3.09
310.576	3.09
311.031	3.08
311.486	3.09
311.94	3.08
312.395	3.07
312.85	3.07
313.305	3.06
313.759	3.06
314.214	3.05
314.668	3.05
315.123	3.05
315.577	3.04
316.032	3.03
316.486	3.02
316.94	3.02
317.394	3
317.849	2.99
318.303	2.99
318.757	2.98
319.211	2.96
319.665	2.95
320.119	2.94
320.572	2.94
321.026	2.92
321.48	2.91
321.934	2.91
322.387	2.9
322.841	2.89
323.295	2.87
323.748	2.87
324.202	2.87
324.655	2.85
325.108	2.84
325.562	2.83
326.015	2.82
326.468	2.81
326.921	2.8
327.374	2.8
327.827	2.8
328.28	2.79
328.733	2.78
329.186	2.77
329.639	2.77
330.092	2.77
330.545	2.77
330.997	2.78
331.45	2.78
331.903	2.77
332.355	2.76
332.808	2.76
333.26	2.76
333.713	2.76
334.165	2.76
334.617	2.76
335.069	2.76
335.522	2.77
335.974	2.76
336.426	2.76
336.878	2.77
337.33	2.77
337.782	2.77
338.234	2.78
338.686	2.78
339.137	2.78
339.589	2.78
340.041	2.77
340.493	2.76
340.944	2.76
341.396	2.75
341.847	2.74
342.299	2.73
342.75	2.71
343.201	2.69
343.653	2.68
344.104	2.68
344.555	2.68
345.006	2.66
345.457	2.66
345.908	2.65
346.359	2.65
346.81	2.65
347.261	2.64
347.712	2.64
348.163	2.64
348.613	2.64
349.064	2.62
349.515	2.6
349.965	2.6
350.416	2.59
350.866	2.58
351.317	2.57
351.767	2.57
352.217	2.56
352.668	2.56
353.118	2.57
353.568	2.57
354.018	2.58
354.468	2.58
354.918	2.59
355.368	2.6
355.818	2.6
356.268	2.6
356.718	2.6
357.168	2.58
357.617	2.58
358.067	2.56
358.517	2.56
358.966	2.56
359.416	2.56
359.865	2.55
360.315	2.54
360.764	2.54
361.213	2.54
361.663	2.55
362.112	2.57
362.561	2.57
363.01	2.59
363.459	2.59
363.908	2.58
364.357	2.59
364.806	2.6
365.255	2.6
365.703	2.61
366.152	2.61
366.601	2.62
367.05	2.62
367.498	2.62
367.947	2.63
368.395	2.63
368.844	2.64
369.292	2.64
369.74	2.65
370.189	2.65
370.637	2.67
371.085	2.68
371.533	2.7
371.981	2.71
372.429	2.71
372.877	2.73
373.325	2.74
373.773	2.76
374.221	2.78
374.669	2.79
375.116	2.81
375.564	2.82
376.012	2.83
376.459	2.85
376.907	2.88
377.354	2.91
377.801	2.94
378.249	2.97
378.696	3.01
379.143	3.04
379.591	3.08
380.038	3.11
380.485	3.15
380.932	3.19
381.379	3.21
381.826	3.25
382.273	3.28
382.72	3.31
383.166	3.35
383.613	3.38
384.06	3.4
384.506	3.43
384.953	3.45
385.4	3.48
385.846	3.51
386.292	3.55
386.739	3.56
387.185	3.59
387.631	3.63
388.078	3.65
388.524	3.66
388.97	3.68
389.416	3.7
389.862	3.72
390.308	3.74
390.754	3.77
391.2	3.79
391.645	3.82
392.091	3.83
392.537	3.83
392.983	3.86
393.428	3.89
393.874	3.91
394.319	3.92
394.765	3.93
395.21	3.94
395.655	3.95
396.101	3.96
396.546	3.96
396.991	3.96
397.436	3.95
397.881	3.95
398.326	3.97
398.771	3.96
399.216	3.97
399.661	3.98
400.106	3.99
400.551	3.97
400.995	3.95
401.44	3.94
401.885	3.94
402.329	3.94
402.774	3.93
403.218	3.91
403.663	3.9
404.107	3.9
404.551	3.89
404.995	3.87
405.44	3.86
405.884	3.85
406.328	3.85
406.772	3.86
407.216	3.85
407.66	3.85
408.104	3.84
408.547	3.84
408.991	3.82
409.435	3.81
409.879	3.81
410.322	3.81
410.766	3.81
411.209	3.8
411.653	3.78
412.096	3.77
412.54	3.76
412.983	3.76
413.426	3.77
413.869	3.78
414.312	3.79
414.756	3.81
415.199	3.82
415.642	3.84
416.085	3.86
416.527	3.87
416.97	3.88
417.413	3.88
417.856	3.88
418.298	3.86
418.741	3.85
419.184	3.85
419.626	3.83
420.069	3.82
420.511	3.82
420.953	3.79
421.396	3.8
421.838	3.81
422.28	3.83
422.722	3.84
423.164	3.84
423.606	3.84
424.048	3.82
424.49	3.83
424.932	3.82
425.374	3.81
425.816	3.82
426.258	3.78
426.699	3.75
427.141	3.72
427.582	3.71
428.024	3.7
428.465	3.72
428.907	3.73
429.348	3.71
429.789	3.74
430.231	3.73
430.672	3.74
431.113	3.78
431.554	3.81
431.995	3.83
432.436	3.84
432.877	3.85
433.318	3.84
433.759	3.85
434.2	3.87
434.64	3.87
435.081	3.89
435.522	3.91
435.962	3.92
436.403	3.93
436.843	3.95
437.284	3.97
437.724	4
438.164	4.01
438.604	4.03
439.045	4.06
439.485	4.07
439.925	4.08
440.365	4.07
440.805	4.07
441.245	4.06
441.685	4.08
442.125	4.09
442.564	4.12
443.004	4.13
443.444	4.14
443.883	4.14
444.323	4.15
444.762	4.19
445.202	4.23
445.641	4.25
446.081	4.31
446.52	4.32
446.959	4.33
447.398	4.36
447.837	4.41
448.276	4.44
448.716	4.47
449.154	4.52
449.593	4.56
450.032	4.57
450.471	4.6
450.91	4.6
451.349	4.61
451.787	4.63
452.226	4.63
452.664	4.62
453.103	4.61
453.541	4.62
453.98	4.61
454.418	4.6
454.856	4.58
455.295	4.56
455.733	4.56
456.171	4.56
456.609	4.55
457.047	4.55
457.485	4.54
457.923	4.54
458.361	4.53
458.798	4.53
459.236	4.53
459.674	4.53
460.111	4.54
460.549	4.52
460.987	4.53
461.424	4.52
461.862	4.52
462.299	4.52
462.736	4.53
463.173	4.52
463.611	4.51
464.048	4.51
464.485	4.51
464.922	4.5
465.359	4.5
465.796	4.48
466.233	4.49
466.67	4.48
467.106	4.45
467.543	4.45
467.98	4.45
468.416	4.46
468.853	4.45
469.29	4.45
469.726	4.46
470.162	4.46
470.599	4.48
471.035	4.49
471.471	4.48
471.907	4.5
472.344	4.51
472.78	4.51
473.216	4.52
473.652	4.52
474.088	4.53
474.523	4.54
474.959	4.55
475.395	4.55
475.831	4.55
476.266	4.56
476.702	4.56
477.138	4.55
477.573	4.54
478.008	4.54
478.444	4.55
478.879	4.55
479.314	4.53
479.75	4.52
480.185	4.52
480.62	4.51
481.055	4.51
481.49	4.49
481.925	4.51
482.36	4.5
482.795	4.5
483.229	4.5
483.664	4.5
484.099	4.5
484.534	4.51
484.968	4.52
485.403	4.52
485.837	4.52
486.271	4.54
486.706	4.54
487.14	4.56
487.574	4.57
488.009	4.59
488.443	4.6
488.877	4.62
489.311	4.63
489.745	4.65
490.179	4.68
490.613	4.7
491.046	4.73
491.48	4.76
491.914	4.79
492.348	4.82
492.781	4.85
493.215	4.89
493.648	4.93
494.082	4.98
494.515	5.03
494.948	5.06
495.382	5.11
495.815	5.15
496.248	5.2
496.681	5.26
497.114	5.31
497.547	5.38
497.98	5.45
498.413	5.52
498.846	5.6
499.279	5.67
499.711	5.76
500.144	5.85
500.577	5.95
501.009	6.05
501.442	6.15
501.874	6.26
502.306	6.37
502.739	6.48
503.171	6.59
503.603	6.71
504.036	6.86
504.468	7.01
504.9	7.17
505.332	7.33
505.764	7.49
506.196	7.67
506.627	7.84
507.059	8.04
507.491	8.24
507.923	8.44
508.354	8.64
508.786	8.86
509.217	9.07
509.649	9.32
510.08	9.57
510.512	9.81
510.943	10.07
511.374	10.34
511.805	10.61
512.237	10.89
512.668	11.17
513.099	11.47
513.53	11.77
513.961	12.07
514.391	12.34
514.822	12.64
515.253	12.95
515.684	13.26
516.114	13.58
516.545	13.9
516.975	14.24
517.406	14.57
517.836	14.91
518.267	15.25
518.697	15.58
519.127	15.94
519.558	16.29
519.988	16.64
520.418	16.98
520.848	17.31
521.278	17.65
521.708	17.93
522.138	18.26
522.567	18.56
522.997	18.84
523.427	19.16
523.857	19.45
524.286	19.74
524.716	20.01
525.145	20.3
525.575	20.57
526.004	20.83
526.433	21.13
526.863	21.39
527.292	21.64
527.721	21.91
528.15	22.14
528.579	22.37
529.008	22.59
529.437	22.8
529.866	22.98
530.295	23.16
530.724	23.36
531.152	23.54
531.581	23.69
532.01	23.85
532.438	23.99
532.867	24.13
533.295	24.27
533.723	24.4
534.152	24.52
534.58	24.63
535.008	24.73
535.436	24.83
535.865	24.91
536.293	25
536.721	25.1
537.149	25.17
537.576	25.24
538.004	25.29
538.432	25.34
538.86	25.41
539.287	25.46
539.715	25.53
540.143	25.58
540.57	25.64
540.998	25.69
541.425	25.72
541.852	25.74
542.28	25.78
542.707	25.86
543.134	25.9
543.561	25.92
543.988	25.95
544.415	25.99
544.842	26.03
545.269	26.07
545.696	26.1
546.123	26.15
546.549	26.19
546.976	26.23
547.403	26.24
547.829	26.28
548.256	26.32
548.682	26.35
549.108	26.4
549.535	26.43
549.961	26.44
550.387	26.43
550.813	26.42
551.24	26.42
551.666	26.42
552.092	26.42
552.518	26.42
552.943	26.42
553.369	26.42
553.795	26.38
554.221	26.34
554.646	26.3
555.072	26.28
555.498	26.26
555.923	26.21
556.349	26.15
556.774	26.1
557.199	26.03
557.625	25.95
558.05	25.85
558.475	25.76
558.9	25.68
559.325	25.59
559.75	25.5
560.175	25.39
560.6	25.27
561.025	25.15
561.449	25.02
561.874	24.87
562.299	24.74
562.723	24.62
563.148	24.46
563.572	24.3
563.997	24.14
564.421	23.97
564.846	23.8
565.27	23.63
565.694	23.44
566.118	23.26
566.542	23.08
566.966	22.89
567.39	22.7
567.814	22.51
568.238	22.3
568.662	22.12
569.086	21.93
569.509	21.74
569.933	21.55
570.357	21.35
570.78	21.17
571.204	20.97
571.627	20.79
572.05	20.6
572.474	20.42
572.897	20.25
573.32	20.07
573.743	19.92
574.166	19.75
574.589	19.6
575.012	19.46
575.435	19.32
575.858	19.21
576.281	19.06
576.704	18.95
577.126	18.82
577.549	18.7
577.972	18.6
578.394	18.45
578.817	18.34
579.239	18.22
579.661	18.14
580.084	18.02
580.506	17.91
580.928	17.84
581.35	17.73
581.772	17.66
582.194	17.56
582.616	17.46
583.038	17.39
583.46	17.31
583.882	17.23
584.303	17.15
584.725	17.08
585.147	16.99
585.568	16.89
585.99	16.81
586.411	16.74
586.833	16.66
587.254	16.59
587.675	16.52
588.096	16.46
588.518	16.39
588.939	16.31
589.36	16.24
589.781	16.2
590.202	16.14
590.623	16.09
591.043	16.03
591.464	15.98
591.885	15.93
592.305	15.89
592.726	15.84
593.147	15.81
593.567	15.76
593.987	15.73
594.408	15.68
594.828	15.66
595.248	15.61
595.669	15.58
596.089	15.54
596.509	15.49
596.929	15.44
597.349	15.39
597.769	15.32
598.189	15.28
598.608	15.22
599.028	15.18
599.448	15.14
599.867	15.08
600.287	15.03
600.706	14.98
601.126	14.93
601.545	14.87
601.965	14.83
602.384	14.78
602.803	14.71
603.222	14.64
603.641	14.56
604.061	14.47
604.48	14.41
604.898	14.32
605.317	14.26
605.736	14.18
606.155	14.11
606.574	14.03
606.992	13.94
607.411	13.87
607.829	13.75
608.248	13.69
608.666	13.61
609.085	13.53
609.503	13.46
609.921	13.36
610.339	13.28
610.758	13.19
611.176	13.1
611.594	13.03
612.012	12.95
612.43	12.92
612.847	12.84
613.265	12.76
613.683	12.68
614.101	12.6
614.518	12.53
614.936	12.45
615.353	12.38
615.771	12.3
616.188	12.24
616.606	12.16
617.023	12.09
617.44	12.01
617.857	11.94
618.274	11.89
618.691	11.85
619.108	11.8
619.525	11.75
619.942	11.71
620.359	11.68
620.776	11.64
621.192	11.62
621.609	11.59
622.026	11.58
622.442	11.55
622.859	11.53
623.275	11.51
623.691	11.49
624.108	11.46
624.524	11.46
624.94	11.44
625.356	11.41
625.772	11.39
626.188	11.38
626.604	11.34
627.02	11.33
627.436	11.3
627.852	11.29
628.268	11.26
628.683	11.25
629.099	11.22
629.514	11.2
629.93	11.18
630.345	11.15
630.761	11.1
631.176	11.08
631.591	11.04
632.007	10.99
632.422	10.94
632.837	10.89
633.252	10.82
633.667	10.73
634.082	10.64
634.497	10.54
634.911	10.46
635.326	10.36
635.741	10.26
636.155	10.17
636.57	10.05
636.984	9.91
637.399	9.76
637.813	9.64
638.228	9.51
638.642	9.39
639.056	9.25
639.47	9.1
639.884	8.97
640.298	8.82
640.712	8.67
641.126	8.54
641.54	8.4
641.954	8.29
642.368	8.15
642.781	8.03
643.195	7.9
643.609	7.79
644.022	7.68
644.436	7.56
644.849	7.46
645.262	7.36
645.676	7.27
646.089	7.18
646.502	7.09
646.915	7.02
647.328	6.95
647.741	6.89
648.154	6.83
648.567	6.77
648.98	6.72
649.393	6.67
649.805	6.62
650.218	6.59
650.631	6.57
651.043	6.54
651.456	6.51
651.868	6.47
652.28	6.42
652.693	6.37
653.105	6.35
653.517	6.3
653.929	6.26
654.341	6.23
654.753	6.18
655.165	6.11
655.577	6.05
655.989	5.99
656.401	5.92
656.813	5.86
657.224	5.81
657.636	5.75
658.047	5.68
658.459	5.6
658.87	5.53
659.282	5.47
659.693	5.4
660.104	5.33
660.515	5.27
660.926	5.21
661.338	5.16
661.749	5.08
662.159	5.01
662.57	4.95
662.981	4.9
663.392	4.85
663.803	4.8
664.213	4.76
664.624	4.73
665.035	4.69
665.445	4.65
665.855	4.62
666.266	4.6
666.676	4.59
667.086	4.56
667.497	4.53
667.907	4.51
668.317	4.48
668.727	4.47
669.137	4.45
669.547	4.45
669.956	4.44
670.366	4.43
670.776	4.43
671.186	4.43
671.595	4.45
672.005	4.47
672.414	4.48
672.824	4.51
673.233	4.53
673.642	4.54
674.052	4.56
674.461	4.59
674.87	4.61
675.279	4.65
675.688	4.67
676.097	4.7
676.506	4.73
676.915	4.77
677.323	4.81
677.732	4.86
678.141	4.93
678.549	4.99
678.958	5.05
679.366	5.09
679.775	5.17
680.183	5.23
680.592	5.31
681	5.39
681.408	5.48
681.816	5.58
682.224	5.68
682.632	5.79
683.04	5.91
683.448	6.06
683.856	6.23
684.264	6.41
684.671	6.62
685.079	6.83
685.487	7.08
685.894	7.35
686.302	7.65
686.709	7.96
687.116	8.3
687.524	8.65
687.931	9.03
688.338	9.45
688.745	9.89
689.152	10.37
689.559	10.89
689.966	11.41
690.373	11.98
690.78	12.54
691.187	13.14
691.593	13.74
692	14.39
692.407	15.05
692.813	15.73
693.22	16.42
693.626	17.11
694.032	17.8
694.439	18.54
694.845	19.25
695.251	19.98
695.657	20.73
696.063	21.47
696.469	22.19
696.875	22.91
697.281	23.63
697.687	24.37
698.093	25.1
698.498	25.83
698.904	26.52
699.31	27.2
699.715	27.91
700.12	28.58
700.526	29.26
700.931	29.94
701.337	30.62
701.742	31.25
702.147	31.85
702.552	32.45
702.957	33.06
703.362	33.65
703.767	34.25
704.172	34.81
704.577	35.37
704.981	35.94
705.386	36.48
705.791	37.04
706.195	37.59
706.6	38.14
707.004	38.68
707.408	39.19
707.813	39.7
708.217	40.2
708.621	40.68
709.025	41.16
709.43	41.62
709.834	42.12
710.237	42.54
710.641	43.01
711.045	43.44
711.449	43.88
711.853	44.31
712.256	44.75
712.66	45.18
713.064	45.6
713.467	45.99
713.87	46.41
714.274	46.79
714.677	47.18
715.08	47.55
715.484	47.95
715.887	48.32
716.29	48.68
716.693	49.03
717.096	49.37
717.499	49.73
717.901	50.08
718.304	50.39
718.707	50.7
719.109	51.04
719.512	51.36
719.915	51.66
720.317	51.95
720.719	52.23
721.122	52.5
721.524	52.82
721.926	53.08
722.328	53.34
722.731	53.61
723.133	53.89
723.535	54.14
723.937	54.37
724.338	54.58
724.74	54.79
725.142	54.91
725.544	55.12
725.945	55.27
726.347	55.47
726.748	55.6
727.15	55.75
727.551	55.93
727.952	56.09
728.354	56.27
728.755	56.46
729.156	56.62
729.557	56.87
729.958	57.05
730.359	57.18
730.76	57.28
731.161	57.44
731.562	57.6
731.962	57.71
732.363	57.79
732.763	57.87
733.164	57.9
733.564	57.99
733.965	58.04
734.365	58.06
734.766	58.16
735.166	58.26
735.566	58.31
735.966	58.34
736.366	58.39
736.766	58.47
737.166	58.53
737.566	58.65
737.966	58.73
738.365	58.81
738.765	58.9
739.165	58.93
739.564	58.97
739.964	59.05
740.363	59.15
740.763	59.16
741.162	59.18
741.561	59.25
741.96	59.3
742.36	59.35
742.759	59.38
743.158	59.38
743.557	59.45
743.955	59.53
744.354	59.56
744.753	59.59
745.152	59.66
745.55	59.72
745.949	59.74
746.348	59.79
746.746	59.8
747.144	59.86
747.543	59.96
747.941	60
748.339	60.05
748.737	60.09
749.136	60.14
749.534	60.19
749.932	60.21
750.33	60.21
750.727	60.21
751.125	60.26
751.523	60.24
751.921	60.27
752.318	60.26
752.716	60.23
753.113	60.19
753.511	60.15
753.908	60.12
754.305	60.06
754.703	60.06
755.1	60.02
755.497	59.99
755.894	59.96
756.291	59.92
756.688	59.92
757.085	59.9
757.482	59.9
757.878	59.92
758.275	59.92
758.672	59.98
759.068	59.98
759.465	59.98
759.861	59.98
760.258	59.96
760.654	59.92
761.05	59.91
761.447	59.91
761.843	59.89
762.239	59.86
762.635	59.84
763.031	59.81
763.427	59.77
763.822	59.7
764.218	59.69
764.614	59.72
765.01	59.71
765.405	59.67
765.801	59.63
766.196	59.62
766.592	59.62
766.987	59.6
767.382	59.57
767.778	59.59
768.173	59.63
768.568	59.6
768.963	59.61
769.358	59.57
769.753	59.61
770.148	59.63
770.542	59.62
770.937	59.61
771.332	59.61
771.726	59.59
772.121	59.56
772.515	59.54
772.91	59.54
773.304	59.53
773.699	59.53
774.093	59.5
774.487	59.51
774.881	59.48
775.275	59.45
775.669	59.43
776.063	59.45
776.457	59.43
776.851	59.41
777.245	59.4
777.638	59.38
778.032	59.41
778.425	59.4
778.819	59.4
779.212	59.42
779.606	59.44
779.999	59.42
780.392	59.36
780.786	59.4
781.179	59.44
781.572	59.44
781.965	59.46
782.358	59.41
782.751	59.41
