Data from C_2_dec_nc_4n_070_Splice17_15.txt Node
Date: Sat Feb 29 14:24:09 EST 2020
User: sa697716
Spectrometer: FLMS03696
Trigger mode: 0
Integration Time (sec): 3.180400E-1
Scans to average: 20
Electric dark correction enabled: true
Nonlinearity correction enabled: true
Boxcar width: 5
XAxis mode: Wavelengths
Number of Pixels in Spectrum: 2048
>>>>>Begin Spectral Data<<<<<
187.83	100.55
188.298	102.68
188.766	80.26
189.233	74.36
189.701	90.11
190.169	87
190.636	87.47
191.104	72.39
191.571	192.61
192.039	136.66
192.506	-59.33
192.974	3953.68
193.441	-278.18
193.908	88.99
194.375	48.55
194.842	80.19
195.31	18.02
195.777	-25.49
196.244	5.01
196.711	33.56
197.177	35.52
197.644	36.8
198.111	35.92
198.578	35.7
199.045	36.04
199.511	36.54
199.978	37.99
200.445	38.43
200.911	38.82
201.378	39.08
201.844	39.31
202.31	39.91
202.777	40.2
203.243	41.02
203.709	41.52
204.176	41.47
204.642	41.55
205.108	40.91
205.574	41.39
206.04	41.72
206.506	42.07
206.972	41.81
207.438	41.41
207.903	41.52
208.369	41.02
208.835	41.07
209.301	40.81
209.766	40.85
210.232	40.96
210.697	40.6
211.163	39.93
211.628	39.13
212.094	39.13
212.559	38.55
213.024	38.15
213.49	37.96
213.955	37.6
214.42	36.99
214.885	36.3
215.35	35.81
215.815	34.98
216.28	34.35
216.745	33.9
217.21	32.93
217.675	32.38
218.14	31.57
218.604	30.63
219.069	30
219.534	29.44
219.998	29
220.463	28.44
220.927	28.06
221.392	27.58
221.856	27.11
222.32	26.74
222.785	26.3
223.249	25.98
223.713	25.72
224.177	25.39
224.642	25.06
225.106	24.7
225.57	24.41
226.034	24.12
226.497	23.84
226.961	23.54
227.425	23.25
227.889	22.97
228.353	22.66
228.816	22.42
229.28	22.13
229.744	21.89
230.207	21.63
230.671	21.4
231.134	21.11
231.597	20.86
232.061	20.64
232.524	20.43
232.987	20.22
233.45	19.98
233.914	19.72
234.377	19.51
234.84	19.32
235.303	19.11
235.766	18.89
236.229	18.69
236.691	18.52
237.154	18.33
237.617	18.13
238.08	17.97
238.542	17.79
239.005	17.63
239.468	17.43
239.93	17.25
240.393	17.12
240.855	16.98
241.317	16.84
241.78	16.71
242.242	16.56
242.704	16.42
243.166	16.28
243.629	16.17
244.091	16.03
244.553	15.94
245.015	15.83
245.477	15.69
245.939	15.59
246.4	15.47
246.862	15.35
247.324	15.27
247.786	15.17
248.247	15.07
248.709	14.97
249.17	14.88
249.632	14.76
250.093	14.64
250.555	14.55
251.016	14.46
251.477	14.38
251.939	14.31
252.4	14.22
252.861	14.14
253.322	14.07
253.783	14.01
254.244	13.96
254.705	13.92
255.166	13.9
255.627	13.85
256.088	13.79
256.549	13.73
257.009	13.68
257.47	13.64
257.931	13.58
258.391	13.52
258.852	13.45
259.312	13.38
259.773	13.31
260.233	13.22
260.694	13.16
261.154	13.09
261.614	13.04
262.074	12.97
262.534	12.9
262.994	12.84
263.455	12.79
263.915	12.73
264.374	12.67
264.834	12.62
265.294	12.57
265.754	12.51
266.214	12.46
266.673	12.4
267.133	12.35
267.593	12.32
268.052	12.28
268.512	12.24
268.971	12.2
269.431	12.16
269.89	12.11
270.349	12.08
270.809	12.05
271.268	12.01
271.727	11.97
272.186	11.93
272.645	11.88
273.104	11.83
273.563	11.79
274.022	11.75
274.481	11.71
274.94	11.66
275.399	11.62
275.857	11.58
276.316	11.52
276.775	11.47
277.233	11.42
277.692	11.37
278.15	11.32
278.609	11.26
279.067	11.21
279.525	11.17
279.984	11.12
280.442	11.07
280.9	11.02
281.358	10.97
281.816	10.93
282.274	10.89
282.732	10.85
283.19	10.81
283.648	10.77
284.106	10.73
284.564	10.7
285.021	10.67
285.479	10.64
285.937	10.62
286.394	10.6
286.852	10.56
287.309	10.54
287.767	10.51
288.224	10.48
288.682	10.45
289.139	10.42
289.596	10.38
290.053	10.33
290.511	10.28
290.968	10.23
291.425	10.18
291.882	10.15
292.339	10.1
292.796	10.05
293.252	10.01
293.709	9.96
294.166	9.92
294.623	9.88
295.079	9.85
295.536	9.81
295.992	9.77
296.449	9.74
296.905	9.7
297.362	9.66
297.818	9.63
298.274	9.6
298.731	9.57
299.187	9.54
299.643	9.51
300.099	9.47
300.555	9.44
301.011	9.41
301.467	9.37
301.923	9.35
302.379	9.32
302.835	9.29
303.291	9.26
303.746	9.22
304.202	9.19
304.658	9.15
305.113	9.12
305.569	9.1
306.024	9.07
306.479	9.04
306.935	9
307.39	8.98
307.845	8.96
308.301	8.94
308.756	8.92
309.211	8.91
309.666	8.89
310.121	8.86
310.576	8.85
311.031	8.83
311.486	8.82
311.94	8.8
312.395	8.78
312.85	8.76
313.305	8.75
313.759	8.73
314.214	8.71
314.668	8.69
315.123	8.68
315.577	8.65
316.032	8.65
316.486	8.62
316.94	8.6
317.394	8.57
317.849	8.55
318.303	8.52
318.757	8.5
319.211	8.47
319.665	8.44
320.119	8.42
320.572	8.4
321.026	8.37
321.48	8.35
321.934	8.33
322.387	8.31
322.841	8.29
323.295	8.26
323.748	8.23
324.202	8.21
324.655	8.19
325.108	8.17
325.562	8.13
326.015	8.1
326.468	8.07
326.921	8.04
327.374	8.02
327.827	7.99
328.28	7.96
328.733	7.94
329.186	7.93
329.639	7.9
330.092	7.89
330.545	7.87
330.997	7.85
331.45	7.83
331.903	7.82
332.355	7.8
332.808	7.8
333.26	7.8
333.713	7.8
334.165	7.79
334.617	7.79
335.069	7.78
335.522	7.78
335.974	7.79
336.426	7.79
336.878	7.8
337.33	7.8
337.782	7.8
338.234	7.8
338.686	7.78
339.137	7.76
339.589	7.75
340.041	7.73
340.493	7.71
340.944	7.69
341.396	7.67
341.847	7.64
342.299	7.61
342.75	7.57
343.201	7.54
343.653	7.51
344.104	7.49
344.555	7.47
345.006	7.46
345.457	7.43
345.908	7.41
346.359	7.4
346.81	7.39
347.261	7.37
347.712	7.36
348.163	7.35
348.613	7.34
349.064	7.32
349.515	7.3
349.965	7.28
350.416	7.27
350.866	7.25
351.317	7.24
351.767	7.23
352.217	7.23
352.668	7.22
353.118	7.22
353.568	7.22
354.018	7.22
354.468	7.22
354.918	7.23
355.368	7.23
355.818	7.23
356.268	7.23
356.718	7.23
357.168	7.21
357.617	7.2
358.067	7.19
358.517	7.18
358.966	7.19
359.416	7.19
359.865	7.18
360.315	7.18
360.764	7.18
361.213	7.17
361.663	7.16
362.112	7.17
362.561	7.17
363.01	7.18
363.459	7.17
363.908	7.15
364.357	7.15
364.806	7.14
365.255	7.13
365.703	7.12
366.152	7.11
366.601	7.1
367.05	7.09
367.498	7.07
367.947	7.07
368.395	7.07
368.844	7.06
369.292	7.05
369.74	7.04
370.189	7.04
370.637	7.04
371.085	7.05
371.533	7.05
371.981	7.05
372.429	7.04
372.877	7.03
373.325	7.01
373.773	7.02
374.221	7.02
374.669	7.01
375.116	7
375.564	6.99
376.012	6.97
376.459	6.97
376.907	6.96
377.354	6.96
377.801	6.96
378.249	6.96
378.696	6.96
379.143	6.96
379.591	6.96
380.038	6.97
380.485	6.98
380.932	6.98
381.379	6.96
381.826	6.97
382.273	6.97
382.72	6.97
383.166	6.97
383.613	6.97
384.06	6.96
384.506	6.97
384.953	6.96
385.4	6.96
385.846	6.96
386.292	6.98
386.739	6.98
387.185	7
387.631	7
388.078	7.02
388.524	7.01
388.97	7.02
389.416	7.02
389.862	7.02
390.308	7.03
390.754	7.05
391.2	7.06
391.645	7.08
392.091	7.1
392.537	7.11
392.983	7.12
393.428	7.16
393.874	7.19
394.319	7.22
394.765	7.24
395.21	7.25
395.655	7.26
396.101	7.27
396.546	7.29
396.991	7.3
397.436	7.31
397.881	7.33
398.326	7.36
398.771	7.38
399.216	7.43
399.661	7.48
400.106	7.53
400.551	7.56
400.995	7.57
401.44	7.58
401.885	7.6
402.329	7.61
402.774	7.61
403.218	7.62
403.663	7.62
404.107	7.61
404.551	7.62
404.995	7.62
405.44	7.62
405.884	7.64
406.328	7.65
406.772	7.68
407.216	7.69
407.66	7.73
408.104	7.75
408.547	7.76
408.991	7.76
409.435	7.76
409.879	7.77
410.322	7.78
410.766	7.81
411.209	7.84
411.653	7.83
412.096	7.85
412.54	7.84
412.983	7.85
413.426	7.88
413.869	7.9
414.312	7.94
414.756	7.97
415.199	7.99
415.642	8.02
416.085	8.04
416.527	8.07
416.97	8.1
417.413	8.11
417.856	8.11
418.298	8.1
418.741	8.11
419.184	8.1
419.626	8.1
420.069	8.1
420.511	8.09
420.953	8.08
421.396	8.07
421.838	8.08
422.28	8.1
422.722	8.13
423.164	8.14
423.606	8.16
424.048	8.15
424.49	8.17
424.932	8.18
425.374	8.19
425.816	8.19
426.258	8.16
426.699	8.12
427.141	8.08
427.582	8.06
428.024	8.05
428.465	8.06
428.907	8.07
429.348	8.07
429.789	8.06
430.231	8.05
430.672	8.06
431.113	8.09
431.554	8.11
431.995	8.14
432.436	8.15
432.877	8.13
433.318	8.11
433.759	8.11
434.2	8.09
434.64	8.1
435.081	8.1
435.522	8.1
435.962	8.11
436.403	8.14
436.843	8.17
437.284	8.2
437.724	8.25
438.164	8.26
438.604	8.28
439.045	8.31
439.485	8.33
439.925	8.35
440.365	8.37
440.805	8.38
441.245	8.38
441.685	8.4
442.125	8.39
442.564	8.4
443.004	8.45
443.444	8.46
443.883	8.49
444.323	8.51
444.762	8.56
445.202	8.62
445.641	8.64
446.081	8.69
446.52	8.73
446.959	8.78
447.398	8.85
447.837	8.88
448.276	8.92
448.716	8.98
449.154	9.02
449.593	9.05
450.032	9.1
450.471	9.15
450.91	9.18
451.349	9.21
451.787	9.21
452.226	9.21
452.664	9.21
453.103	9.22
453.541	9.21
453.98	9.2
454.418	9.21
454.856	9.16
455.295	9.14
455.733	9.11
456.171	9.11
456.609	9.11
457.047	9.11
457.485	9.11
457.923	9.1
458.361	9.08
458.798	9.1
459.236	9.09
459.674	9.1
460.111	9.11
460.549	9.11
460.987	9.11
461.424	9.1
461.862	9.09
462.299	9.07
462.736	9.07
463.173	9.07
463.611	9.05
464.048	9.06
464.485	9.04
464.922	9.03
465.359	9.04
465.796	9
466.233	9
466.67	8.99
467.106	9.01
467.543	9.02
467.98	9.04
468.416	9.07
468.853	9.08
469.29	9.1
469.726	9.12
470.162	9.13
470.599	9.16
471.035	9.21
471.471	9.22
471.907	9.22
472.344	9.25
472.78	9.25
473.216	9.25
473.652	9.25
474.088	9.29
474.523	9.27
474.959	9.26
475.395	9.28
475.831	9.26
476.266	9.28
476.702	9.29
477.138	9.29
477.573	9.3
478.008	9.3
478.444	9.3
478.879	9.28
479.314	9.29
479.75	9.31
480.185	9.3
480.62	9.31
481.055	9.32
481.49	9.31
481.925	9.31
482.36	9.29
482.795	9.29
483.229	9.3
483.664	9.32
484.099	9.33
484.534	9.35
484.968	9.37
485.403	9.38
485.837	9.4
486.271	9.41
486.706	9.44
487.14	9.49
487.574	9.51
488.009	9.55
488.443	9.58
488.877	9.61
489.311	9.64
489.745	9.68
490.179	9.73
490.613	9.78
491.046	9.86
491.48	9.92
491.914	9.98
492.348	10.05
492.781	10.12
493.215	10.2
493.648	10.3
494.082	10.4
494.515	10.49
494.948	10.58
495.382	10.68
495.815	10.79
496.248	10.9
496.681	11
497.114	11.11
497.547	11.25
497.98	11.39
498.413	11.53
498.846	11.68
499.279	11.83
499.711	12
500.144	12.17
500.577	12.34
501.009	12.53
501.442	12.73
501.874	12.94
502.306	13.14
502.739	13.34
503.171	13.56
503.603	13.81
504.036	14.06
504.468	14.32
504.9	14.59
505.332	14.86
505.764	15.14
506.196	15.43
506.627	15.74
507.059	16.04
507.491	16.38
507.923	16.7
508.354	17.01
508.786	17.35
509.217	17.67
509.649	18.02
510.08	18.39
510.512	18.74
510.943	19.12
511.374	19.49
511.805	19.87
512.237	20.24
512.668	20.62
513.099	21.01
513.53	21.42
513.961	21.82
514.391	22.21
514.822	22.6
515.253	23.01
515.684	23.4
516.114	23.8
516.545	24.21
516.975	24.64
517.406	25.06
517.836	25.47
518.267	25.87
518.697	26.3
519.127	26.72
519.558	27.11
519.988	27.5
520.418	27.88
520.848	28.27
521.278	28.66
521.708	28.97
522.138	29.3
522.567	29.65
522.997	29.98
523.427	30.31
523.857	30.6
524.286	30.91
524.716	31.21
525.145	31.51
525.575	31.76
526.004	32.02
526.433	32.35
526.863	32.63
527.292	32.87
527.721	33.12
528.15	33.33
528.579	33.55
529.008	33.76
529.437	33.97
529.866	34.15
530.295	34.34
530.724	34.54
531.152	34.71
531.581	34.85
532.01	34.99
532.438	35.14
532.867	35.28
533.295	35.44
533.723	35.56
534.152	35.68
534.58	35.78
535.008	35.87
535.436	35.93
535.865	36.02
536.293	36.09
536.721	36.16
537.149	36.2
537.576	36.24
538.004	36.28
538.432	36.34
538.86	36.37
539.287	36.43
539.715	36.47
540.143	36.5
540.57	36.51
540.998	36.56
541.425	36.57
541.852	36.61
542.28	36.64
542.707	36.7
543.134	36.7
543.561	36.73
543.988	36.75
544.415	36.79
544.842	36.83
545.269	36.89
545.696	36.92
546.123	36.98
546.549	37.01
546.976	37.04
547.403	37.02
547.829	37.07
548.256	37.1
548.682	37.12
549.108	37.13
549.535	37.13
549.961	37.12
550.387	37.11
550.813	37.09
551.24	37.08
551.666	37.09
552.092	37.1
552.518	37.08
552.943	37.06
553.369	37.05
553.795	37.03
554.221	37.01
554.646	36.96
555.072	36.94
555.498	36.91
555.923	36.87
556.349	36.77
556.774	36.7
557.199	36.65
557.625	36.56
558.05	36.44
558.475	36.35
558.9	36.26
559.325	36.18
559.75	36.08
560.175	35.96
560.6	35.81
561.025	35.71
561.449	35.58
561.874	35.44
562.299	35.29
562.723	35.17
563.148	35.03
563.572	34.88
563.997	34.71
564.421	34.54
564.846	34.37
565.27	34.2
565.694	34.01
566.118	33.83
566.542	33.63
566.966	33.45
567.39	33.23
567.814	32.99
568.238	32.74
568.662	32.52
569.086	32.28
569.509	32.08
569.933	31.85
570.357	31.64
570.78	31.41
571.204	31.2
571.627	30.99
572.05	30.79
572.474	30.6
572.897	30.42
573.32	30.23
573.743	30.05
574.166	29.85
574.589	29.68
575.012	29.51
575.435	29.35
575.858	29.2
576.281	29.07
576.704	28.91
577.126	28.76
577.549	28.64
577.972	28.52
578.394	28.36
578.817	28.22
579.239	28.1
579.661	27.97
580.084	27.85
580.506	27.71
580.928	27.58
581.35	27.49
581.772	27.4
582.194	27.29
582.616	27.18
583.038	27.11
583.46	27.02
583.882	26.92
584.303	26.83
584.725	26.75
585.147	26.64
585.568	26.53
585.99	26.44
586.411	26.34
586.833	26.25
587.254	26.16
587.675	26.08
588.096	26.03
588.518	25.96
588.939	25.89
589.36	25.8
589.781	25.77
590.202	25.71
590.623	25.65
591.043	25.6
591.464	25.54
591.885	25.49
592.305	25.45
592.726	25.4
593.147	25.37
593.567	25.32
593.987	25.31
594.408	25.25
594.828	25.21
595.248	25.18
595.669	25.14
596.089	25.12
596.509	25.06
596.929	24.99
597.349	24.93
597.769	24.88
598.189	24.85
598.608	24.77
599.028	24.72
599.448	24.68
599.867	24.62
600.287	24.56
600.706	24.48
601.126	24.42
601.545	24.37
601.965	24.31
602.384	24.23
602.803	24.14
603.222	24.06
603.641	23.97
604.061	23.87
604.48	23.78
604.898	23.67
605.317	23.59
605.736	23.5
606.155	23.37
606.574	23.26
606.992	23.16
607.411	23.07
607.829	22.93
608.248	22.83
608.666	22.73
609.085	22.6
609.503	22.49
609.921	22.36
610.339	22.26
610.758	22.15
611.176	22.03
611.594	21.92
612.012	21.8
612.43	21.73
612.847	21.63
613.265	21.53
613.683	21.43
614.101	21.33
614.518	21.23
614.936	21.12
615.353	21.04
615.771	20.96
616.188	20.88
616.606	20.79
617.023	20.7
617.44	20.61
617.857	20.53
618.274	20.47
618.691	20.38
619.108	20.32
619.525	20.27
619.942	20.22
620.359	20.15
620.776	20.09
621.192	20.04
621.609	19.99
622.026	19.96
622.442	19.92
622.859	19.88
623.275	19.89
623.691	19.85
624.108	19.82
624.524	19.79
624.94	19.79
625.356	19.78
625.772	19.76
626.188	19.75
626.604	19.72
627.02	19.7
627.436	19.67
627.852	19.63
628.268	19.6
628.683	19.58
629.099	19.54
629.514	19.49
629.93	19.44
630.345	19.38
630.761	19.33
631.176	19.28
631.591	19.23
632.007	19.16
632.422	19.1
632.837	19.03
633.252	18.95
633.667	18.85
634.082	18.75
634.497	18.65
634.911	18.53
635.326	18.4
635.741	18.27
636.155	18.13
636.57	17.96
636.984	17.8
637.399	17.61
637.813	17.42
638.228	17.27
638.642	17.11
639.056	16.93
639.47	16.76
639.884	16.58
640.298	16.41
640.712	16.22
641.126	16.05
641.54	15.88
641.954	15.73
642.368	15.57
642.781	15.39
643.195	15.19
643.609	15.03
644.022	14.87
644.436	14.72
644.849	14.56
645.262	14.42
645.676	14.29
646.089	14.16
646.502	14.03
646.915	13.92
647.328	13.81
647.741	13.71
648.154	13.62
648.567	13.52
648.98	13.44
649.393	13.38
649.805	13.31
650.218	13.24
650.631	13.18
651.043	13.13
651.456	13.07
651.868	13.01
652.28	12.97
652.693	12.89
653.105	12.83
653.517	12.76
653.929	12.7
654.341	12.64
654.753	12.56
655.165	12.48
655.577	12.38
655.989	12.28
656.401	12.16
656.813	12.05
657.224	11.94
657.636	11.84
658.047	11.73
658.459	11.58
658.87	11.45
659.282	11.33
659.693	11.19
660.104	11.07
660.515	10.95
660.926	10.84
661.338	10.72
661.749	10.6
662.159	10.48
662.57	10.37
662.981	10.27
663.392	10.16
663.803	10.08
664.213	10
664.624	9.92
665.035	9.84
665.445	9.78
665.855	9.7
666.266	9.64
666.676	9.6
667.086	9.54
667.497	9.49
667.907	9.45
668.317	9.41
668.727	9.38
669.137	9.36
669.547	9.35
669.956	9.31
670.366	9.31
670.776	9.29
671.186	9.27
671.595	9.27
672.005	9.28
672.414	9.28
672.824	9.29
673.233	9.31
673.642	9.31
674.052	9.32
674.461	9.33
674.87	9.36
675.279	9.39
675.688	9.41
676.097	9.44
676.506	9.48
676.915	9.52
677.323	9.57
677.732	9.63
678.141	9.69
678.549	9.76
678.958	9.85
679.366	9.92
679.775	10.04
680.183	10.15
680.592	10.27
681	10.39
681.408	10.54
681.816	10.68
682.224	10.85
682.632	11.04
683.04	11.25
683.448	11.47
683.856	11.72
684.264	11.98
684.671	12.3
685.079	12.66
685.487	13.03
685.894	13.43
686.302	13.87
686.709	14.33
687.116	14.83
687.524	15.36
687.931	15.93
688.338	16.54
688.745	17.17
689.152	17.82
689.559	18.48
689.966	19.18
690.373	19.91
690.78	20.65
691.187	21.43
691.593	22.21
692	22.99
692.407	23.78
692.813	24.59
693.22	25.4
693.626	26.2
694.032	26.99
694.439	27.82
694.845	28.63
695.251	29.43
695.657	30.21
696.063	31
696.469	31.78
696.875	32.53
697.281	33.26
697.687	34.01
698.093	34.74
698.498	35.48
698.904	36.14
699.31	36.82
699.715	37.51
700.12	38.16
700.526	38.82
700.931	39.44
701.337	40.09
701.742	40.71
702.147	41.32
702.552	41.91
702.957	42.48
703.362	43.1
703.767	43.63
704.172	44.18
704.577	44.7
704.981	45.2
705.386	45.73
705.791	46.23
706.195	46.7
706.6	47.15
707.004	47.59
707.408	48.04
707.813	48.42
708.217	48.85
708.621	49.26
709.025	49.68
709.43	50.08
709.834	50.48
710.237	50.84
710.641	51.23
711.045	51.59
711.449	51.97
711.853	52.32
712.256	52.71
712.66	53.09
713.064	53.42
713.467	53.76
713.87	54.09
714.274	54.4
714.677	54.73
715.08	55.01
715.484	55.33
715.887	55.63
716.29	55.93
716.693	56.19
717.096	56.44
717.499	56.72
717.901	56.95
718.304	57.2
718.707	57.41
719.109	57.68
719.512	57.97
719.915	58.18
720.317	58.41
720.719	58.58
721.122	58.79
721.524	59.01
721.926	59.2
722.328	59.45
722.731	59.64
723.133	59.87
723.535	60.03
723.937	60.19
724.338	60.35
724.74	60.54
725.142	60.63
725.544	60.79
725.945	60.93
726.347	61.12
726.748	61.2
727.15	61.32
727.551	61.46
727.952	61.57
728.354	61.71
728.755	61.84
729.156	61.91
729.557	62.14
729.958	62.26
730.359	62.34
730.76	62.37
731.161	62.49
731.562	62.57
731.962	62.64
732.363	62.73
732.763	62.82
733.164	62.89
733.564	62.96
733.965	62.99
734.365	63.02
734.766	63.07
735.166	63.12
735.566	63.16
735.966	63.19
736.366	63.21
736.766	63.24
737.166	63.26
737.566	63.31
737.966	63.37
738.365	63.4
738.765	63.47
739.165	63.51
739.564	63.53
739.964	63.59
740.363	63.63
740.763	63.68
741.162	63.72
741.561	63.75
741.96	63.79
742.36	63.83
742.759	63.85
743.158	63.83
743.557	63.88
743.955	63.97
744.354	64
744.753	64.05
745.152	64.06
745.55	64.08
745.949	64.14
746.348	64.17
746.746	64.2
747.144	64.28
747.543	64.33
747.941	64.42
748.339	64.44
748.737	64.5
749.136	64.52
749.534	64.59
749.932	64.63
750.33	64.63
750.727	64.64
751.125	64.63
751.523	64.6
751.921	64.66
752.318	64.6
752.716	64.59
753.113	64.54
753.511	64.5
753.908	64.45
754.305	64.39
754.703	64.35
755.1	64.31
755.497	64.31
755.894	64.28
756.291	64.23
756.688	64.21
757.085	64.17
757.482	64.17
757.878	64.18
758.275	64.16
758.672	64.19
759.068	64.21
759.465	64.21
759.861	64.19
760.258	64.17
760.654	64.16
761.05	64.14
761.447	64.12
761.843	64.07
762.239	64.04
762.635	64.03
763.031	64.01
763.427	63.94
763.822	63.92
764.218	63.91
764.614	63.91
765.01	63.87
765.405	63.87
765.801	63.86
766.196	63.82
766.592	63.8
766.987	63.79
767.382	63.77
767.778	63.8
768.173	63.8
768.568	63.74
768.963	63.73
769.358	63.74
769.753	63.74
770.148	63.74
770.542	63.77
770.937	63.78
771.332	63.77
771.726	63.74
772.121	63.72
772.515	63.76
772.91	63.82
773.304	63.82
773.699	63.77
774.093	63.76
774.487	63.79
774.881	63.81
775.275	63.81
775.669	63.82
