Data from C_2_div_oh_2n_066_Splice17_03.txt Node
Date: Sat Feb 29 14:25:47 EST 2020
User: sa697716
Spectrometer: FLMS03696
Trigger mode: 0
Integration Time (sec): 3.180400E-1
Scans to average: 20
Electric dark correction enabled: true
Nonlinearity correction enabled: true
Boxcar width: 5
XAxis mode: Wavelengths
Number of Pixels in Spectrum: 2048
>>>>>Begin Spectral Data<<<<<
187.83	69.27
188.298	62.35
188.766	53.13
189.233	51.14
189.701	63.37
190.169	56.52
190.636	55.92
191.104	62.04
191.571	232.47
192.039	284.76
192.506	40.79
192.974	5954.56
193.441	-328.44
193.908	123.53
194.375	87.71
194.842	134.16
195.31	47.85
195.777	-16.07
196.244	11.54
196.711	19.22
197.177	23.25
197.644	22.4
198.111	21.97
198.578	22.08
199.045	21.96
199.511	22.75
199.978	23.63
200.445	23.96
200.911	24.14
201.378	24.34
201.844	24.96
202.31	25
202.777	25.13
203.243	25.76
203.709	26.55
204.176	26.12
204.642	26.19
205.108	26.02
205.574	26.25
206.04	26.03
206.506	26.1
206.972	26.04
207.438	26.12
207.903	26.36
208.369	25.74
208.835	25.66
209.301	26.14
209.766	26.21
210.232	26.21
210.697	26.08
211.163	26.37
211.628	26.15
212.094	26.16
212.559	25.82
213.024	25.63
213.49	25.55
213.955	25.18
214.42	24.74
214.885	24.42
215.35	24.12
215.815	23.38
216.28	22.96
216.745	22.48
217.21	21.95
217.675	21.58
218.14	20.92
218.604	20.4
219.069	19.9
219.534	19.36
219.998	19.01
220.463	18.71
220.927	18.45
221.392	18.08
221.856	17.79
222.32	17.49
222.785	17.18
223.249	16.98
223.713	16.77
224.177	16.55
224.642	16.38
225.106	16.19
225.57	15.95
226.034	15.73
226.497	15.56
226.961	15.37
227.425	15.16
227.889	14.99
228.353	14.79
228.816	14.62
229.28	14.42
229.744	14.26
230.207	14.06
230.671	13.89
231.134	13.74
231.597	13.57
232.061	13.42
232.524	13.28
232.987	13.13
233.45	12.98
233.914	12.84
234.377	12.71
234.84	12.57
235.303	12.45
235.766	12.31
236.229	12.18
236.691	12.05
237.154	11.92
237.617	11.79
238.08	11.68
238.542	11.57
239.005	11.46
239.468	11.34
239.93	11.24
240.393	11.13
240.855	11.03
241.317	10.94
241.78	10.86
242.242	10.77
242.704	10.68
243.166	10.58
243.629	10.49
244.091	10.38
244.553	10.3
245.015	10.2
245.477	10.11
245.939	10.04
246.4	9.95
246.862	9.86
247.324	9.79
247.786	9.73
248.247	9.66
248.709	9.6
249.17	9.54
249.632	9.48
250.093	9.4
250.555	9.35
251.016	9.29
251.477	9.23
251.939	9.18
252.4	9.12
252.861	9.06
253.322	9
253.783	8.96
254.244	8.92
254.705	8.87
255.166	8.86
255.627	8.82
256.088	8.77
256.549	8.74
257.009	8.7
257.47	8.66
257.931	8.63
258.391	8.57
258.852	8.53
259.312	8.49
259.773	8.45
260.233	8.4
260.694	8.36
261.154	8.33
261.614	8.3
262.074	8.27
262.534	8.21
262.994	8.19
263.455	8.16
263.915	8.13
264.374	8.09
264.834	8.07
265.294	8.04
265.754	8
266.214	7.97
266.673	7.94
267.133	7.91
267.593	7.89
268.052	7.85
268.512	7.82
268.971	7.8
269.431	7.78
269.89	7.75
270.349	7.73
270.809	7.71
271.268	7.7
271.727	7.67
272.186	7.65
272.645	7.64
273.104	7.62
273.563	7.61
274.022	7.59
274.481	7.56
274.94	7.53
275.399	7.51
275.857	7.49
276.316	7.46
276.775	7.43
277.233	7.41
277.692	7.39
278.15	7.36
278.609	7.33
279.067	7.29
279.525	7.27
279.984	7.25
280.442	7.22
280.9	7.21
281.358	7.18
281.816	7.15
282.274	7.12
282.732	7.1
283.19	7.08
283.648	7.07
284.106	7.05
284.564	7.04
285.021	7.02
285.479	7.01
285.937	7
286.394	6.98
286.852	6.97
287.309	6.96
287.767	6.96
288.224	6.95
288.682	6.92
289.139	6.91
289.596	6.89
290.053	6.87
290.511	6.84
290.968	6.81
291.425	6.78
291.882	6.77
292.339	6.75
292.796	6.71
293.252	6.68
293.709	6.66
294.166	6.63
294.623	6.61
295.079	6.6
295.536	6.58
295.992	6.57
296.449	6.56
296.905	6.53
297.362	6.51
297.818	6.5
298.274	6.48
298.731	6.48
299.187	6.46
299.643	6.44
300.099	6.43
300.555	6.41
301.011	6.4
301.467	6.38
301.923	6.37
302.379	6.36
302.835	6.35
303.291	6.34
303.746	6.32
304.202	6.3
304.658	6.28
305.113	6.27
305.569	6.26
306.024	6.25
306.479	6.24
306.935	6.22
307.39	6.21
307.845	6.2
308.301	6.2
308.756	6.19
309.211	6.2
309.666	6.2
310.121	6.18
310.576	6.18
311.031	6.17
311.486	6.17
311.94	6.17
312.395	6.17
312.85	6.15
313.305	6.15
313.759	6.15
314.214	6.13
314.668	6.12
315.123	6.12
315.577	6.11
316.032	6.11
316.486	6.11
316.94	6.09
317.394	6.08
317.849	6.07
318.303	6.06
318.757	6.05
319.211	6.03
319.665	6.02
320.119	6
320.572	6
321.026	5.98
321.48	5.97
321.934	5.96
322.387	5.94
322.841	5.93
323.295	5.91
323.748	5.9
324.202	5.89
324.655	5.88
325.108	5.87
325.562	5.84
326.015	5.83
326.468	5.81
326.921	5.8
327.374	5.79
327.827	5.78
328.28	5.77
328.733	5.76
329.186	5.75
329.639	5.73
330.092	5.74
330.545	5.74
330.997	5.73
331.45	5.72
331.903	5.71
332.355	5.71
332.808	5.71
333.26	5.7
333.713	5.71
334.165	5.71
334.617	5.72
335.069	5.7
335.522	5.7
335.974	5.71
336.426	5.72
336.878	5.72
337.33	5.71
337.782	5.71
338.234	5.71
338.686	5.7
339.137	5.7
339.589	5.69
340.041	5.68
340.493	5.67
340.944	5.67
341.396	5.66
341.847	5.65
342.299	5.64
342.75	5.63
343.201	5.61
343.653	5.59
344.104	5.57
344.555	5.56
345.006	5.56
345.457	5.55
345.908	5.53
346.359	5.52
346.81	5.51
347.261	5.5
347.712	5.5
348.163	5.5
348.613	5.49
349.064	5.47
349.515	5.46
349.965	5.45
350.416	5.44
350.866	5.43
351.317	5.42
351.767	5.43
352.217	5.41
352.668	5.4
353.118	5.4
353.568	5.42
354.018	5.43
354.468	5.44
354.918	5.44
355.368	5.44
355.818	5.44
356.268	5.45
356.718	5.43
357.168	5.44
357.617	5.44
358.067	5.43
358.517	5.41
358.966	5.42
359.416	5.42
359.865	5.42
360.315	5.42
360.764	5.43
361.213	5.43
361.663	5.44
362.112	5.44
362.561	5.45
363.01	5.47
363.459	5.46
363.908	5.45
364.357	5.44
364.806	5.44
365.255	5.44
365.703	5.43
366.152	5.41
366.601	5.43
367.05	5.42
367.498	5.41
367.947	5.41
368.395	5.42
368.844	5.42
369.292	5.43
369.74	5.44
370.189	5.45
370.637	5.46
371.085	5.48
371.533	5.47
371.981	5.49
372.429	5.49
372.877	5.5
373.325	5.5
373.773	5.52
374.221	5.52
374.669	5.52
375.116	5.52
375.564	5.53
376.012	5.54
376.459	5.55
376.907	5.56
377.354	5.57
377.801	5.58
378.249	5.6
378.696	5.61
379.143	5.63
379.591	5.65
380.038	5.68
380.485	5.69
380.932	5.71
381.379	5.72
381.826	5.73
382.273	5.76
382.72	5.79
383.166	5.82
383.613	5.84
384.06	5.86
384.506	5.88
384.953	5.89
385.4	5.92
385.846	5.94
386.292	5.98
386.739	6.01
387.185	6.06
387.631	6.08
388.078	6.1
388.524	6.12
388.97	6.15
389.416	6.17
389.862	6.2
390.308	6.23
390.754	6.27
391.2	6.29
391.645	6.32
392.091	6.34
392.537	6.37
392.983	6.41
393.428	6.45
393.874	6.49
394.319	6.53
394.765	6.55
395.21	6.57
395.655	6.6
396.101	6.64
396.546	6.66
396.991	6.68
397.436	6.69
397.881	6.72
398.326	6.76
398.771	6.79
399.216	6.84
399.661	6.89
400.106	6.94
400.551	6.97
400.995	6.98
401.44	6.99
401.885	7.01
402.329	7.05
402.774	7.05
403.218	7.05
403.663	7.06
404.107	7.06
404.551	7.08
404.995	7.08
405.44	7.09
405.884	7.11
406.328	7.15
406.772	7.17
407.216	7.2
407.66	7.24
408.104	7.25
408.547	7.28
408.991	7.29
409.435	7.3
409.879	7.31
410.322	7.34
410.766	7.35
411.209	7.37
411.653	7.38
412.096	7.37
412.54	7.36
412.983	7.37
413.426	7.37
413.869	7.38
414.312	7.41
414.756	7.42
415.199	7.43
415.642	7.46
416.085	7.48
416.527	7.5
416.97	7.53
417.413	7.55
417.856	7.55
418.298	7.55
418.741	7.55
419.184	7.55
419.626	7.54
420.069	7.54
420.511	7.52
420.953	7.5
421.396	7.5
421.838	7.5
422.28	7.51
422.722	7.53
423.164	7.53
423.606	7.55
424.048	7.54
424.49	7.57
424.932	7.57
425.374	7.59
425.816	7.59
426.258	7.58
426.699	7.54
427.141	7.5
427.582	7.49
428.024	7.49
428.465	7.48
428.907	7.51
429.348	7.5
429.789	7.5
430.231	7.46
430.672	7.46
431.113	7.47
431.554	7.5
431.995	7.53
432.436	7.53
432.877	7.52
433.318	7.51
433.759	7.49
434.2	7.47
434.64	7.48
435.081	7.49
435.522	7.51
435.962	7.52
436.403	7.54
436.843	7.53
437.284	7.55
437.724	7.57
438.164	7.57
438.604	7.59
439.045	7.6
439.485	7.61
439.925	7.63
440.365	7.63
440.805	7.61
441.245	7.59
441.685	7.63
442.125	7.62
442.564	7.65
443.004	7.69
443.444	7.71
443.883	7.74
444.323	7.75
444.762	7.78
445.202	7.82
445.641	7.86
446.081	7.91
446.52	7.91
446.959	7.94
447.398	7.98
447.837	8.01
448.276	8.03
448.716	8.05
449.154	8.11
449.593	8.14
450.032	8.16
450.471	8.2
450.91	8.2
451.349	8.23
451.787	8.24
452.226	8.24
452.664	8.23
453.103	8.22
453.541	8.21
453.98	8.19
454.418	8.18
454.856	8.16
455.295	8.12
455.733	8.12
456.171	8.11
456.609	8.1
457.047	8.09
457.485	8.08
457.923	8.07
458.361	8.06
458.798	8.08
459.236	8.08
459.674	8.08
460.111	8.11
460.549	8.1
460.987	8.1
461.424	8.09
461.862	8.08
462.299	8.06
462.736	8.06
463.173	8.06
463.611	8.03
464.048	8.01
464.485	8.01
464.922	7.98
465.359	7.99
465.796	7.96
466.233	7.98
466.67	7.99
467.106	7.98
467.543	8
467.98	8.01
468.416	8.03
468.853	8.04
469.29	8.06
469.726	8.08
470.162	8.07
470.599	8.09
471.035	8.09
471.471	8.08
471.907	8.11
472.344	8.1
472.78	8.11
473.216	8.1
473.652	8.1
474.088	8.12
474.523	8.11
474.959	8.1
475.395	8.1
475.831	8.1
476.266	8.11
476.702	8.1
477.138	8.09
477.573	8.09
478.008	8.09
478.444	8.09
478.879	8.08
479.314	8.08
479.75	8.08
480.185	8.08
480.62	8.09
481.055	8.1
481.49	8.11
481.925	8.1
482.36	8.09
482.795	8.08
483.229	8.09
483.664	8.09
484.099	8.1
484.534	8.11
484.968	8.11
485.403	8.12
485.837	8.12
486.271	8.11
486.706	8.11
487.14	8.13
487.574	8.14
488.009	8.16
488.443	8.18
488.877	8.2
489.311	8.21
489.745	8.24
490.179	8.26
490.613	8.29
491.046	8.33
491.48	8.38
491.914	8.43
492.348	8.47
492.781	8.51
493.215	8.54
493.648	8.6
494.082	8.67
494.515	8.73
494.948	8.78
495.382	8.85
495.815	8.92
496.248	8.99
496.681	9.06
497.114	9.14
497.547	9.22
497.98	9.32
498.413	9.41
498.846	9.5
499.279	9.61
499.711	9.72
500.144	9.85
500.577	9.96
501.009	10.08
501.442	10.23
501.874	10.37
502.306	10.52
502.739	10.66
503.171	10.82
503.603	11
504.036	11.17
504.468	11.35
504.9	11.54
505.332	11.73
505.764	11.95
506.196	12.16
506.627	12.39
507.059	12.61
507.491	12.87
507.923	13.1
508.354	13.34
508.786	13.58
509.217	13.83
509.649	14.11
510.08	14.4
510.512	14.66
510.943	14.95
511.374	15.23
511.805	15.53
512.237	15.82
512.668	16.13
513.099	16.45
513.53	16.78
513.961	17.12
514.391	17.44
514.822	17.75
515.253	18.08
515.684	18.4
516.114	18.75
516.545	19.08
516.975	19.44
517.406	19.78
517.836	20.11
518.267	20.46
518.697	20.78
519.127	21.12
519.558	21.47
519.988	21.81
520.418	22.15
520.848	22.46
521.278	22.8
521.708	23.03
522.138	23.31
522.567	23.63
522.997	23.92
523.427	24.21
523.857	24.49
524.286	24.76
524.716	25.02
525.145	25.29
525.575	25.53
526.004	25.78
526.433	26.09
526.863	26.36
527.292	26.56
527.721	26.77
528.15	26.97
528.579	27.17
529.008	27.36
529.437	27.55
529.866	27.71
530.295	27.87
530.724	28.06
531.152	28.21
531.581	28.36
532.01	28.49
532.438	28.62
532.867	28.75
533.295	28.88
533.723	29.01
534.152	29.1
534.58	29.21
535.008	29.29
535.436	29.35
535.865	29.42
536.293	29.48
536.721	29.56
537.149	29.63
537.576	29.71
538.004	29.74
538.432	29.78
538.86	29.83
539.287	29.86
539.715	29.93
540.143	29.96
540.57	30.02
540.998	30.07
541.425	30.12
541.852	30.17
542.28	30.19
542.707	30.24
543.134	30.28
543.561	30.31
543.988	30.36
544.415	30.36
544.842	30.41
545.269	30.43
545.696	30.46
546.123	30.48
546.549	30.51
546.976	30.57
547.403	30.6
547.829	30.63
548.256	30.67
548.682	30.67
549.108	30.72
549.535	30.75
549.961	30.76
550.387	30.76
550.813	30.76
551.24	30.75
551.666	30.76
552.092	30.74
552.518	30.72
552.943	30.72
553.369	30.73
553.795	30.7
554.221	30.68
554.646	30.66
555.072	30.61
555.498	30.61
555.923	30.56
556.349	30.49
556.774	30.45
557.199	30.4
557.625	30.31
558.05	30.24
558.475	30.15
558.9	30.06
559.325	29.97
559.75	29.88
560.175	29.76
560.6	29.65
561.025	29.55
561.449	29.43
561.874	29.33
562.299	29.22
562.723	29.09
563.148	28.96
563.572	28.84
563.997	28.69
564.421	28.54
564.846	28.39
565.27	28.24
565.694	28.07
566.118	27.89
566.542	27.71
566.966	27.53
567.39	27.34
567.814	27.17
568.238	26.96
568.662	26.78
569.086	26.61
569.509	26.42
569.933	26.22
570.357	26.01
570.78	25.83
571.204	25.63
571.627	25.44
572.05	25.28
572.474	25.1
572.897	24.93
573.32	24.76
573.743	24.61
574.166	24.45
574.589	24.31
575.012	24.2
575.435	24.04
575.858	23.93
576.281	23.8
576.704	23.68
577.126	23.55
577.549	23.45
577.972	23.35
578.394	23.21
578.817	23.09
579.239	22.98
579.661	22.89
580.084	22.8
580.506	22.71
580.928	22.62
581.35	22.5
581.772	22.44
582.194	22.34
582.616	22.24
583.038	22.18
583.46	22.13
583.882	22.05
584.303	21.96
584.725	21.89
585.147	21.8
585.568	21.74
585.99	21.68
586.411	21.6
586.833	21.54
587.254	21.46
587.675	21.39
588.096	21.32
588.518	21.25
588.939	21.2
589.36	21.12
589.781	21.07
590.202	21.01
590.623	20.95
591.043	20.89
591.464	20.82
591.885	20.8
592.305	20.75
592.726	20.69
593.147	20.65
593.567	20.61
593.987	20.59
594.408	20.53
594.828	20.49
595.248	20.45
595.669	20.42
596.089	20.4
596.509	20.34
596.929	20.28
597.349	20.23
597.769	20.19
598.189	20.15
598.608	20.08
599.028	20.03
599.448	19.98
599.867	19.93
600.287	19.86
600.706	19.8
601.126	19.74
601.545	19.69
601.965	19.64
602.384	19.58
602.803	19.51
603.222	19.45
603.641	19.4
604.061	19.34
604.48	19.27
604.898	19.2
605.317	19.13
605.736	19.06
606.155	18.97
606.574	18.89
606.992	18.8
607.411	18.73
607.829	18.6
608.248	18.5
608.666	18.39
609.085	18.31
609.503	18.22
609.921	18.12
610.339	18.04
610.758	17.97
611.176	17.89
611.594	17.8
612.012	17.69
612.43	17.64
612.847	17.56
613.265	17.49
613.683	17.41
614.101	17.33
614.518	17.25
614.936	17.17
615.353	17.08
615.771	17
616.188	16.94
616.606	16.87
617.023	16.8
617.44	16.75
617.857	16.69
618.274	16.63
618.691	16.58
619.108	16.52
619.525	16.47
619.942	16.43
620.359	16.39
620.776	16.34
621.192	16.32
621.609	16.28
622.026	16.23
622.442	16.21
622.859	16.18
623.275	16.17
623.691	16.15
624.108	16.14
624.524	16.12
624.94	16.11
625.356	16.1
625.772	16.08
626.188	16.09
626.604	16.08
627.02	16.05
627.436	16.02
627.852	15.99
628.268	15.98
628.683	15.95
629.099	15.93
629.514	15.9
629.93	15.86
630.345	15.81
630.761	15.74
631.176	15.7
631.591	15.65
632.007	15.6
632.422	15.55
632.837	15.48
633.252	15.41
633.667	15.31
634.082	15.22
634.497	15.12
634.911	15.02
635.326	14.92
635.741	14.79
636.155	14.66
636.57	14.53
636.984	14.36
637.399	14.19
637.813	14.04
638.228	13.88
638.642	13.74
639.056	13.58
639.47	13.43
639.884	13.27
640.298	13.12
640.712	12.96
641.126	12.81
641.54	12.67
641.954	12.55
642.368	12.38
642.781	12.25
643.195	12.09
643.609	11.94
644.022	11.79
644.436	11.66
644.849	11.53
645.262	11.42
645.676	11.29
646.089	11.19
646.502	11.08
646.915	10.99
647.328	10.91
647.741	10.82
648.154	10.77
648.567	10.72
648.98	10.66
649.393	10.61
649.805	10.54
650.218	10.5
650.631	10.44
651.043	10.39
651.456	10.36
651.868	10.33
652.28	10.3
652.693	10.25
653.105	10.21
653.517	10.17
653.929	10.13
654.341	10.09
654.753	10.03
655.165	9.98
655.577	9.91
655.989	9.83
656.401	9.75
656.813	9.66
657.224	9.58
657.636	9.49
658.047	9.4
658.459	9.31
658.87	9.24
659.282	9.16
659.693	9.07
660.104	9
660.515	8.92
660.926	8.84
661.338	8.76
661.749	8.68
662.159	8.58
662.57	8.51
662.981	8.44
663.392	8.36
663.803	8.29
664.213	8.23
664.624	8.18
665.035	8.12
665.445	8.09
665.855	8.04
666.266	8.01
666.676	7.98
667.086	7.94
667.497	7.91
667.907	7.87
668.317	7.84
668.727	7.82
669.137	7.79
669.547	7.78
669.956	7.76
670.366	7.76
670.776	7.76
671.186	7.77
671.595	7.78
672.005	7.79
672.414	7.81
672.824	7.84
673.233	7.87
673.642	7.87
674.052	7.89
674.461	7.92
674.87	7.95
675.279	7.97
675.688	8
676.097	8.03
676.506	8.08
676.915	8.12
677.323	8.16
677.732	8.21
678.141	8.27
678.549	8.34
678.958	8.42
679.366	8.49
679.775	8.57
680.183	8.65
680.592	8.73
681	8.83
681.408	8.95
681.816	9.07
682.224	9.21
682.632	9.38
683.04	9.52
683.448	9.7
683.856	9.91
684.264	10.14
684.671	10.4
685.079	10.67
685.487	10.98
685.894	11.29
686.302	11.63
686.709	11.98
687.116	12.37
687.524	12.79
687.931	13.24
688.338	13.72
688.745	14.22
689.152	14.74
689.559	15.29
689.966	15.85
690.373	16.46
690.78	17.09
691.187	17.75
691.593	18.42
692	19.08
692.407	19.79
692.813	20.48
693.22	21.17
693.626	21.88
694.032	22.59
694.439	23.35
694.845	24.03
695.251	24.75
695.657	25.46
696.063	26.2
696.469	26.93
696.875	27.6
697.281	28.29
697.687	28.99
698.093	29.66
698.498	30.36
698.904	31
699.31	31.67
699.715	32.31
700.12	32.93
700.526	33.55
700.931	34.12
701.337	34.73
701.742	35.32
702.147	35.92
702.552	36.49
702.957	37.03
703.362	37.59
703.767	38.11
704.172	38.65
704.577	39.17
704.981	39.64
705.386	40.15
705.791	40.63
706.195	41.08
706.6	41.54
707.004	41.99
707.408	42.43
707.813	42.85
708.217	43.3
708.621	43.72
709.025	44.14
709.43	44.56
709.834	44.98
710.237	45.37
710.641	45.79
711.045	46.17
711.449	46.55
711.853	46.89
712.256	47.28
712.66	47.61
713.064	47.94
713.467	48.29
713.87	48.63
714.274	48.93
714.677	49.26
715.08	49.54
715.484	49.83
715.887	50.14
716.29	50.47
716.693	50.77
717.096	51.08
717.499	51.37
717.901	51.62
718.304	51.91
718.707	52.19
719.109	52.48
719.512	52.77
719.915	53.06
720.317	53.32
720.719	53.54
721.122	53.74
721.524	53.98
721.926	54.21
722.328	54.46
722.731	54.66
723.133	54.86
723.535	55.02
723.937	55.2
724.338	55.36
724.74	55.53
725.142	55.6
725.544	55.78
725.945	55.91
726.347	56.08
726.748	56.22
727.15	56.36
727.551	56.49
727.952	56.68
728.354	56.83
728.755	56.97
729.156	57.13
729.557	57.39
729.958	57.52
730.359	57.64
730.76	57.72
731.161	57.81
731.562	57.93
731.962	58.04
732.363	58.08
732.763	58.18
733.164	58.27
733.564	58.32
733.965	58.36
734.365	58.4
734.766	58.47
735.166	58.52
735.566	58.57
735.966	58.63
736.366	58.65
736.766	58.71
737.166	58.74
737.566	58.77
737.966	58.81
738.365	58.87
738.765	58.93
739.165	58.94
739.564	59
739.964	59.03
740.363	59.05
740.763	59.07
741.162	59.08
741.561	59.14
741.96	59.19
742.36	59.25
742.759	59.25
743.158	59.23
743.557	59.29
743.955	59.39
744.354	59.46
744.753	59.53
745.152	59.6
745.55	59.64
745.949	59.65
746.348	59.68
746.746	59.68
747.144	59.76
747.543	59.88
747.941	59.96
748.339	59.95
748.737	60
749.136	60.04
749.534	60.09
749.932	60.13
750.33	60.16
750.727	60.18
751.125	60.21
751.523	60.2
751.921	60.19
752.318	60.14
752.716	60.12
753.113	60.09
753.511	60.05
753.908	60.03
754.305	59.97
754.703	59.94
755.1	59.91
755.497	59.9
755.894	59.91
756.291	59.89
756.688	59.88
757.085	59.88
757.482	59.87
757.878	59.86
758.275	59.86
758.672	59.87
759.068	59.9
759.465	59.88
759.861	59.84
760.258	59.77
760.654	59.72
761.05	59.7
761.447	59.67
761.843	59.65
762.239	59.62
762.635	59.6
763.031	59.63
763.427	59.58
763.822	59.56
764.218	59.55
764.614	59.56
765.01	59.59
765.405	59.58
765.801	59.58
766.196	59.57
766.592	59.57
766.987	59.56
767.382	59.53
767.778	59.53
768.173	59.53
768.568	59.52
768.963	59.49
769.358	59.47
769.753	59.49
770.148	59.48
770.542	59.46
770.937	59.41
771.332	59.42
771.726	59.41
772.121	59.37
772.515	59.39
772.91	59.4
773.304	59.43
773.699	59.45
774.093	59.42
774.487	59.41
774.881	59.42
775.275	59.47
775.669	59.45
776.063	59.38
776.457	59.39
776.851	59.34
777.245	59.34
777.638	59.31
778.032	59.27
778.425	59.27
778.819	59.27
779.212	59.26
779.606	59.24
