Data from C_2_dec_ct_2n_074_Splice17_01.txt Node
Date: Sat Feb 29 14:22:01 EST 2020
User: sa697716
Spectrometer: FLMS03696
Trigger mode: 0
Integration Time (sec): 3.180400E-1
Scans to average: 20
Electric dark correction enabled: true
Nonlinearity correction enabled: true
Boxcar width: 5
XAxis mode: Wavelengths
Number of Pixels in Spectrum: 2048
>>>>>Begin Spectral Data<<<<<
187.83	47.78
188.298	29.18
188.766	43.61
189.233	30.86
189.701	25.56
190.169	34.98
190.636	36.55
191.104	15.94
191.571	-85.59
192.039	158.28
192.506	284
192.974	11113.17
193.441	-708.18
193.908	134.52
194.375	100.88
194.842	35.98
195.31	46.21
195.777	60.18
196.244	11.47
196.711	18.95
197.177	16.89
197.644	17.92
198.111	17.87
198.578	18.12
199.045	18.73
199.511	19.44
199.978	20.17
200.445	20.1
200.911	20.38
201.378	21.12
201.844	21.04
202.31	22.02
202.777	22.47
203.243	23.18
203.709	23.58
204.176	23.59
204.642	23.46
205.108	23.06
205.574	23.39
206.04	23.51
206.506	23.16
206.972	23.22
207.438	22.44
207.903	22.4
208.369	21.61
208.835	21.54
209.301	21.64
209.766	21.59
210.232	21.44
210.697	21.26
211.163	21.01
211.628	20.61
212.094	20.65
212.559	20.46
213.024	20.16
213.49	19.78
213.955	19.5
214.42	19.17
214.885	18.54
215.35	18.11
215.815	17.27
216.28	16.48
216.745	16.02
217.21	15.19
217.675	14.43
218.14	13.61
218.604	12.93
219.069	12.34
219.534	11.69
219.998	11.38
220.463	11.05
220.927	10.74
221.392	10.39
221.856	10.05
222.32	9.82
222.785	9.6
223.249	9.39
223.713	9.24
224.177	9.05
224.642	8.97
225.106	8.8
225.57	8.62
226.034	8.5
226.497	8.39
226.961	8.26
227.425	8.08
227.889	7.96
228.353	7.84
228.816	7.75
229.28	7.64
229.744	7.52
230.207	7.42
230.671	7.34
231.134	7.26
231.597	7.15
232.061	7.07
232.524	7.02
232.987	6.95
233.45	6.88
233.914	6.79
234.377	6.72
234.84	6.65
235.303	6.58
235.766	6.52
236.229	6.44
236.691	6.39
237.154	6.34
237.617	6.28
238.08	6.22
238.542	6.17
239.005	6.12
239.468	6.06
239.93	6.03
240.393	5.96
240.855	5.9
241.317	5.86
241.78	5.81
242.242	5.75
242.704	5.68
243.166	5.64
243.629	5.59
244.091	5.56
244.553	5.52
245.015	5.47
245.477	5.43
245.939	5.39
246.4	5.35
246.862	5.33
247.324	5.31
247.786	5.29
248.247	5.26
248.709	5.22
249.17	5.18
249.632	5.15
250.093	5.11
250.555	5.08
251.016	5.06
251.477	5.03
251.939	5
252.4	4.97
252.861	4.95
253.322	4.92
253.783	4.91
254.244	4.89
254.705	4.87
255.166	4.86
255.627	4.85
256.088	4.82
256.549	4.8
257.009	4.78
257.47	4.77
257.931	4.74
258.391	4.72
258.852	4.7
259.312	4.67
259.773	4.65
260.233	4.62
260.694	4.6
261.154	4.58
261.614	4.56
262.074	4.54
262.534	4.51
262.994	4.5
263.455	4.49
263.915	4.47
264.374	4.46
264.834	4.45
265.294	4.43
265.754	4.41
266.214	4.4
266.673	4.4
267.133	4.38
267.593	4.38
268.052	4.35
268.512	4.34
268.971	4.32
269.431	4.31
269.89	4.3
270.349	4.29
270.809	4.28
271.268	4.27
271.727	4.26
272.186	4.25
272.645	4.24
273.104	4.23
273.563	4.22
274.022	4.22
274.481	4.2
274.94	4.19
275.399	4.18
275.857	4.17
276.316	4.16
276.775	4.14
277.233	4.11
277.692	4.1
278.15	4.08
278.609	4.06
279.067	4.05
279.525	4.03
279.984	4.02
280.442	4.02
280.9	4
281.358	3.99
281.816	3.98
282.274	3.98
282.732	3.97
283.19	3.96
283.648	3.95
284.106	3.94
284.564	3.92
285.021	3.91
285.479	3.9
285.937	3.89
286.394	3.87
286.852	3.87
287.309	3.86
287.767	3.86
288.224	3.86
288.682	3.85
289.139	3.85
289.596	3.84
290.053	3.83
290.511	3.82
290.968	3.81
291.425	3.81
291.882	3.79
292.339	3.78
292.796	3.76
293.252	3.75
293.709	3.73
294.166	3.72
294.623	3.72
295.079	3.71
295.536	3.7
295.992	3.68
296.449	3.67
296.905	3.66
297.362	3.64
297.818	3.64
298.274	3.63
298.731	3.62
299.187	3.61
299.643	3.59
300.099	3.58
300.555	3.57
301.011	3.56
301.467	3.56
301.923	3.56
302.379	3.55
302.835	3.55
303.291	3.54
303.746	3.53
304.202	3.51
304.658	3.51
305.113	3.5
305.569	3.5
306.024	3.5
306.479	3.49
306.935	3.48
307.39	3.48
307.845	3.47
308.301	3.47
308.756	3.47
309.211	3.47
309.666	3.47
310.121	3.46
310.576	3.45
311.031	3.44
311.486	3.44
311.94	3.44
312.395	3.43
312.85	3.42
313.305	3.42
313.759	3.41
314.214	3.41
314.668	3.4
315.123	3.41
315.577	3.42
316.032	3.42
316.486	3.41
316.94	3.41
317.394	3.4
317.849	3.4
318.303	3.4
318.757	3.39
319.211	3.36
319.665	3.36
320.119	3.35
320.572	3.34
321.026	3.34
321.48	3.33
321.934	3.33
322.387	3.33
322.841	3.32
323.295	3.31
323.748	3.31
324.202	3.31
324.655	3.3
325.108	3.29
325.562	3.29
326.015	3.28
326.468	3.27
326.921	3.25
327.374	3.25
327.827	3.24
328.28	3.23
328.733	3.21
329.186	3.2
329.639	3.2
330.092	3.2
330.545	3.18
330.997	3.18
331.45	3.18
331.903	3.17
332.355	3.18
332.808	3.18
333.26	3.18
333.713	3.19
334.165	3.18
334.617	3.19
335.069	3.19
335.522	3.2
335.974	3.19
336.426	3.19
336.878	3.19
337.33	3.19
337.782	3.18
338.234	3.18
338.686	3.18
339.137	3.19
339.589	3.18
340.041	3.17
340.493	3.16
340.944	3.15
341.396	3.16
341.847	3.14
342.299	3.13
342.75	3.13
343.201	3.12
343.653	3.1
344.104	3.09
344.555	3.09
345.006	3.08
345.457	3.09
345.908	3.08
346.359	3.08
346.81	3.08
347.261	3.07
347.712	3.07
348.163	3.07
348.613	3.06
349.064	3.05
349.515	3.03
349.965	3.02
350.416	3.01
350.866	3
351.317	2.99
351.767	2.98
352.217	2.98
352.668	2.97
353.118	2.96
353.568	2.98
354.018	2.99
354.468	2.98
354.918	2.99
355.368	2.99
355.818	2.99
356.268	2.99
356.718	2.99
357.168	2.99
357.617	2.98
358.067	2.98
358.517	2.97
358.966	2.96
359.416	2.97
359.865	2.97
360.315	2.97
360.764	2.97
361.213	2.96
361.663	2.97
362.112	2.98
362.561	2.98
363.01	2.97
363.459	2.96
363.908	2.96
364.357	2.96
364.806	2.96
365.255	2.96
365.703	2.95
366.152	2.95
366.601	2.94
367.05	2.93
367.498	2.93
367.947	2.93
368.395	2.94
368.844	2.94
369.292	2.93
369.74	2.93
370.189	2.93
370.637	2.94
371.085	2.95
371.533	2.95
371.981	2.95
372.429	2.94
372.877	2.95
373.325	2.94
373.773	2.94
374.221	2.93
374.669	2.93
375.116	2.92
375.564	2.9
376.012	2.89
376.459	2.88
376.907	2.88
377.354	2.88
377.801	2.88
378.249	2.88
378.696	2.88
379.143	2.88
379.591	2.88
380.038	2.88
380.485	2.9
380.932	2.9
381.379	2.9
381.826	2.9
382.273	2.91
382.72	2.91
383.166	2.92
383.613	2.92
384.06	2.93
384.506	2.95
384.953	2.95
385.4	2.95
385.846	2.95
386.292	2.98
386.739	2.99
387.185	3.02
387.631	3.03
388.078	3.05
388.524	3.05
388.97	3.06
389.416	3.06
389.862	3.08
390.308	3.1
390.754	3.12
391.2	3.15
391.645	3.17
392.091	3.17
392.537	3.19
392.983	3.23
393.428	3.27
393.874	3.32
394.319	3.38
394.765	3.43
395.21	3.49
395.655	3.55
396.101	3.6
396.546	3.66
396.991	3.73
397.436	3.8
397.881	3.87
398.326	3.96
398.771	4.02
399.216	4.08
399.661	4.15
400.106	4.22
400.551	4.25
400.995	4.31
401.44	4.34
401.885	4.38
402.329	4.43
402.774	4.44
403.218	4.48
403.663	4.53
404.107	4.58
404.551	4.64
404.995	4.68
405.44	4.75
405.884	4.79
406.328	4.85
406.772	4.93
407.216	5.01
407.66	5.09
408.104	5.17
408.547	5.23
408.991	5.27
409.435	5.32
409.879	5.39
410.322	5.46
410.766	5.54
411.209	5.61
411.653	5.67
412.096	5.71
412.54	5.77
412.983	5.81
413.426	5.87
413.869	5.95
414.312	6.05
414.756	6.12
415.199	6.17
415.642	6.25
416.085	6.31
416.527	6.38
416.97	6.45
417.413	6.47
417.856	6.48
418.298	6.47
418.741	6.49
419.184	6.5
419.626	6.5
420.069	6.54
420.511	6.55
420.953	6.54
421.396	6.57
421.838	6.6
422.28	6.68
422.722	6.75
423.164	6.82
423.606	6.87
424.048	6.89
424.49	6.92
424.932	6.9
425.374	6.85
425.816	6.8
426.258	6.73
426.699	6.67
427.141	6.65
427.582	6.67
428.024	6.72
428.465	6.79
428.907	6.86
429.348	6.92
429.789	7
430.231	7.11
430.672	7.27
431.113	7.44
431.554	7.62
431.995	7.77
432.436	7.86
432.877	7.92
433.318	7.95
433.759	8.01
434.2	8.08
434.64	8.17
435.081	8.26
435.522	8.34
435.962	8.43
436.403	8.51
436.843	8.56
437.284	8.62
437.724	8.71
438.164	8.81
438.604	8.91
439.045	9
439.485	9.07
439.925	9.16
440.365	9.21
440.805	9.25
441.245	9.25
441.685	9.29
442.125	9.34
442.564	9.42
443.004	9.47
443.444	9.53
443.883	9.61
444.323	9.69
444.762	9.78
445.202	9.89
445.641	10.01
446.081	10.15
446.52	10.25
446.959	10.37
447.398	10.46
447.837	10.54
448.276	10.56
448.716	10.6
449.154	10.66
449.593	10.7
450.032	10.7
450.471	10.72
450.91	10.71
451.349	10.72
451.787	10.71
452.226	10.68
452.664	10.68
453.103	10.7
453.541	10.7
453.98	10.67
454.418	10.62
454.856	10.57
455.295	10.53
455.733	10.51
456.171	10.48
456.609	10.47
457.047	10.47
457.485	10.45
457.923	10.45
458.361	10.45
458.798	10.47
459.236	10.5
459.674	10.52
460.111	10.55
460.549	10.53
460.987	10.55
461.424	10.57
461.862	10.58
462.299	10.6
462.736	10.62
463.173	10.66
463.611	10.69
464.048	10.76
464.485	10.83
464.922	10.89
465.359	11
465.796	11.04
466.233	11.1
466.67	11.18
467.106	11.28
467.543	11.4
467.98	11.5
468.416	11.61
468.853	11.69
469.29	11.78
469.726	11.88
470.162	11.96
470.599	12.08
471.035	12.16
471.471	12.21
471.907	12.25
472.344	12.28
472.78	12.3
473.216	12.34
473.652	12.38
474.088	12.42
474.523	12.45
474.959	12.47
475.395	12.49
475.831	12.5
476.266	12.52
476.702	12.55
477.138	12.56
477.573	12.56
478.008	12.53
478.444	12.48
478.879	12.43
479.314	12.35
479.75	12.31
480.185	12.24
480.62	12.15
481.055	12.02
481.49	11.83
481.925	11.62
482.36	11.44
482.795	11.29
483.229	11.19
483.664	11.11
484.099	11.05
484.534	10.98
484.968	10.94
485.403	10.94
485.837	10.97
486.271	11.05
486.706	11.14
487.14	11.22
487.574	11.26
488.009	11.28
488.443	11.3
488.877	11.33
489.311	11.35
489.745	11.38
490.179	11.41
490.613	11.44
491.046	11.48
491.48	11.53
491.914	11.6
492.348	11.69
492.781	11.76
493.215	11.83
493.648	11.89
494.082	11.96
494.515	12.02
494.948	12.09
495.382	12.15
495.815	12.23
496.248	12.29
496.681	12.33
497.114	12.39
497.547	12.46
497.98	12.56
498.413	12.68
498.846	12.79
499.279	12.92
499.711	13.03
500.144	13.16
500.577	13.31
501.009	13.51
501.442	13.72
501.874	13.94
502.306	14.17
502.739	14.37
503.171	14.58
503.603	14.79
504.036	15.02
504.468	15.27
504.9	15.55
505.332	15.8
505.764	16.06
506.196	16.32
506.627	16.59
507.059	16.88
507.491	17.18
507.923	17.49
508.354	17.81
508.786	18.1
509.217	18.39
509.649	18.66
510.08	18.97
510.512	19.25
510.943	19.58
511.374	19.88
511.805	20.15
512.237	20.37
512.668	20.59
513.099	20.84
513.53	21.09
513.961	21.36
514.391	21.67
514.822	21.99
515.253	22.36
515.684	22.71
516.114	23.13
516.545	23.57
516.975	24.1
517.406	24.65
517.836	25.18
518.267	25.69
518.697	26.21
519.127	26.72
519.558	27.22
519.988	27.7
520.418	28.15
520.848	28.57
521.278	28.99
521.708	29.24
522.138	29.49
522.567	29.73
522.997	30
523.427	30.31
523.857	30.6
524.286	30.93
524.716	31.24
525.145	31.56
525.575	31.86
526.004	32.18
526.433	32.62
526.863	33.04
527.292	33.45
527.721	33.78
528.15	33.99
528.579	34.18
529.008	34.32
529.437	34.45
529.866	34.55
530.295	34.69
530.724	34.85
531.152	34.97
531.581	35.09
532.01	35.18
532.438	35.29
532.867	35.44
533.295	35.6
533.723	35.76
534.152	35.89
534.58	35.99
535.008	36.03
535.436	36
535.865	35.97
536.293	35.94
536.721	35.94
537.149	36
537.576	36.04
538.004	36.07
538.432	36.07
538.86	36.09
539.287	36.15
539.715	36.26
540.143	36.38
540.57	36.51
540.998	36.66
541.425	36.8
541.852	36.91
542.28	37.04
542.707	37.16
543.134	37.25
543.561	37.34
543.988	37.43
544.415	37.51
544.842	37.61
545.269	37.73
545.696	37.81
546.123	37.9
546.549	37.99
546.976	38.07
547.403	38.15
547.829	38.25
548.256	38.33
548.682	38.36
549.108	38.45
549.535	38.47
549.961	38.5
550.387	38.54
550.813	38.56
551.24	38.57
551.666	38.58
552.092	38.56
552.518	38.51
552.943	38.48
553.369	38.44
553.795	38.37
554.221	38.25
554.646	38.09
555.072	37.94
555.498	37.78
555.923	37.63
556.349	37.49
556.774	37.38
557.199	37.28
557.625	37.16
558.05	37.03
558.475	36.89
558.9	36.8
559.325	36.7
559.75	36.6
560.175	36.49
560.6	36.32
561.025	36.13
561.449	35.89
561.874	35.67
562.299	35.45
562.723	35.24
563.148	35.03
563.572	34.82
563.997	34.59
564.421	34.33
564.846	34.04
565.27	33.79
565.694	33.53
566.118	33.27
566.542	33
566.966	32.71
567.39	32.42
567.814	32.16
568.238	31.91
568.662	31.69
569.086	31.46
569.509	31.28
569.933	31.06
570.357	30.85
570.78	30.67
571.204	30.48
571.627	30.3
572.05	30.13
572.474	29.92
572.897	29.71
573.32	29.5
573.743	29.29
574.166	29.07
574.589	28.89
575.012	28.74
575.435	28.58
575.858	28.46
576.281	28.32
576.704	28.2
577.126	28.09
577.549	28
577.972	27.91
578.394	27.84
578.817	27.77
579.239	27.7
579.661	27.62
580.084	27.54
580.506	27.45
580.928	27.35
581.35	27.25
581.772	27.14
582.194	27.02
582.616	26.89
583.038	26.77
583.46	26.67
583.882	26.5
584.303	26.31
584.725	26.08
585.147	25.82
585.568	25.6
585.99	25.43
586.411	25.28
586.833	25.17
587.254	25.03
587.675	24.91
588.096	24.78
588.518	24.69
588.939	24.64
589.36	24.63
589.781	24.65
590.202	24.65
590.623	24.59
591.043	24.53
591.464	24.43
591.885	24.36
592.305	24.31
592.726	24.21
593.147	24.16
593.567	24.08
593.987	24.01
594.408	23.94
594.828	23.86
595.248	23.8
595.669	23.72
596.089	23.63
596.509	23.53
596.929	23.42
597.349	23.29
597.769	23.17
598.189	23.07
598.608	22.97
599.028	22.89
599.448	22.82
599.867	22.72
600.287	22.64
600.706	22.57
601.126	22.49
601.545	22.4
601.965	22.35
602.384	22.29
602.803	22.19
603.222	22.08
603.641	21.96
604.061	21.82
604.48	21.7
604.898	21.57
605.317	21.43
605.736	21.29
606.155	21.14
606.574	20.99
606.992	20.83
607.411	20.69
607.829	20.53
608.248	20.4
608.666	20.28
609.085	20.13
609.503	19.99
609.921	19.83
610.339	19.71
610.758	19.6
611.176	19.46
611.594	19.31
612.012	19.16
612.43	19.05
612.847	18.9
613.265	18.76
613.683	18.65
614.101	18.53
614.518	18.44
614.936	18.33
615.353	18.23
615.771	18.14
616.188	18.08
616.606	18
617.023	17.94
617.44	17.87
617.857	17.79
618.274	17.71
618.691	17.64
619.108	17.56
619.525	17.48
619.942	17.37
620.359	17.28
620.776	17.18
621.192	17.09
621.609	17
622.026	16.91
622.442	16.85
622.859	16.78
623.275	16.71
623.691	16.65
624.108	16.59
624.524	16.54
624.94	16.49
625.356	16.45
625.772	16.41
626.188	16.38
626.604	16.33
627.02	16.29
627.436	16.25
627.852	16.21
628.268	16.19
628.683	16.15
629.099	16.14
629.514	16.12
629.93	16.08
630.345	16.05
630.761	16.01
631.176	15.99
631.591	15.94
632.007	15.88
632.422	15.84
632.837	15.78
633.252	15.74
633.667	15.65
634.082	15.59
634.497	15.52
634.911	15.42
635.326	15.33
635.741	15.21
636.155	15.11
636.57	15.01
636.984	14.85
637.399	14.72
637.813	14.55
638.228	14.4
638.642	14.25
639.056	14.12
639.47	13.98
639.884	13.82
640.298	13.68
640.712	13.53
641.126	13.38
641.54	13.26
641.954	13.13
642.368	12.99
642.781	12.85
643.195	12.69
643.609	12.54
644.022	12.42
644.436	12.29
644.849	12.17
645.262	12.05
645.676	11.9
646.089	11.79
646.502	11.66
646.915	11.57
647.328	11.49
647.741	11.4
648.154	11.34
648.567	11.26
648.98	11.19
649.393	11.13
649.805	11.07
650.218	11.03
650.631	10.97
651.043	10.91
651.456	10.81
651.868	10.7
652.28	10.58
652.693	10.44
653.105	10.34
653.517	10.23
653.929	10.15
654.341	10.08
654.753	9.99
655.165	9.91
655.577	9.85
655.989	9.81
656.401	9.77
656.813	9.75
657.224	9.72
657.636	9.68
658.047	9.62
658.459	9.53
658.87	9.44
659.282	9.37
659.693	9.27
660.104	9.18
660.515	9.06
660.926	8.98
661.338	8.89
661.749	8.8
662.159	8.69
662.57	8.61
662.981	8.53
663.392	8.43
663.803	8.34
664.213	8.27
664.624	8.2
665.035	8.13
665.445	8.06
665.855	7.98
666.266	7.92
666.676	7.86
667.086	7.79
667.497	7.73
667.907	7.68
668.317	7.64
668.727	7.58
669.137	7.54
669.547	7.51
669.956	7.47
670.366	7.46
670.776	7.42
671.186	7.4
671.595	7.4
672.005	7.39
672.414	7.38
672.824	7.38
673.233	7.39
673.642	7.39
674.052	7.38
674.461	7.38
674.87	7.38
675.279	7.4
675.688	7.41
676.097	7.42
676.506	7.43
676.915	7.46
677.323	7.48
677.732	7.5
678.141	7.53
678.549	7.59
678.958	7.63
679.366	7.67
679.775	7.72
680.183	7.77
680.592	7.84
681	7.92
681.408	8
681.816	8.08
682.224	8.15
682.632	8.21
683.04	8.25
683.448	8.33
683.856	8.43
684.264	8.56
684.671	8.71
685.079	8.87
685.487	9.07
685.894	9.29
686.302	9.53
686.709	9.83
687.116	10.19
687.524	10.58
687.931	10.99
688.338	11.43
688.745	11.89
689.152	12.35
689.559	12.83
689.966	13.32
690.373	13.84
690.78	14.36
691.187	14.89
691.593	15.4
692	15.95
692.407	16.5
692.813	17.04
693.22	17.57
693.626	18.11
694.032	18.65
694.439	19.2
694.845	19.72
695.251	20.24
695.657	20.75
696.063	21.25
696.469	21.74
696.875	22.21
697.281	22.67
697.687	23.16
698.093	23.61
698.498	24.07
698.904	24.51
699.31	24.95
699.715	25.41
700.12	25.82
700.526	26.25
700.931	26.69
701.337	27.12
701.742	27.53
702.147	27.93
702.552	28.32
702.957	28.72
703.362	29.1
703.767	29.46
704.172	29.81
704.577	30.16
704.981	30.5
705.386	30.81
705.791	31.15
706.195	31.46
706.6	31.78
707.004	32.07
707.408	32.33
707.813	32.61
708.217	32.89
708.621	33.17
709.025	33.43
709.43	33.7
709.834	33.98
710.237	34.2
710.641	34.45
711.045	34.65
711.449	34.9
711.853	35.13
712.256	35.3
712.66	35.44
713.064	35.57
713.467	35.69
713.87	35.76
714.274	35.8
714.677	35.83
715.08	35.82
715.484	35.86
715.887	35.86
716.29	35.91
716.693	35.99
717.096	36.16
717.499	36.36
717.901	36.56
718.304	36.82
718.707	37.07
719.109	37.34
719.512	37.61
719.915	37.82
720.317	38.06
720.719	38.24
721.122	38.41
721.524	38.54
721.926	38.64
722.328	38.75
722.731	38.83
723.133	38.95
723.535	39.04
723.937	39.13
724.338	39.25
724.74	39.32
725.142	39.29
725.544	39.38
725.945	39.43
726.347	39.53
726.748	39.57
727.15	39.65
727.551	39.72
727.952	39.8
728.354	39.94
728.755	40.08
729.156	40.23
729.557	40.52
729.958	40.72
730.359	40.87
730.76	41
731.161	41.14
731.562	41.26
731.962	41.36
732.363	41.47
732.763	41.53
733.164	41.59
733.564	41.62
733.965	41.63
734.365	41.59
734.766	41.6
735.166	41.57
735.566	41.56
735.966	41.55
736.366	41.55
736.766	41.51
737.166	41.52
737.566	41.48
737.966	41.48
738.365	41.5
738.765	41.54
739.165	41.58
739.564	41.62
739.964	41.65
740.363	41.68
740.763	41.69
741.162	41.73
741.561	41.73
741.96	41.77
742.36	41.81
742.759	41.79
743.158	41.78
743.557	41.79
743.955	41.79
744.354	41.8
744.753	41.82
745.152	41.83
745.55	41.83
745.949	41.83
746.348	41.81
746.746	41.78
747.144	41.79
747.543	41.78
747.941	41.78
748.339	41.78
748.737	41.78
749.136	41.74
749.534	41.74
749.932	41.75
750.33	41.73
750.727	41.72
751.125	41.71
751.523	41.68
751.921	41.66
752.318	41.61
752.716	41.55
753.113	41.51
753.511	41.47
753.908	41.39
754.305	41.26
754.703	41.08
755.1	40.76
755.497	40.25
755.894	39.54
756.291	38.72
756.688	37.86
757.085	37.06
757.482	36.31
757.878	35.61
758.275	34.9
758.672	34.25
759.068	33.65
759.465	33.22
759.861	33.04
760.258	33.07
760.654	33.29
761.05	33.61
761.447	33.93
761.843	34.23
762.239	34.53
762.635	34.93
763.031	35.39
763.427	35.86
763.822	36.36
764.218	36.84
764.614	37.3
765.01	37.73
765.405	38.11
765.801	38.46
766.196	38.77
766.592	39.04
766.987	39.23
767.382	39.37
767.778	39.46
768.173	39.55
768.568	39.59
768.963	39.65
769.358	39.67
769.753	39.71
770.148	39.71
770.542	39.69
770.937	39.7
771.332	39.68
771.726	39.64
772.121	39.61
772.515	39.59
772.91	39.58
773.304	39.52
773.699	39.5
774.093	39.42
774.487	39.38
774.881	39.34
775.275	39.29
775.669	39.27
776.063	39.22
776.457	39.2
776.851	39.13
777.245	39.1
777.638	39.07
778.032	39.03
