Data from C_2_dec_oh_4n_046_Splice17_16.txt Node
Date: Sat Feb 29 14:36:04 EST 2020
User: sa697716
Spectrometer: FLMS03696
Trigger mode: 0
Integration Time (sec): 3.180400E-1
Scans to average: 20
Electric dark correction enabled: true
Nonlinearity correction enabled: true
Boxcar width: 5
XAxis mode: Wavelengths
Number of Pixels in Spectrum: 2048
>>>>>Begin Spectral Data<<<<<
187.83	81.82
188.298	72.34
188.766	69.19
189.233	53.47
189.701	53.71
190.169	58.91
190.636	41.58
191.104	-4.19
191.571	-168.76
192.039	17.27
192.506	677.01
192.974	11449.99
193.441	-353.98
193.908	109.07
194.375	32.28
194.842	-89.77
195.31	-20.27
195.777	-61.21
196.244	0.88
196.711	30.9
197.177	33.39
197.644	32.9
198.111	31.96
198.578	33.83
199.045	34.3
199.511	35.13
199.978	36.2
200.445	36.12
200.911	36.3
201.378	36.62
201.844	36.88
202.31	37.71
202.777	38.43
203.243	39.61
203.709	39.92
204.176	40.25
204.642	40.74
205.108	40.95
205.574	41.7
206.04	41.95
206.506	41.98
206.972	42.03
207.438	41.99
207.903	42.31
208.369	41.93
208.835	41.89
209.301	41.86
209.766	41.56
210.232	41.69
210.697	41.61
211.163	41.46
211.628	41.46
212.094	41.69
212.559	41.41
213.024	40.96
213.49	40.88
213.955	40.69
214.42	40.61
214.885	40.45
215.35	40.17
215.815	40.05
216.28	40.02
216.745	39.98
217.21	39.35
217.675	39.03
218.14	38.33
218.604	37.81
219.069	37.43
219.534	36.91
219.998	36.46
220.463	36.06
220.927	35.65
221.392	35.17
221.856	34.64
222.32	34.28
222.785	33.82
223.249	33.46
223.713	33.08
224.177	32.68
224.642	32.3
225.106	31.87
225.57	31.48
226.034	31.1
226.497	30.7
226.961	30.31
227.425	29.91
227.889	29.58
228.353	29.24
228.816	28.87
229.28	28.5
229.744	28.16
230.207	27.83
230.671	27.47
231.134	27.13
231.597	26.8
232.061	26.52
232.524	26.2
232.987	25.86
233.45	25.53
233.914	25.21
234.377	24.96
234.84	24.68
235.303	24.4
235.766	24.13
236.229	23.85
236.691	23.6
237.154	23.33
237.617	23.1
238.08	22.87
238.542	22.63
239.005	22.43
239.468	22.16
239.93	21.92
240.393	21.72
240.855	21.5
241.317	21.3
241.78	21.11
242.242	20.92
242.704	20.73
243.166	20.55
243.629	20.4
244.091	20.22
244.553	20.05
245.015	19.91
245.477	19.74
245.939	19.61
246.4	19.46
246.862	19.3
247.324	19.15
247.786	18.99
248.247	18.86
248.709	18.71
249.17	18.57
249.632	18.43
250.093	18.27
250.555	18.14
251.016	18.02
251.477	17.89
251.939	17.79
252.4	17.68
252.861	17.57
253.322	17.46
253.783	17.36
254.244	17.25
254.705	17.17
255.166	17.1
255.627	17.02
256.088	16.92
256.549	16.84
257.009	16.75
257.47	16.68
257.931	16.59
258.391	16.49
258.852	16.4
259.312	16.32
259.773	16.25
260.233	16.16
260.694	16.07
261.154	15.99
261.614	15.91
262.074	15.83
262.534	15.74
262.994	15.67
263.455	15.6
263.915	15.53
264.374	15.45
264.834	15.38
265.294	15.3
265.754	15.23
266.214	15.18
266.673	15.12
267.133	15.05
267.593	15
268.052	14.93
268.512	14.89
268.971	14.83
269.431	14.78
269.89	14.72
270.349	14.69
270.809	14.65
271.268	14.59
271.727	14.54
272.186	14.49
272.645	14.44
273.104	14.39
273.563	14.34
274.022	14.28
274.481	14.23
274.94	14.18
275.399	14.12
275.857	14.06
276.316	14
276.775	13.93
277.233	13.88
277.692	13.82
278.15	13.77
278.609	13.71
279.067	13.66
279.525	13.59
279.984	13.54
280.442	13.49
280.9	13.44
281.358	13.39
281.816	13.34
282.274	13.28
282.732	13.24
283.19	13.19
283.648	13.16
284.106	13.11
284.564	13.08
285.021	13.04
285.479	13.01
285.937	12.97
286.394	12.93
286.852	12.89
287.309	12.86
287.767	12.82
288.224	12.77
288.682	12.73
289.139	12.69
289.596	12.64
290.053	12.59
290.511	12.53
290.968	12.47
291.425	12.43
291.882	12.39
292.339	12.33
292.796	12.28
293.252	12.23
293.709	12.18
294.166	12.13
294.623	12.08
295.079	12.05
295.536	12
295.992	11.96
296.449	11.92
296.905	11.87
297.362	11.83
297.818	11.79
298.274	11.75
298.731	11.72
299.187	11.7
299.643	11.67
300.099	11.64
300.555	11.6
301.011	11.56
301.467	11.52
301.923	11.49
302.379	11.45
302.835	11.43
303.291	11.38
303.746	11.35
304.202	11.31
304.658	11.27
305.113	11.23
305.569	11.21
306.024	11.18
306.479	11.16
306.935	11.13
307.39	11.12
307.845	11.08
308.301	11.09
308.756	11.06
309.211	11.04
309.666	11.02
310.121	10.99
310.576	10.97
311.031	10.95
311.486	10.93
311.94	10.91
312.395	10.88
312.85	10.88
313.305	10.85
313.759	10.82
314.214	10.8
314.668	10.77
315.123	10.76
315.577	10.74
316.032	10.73
316.486	10.7
316.94	10.68
317.394	10.65
317.849	10.61
318.303	10.59
318.757	10.57
319.211	10.54
319.665	10.52
320.119	10.5
320.572	10.47
321.026	10.44
321.48	10.43
321.934	10.41
322.387	10.39
322.841	10.36
323.295	10.33
323.748	10.3
324.202	10.28
324.655	10.24
325.108	10.21
325.562	10.18
326.015	10.14
326.468	10.09
326.921	10.05
327.374	10.03
327.827	10
328.28	9.97
328.733	9.94
329.186	9.92
329.639	9.9
330.092	9.89
330.545	9.87
330.997	9.86
331.45	9.85
331.903	9.83
332.355	9.82
332.808	9.81
333.26	9.81
333.713	9.81
334.165	9.79
334.617	9.8
335.069	9.79
335.522	9.79
335.974	9.78
336.426	9.77
336.878	9.77
337.33	9.76
337.782	9.76
338.234	9.74
338.686	9.73
339.137	9.71
339.589	9.69
340.041	9.69
340.493	9.66
340.944	9.63
341.396	9.62
341.847	9.59
342.299	9.57
342.75	9.53
343.201	9.51
343.653	9.48
344.104	9.45
344.555	9.43
345.006	9.39
345.457	9.36
345.908	9.35
346.359	9.33
346.81	9.31
347.261	9.28
347.712	9.27
348.163	9.24
348.613	9.23
349.064	9.2
349.515	9.18
349.965	9.17
350.416	9.17
350.866	9.15
351.317	9.13
351.767	9.13
352.217	9.13
352.668	9.11
353.118	9.12
353.568	9.12
354.018	9.12
354.468	9.11
354.918	9.11
355.368	9.11
355.818	9.1
356.268	9.09
356.718	9.08
357.168	9.07
357.617	9.05
358.067	9.04
358.517	9.03
358.966	9.03
359.416	9.03
359.865	9.01
360.315	8.98
360.764	8.98
361.213	8.96
361.663	8.96
362.112	8.97
362.561	8.97
363.01	8.97
363.459	8.96
363.908	8.94
364.357	8.92
364.806	8.92
365.255	8.92
365.703	8.91
366.152	8.9
366.601	8.89
367.05	8.88
367.498	8.87
367.947	8.86
368.395	8.85
368.844	8.84
369.292	8.85
369.74	8.85
370.189	8.83
370.637	8.83
371.085	8.83
371.533	8.82
371.981	8.8
372.429	8.77
372.877	8.76
373.325	8.75
373.773	8.74
374.221	8.71
374.669	8.69
375.116	8.66
375.564	8.65
376.012	8.64
376.459	8.64
376.907	8.64
377.354	8.64
377.801	8.62
378.249	8.62
378.696	8.61
379.143	8.63
379.591	8.63
380.038	8.63
380.485	8.63
380.932	8.63
381.379	8.6
381.826	8.6
382.273	8.6
382.72	8.61
383.166	8.6
383.613	8.61
384.06	8.6
384.506	8.59
384.953	8.59
385.4	8.59
385.846	8.58
386.292	8.61
386.739	8.61
387.185	8.62
387.631	8.63
388.078	8.65
388.524	8.64
388.97	8.65
389.416	8.65
389.862	8.65
390.308	8.66
390.754	8.68
391.2	8.68
391.645	8.69
392.091	8.7
392.537	8.72
392.983	8.73
393.428	8.76
393.874	8.78
394.319	8.8
394.765	8.81
395.21	8.83
395.655	8.84
396.101	8.85
396.546	8.86
396.991	8.88
397.436	8.86
397.881	8.87
398.326	8.89
398.771	8.91
399.216	8.94
399.661	8.97
400.106	9
400.551	9.02
400.995	9.02
401.44	9.03
401.885	9.03
402.329	9.04
402.774	9.05
403.218	9.04
403.663	9.05
404.107	9.07
404.551	9.07
404.995	9.08
405.44	9.07
405.884	9.1
406.328	9.1
406.772	9.12
407.216	9.14
407.66	9.15
408.104	9.17
408.547	9.17
408.991	9.17
409.435	9.15
409.879	9.15
410.322	9.17
410.766	9.17
411.209	9.2
411.653	9.18
412.096	9.18
412.54	9.18
412.983	9.19
413.426	9.22
413.869	9.24
414.312	9.27
414.756	9.31
415.199	9.32
415.642	9.36
416.085	9.36
416.527	9.4
416.97	9.42
417.413	9.42
417.856	9.4
418.298	9.36
418.741	9.36
419.184	9.34
419.626	9.32
420.069	9.31
420.511	9.3
420.953	9.3
421.396	9.29
421.838	9.3
422.28	9.33
422.722	9.36
423.164	9.38
423.606	9.41
424.048	9.42
424.49	9.45
424.932	9.44
425.374	9.44
425.816	9.43
426.258	9.43
426.699	9.4
427.141	9.36
427.582	9.33
428.024	9.33
428.465	9.32
428.907	9.33
429.348	9.33
429.789	9.33
430.231	9.32
430.672	9.34
431.113	9.36
431.554	9.38
431.995	9.41
432.436	9.42
432.877	9.4
433.318	9.4
433.759	9.38
434.2	9.39
434.64	9.39
435.081	9.41
435.522	9.42
435.962	9.42
436.403	9.46
436.843	9.48
437.284	9.51
437.724	9.54
438.164	9.56
438.604	9.58
439.045	9.57
439.485	9.6
439.925	9.59
440.365	9.6
440.805	9.6
441.245	9.59
441.685	9.61
442.125	9.6
442.564	9.62
443.004	9.64
443.444	9.66
443.883	9.68
444.323	9.68
444.762	9.73
445.202	9.76
445.641	9.77
446.081	9.82
446.52	9.82
446.959	9.83
447.398	9.87
447.837	9.9
448.276	9.92
448.716	9.95
449.154	10.02
449.593	10.01
450.032	10.02
450.471	10.05
450.91	10.03
451.349	10.04
451.787	10.05
452.226	10.02
452.664	10
453.103	9.99
453.541	9.95
453.98	9.91
454.418	9.89
454.856	9.85
455.295	9.83
455.733	9.81
456.171	9.8
456.609	9.79
457.047	9.77
457.485	9.76
457.923	9.72
458.361	9.72
458.798	9.74
459.236	9.74
459.674	9.74
460.111	9.75
460.549	9.73
460.987	9.73
461.424	9.72
461.862	9.7
462.299	9.69
462.736	9.71
463.173	9.71
463.611	9.69
464.048	9.68
464.485	9.67
464.922	9.65
465.359	9.63
465.796	9.61
466.233	9.61
466.67	9.64
467.106	9.64
467.543	9.65
467.98	9.66
468.416	9.67
468.853	9.69
469.29	9.69
469.726	9.71
470.162	9.73
470.599	9.76
471.035	9.78
471.471	9.76
471.907	9.77
472.344	9.77
472.78	9.75
473.216	9.75
473.652	9.72
474.088	9.75
474.523	9.76
474.959	9.76
475.395	9.74
475.831	9.74
476.266	9.75
476.702	9.74
477.138	9.74
477.573	9.73
478.008	9.75
478.444	9.76
478.879	9.74
479.314	9.72
479.75	9.71
480.185	9.7
480.62	9.7
481.055	9.69
481.49	9.68
481.925	9.66
482.36	9.66
482.795	9.63
483.229	9.61
483.664	9.61
484.099	9.6
484.534	9.6
484.968	9.61
485.403	9.6
485.837	9.59
486.271	9.59
486.706	9.6
487.14	9.61
487.574	9.62
488.009	9.63
488.443	9.65
488.877	9.66
489.311	9.66
489.745	9.68
490.179	9.7
490.613	9.71
491.046	9.75
491.48	9.76
491.914	9.78
492.348	9.83
492.781	9.85
493.215	9.89
493.648	9.93
494.082	9.97
494.515	10.01
494.948	10.05
495.382	10.09
495.815	10.12
496.248	10.18
496.681	10.23
497.114	10.29
497.547	10.35
497.98	10.41
498.413	10.48
498.846	10.55
499.279	10.64
499.711	10.73
500.144	10.83
500.577	10.94
501.009	11.05
501.442	11.18
501.874	11.29
502.306	11.42
502.739	11.55
503.171	11.7
503.603	11.86
504.036	12.02
504.468	12.19
504.9	12.38
505.332	12.57
505.764	12.78
506.196	12.98
506.627	13.21
507.059	13.44
507.491	13.7
507.923	13.96
508.354	14.24
508.786	14.53
509.217	14.8
509.649	15.1
510.08	15.41
510.512	15.71
510.943	16.05
511.374	16.37
511.805	16.72
512.237	17.07
512.668	17.42
513.099	17.79
513.53	18.16
513.961	18.55
514.391	18.93
514.822	19.31
515.253	19.74
515.684	20.11
516.114	20.54
516.545	20.95
516.975	21.37
517.406	21.8
517.836	22.19
518.267	22.61
518.697	23.05
519.127	23.49
519.558	23.94
519.988	24.36
520.418	24.81
520.848	25.21
521.278	25.63
521.708	26
522.138	26.39
522.567	26.8
522.997	27.19
523.427	27.57
523.857	27.92
524.286	28.28
524.716	28.62
525.145	28.96
525.575	29.31
526.004	29.64
526.433	29.99
526.863	30.31
527.292	30.61
527.721	30.89
528.15	31.16
528.579	31.43
529.008	31.67
529.437	31.91
529.866	32.14
530.295	32.36
530.724	32.58
531.152	32.79
531.581	32.98
532.01	33.15
532.438	33.33
532.867	33.47
533.295	33.63
533.723	33.79
534.152	33.93
534.58	34.04
535.008	34.13
535.436	34.22
535.865	34.32
536.293	34.4
536.721	34.48
537.149	34.54
537.576	34.63
538.004	34.71
538.432	34.76
538.86	34.8
539.287	34.85
539.715	34.93
540.143	34.95
540.57	35
540.998	35.04
541.425	35.1
541.852	35.16
542.28	35.18
542.707	35.21
543.134	35.25
543.561	35.28
543.988	35.32
544.415	35.35
544.842	35.41
545.269	35.47
545.696	35.52
546.123	35.57
546.549	35.62
546.976	35.68
547.403	35.71
547.829	35.74
548.256	35.79
548.682	35.81
549.108	35.84
549.535	35.85
549.961	35.85
550.387	35.85
550.813	35.83
551.24	35.8
551.666	35.81
552.092	35.8
552.518	35.77
552.943	35.77
553.369	35.74
553.795	35.69
554.221	35.65
554.646	35.61
555.072	35.55
555.498	35.5
555.923	35.44
556.349	35.31
556.774	35.21
557.199	35.12
557.625	34.97
558.05	34.84
558.475	34.7
558.9	34.58
559.325	34.43
559.75	34.27
560.175	34.09
560.6	33.92
561.025	33.73
561.449	33.57
561.874	33.37
562.299	33.22
562.723	33.04
563.148	32.82
563.572	32.6
563.997	32.37
564.421	32.15
564.846	31.93
565.27	31.71
565.694	31.48
566.118	31.22
566.542	30.96
566.966	30.68
567.39	30.43
567.814	30.17
568.238	29.9
568.662	29.64
569.086	29.35
569.509	29.09
569.933	28.79
570.357	28.53
570.78	28.27
571.204	28
571.627	27.75
572.05	27.5
572.474	27.27
572.897	27.02
573.32	26.8
573.743	26.59
574.166	26.37
574.589	26.17
575.012	25.99
575.435	25.78
575.858	25.62
576.281	25.44
576.704	25.28
577.126	25.11
577.549	24.98
577.972	24.84
578.394	24.69
578.817	24.57
579.239	24.45
579.661	24.31
580.084	24.21
580.506	24.07
580.928	23.96
581.35	23.82
581.772	23.71
582.194	23.6
582.616	23.46
583.038	23.36
583.46	23.24
583.882	23.14
584.303	23.04
584.725	22.94
585.147	22.83
585.568	22.72
585.99	22.64
586.411	22.55
586.833	22.45
587.254	22.38
587.675	22.29
588.096	22.22
588.518	22.15
588.939	22.07
589.36	21.98
589.781	21.93
590.202	21.87
590.623	21.81
591.043	21.73
591.464	21.66
591.885	21.61
592.305	21.57
592.726	21.53
593.147	21.48
593.567	21.42
593.987	21.41
594.408	21.37
594.828	21.32
595.248	21.27
595.669	21.25
596.089	21.2
596.509	21.15
596.929	21.09
597.349	21.02
597.769	20.98
598.189	20.95
598.608	20.87
599.028	20.8
599.448	20.75
599.867	20.69
600.287	20.61
600.706	20.55
601.126	20.49
601.545	20.43
601.965	20.36
602.384	20.26
602.803	20.15
603.222	20.08
603.641	19.99
604.061	19.91
604.48	19.82
604.898	19.71
605.317	19.62
605.736	19.52
606.155	19.41
606.574	19.31
606.992	19.21
607.411	19.12
607.829	18.99
608.248	18.88
608.666	18.77
609.085	18.65
609.503	18.55
609.921	18.44
610.339	18.34
610.758	18.23
611.176	18.11
611.594	18.02
612.012	17.91
612.43	17.86
612.847	17.78
613.265	17.67
613.683	17.57
614.101	17.48
614.518	17.38
614.936	17.3
615.353	17.21
615.771	17.12
616.188	17.03
616.606	16.95
617.023	16.86
617.44	16.77
617.857	16.7
618.274	16.64
618.691	16.57
619.108	16.53
619.525	16.47
619.942	16.43
620.359	16.41
620.776	16.39
621.192	16.35
621.609	16.31
622.026	16.29
622.442	16.26
622.859	16.24
623.275	16.23
623.691	16.21
624.108	16.19
624.524	16.18
624.94	16.16
625.356	16.13
625.772	16.12
626.188	16.11
626.604	16.1
627.02	16.1
627.436	16.1
627.852	16.08
628.268	16.05
628.683	16.02
629.099	16
629.514	15.97
629.93	15.93
630.345	15.9
630.761	15.86
631.176	15.82
631.591	15.78
632.007	15.72
632.422	15.66
632.837	15.6
633.252	15.54
633.667	15.45
634.082	15.37
634.497	15.3
634.911	15.19
635.326	15.08
635.741	14.98
636.155	14.85
636.57	14.74
636.984	14.6
637.399	14.47
637.813	14.33
638.228	14.21
638.642	14.09
639.056	13.95
639.47	13.84
639.884	13.72
640.298	13.59
640.712	13.46
641.126	13.32
641.54	13.2
641.954	13.09
642.368	12.95
642.781	12.83
643.195	12.7
643.609	12.59
644.022	12.46
644.436	12.35
644.849	12.25
645.262	12.16
645.676	12.04
646.089	11.96
646.502	11.87
646.915	11.81
647.328	11.74
647.741	11.66
648.154	11.6
648.567	11.54
648.98	11.5
649.393	11.46
649.805	11.41
650.218	11.39
650.631	11.35
651.043	11.3
651.456	11.26
651.868	11.21
652.28	11.18
652.693	11.13
653.105	11.09
653.517	11.05
653.929	11.01
654.341	10.98
654.753	10.92
655.165	10.88
655.577	10.83
655.989	10.77
656.401	10.72
656.813	10.66
657.224	10.61
657.636	10.56
658.047	10.5
658.459	10.43
658.87	10.35
659.282	10.32
659.693	10.27
660.104	10.22
660.515	10.17
660.926	10.13
661.338	10.08
661.749	10.02
662.159	9.98
662.57	9.94
662.981	9.9
663.392	9.87
663.803	9.83
664.213	9.78
664.624	9.76
665.035	9.72
665.445	9.71
665.855	9.7
666.266	9.7
666.676	9.7
667.086	9.69
667.497	9.68
667.907	9.68
668.317	9.66
668.727	9.65
669.137	9.65
669.547	9.67
669.956	9.66
670.366	9.69
670.776	9.68
671.186	9.67
671.595	9.68
672.005	9.69
672.414	9.7
672.824	9.74
673.233	9.77
673.642	9.78
674.052	9.79
674.461	9.81
674.87	9.82
675.279	9.85
675.688	9.88
676.097	9.91
676.506	9.93
676.915	9.97
677.323	10.01
677.732	10.03
678.141	10.09
678.549	10.15
678.958	10.2
679.366	10.25
679.775	10.3
680.183	10.36
680.592	10.42
681	10.48
681.408	10.55
681.816	10.6
682.224	10.7
682.632	10.78
683.04	10.87
683.448	11
683.856	11.13
684.264	11.29
684.671	11.46
685.079	11.65
685.487	11.89
685.894	12.15
686.302	12.42
686.709	12.72
687.116	13.06
687.524	13.44
687.931	13.85
688.338	14.31
688.745	14.82
689.152	15.37
689.559	15.95
689.966	16.57
690.373	17.25
690.78	17.96
691.187	18.72
691.593	19.49
692	20.32
692.407	21.15
692.813	22.03
693.22	22.91
693.626	23.81
694.032	24.74
694.439	25.72
694.845	26.66
695.251	27.65
695.657	28.61
696.063	29.61
696.469	30.6
696.875	31.59
697.281	32.54
697.687	33.54
698.093	34.53
698.498	35.49
698.904	36.45
699.31	37.4
699.715	38.38
700.12	39.32
700.526	40.28
700.931	41.19
701.337	42.13
701.742	43.04
702.147	43.94
702.552	44.83
702.957	45.73
703.362	46.6
703.767	47.45
704.172	48.28
704.577	49.12
704.981	49.91
705.386	50.71
705.791	51.5
706.195	52.29
706.6	53.07
707.004	53.8
707.408	54.52
707.813	55.25
708.217	55.96
708.621	56.66
709.025	57.38
709.43	58.02
709.834	58.72
710.237	59.36
710.641	60.04
711.045	60.66
711.449	61.29
711.853	61.9
712.256	62.53
712.66	63.15
713.064	63.76
713.467	64.33
713.87	64.94
714.274	65.51
714.677	66.09
715.08	66.62
715.484	67.21
715.887	67.74
716.29	68.3
716.693	68.8
717.096	69.32
717.499	69.8
717.901	70.28
718.304	70.77
718.707	71.19
719.109	71.66
719.512	72.14
719.915	72.58
720.317	73.02
720.719	73.41
721.122	73.82
721.524	74.24
721.926	74.64
722.328	75.03
722.731	75.37
723.133	75.81
723.535	76.16
723.937	76.48
724.338	76.79
724.74	77.12
725.142	77.38
725.544	77.68
725.945	77.92
726.347	78.21
726.748	78.5
727.15	78.79
727.551	79.03
727.952	79.28
728.354	79.51
728.755	79.77
729.156	80.01
729.557	80.32
729.958	80.59
730.359	80.83
730.76	81.01
731.161	81.18
731.562	81.38
731.962	81.53
732.363	81.7
732.763	81.9
733.164	82.01
733.564	82.15
733.965	82.29
734.365	82.37
734.766	82.52
735.166	82.61
735.566	82.72
735.966	82.8
736.366	82.88
736.766	82.95
737.166	83.06
737.566	83.15
737.966	83.27
738.365	83.35
738.765	83.44
739.165	83.48
739.564	83.58
739.964	83.67
740.363	83.81
740.763	83.91
741.162	83.97
741.561	84.05
741.96	84.14
742.36	84.2
742.759	84.26
743.158	84.33
743.557	84.4
743.955	84.52
744.354	84.59
744.753	84.61
745.152	84.64
745.55	84.77
745.949	84.84
746.348	84.9
746.746	84.96
747.144	85.03
747.543	85.11
747.941	85.22
748.339	85.27
748.737	85.4
749.136	85.51
749.534	85.65
749.932	85.65
750.33	85.66
750.727	85.73
751.125	85.79
751.523	85.8
751.921	85.81
752.318	85.8
752.716	85.79
753.113	85.75
753.511	85.69
753.908	85.62
754.305	85.59
754.703	85.59
755.1	85.5
755.497	85.47
755.894	85.48
756.291	85.48
756.688	85.46
757.085	85.43
757.482	85.4
757.878	85.38
758.275	85.38
758.672	85.42
759.068	85.41
759.465	85.43
759.861	85.42
760.258	85.35
760.654	85.34
761.05	85.32
761.447	85.28
761.843	85.23
762.239	85.19
762.635	85.2
763.031	85.17
763.427	85.12
763.822	85.06
764.218	85.04
764.614	85.04
765.01	85.01
765.405	84.97
765.801	84.96
766.196	84.97
766.592	84.98
766.987	84.97
767.382	84.99
767.778	85.01
768.173	85.04
768.568	85.04
768.963	85.04
769.358	85.04
769.753	85.08
770.148	85.11
770.542	85.15
770.937	85.12
771.332	85.1
771.726	85.04
772.121	85
772.515	85.03
772.91	85.03
773.304	85.03
773.699	85
