Data from C_2_dec_on_6n_058_Splice17_20.txt Node
Date: Sat Feb 29 14:31:01 EST 2020
User: sa697716
Spectrometer: FLMS03696
Trigger mode: 0
Integration Time (sec): 3.180400E-1
Scans to average: 20
Electric dark correction enabled: true
Nonlinearity correction enabled: true
Boxcar width: 5
XAxis mode: Wavelengths
Number of Pixels in Spectrum: 2048
>>>>>Begin Spectral Data<<<<<
187.83	91.2
188.298	90.31
188.766	74.49
189.233	75.78
189.701	79.46
190.169	78.36
190.636	88.54
191.104	112.3
191.571	471.52
192.039	293.4
192.506	-158.34
192.974	2903.73
193.441	-89.27
193.908	27.08
194.375	-4.96
194.842	71.58
195.31	61.66
195.777	53.73
196.244	24.63
196.711	19.57
197.177	15.72
197.644	16.01
198.111	15.89
198.578	15.39
199.045	16
199.511	16.53
199.978	16.59
200.445	16.46
200.911	17.07
201.378	17.64
201.844	17.98
202.31	18.86
202.777	18.92
203.243	19.06
203.709	19.94
204.176	19.93
204.642	20.32
205.108	20.13
205.574	20.88
206.04	20.84
206.506	20.44
206.972	20.95
207.438	20.9
207.903	21.52
208.369	21.36
208.835	21.27
209.301	21.6
209.766	21.81
210.232	22.22
210.697	22
211.163	22.24
211.628	22.42
212.094	22.02
212.559	21.87
213.024	21.5
213.49	21.58
213.955	21.52
214.42	21.23
214.885	20.81
215.35	21.04
215.815	20.99
216.28	21.23
216.745	21.61
217.21	21.67
217.675	21.76
218.14	21.67
218.604	21.66
219.069	21.67
219.534	21.56
219.998	21.47
220.463	21.31
220.927	21.22
221.392	21.02
221.856	20.78
222.32	20.66
222.785	20.49
223.249	20.37
223.713	20.25
224.177	20.08
224.642	20
225.106	19.87
225.57	19.73
226.034	19.56
226.497	19.43
226.961	19.28
227.425	19.08
227.889	18.95
228.353	18.76
228.816	18.62
229.28	18.39
229.744	18.2
230.207	18.05
230.671	17.87
231.134	17.74
231.597	17.55
232.061	17.4
232.524	17.27
232.987	17.1
233.45	16.96
233.914	16.78
234.377	16.68
234.84	16.53
235.303	16.38
235.766	16.23
236.229	16.08
236.691	15.96
237.154	15.81
237.617	15.67
238.08	15.54
238.542	15.4
239.005	15.28
239.468	15.12
239.93	15
240.393	14.87
240.855	14.76
241.317	14.63
241.78	14.5
242.242	14.39
242.704	14.28
243.166	14.18
243.629	14.07
244.091	13.96
244.553	13.88
245.015	13.79
245.477	13.69
245.939	13.58
246.4	13.5
246.862	13.41
247.324	13.34
247.786	13.26
248.247	13.17
248.709	13.09
249.17	13.03
249.632	12.94
250.093	12.84
250.555	12.76
251.016	12.7
251.477	12.62
251.939	12.55
252.4	12.46
252.861	12.41
253.322	12.34
253.783	12.29
254.244	12.22
254.705	12.18
255.166	12.14
255.627	12.1
256.088	12.04
256.549	11.99
257.009	11.95
257.47	11.91
257.931	11.85
258.391	11.79
258.852	11.74
259.312	11.69
259.773	11.64
260.233	11.59
260.694	11.53
261.154	11.49
261.614	11.43
262.074	11.39
262.534	11.33
262.994	11.28
263.455	11.24
263.915	11.2
264.374	11.15
264.834	11.11
265.294	11.06
265.754	11.02
266.214	10.98
266.673	10.94
267.133	10.9
267.593	10.86
268.052	10.83
268.512	10.79
268.971	10.75
269.431	10.72
269.89	10.7
270.349	10.67
270.809	10.65
271.268	10.62
271.727	10.6
272.186	10.57
272.645	10.54
273.104	10.52
273.563	10.5
274.022	10.47
274.481	10.44
274.94	10.4
275.399	10.36
275.857	10.33
276.316	10.29
276.775	10.26
277.233	10.23
277.692	10.19
278.15	10.15
278.609	10.1
279.067	10.06
279.525	10.03
279.984	10
280.442	9.96
280.9	9.93
281.358	9.9
281.816	9.87
282.274	9.83
282.732	9.81
283.19	9.79
283.648	9.78
284.106	9.75
284.564	9.74
285.021	9.72
285.479	9.71
285.937	9.68
286.394	9.66
286.852	9.65
287.309	9.63
287.767	9.61
288.224	9.58
288.682	9.57
289.139	9.55
289.596	9.51
290.053	9.47
290.511	9.42
290.968	9.4
291.425	9.37
291.882	9.35
292.339	9.32
292.796	9.28
293.252	9.25
293.709	9.22
294.166	9.19
294.623	9.16
295.079	9.15
295.536	9.12
295.992	9.1
296.449	9.08
296.905	9.05
297.362	9.04
297.818	9.03
298.274	9.01
298.731	8.98
299.187	8.97
299.643	8.95
300.099	8.93
300.555	8.9
301.011	8.88
301.467	8.85
301.923	8.84
302.379	8.81
302.835	8.8
303.291	8.77
303.746	8.75
304.202	8.73
304.658	8.7
305.113	8.69
305.569	8.68
306.024	8.67
306.479	8.64
306.935	8.62
307.39	8.61
307.845	8.6
308.301	8.59
308.756	8.58
309.211	8.58
309.666	8.57
310.121	8.55
310.576	8.56
311.031	8.54
311.486	8.54
311.94	8.52
312.395	8.52
312.85	8.51
313.305	8.51
313.759	8.5
314.214	8.49
314.668	8.47
315.123	8.47
315.577	8.45
316.032	8.44
316.486	8.43
316.94	8.42
317.394	8.4
317.849	8.38
318.303	8.36
318.757	8.33
319.211	8.31
319.665	8.3
320.119	8.27
320.572	8.25
321.026	8.24
321.48	8.22
321.934	8.2
322.387	8.18
322.841	8.17
323.295	8.15
323.748	8.14
324.202	8.12
324.655	8.1
325.108	8.09
325.562	8.06
326.015	8.04
326.468	8.02
326.921	7.99
327.374	7.99
327.827	7.96
328.28	7.95
328.733	7.93
329.186	7.92
329.639	7.9
330.092	7.89
330.545	7.88
330.997	7.87
331.45	7.86
331.903	7.86
332.355	7.85
332.808	7.84
333.26	7.83
333.713	7.83
334.165	7.8
334.617	7.81
335.069	7.79
335.522	7.79
335.974	7.79
336.426	7.78
336.878	7.76
337.33	7.74
337.782	7.74
338.234	7.73
338.686	7.72
339.137	7.71
339.589	7.69
340.041	7.69
340.493	7.68
340.944	7.67
341.396	7.65
341.847	7.64
342.299	7.62
342.75	7.59
343.201	7.57
343.653	7.55
344.104	7.53
344.555	7.52
345.006	7.49
345.457	7.48
345.908	7.46
346.359	7.45
346.81	7.45
347.261	7.45
347.712	7.44
348.163	7.45
348.613	7.43
349.064	7.42
349.515	7.41
349.965	7.4
350.416	7.39
350.866	7.39
351.317	7.37
351.767	7.36
352.217	7.35
352.668	7.34
353.118	7.32
353.568	7.33
354.018	7.34
354.468	7.32
354.918	7.34
355.368	7.33
355.818	7.32
356.268	7.33
356.718	7.32
357.168	7.31
357.617	7.3
358.067	7.3
358.517	7.3
358.966	7.3
359.416	7.31
359.865	7.31
360.315	7.31
360.764	7.31
361.213	7.31
361.663	7.31
362.112	7.32
362.561	7.33
363.01	7.35
363.459	7.35
363.908	7.35
364.357	7.35
364.806	7.35
365.255	7.34
365.703	7.35
366.152	7.35
366.601	7.36
367.05	7.38
367.498	7.38
367.947	7.37
368.395	7.39
368.844	7.4
369.292	7.4
369.74	7.41
370.189	7.43
370.637	7.45
371.085	7.46
371.533	7.46
371.981	7.46
372.429	7.45
372.877	7.46
373.325	7.46
373.773	7.47
374.221	7.49
374.669	7.5
375.116	7.5
375.564	7.5
376.012	7.52
376.459	7.54
376.907	7.57
377.354	7.59
377.801	7.61
378.249	7.62
378.696	7.64
379.143	7.66
379.591	7.68
380.038	7.7
380.485	7.73
380.932	7.73
381.379	7.76
381.826	7.78
382.273	7.79
382.72	7.81
383.166	7.82
383.613	7.84
384.06	7.85
384.506	7.85
384.953	7.86
385.4	7.87
385.846	7.89
386.292	7.9
386.739	7.92
387.185	7.94
387.631	7.96
388.078	7.99
388.524	7.99
388.97	8.01
389.416	8.03
389.862	8.04
390.308	8.06
390.754	8.07
391.2	8.1
391.645	8.11
392.091	8.13
392.537	8.13
392.983	8.15
393.428	8.16
393.874	8.19
394.319	8.21
394.765	8.21
395.21	8.21
395.655	8.23
396.101	8.23
396.546	8.24
396.991	8.25
397.436	8.24
397.881	8.25
398.326	8.27
398.771	8.28
399.216	8.31
399.661	8.33
400.106	8.36
400.551	8.37
400.995	8.37
401.44	8.36
401.885	8.36
402.329	8.37
402.774	8.36
403.218	8.35
403.663	8.33
404.107	8.34
404.551	8.34
404.995	8.33
405.44	8.31
405.884	8.32
406.328	8.31
406.772	8.32
407.216	8.33
407.66	8.34
408.104	8.34
408.547	8.35
408.991	8.34
409.435	8.32
409.879	8.31
410.322	8.31
410.766	8.31
411.209	8.33
411.653	8.32
412.096	8.3
412.54	8.29
412.983	8.27
413.426	8.29
413.869	8.3
414.312	8.33
414.756	8.35
415.199	8.37
415.642	8.39
416.085	8.4
416.527	8.42
416.97	8.44
417.413	8.44
417.856	8.43
418.298	8.41
418.741	8.39
419.184	8.36
419.626	8.34
420.069	8.32
420.511	8.3
420.953	8.28
421.396	8.26
421.838	8.26
422.28	8.28
422.722	8.29
423.164	8.29
423.606	8.29
424.048	8.28
424.49	8.29
424.932	8.29
425.374	8.28
425.816	8.26
426.258	8.22
426.699	8.19
427.141	8.14
427.582	8.12
428.024	8.11
428.465	8.12
428.907	8.15
429.348	8.15
429.789	8.13
430.231	8.11
430.672	8.1
431.113	8.13
431.554	8.15
431.995	8.16
432.436	8.16
432.877	8.15
433.318	8.12
433.759	8.1
434.2	8.08
434.64	8.1
435.081	8.11
435.522	8.13
435.962	8.14
436.403	8.15
436.843	8.17
437.284	8.19
437.724	8.22
438.164	8.24
438.604	8.26
439.045	8.26
439.485	8.26
439.925	8.26
440.365	8.27
440.805	8.27
441.245	8.25
441.685	8.27
442.125	8.26
442.564	8.28
443.004	8.31
443.444	8.33
443.883	8.35
444.323	8.38
444.762	8.41
445.202	8.44
445.641	8.47
446.081	8.52
446.52	8.53
446.959	8.58
447.398	8.62
447.837	8.65
448.276	8.65
448.716	8.68
449.154	8.73
449.593	8.77
450.032	8.78
450.471	8.81
450.91	8.82
451.349	8.83
451.787	8.83
452.226	8.81
452.664	8.79
453.103	8.79
453.541	8.79
453.98	8.77
454.418	8.75
454.856	8.75
455.295	8.73
455.733	8.73
456.171	8.72
456.609	8.7
457.047	8.7
457.485	8.69
457.923	8.69
458.361	8.68
458.798	8.66
459.236	8.66
459.674	8.65
460.111	8.66
460.549	8.64
460.987	8.65
461.424	8.64
461.862	8.63
462.299	8.64
462.736	8.64
463.173	8.63
463.611	8.62
464.048	8.61
464.485	8.6
464.922	8.57
465.359	8.57
465.796	8.53
466.233	8.53
466.67	8.53
467.106	8.51
467.543	8.52
467.98	8.51
468.416	8.54
468.853	8.55
469.29	8.56
469.726	8.59
470.162	8.58
470.599	8.6
471.035	8.61
471.471	8.6
471.907	8.63
472.344	8.62
472.78	8.64
473.216	8.63
473.652	8.63
474.088	8.63
474.523	8.62
474.959	8.61
475.395	8.63
475.831	8.63
476.266	8.64
476.702	8.63
477.138	8.63
477.573	8.62
478.008	8.61
478.444	8.59
478.879	8.58
479.314	8.57
479.75	8.58
480.185	8.58
480.62	8.58
481.055	8.58
481.49	8.58
481.925	8.57
482.36	8.56
482.795	8.56
483.229	8.58
483.664	8.57
484.099	8.57
484.534	8.57
484.968	8.58
485.403	8.57
485.837	8.58
486.271	8.57
486.706	8.57
487.14	8.59
487.574	8.6
488.009	8.61
488.443	8.62
488.877	8.62
489.311	8.64
489.745	8.65
490.179	8.67
490.613	8.67
491.046	8.7
491.48	8.73
491.914	8.75
492.348	8.77
492.781	8.8
493.215	8.83
493.648	8.88
494.082	8.91
494.515	8.93
494.948	8.97
495.382	9.02
495.815	9.07
496.248	9.12
496.681	9.17
497.114	9.21
497.547	9.25
497.98	9.31
498.413	9.36
498.846	9.43
499.279	9.5
499.711	9.55
500.144	9.62
500.577	9.67
501.009	9.75
501.442	9.83
501.874	9.92
502.306	10.01
502.739	10.09
503.171	10.2
503.603	10.3
504.036	10.41
504.468	10.55
504.9	10.68
505.332	10.82
505.764	10.96
506.196	11.11
506.627	11.26
507.059	11.42
507.491	11.6
507.923	11.77
508.354	11.93
508.786	12.09
509.217	12.24
509.649	12.42
510.08	12.61
510.512	12.78
510.943	12.97
511.374	13.18
511.805	13.38
512.237	13.58
512.668	13.79
513.099	14.01
513.53	14.24
513.961	14.49
514.391	14.7
514.822	14.92
515.253	15.15
515.684	15.39
516.114	15.63
516.545	15.86
516.975	16.1
517.406	16.34
517.836	16.59
518.267	16.85
518.697	17.1
519.127	17.34
519.558	17.6
519.988	17.86
520.418	18.09
520.848	18.33
521.278	18.57
521.708	18.75
522.138	18.97
522.567	19.2
522.997	19.41
523.427	19.63
523.857	19.85
524.286	20.06
524.716	20.25
525.145	20.47
525.575	20.65
526.004	20.85
526.433	21.08
526.863	21.27
527.292	21.45
527.721	21.62
528.15	21.76
528.579	21.91
529.008	22.05
529.437	22.19
529.866	22.32
530.295	22.47
530.724	22.6
531.152	22.72
531.581	22.82
532.01	22.91
532.438	23.01
532.867	23.12
533.295	23.21
533.723	23.3
534.152	23.38
534.58	23.45
535.008	23.48
535.436	23.53
535.865	23.57
536.293	23.64
536.721	23.67
537.149	23.71
537.576	23.75
538.004	23.78
538.432	23.8
538.86	23.83
539.287	23.88
539.715	23.94
540.143	23.97
540.57	24.01
540.998	24.04
541.425	24.07
541.852	24.11
542.28	24.13
542.707	24.17
543.134	24.21
543.561	24.22
543.988	24.23
544.415	24.24
544.842	24.26
545.269	24.29
545.696	24.29
546.123	24.3
546.549	24.3
546.976	24.32
547.403	24.34
547.829	24.36
548.256	24.38
548.682	24.38
549.108	24.4
549.535	24.41
549.961	24.41
550.387	24.42
550.813	24.42
551.24	24.44
551.666	24.44
552.092	24.44
552.518	24.43
552.943	24.44
553.369	24.43
553.795	24.4
554.221	24.37
554.646	24.34
555.072	24.33
555.498	24.31
555.923	24.27
556.349	24.19
556.774	24.13
557.199	24.08
557.625	24
558.05	23.93
558.475	23.87
558.9	23.81
559.325	23.74
559.75	23.65
560.175	23.56
560.6	23.48
561.025	23.39
561.449	23.29
561.874	23.18
562.299	23.07
562.723	22.97
563.148	22.85
563.572	22.73
563.997	22.59
564.421	22.46
564.846	22.32
565.27	22.17
565.694	22.04
566.118	21.91
566.542	21.76
566.966	21.61
567.39	21.46
567.814	21.3
568.238	21.15
568.662	21.01
569.086	20.86
569.509	20.72
569.933	20.56
570.357	20.4
570.78	20.25
571.204	20.1
571.627	19.97
572.05	19.84
572.474	19.72
572.897	19.58
573.32	19.45
573.743	19.33
574.166	19.2
574.589	19.07
575.012	18.96
575.435	18.85
575.858	18.75
576.281	18.65
576.704	18.55
577.126	18.44
577.549	18.36
577.972	18.27
578.394	18.18
578.817	18.1
579.239	18.05
579.661	17.98
580.084	17.9
580.506	17.82
580.928	17.75
581.35	17.67
581.772	17.6
582.194	17.51
582.616	17.45
583.038	17.38
583.46	17.32
583.882	17.25
584.303	17.18
584.725	17.12
585.147	17.05
585.568	16.98
585.99	16.94
586.411	16.87
586.833	16.82
587.254	16.77
587.675	16.72
588.096	16.68
588.518	16.62
588.939	16.57
589.36	16.54
589.781	16.52
590.202	16.49
590.623	16.44
591.043	16.41
591.464	16.38
591.885	16.33
592.305	16.3
592.726	16.24
593.147	16.21
593.567	16.17
593.987	16.13
594.408	16.09
594.828	16.06
595.248	16.04
595.669	16.01
596.089	15.98
596.509	15.94
596.929	15.91
597.349	15.89
597.769	15.87
598.189	15.84
598.608	15.81
599.028	15.78
599.448	15.75
599.867	15.69
600.287	15.65
600.706	15.62
601.126	15.59
601.545	15.53
601.965	15.48
602.384	15.44
602.803	15.39
603.222	15.33
603.641	15.28
604.061	15.21
604.48	15.17
604.898	15.11
605.317	15.05
605.736	15
606.155	14.95
606.574	14.89
606.992	14.81
607.411	14.77
607.829	14.68
608.248	14.62
608.666	14.55
609.085	14.48
609.503	14.42
609.921	14.36
610.339	14.29
610.758	14.24
611.176	14.18
611.594	14.11
612.012	14.05
612.43	14.03
612.847	13.98
613.265	13.95
613.683	13.9
614.101	13.84
614.518	13.78
614.936	13.73
615.353	13.67
615.771	13.61
616.188	13.57
616.606	13.51
617.023	13.45
617.44	13.39
617.857	13.33
618.274	13.28
618.691	13.25
619.108	13.21
619.525	13.18
619.942	13.14
620.359	13.12
620.776	13.1
621.192	13.09
621.609	13.05
622.026	13.03
622.442	13
622.859	12.98
623.275	12.96
623.691	12.96
624.108	12.94
624.524	12.93
624.94	12.91
625.356	12.89
625.772	12.88
626.188	12.89
626.604	12.88
627.02	12.89
627.436	12.89
627.852	12.86
628.268	12.85
628.683	12.83
629.099	12.83
629.514	12.8
629.93	12.78
630.345	12.74
630.761	12.69
631.176	12.67
631.591	12.62
632.007	12.57
632.422	12.54
632.837	12.47
633.252	12.41
633.667	12.35
634.082	12.28
634.497	12.2
634.911	12.13
635.326	12.05
635.741	11.96
636.155	11.88
636.57	11.79
636.984	11.68
637.399	11.59
637.813	11.5
638.228	11.38
638.642	11.3
639.056	11.2
639.47	11.1
639.884	11
640.298	10.9
640.712	10.79
641.126	10.7
641.54	10.6
641.954	10.52
642.368	10.43
642.781	10.33
643.195	10.23
643.609	10.15
644.022	10.07
644.436	9.98
644.849	9.9
645.262	9.83
645.676	9.76
646.089	9.7
646.502	9.61
646.915	9.55
647.328	9.51
647.741	9.46
648.154	9.42
648.567	9.39
648.98	9.37
649.393	9.33
649.805	9.3
650.218	9.28
650.631	9.26
651.043	9.25
651.456	9.23
651.868	9.22
652.28	9.21
652.693	9.18
653.105	9.15
653.517	9.12
653.929	9.1
654.341	9.08
654.753	9.04
655.165	9
655.577	8.95
655.989	8.9
656.401	8.84
656.813	8.81
657.224	8.77
657.636	8.74
658.047	8.68
658.459	8.63
658.87	8.58
659.282	8.55
659.693	8.5
660.104	8.46
660.515	8.42
660.926	8.38
661.338	8.33
661.749	8.27
662.159	8.22
662.57	8.18
662.981	8.15
663.392	8.1
663.803	8.07
664.213	8.03
664.624	8.01
665.035	7.98
665.445	7.95
665.855	7.93
666.266	7.91
666.676	7.9
667.086	7.88
667.497	7.86
667.907	7.85
668.317	7.84
668.727	7.84
669.137	7.82
669.547	7.82
669.956	7.81
670.366	7.81
670.776	7.83
671.186	7.83
671.595	7.85
672.005	7.88
672.414	7.89
672.824	7.91
673.233	7.94
673.642	7.97
674.052	7.98
674.461	8.02
674.87	8.05
675.279	8.05
675.688	8.08
676.097	8.12
676.506	8.14
676.915	8.19
677.323	8.24
677.732	8.27
678.141	8.32
678.549	8.39
678.958	8.45
679.366	8.5
679.775	8.57
680.183	8.63
680.592	8.69
681	8.77
681.408	8.84
681.816	8.91
682.224	9
682.632	9.1
683.04	9.2
683.448	9.3
683.856	9.43
684.264	9.56
684.671	9.74
685.079	9.9
685.487	10.08
685.894	10.28
686.302	10.49
686.709	10.72
687.116	10.97
687.524	11.24
687.931	11.54
688.338	11.86
688.745	12.21
689.152	12.55
689.559	12.95
689.966	13.36
690.373	13.78
690.78	14.21
691.187	14.67
691.593	15.14
692	15.64
692.407	16.15
692.813	16.68
693.22	17.2
693.626	17.76
694.032	18.3
694.439	18.86
694.845	19.42
695.251	19.98
695.657	20.53
696.063	21.12
696.469	21.68
696.875	22.23
697.281	22.78
697.687	23.37
698.093	23.91
698.498	24.48
698.904	25.02
699.31	25.57
699.715	26.14
700.12	26.7
700.526	27.22
700.931	27.74
701.337	28.28
701.742	28.81
702.147	29.3
702.552	29.81
702.957	30.31
703.362	30.81
703.767	31.28
704.172	31.77
704.577	32.23
704.981	32.7
705.386	33.15
705.791	33.57
706.195	34.01
706.6	34.44
707.004	34.87
707.408	35.26
707.813	35.68
708.217	36.06
708.621	36.44
709.025	36.81
709.43	37.19
709.834	37.6
710.237	37.98
710.641	38.38
711.045	38.7
711.449	39.03
711.853	39.4
712.256	39.76
712.66	40.11
713.064	40.46
713.467	40.81
713.87	41.14
714.274	41.45
714.677	41.77
715.08	42.06
715.484	42.42
715.887	42.72
716.29	43
716.693	43.27
717.096	43.56
717.499	43.83
717.901	44.06
718.304	44.32
718.707	44.56
719.109	44.81
719.512	45.07
719.915	45.3
720.317	45.57
720.719	45.84
721.122	46.06
721.524	46.31
721.926	46.56
722.328	46.79
722.731	47.04
723.133	47.24
723.535	47.49
723.937	47.69
724.338	47.86
724.74	48.04
725.142	48.13
725.544	48.31
725.945	48.46
726.347	48.61
726.748	48.76
727.15	48.9
727.551	49.06
727.952	49.18
728.354	49.34
728.755	49.51
729.156	49.66
729.557	49.88
729.958	50.04
730.359	50.19
730.76	50.32
731.161	50.44
731.562	50.53
731.962	50.65
732.363	50.75
732.763	50.84
733.164	50.91
733.564	50.98
733.965	51.07
734.365	51.09
734.766	51.15
735.166	51.17
735.566	51.2
735.966	51.27
736.366	51.3
736.766	51.34
737.166	51.38
737.566	51.41
737.966	51.46
738.365	51.49
738.765	51.57
739.165	51.59
739.564	51.66
739.964	51.73
740.363	51.78
740.763	51.81
741.162	51.82
741.561	51.86
741.96	51.93
742.36	51.95
742.759	51.95
743.158	51.93
743.557	51.95
743.955	52.01
744.354	52.03
744.753	52.05
745.152	52.09
745.55	52.13
745.949	52.15
746.348	52.17
746.746	52.2
747.144	52.26
747.543	52.33
747.941	52.41
748.339	52.44
748.737	52.5
749.136	52.52
749.534	52.57
749.932	52.6
750.33	52.61
750.727	52.67
751.125	52.7
751.523	52.71
751.921	52.72
752.318	52.72
752.716	52.7
753.113	52.7
753.511	52.69
753.908	52.68
754.305	52.69
754.703	52.67
755.1	52.61
755.497	52.59
755.894	52.55
756.291	52.51
756.688	52.49
757.085	52.49
757.482	52.47
757.878	52.49
758.275	52.5
758.672	52.51
759.068	52.53
759.465	52.53
759.861	52.55
760.258	52.54
760.654	52.53
761.05	52.51
761.447	52.48
761.843	52.44
762.239	52.41
762.635	52.37
763.031	52.31
763.427	52.29
763.822	52.25
764.218	52.22
764.614	52.2
765.01	52.21
765.405	52.19
765.801	52.16
766.196	52.17
766.592	52.13
766.987	52.12
767.382	52.13
767.778	52.12
768.173	52.12
768.568	52.07
768.963	52.09
769.358	52.07
769.753	52.06
770.148	52.08
770.542	52.05
770.937	52.04
771.332	52.05
771.726	52.05
772.121	52.02
772.515	52.01
772.91	52.05
773.304	52.04
773.699	51.99
774.093	52.01
774.487	52.01
774.881	52.03
775.275	52.06
775.669	52.05
776.063	52.04
776.457	52.05
776.851	52.03
777.245	52.03
777.638	52.04
778.032	52.09
778.425	52.11
778.819	52.09
