Data from C_2_div_oh_2n_066_Splice17_01.txt Node
Date: Sat Feb 29 14:25:44 EST 2020
User: sa697716
Spectrometer: FLMS03696
Trigger mode: 0
Integration Time (sec): 3.180400E-1
Scans to average: 20
Electric dark correction enabled: true
Nonlinearity correction enabled: true
Boxcar width: 5
XAxis mode: Wavelengths
Number of Pixels in Spectrum: 2048
>>>>>Begin Spectral Data<<<<<
187.83	56.63
188.298	54.09
188.766	49.54
189.233	41.36
189.701	56.75
190.169	55.83
190.636	45.38
191.104	11.66
191.571	-105.94
192.039	186.51
192.506	-201.3
192.974	3812.54
193.441	-226.95
193.908	90.2
194.375	65.83
194.842	105.76
195.31	95.09
195.777	57.84
196.244	2.37
196.711	9.1
197.177	7.22
197.644	7.95
198.111	6.89
198.578	6.64
199.045	6.16
199.511	6.91
199.978	8.38
200.445	8.03
200.911	8.1
201.378	8.2
201.844	8.13
202.31	8.63
202.777	8.83
203.243	9.19
203.709	9.69
204.176	9.78
204.642	9.77
205.108	9.13
205.574	9.41
206.04	9.63
206.506	9.75
206.972	9.99
207.438	9.58
207.903	10.31
208.369	10.17
208.835	10.18
209.301	10.51
209.766	10.84
210.232	10.87
210.697	10.99
211.163	11.3
211.628	11.43
212.094	11.18
212.559	11.23
213.024	10.4
213.49	10.24
213.955	10.41
214.42	9.96
214.885	9.51
215.35	9.54
215.815	9.12
216.28	8.7
216.745	8.72
217.21	8.66
217.675	8.75
218.14	8.68
218.604	8.41
219.069	8.16
219.534	7.97
219.998	7.78
220.463	7.62
220.927	7.5
221.392	7.4
221.856	7.23
222.32	7.11
222.785	6.98
223.249	6.88
223.713	6.8
224.177	6.67
224.642	6.62
225.106	6.57
225.57	6.48
226.034	6.41
226.497	6.3
226.961	6.21
227.425	6.11
227.889	6.04
228.353	5.96
228.816	5.9
229.28	5.82
229.744	5.76
230.207	5.71
230.671	5.65
231.134	5.58
231.597	5.51
232.061	5.47
232.524	5.43
232.987	5.37
233.45	5.31
233.914	5.26
234.377	5.24
234.84	5.19
235.303	5.13
235.766	5.08
236.229	5.04
236.691	5.01
237.154	4.96
237.617	4.91
238.08	4.86
238.542	4.82
239.005	4.76
239.468	4.7
239.93	4.65
240.393	4.62
240.855	4.57
241.317	4.54
241.78	4.52
242.242	4.48
242.704	4.45
243.166	4.41
243.629	4.38
244.091	4.35
244.553	4.34
245.015	4.33
245.477	4.29
245.939	4.27
246.4	4.22
246.862	4.2
247.324	4.18
247.786	4.15
248.247	4.14
248.709	4.1
249.17	4.09
249.632	4.05
250.093	4.01
250.555	3.98
251.016	3.97
251.477	3.95
251.939	3.92
252.4	3.9
252.861	3.88
253.322	3.85
253.783	3.85
254.244	3.83
254.705	3.83
255.166	3.83
255.627	3.81
256.088	3.79
256.549	3.78
257.009	3.76
257.47	3.76
257.931	3.75
258.391	3.73
258.852	3.71
259.312	3.7
259.773	3.68
260.233	3.66
260.694	3.64
261.154	3.62
261.614	3.6
262.074	3.6
262.534	3.58
262.994	3.56
263.455	3.56
263.915	3.55
264.374	3.53
264.834	3.52
265.294	3.52
265.754	3.51
266.214	3.51
266.673	3.5
267.133	3.48
267.593	3.48
268.052	3.47
268.512	3.46
268.971	3.45
269.431	3.45
269.89	3.43
270.349	3.42
270.809	3.42
271.268	3.41
271.727	3.4
272.186	3.4
272.645	3.38
273.104	3.38
273.563	3.38
274.022	3.38
274.481	3.37
274.94	3.36
275.399	3.36
275.857	3.35
276.316	3.35
276.775	3.33
277.233	3.32
277.692	3.31
278.15	3.29
278.609	3.28
279.067	3.26
279.525	3.25
279.984	3.25
280.442	3.23
280.9	3.22
281.358	3.21
281.816	3.21
282.274	3.2
282.732	3.19
283.19	3.19
283.648	3.19
284.106	3.16
284.564	3.16
285.021	3.16
285.479	3.15
285.937	3.15
286.394	3.13
286.852	3.12
287.309	3.12
287.767	3.12
288.224	3.11
288.682	3.11
289.139	3.12
289.596	3.12
290.053	3.1
290.511	3.1
290.968	3.1
291.425	3.09
291.882	3.08
292.339	3.07
292.796	3.05
293.252	3.04
293.709	3.02
294.166	3.01
294.623	2.99
295.079	2.99
295.536	2.99
295.992	2.98
296.449	2.97
296.905	2.96
297.362	2.96
297.818	2.96
298.274	2.95
298.731	2.95
299.187	2.95
299.643	2.94
300.099	2.94
300.555	2.93
301.011	2.93
301.467	2.92
301.923	2.92
302.379	2.91
302.835	2.91
303.291	2.91
303.746	2.9
304.202	2.89
304.658	2.87
305.113	2.87
305.569	2.86
306.024	2.85
306.479	2.84
306.935	2.83
307.39	2.82
307.845	2.82
308.301	2.82
308.756	2.82
309.211	2.82
309.666	2.83
310.121	2.83
310.576	2.82
311.031	2.82
311.486	2.83
311.94	2.83
312.395	2.84
312.85	2.83
313.305	2.82
313.759	2.82
314.214	2.82
314.668	2.82
315.123	2.82
315.577	2.82
316.032	2.82
316.486	2.82
316.94	2.81
317.394	2.8
317.849	2.79
318.303	2.8
318.757	2.78
319.211	2.78
319.665	2.77
320.119	2.76
320.572	2.76
321.026	2.76
321.48	2.75
321.934	2.75
322.387	2.75
322.841	2.75
323.295	2.74
323.748	2.73
324.202	2.73
324.655	2.73
325.108	2.72
325.562	2.7
326.015	2.7
326.468	2.69
326.921	2.68
327.374	2.68
327.827	2.67
328.28	2.66
328.733	2.65
329.186	2.65
329.639	2.63
330.092	2.63
330.545	2.64
330.997	2.64
331.45	2.64
331.903	2.63
332.355	2.62
332.808	2.63
333.26	2.63
333.713	2.63
334.165	2.63
334.617	2.64
335.069	2.64
335.522	2.63
335.974	2.63
336.426	2.62
336.878	2.62
337.33	2.62
337.782	2.62
338.234	2.62
338.686	2.62
339.137	2.62
339.589	2.61
340.041	2.61
340.493	2.61
340.944	2.61
341.396	2.62
341.847	2.62
342.299	2.61
342.75	2.59
343.201	2.59
343.653	2.59
344.104	2.58
344.555	2.58
345.006	2.58
345.457	2.57
345.908	2.57
346.359	2.56
346.81	2.56
347.261	2.56
347.712	2.57
348.163	2.56
348.613	2.55
349.064	2.54
349.515	2.53
349.965	2.52
350.416	2.52
350.866	2.53
351.317	2.52
351.767	2.52
352.217	2.51
352.668	2.51
353.118	2.51
353.568	2.52
354.018	2.53
354.468	2.52
354.918	2.53
355.368	2.53
355.818	2.52
356.268	2.53
356.718	2.53
357.168	2.53
357.617	2.52
358.067	2.51
358.517	2.5
358.966	2.51
359.416	2.51
359.865	2.5
360.315	2.5
360.764	2.51
361.213	2.49
361.663	2.49
362.112	2.5
362.561	2.5
363.01	2.51
363.459	2.5
363.908	2.5
364.357	2.51
364.806	2.5
365.255	2.51
365.703	2.51
366.152	2.51
366.601	2.52
367.05	2.51
367.498	2.52
367.947	2.52
368.395	2.53
368.844	2.53
369.292	2.52
369.74	2.53
370.189	2.53
370.637	2.53
371.085	2.53
371.533	2.53
371.981	2.55
372.429	2.54
372.877	2.54
373.325	2.53
373.773	2.53
374.221	2.53
374.669	2.53
375.116	2.53
375.564	2.53
376.012	2.54
376.459	2.55
376.907	2.55
377.354	2.55
377.801	2.56
378.249	2.58
378.696	2.6
379.143	2.61
379.591	2.62
380.038	2.63
380.485	2.64
380.932	2.64
381.379	2.65
381.826	2.66
382.273	2.67
382.72	2.69
383.166	2.69
383.613	2.7
384.06	2.72
384.506	2.73
384.953	2.75
385.4	2.77
385.846	2.78
386.292	2.81
386.739	2.81
387.185	2.85
387.631	2.87
388.078	2.89
388.524	2.9
388.97	2.93
389.416	2.95
389.862	2.97
390.308	2.99
390.754	3.04
391.2	3.09
391.645	3.15
392.091	3.17
392.537	3.21
392.983	3.27
393.428	3.35
393.874	3.44
394.319	3.53
394.765	3.62
395.21	3.72
395.655	3.82
396.101	3.93
396.546	4.03
396.991	4.16
397.436	4.29
397.881	4.41
398.326	4.55
398.771	4.68
399.216	4.81
399.661	4.94
400.106	5.06
400.551	5.16
400.995	5.23
401.44	5.31
401.885	5.39
402.329	5.47
402.774	5.55
403.218	5.63
403.663	5.71
404.107	5.82
404.551	5.92
404.995	6.01
405.44	6.1
405.884	6.21
406.328	6.33
406.772	6.47
407.216	6.61
407.66	6.72
408.104	6.84
408.547	6.95
408.991	7.03
409.435	7.1
409.879	7.2
410.322	7.33
410.766	7.45
411.209	7.56
411.653	7.63
412.096	7.71
412.54	7.8
412.983	7.88
413.426	7.96
413.869	8.05
414.312	8.17
414.756	8.27
415.199	8.36
415.642	8.45
416.085	8.53
416.527	8.62
416.97	8.67
417.413	8.69
417.856	8.69
418.298	8.69
418.741	8.71
419.184	8.72
419.626	8.73
420.069	8.76
420.511	8.76
420.953	8.79
421.396	8.8
421.838	8.86
422.28	8.94
422.722	9.03
423.164	9.11
423.606	9.18
424.048	9.22
424.49	9.24
424.932	9.2
425.374	9.13
425.816	8.98
426.258	8.85
426.699	8.73
427.141	8.7
427.582	8.73
428.024	8.81
428.465	8.89
428.907	9
429.348	9.08
429.789	9.19
430.231	9.35
430.672	9.62
431.113	9.91
431.554	10.21
431.995	10.43
432.436	10.58
432.877	10.66
433.318	10.73
433.759	10.8
434.2	10.92
434.64	11.08
435.081	11.23
435.522	11.37
435.962	11.47
436.403	11.55
436.843	11.63
437.284	11.73
437.724	11.87
438.164	12
438.604	12.15
439.045	12.27
439.485	12.38
439.925	12.48
440.365	12.54
440.805	12.61
441.245	12.63
441.685	12.69
442.125	12.74
442.564	12.79
443.004	12.89
443.444	12.99
443.883	13.09
444.323	13.2
444.762	13.31
445.202	13.48
445.641	13.64
446.081	13.85
446.52	14.03
446.959	14.21
447.398	14.36
447.837	14.45
448.276	14.47
448.716	14.5
449.154	14.51
449.593	14.57
450.032	14.55
450.471	14.53
450.91	14.46
451.349	14.39
451.787	14.33
452.226	14.29
452.664	14.27
453.103	14.28
453.541	14.28
453.98	14.26
454.418	14.19
454.856	14.11
455.295	14.04
455.733	13.98
456.171	13.95
456.609	13.92
457.047	13.9
457.485	13.88
457.923	13.86
458.361	13.85
458.798	13.87
459.236	13.89
459.674	13.92
460.111	13.93
460.549	13.95
460.987	13.99
461.424	13.99
461.862	14.01
462.299	14.01
462.736	14.02
463.173	14.07
463.611	14.11
464.048	14.18
464.485	14.26
464.922	14.37
465.359	14.46
465.796	14.52
466.233	14.61
466.67	14.71
467.106	14.83
467.543	15.01
467.98	15.16
468.416	15.29
468.853	15.39
469.29	15.51
469.726	15.61
470.162	15.74
470.599	15.89
471.035	16
471.471	16.06
471.907	16.1
472.344	16.1
472.78	16.12
473.216	16.15
473.652	16.2
474.088	16.23
474.523	16.24
474.959	16.23
475.395	16.22
475.831	16.22
476.266	16.22
476.702	16.24
477.138	16.25
477.573	16.21
478.008	16.16
478.444	16.1
478.879	16.02
479.314	15.94
479.75	15.86
480.185	15.75
480.62	15.61
481.055	15.41
481.49	15.14
481.925	14.85
482.36	14.58
482.795	14.36
483.229	14.19
483.664	14.05
484.099	13.94
484.534	13.83
484.968	13.77
485.403	13.75
485.837	13.79
486.271	13.87
486.706	13.95
487.14	14.03
487.574	14.07
488.009	14.09
488.443	14.1
488.877	14.1
489.311	14.11
489.745	14.11
490.179	14.12
490.613	14.13
491.046	14.17
491.48	14.23
491.914	14.29
492.348	14.37
492.781	14.44
493.215	14.52
493.648	14.58
494.082	14.63
494.515	14.68
494.948	14.72
495.382	14.77
495.815	14.8
496.248	14.82
496.681	14.85
497.114	14.86
497.547	14.88
497.98	14.94
498.413	15.03
498.846	15.14
499.279	15.26
499.711	15.34
500.144	15.46
500.577	15.6
501.009	15.79
501.442	16
501.874	16.23
502.306	16.47
502.739	16.66
503.171	16.85
503.603	17.05
504.036	17.27
504.468	17.52
504.9	17.78
505.332	18.03
505.764	18.27
506.196	18.5
506.627	18.75
507.059	19.02
507.491	19.32
507.923	19.6
508.354	19.89
508.786	20.17
509.217	20.41
509.649	20.67
510.08	20.95
510.512	21.21
510.943	21.52
511.374	21.8
511.805	22.02
512.237	22.2
512.668	22.37
513.099	22.56
513.53	22.77
513.961	23.01
514.391	23.27
514.822	23.57
515.253	23.93
515.684	24.26
516.114	24.65
516.545	25.09
516.975	25.63
517.406	26.2
517.836	26.74
518.267	27.26
518.697	27.79
519.127	28.31
519.558	28.84
519.988	29.33
520.418	29.8
520.848	30.26
521.278	30.67
521.708	30.9
522.138	31.13
522.567	31.37
522.997	31.63
523.427	31.94
523.857	32.24
524.286	32.55
524.716	32.84
525.145	33.14
525.575	33.4
526.004	33.74
526.433	34.21
526.863	34.7
527.292	35.14
527.721	35.51
528.15	35.75
528.579	35.97
529.008	36.15
529.437	36.29
529.866	36.42
530.295	36.59
530.724	36.74
531.152	36.88
531.581	36.98
532.01	37.06
532.438	37.16
532.867	37.32
533.295	37.47
533.723	37.61
534.152	37.71
534.58	37.79
535.008	37.8
535.436	37.77
535.865	37.68
536.293	37.64
536.721	37.63
537.149	37.66
537.576	37.67
538.004	37.68
538.432	37.68
538.86	37.72
539.287	37.81
539.715	37.94
540.143	38.06
540.57	38.23
540.998	38.4
541.425	38.57
541.852	38.69
542.28	38.83
542.707	38.96
543.134	39.07
543.561	39.16
543.988	39.25
544.415	39.36
544.842	39.46
545.269	39.57
545.696	39.66
546.123	39.79
546.549	39.89
546.976	40
547.403	40.13
547.829	40.24
548.256	40.37
548.682	40.43
549.108	40.48
549.535	40.55
549.961	40.61
550.387	40.66
550.813	40.67
551.24	40.71
551.666	40.72
552.092	40.68
552.518	40.62
552.943	40.56
553.369	40.51
553.795	40.42
554.221	40.28
554.646	40.1
555.072	39.91
555.498	39.71
555.923	39.52
556.349	39.35
556.774	39.19
557.199	39.05
557.625	38.88
558.05	38.73
558.475	38.58
558.9	38.45
559.325	38.3
559.75	38.16
560.175	38
560.6	37.81
561.025	37.57
561.449	37.28
561.874	37.02
562.299	36.77
562.723	36.55
563.148	36.28
563.572	36.02
563.997	35.76
564.421	35.47
564.846	35.18
565.27	34.9
565.694	34.64
566.118	34.38
566.542	34.07
566.966	33.77
567.39	33.43
567.814	33.16
568.238	32.88
568.662	32.65
569.086	32.41
569.509	32.19
569.933	31.94
570.357	31.7
570.78	31.49
571.204	31.28
571.627	31.07
572.05	30.89
572.474	30.67
572.897	30.44
573.32	30.18
573.743	29.95
574.166	29.72
574.589	29.51
575.012	29.34
575.435	29.18
575.858	29.05
576.281	28.94
576.704	28.82
577.126	28.7
577.549	28.63
577.972	28.58
578.394	28.53
578.817	28.48
579.239	28.45
579.661	28.4
580.084	28.33
580.506	28.26
580.928	28.17
581.35	28.06
581.772	27.95
582.194	27.83
582.616	27.72
583.038	27.6
583.46	27.47
583.882	27.29
584.303	27.09
584.725	26.84
585.147	26.57
585.568	26.33
585.99	26.14
586.411	25.97
586.833	25.81
587.254	25.67
587.675	25.52
588.096	25.42
588.518	25.34
588.939	25.3
589.36	25.29
589.781	25.32
590.202	25.34
590.623	25.29
591.043	25.22
591.464	25.16
591.885	25.09
592.305	25.05
592.726	24.96
593.147	24.9
593.567	24.82
593.987	24.75
594.408	24.68
594.828	24.6
595.248	24.53
595.669	24.48
596.089	24.4
596.509	24.27
596.929	24.16
597.349	24.05
597.769	23.92
598.189	23.83
598.608	23.73
599.028	23.64
599.448	23.57
599.867	23.51
600.287	23.43
600.706	23.35
601.126	23.3
601.545	23.22
601.965	23.15
602.384	23.08
602.803	22.98
603.222	22.88
603.641	22.77
604.061	22.62
604.48	22.48
604.898	22.33
605.317	22.2
605.736	22.05
606.155	21.9
606.574	21.76
606.992	21.61
607.411	21.49
607.829	21.31
608.248	21.17
608.666	21.03
609.085	20.88
609.503	20.74
609.921	20.6
610.339	20.48
610.758	20.35
611.176	20.2
611.594	20.06
612.012	19.88
612.43	19.77
612.847	19.65
613.265	19.54
613.683	19.44
614.101	19.33
614.518	19.24
614.936	19.13
615.353	19.05
615.771	18.97
616.188	18.92
616.606	18.88
617.023	18.82
617.44	18.74
617.857	18.66
618.274	18.57
618.691	18.48
619.108	18.38
619.525	18.29
619.942	18.18
620.359	18.08
620.776	17.96
621.192	17.84
621.609	17.74
622.026	17.66
622.442	17.57
622.859	17.49
623.275	17.43
623.691	17.35
624.108	17.28
624.524	17.21
624.94	17.15
625.356	17.09
625.772	17.05
626.188	17.02
626.604	16.95
627.02	16.9
627.436	16.85
627.852	16.8
628.268	16.77
628.683	16.74
629.099	16.72
629.514	16.7
629.93	16.68
630.345	16.63
630.761	16.6
631.176	16.57
631.591	16.52
632.007	16.48
632.422	16.43
632.837	16.39
633.252	16.33
633.667	16.27
634.082	16.2
634.497	16.11
634.911	16.02
635.326	15.91
635.741	15.81
636.155	15.7
636.57	15.6
636.984	15.46
637.399	15.31
637.813	15.16
638.228	15.03
638.642	14.87
639.056	14.73
639.47	14.59
639.884	14.44
640.298	14.31
640.712	14.18
641.126	14.02
641.54	13.88
641.954	13.77
642.368	13.63
642.781	13.46
643.195	13.31
643.609	13.17
644.022	13.04
644.436	12.91
644.849	12.78
645.262	12.66
645.676	12.54
646.089	12.42
646.502	12.31
646.915	12.23
647.328	12.18
647.741	12.12
648.154	12.07
648.567	12.02
648.98	11.97
649.393	11.92
649.805	11.88
650.218	11.84
650.631	11.8
651.043	11.73
651.456	11.61
651.868	11.47
652.28	11.35
652.693	11.21
653.105	11.09
653.517	10.99
653.929	10.91
654.341	10.84
654.753	10.77
655.165	10.71
655.577	10.67
655.989	10.66
656.401	10.67
656.813	10.67
657.224	10.68
657.636	10.67
658.047	10.62
658.459	10.55
658.87	10.49
659.282	10.42
659.693	10.34
660.104	10.26
660.515	10.18
660.926	10.1
661.338	10.02
661.749	9.92
662.159	9.83
662.57	9.75
662.981	9.68
663.392	9.6
663.803	9.51
664.213	9.43
664.624	9.38
665.035	9.3
665.445	9.25
665.855	9.18
666.266	9.12
666.676	9.05
667.086	9.01
667.497	8.94
667.907	8.89
668.317	8.84
668.727	8.8
669.137	8.75
669.547	8.72
669.956	8.67
670.366	8.65
670.776	8.62
671.186	8.6
671.595	8.58
672.005	8.58
672.414	8.57
672.824	8.55
673.233	8.55
673.642	8.53
674.052	8.52
674.461	8.52
674.87	8.52
675.279	8.52
675.688	8.53
676.097	8.56
676.506	8.56
676.915	8.58
677.323	8.62
677.732	8.65
678.141	8.71
678.549	8.76
678.958	8.8
679.366	8.83
679.775	8.9
680.183	8.95
680.592	9.01
681	9.08
681.408	9.15
681.816	9.22
682.224	9.26
682.632	9.27
683.04	9.27
683.448	9.3
683.856	9.36
684.264	9.42
684.671	9.51
685.079	9.62
685.487	9.74
685.894	9.9
686.302	10.09
686.709	10.34
687.116	10.65
687.524	11.01
687.931	11.39
688.338	11.81
688.745	12.24
689.152	12.69
689.559	13.15
689.966	13.62
690.373	14.11
690.78	14.6
691.187	15.11
691.593	15.62
692	16.13
692.407	16.68
692.813	17.21
693.22	17.76
693.626	18.28
694.032	18.83
694.439	19.38
694.845	19.91
695.251	20.45
695.657	20.97
696.063	21.5
696.469	22.02
696.875	22.47
697.281	22.94
697.687	23.43
698.093	23.94
698.498	24.43
698.904	24.9
699.31	25.38
699.715	25.87
700.12	26.37
700.526	26.87
700.931	27.34
701.337	27.86
701.742	28.33
702.147	28.79
702.552	29.22
702.957	29.67
703.362	30.15
703.767	30.59
704.172	31.01
704.577	31.4
704.981	31.78
705.386	32.21
705.791	32.6
706.195	33
706.6	33.37
707.004	33.75
707.408	34.1
707.813	34.42
708.217	34.73
708.621	35.08
709.025	35.42
709.43	35.74
709.834	36.06
710.237	36.36
710.641	36.65
711.045	36.93
711.449	37.19
711.853	37.42
712.256	37.66
712.66	37.86
713.064	37.97
713.467	38.06
713.87	38.12
714.274	38.12
714.677	38.1
715.08	38.07
715.484	38.07
715.887	38.06
716.29	38.1
716.693	38.2
717.096	38.4
717.499	38.69
717.901	39.01
718.304	39.35
718.707	39.71
719.109	40.11
719.512	40.46
719.915	40.77
720.317	41.08
720.719	41.33
721.122	41.56
721.524	41.71
721.926	41.83
722.328	41.94
722.731	42.04
723.133	42.16
723.535	42.27
723.937	42.41
724.338	42.55
724.74	42.65
725.142	42.69
725.544	42.8
725.945	42.9
726.347	43.03
726.748	43.13
727.15	43.24
727.551	43.36
727.952	43.5
728.354	43.69
728.755	43.91
729.156	44.15
729.557	44.49
729.958	44.72
730.359	44.97
730.76	45.16
731.161	45.36
731.562	45.58
731.962	45.75
732.363	45.86
732.763	45.97
733.164	46.02
733.564	46.07
733.965	46.08
734.365	46.1
734.766	46.09
735.166	46.08
735.566	46.06
735.966	46.05
736.366	46.03
736.766	46.06
737.166	46.07
737.566	46.06
737.966	46.1
738.365	46.13
738.765	46.16
739.165	46.21
739.564	46.25
739.964	46.3
740.363	46.34
740.763	46.35
741.162	46.37
741.561	46.4
741.96	46.45
742.36	46.5
742.759	46.52
743.158	46.49
743.557	46.49
743.955	46.53
744.354	46.57
744.753	46.55
745.152	46.57
745.55	46.56
745.949	46.55
746.348	46.53
746.746	46.5
747.144	46.48
747.543	46.49
747.941	46.51
748.339	46.5
748.737	46.49
749.136	46.5
749.534	46.52
749.932	46.52
750.33	46.51
750.727	46.5
751.125	46.47
751.523	46.46
751.921	46.44
752.318	46.39
752.716	46.32
753.113	46.25
753.511	46.19
753.908	46.1
754.305	45.97
754.703	45.72
755.1	45.24
755.497	44.49
755.894	43.5
756.291	42.29
756.688	41.01
757.085	39.85
757.482	38.76
757.878	37.74
758.275	36.7
758.672	35.7
759.068	34.8
759.465	34.17
759.861	33.86
760.258	33.85
760.654	34.17
761.05	34.64
761.447	35.12
761.843	35.56
762.239	36.03
762.635	36.6
763.031	37.3
763.427	38.05
763.822	38.84
764.218	39.63
764.614	40.39
765.01	41.04
765.405	41.65
765.801	42.21
766.196	42.7
766.592	43.16
766.987	43.49
767.382	43.73
767.778	43.94
768.173	44.09
768.568	44.19
768.963	44.29
769.358	44.38
769.753	44.44
770.148	44.45
770.542	44.43
770.937	44.38
771.332	44.37
771.726	44.37
772.121	44.34
772.515	44.29
772.91	44.24
773.304	44.18
773.699	44.14
774.093	44.07
774.487	44.03
774.881	44.02
775.275	44
775.669	43.96
776.063	43.88
776.457	43.82
776.851	43.76
777.245	43.73
777.638	43.7
