Data from C_2_div_il_4n_082_Splice17_04.txt Node
Date: Sat Feb 29 14:18:13 EST 2020
User: sa697716
Spectrometer: FLMS03696
Trigger mode: 0
Integration Time (sec): 3.180400E-1
Scans to average: 20
Electric dark correction enabled: true
Nonlinearity correction enabled: true
Boxcar width: 5
XAxis mode: Wavelengths
Number of Pixels in Spectrum: 2048
>>>>>Begin Spectral Data<<<<<
187.83	14.3
188.298	-0.91
188.766	13.91
189.233	6.85
189.701	24.26
190.169	18.06
190.636	15.44
191.104	8.83
191.571	-26.7
192.039	262.52
192.506	-95.68
192.974	1006.04
193.441	-97.71
193.908	93.3
194.375	86.69
194.842	147.91
195.31	52.87
195.777	7.11
196.244	31.65
196.711	34.18
197.177	34.68
197.644	34.03
198.111	33.8
198.578	32.95
199.045	32.75
199.511	32.92
199.978	34.41
200.445	33.82
200.911	34.54
201.378	34.62
201.844	35.03
202.31	35.15
202.777	35.29
203.243	35.87
203.709	36.3
204.176	36.35
204.642	36.46
205.108	35.56
205.574	36.19
206.04	36.15
206.506	35.75
206.972	35.41
207.438	35.07
207.903	35.11
208.369	34.15
208.835	33.98
209.301	33.53
209.766	33.02
210.232	32.76
210.697	32.08
211.163	31.63
211.628	31.2
212.094	30.57
212.559	29.73
213.024	28.66
213.49	28.22
213.955	27.57
214.42	26.95
214.885	26.13
215.35	25.01
215.815	23.66
216.28	22.14
216.745	20.89
217.21	19.54
217.675	18.31
218.14	16.99
218.604	15.8
219.069	14.72
219.534	13.86
219.998	13.14
220.463	12.57
220.927	12.1
221.392	11.61
221.856	11.1
222.32	10.72
222.785	10.39
223.249	10.16
223.713	9.96
224.177	9.71
224.642	9.52
225.106	9.32
225.57	9.14
226.034	8.94
226.497	8.81
226.961	8.68
227.425	8.52
227.889	8.39
228.353	8.24
228.816	8.09
229.28	7.96
229.744	7.84
230.207	7.74
230.671	7.6
231.134	7.51
231.597	7.37
232.061	7.27
232.524	7.2
232.987	7.12
233.45	7.03
233.914	6.94
234.377	6.88
234.84	6.79
235.303	6.7
235.766	6.64
236.229	6.57
236.691	6.54
237.154	6.46
237.617	6.38
238.08	6.31
238.542	6.26
239.005	6.19
239.468	6.1
239.93	6.06
240.393	5.99
240.855	5.93
241.317	5.87
241.78	5.82
242.242	5.78
242.704	5.73
243.166	5.68
243.629	5.63
244.091	5.6
244.553	5.57
245.015	5.52
245.477	5.48
245.939	5.44
246.4	5.4
246.862	5.37
247.324	5.33
247.786	5.29
248.247	5.25
248.709	5.22
249.17	5.17
249.632	5.12
250.093	5.08
250.555	5.06
251.016	5.03
251.477	4.99
251.939	4.95
252.4	4.91
252.861	4.88
253.322	4.86
253.783	4.84
254.244	4.81
254.705	4.79
255.166	4.77
255.627	4.75
256.088	4.72
256.549	4.71
257.009	4.69
257.47	4.67
257.931	4.64
258.391	4.61
258.852	4.57
259.312	4.55
259.773	4.52
260.233	4.49
260.694	4.47
261.154	4.44
261.614	4.41
262.074	4.39
262.534	4.35
262.994	4.33
263.455	4.31
263.915	4.29
264.374	4.27
264.834	4.25
265.294	4.23
265.754	4.2
266.214	4.19
266.673	4.17
267.133	4.15
267.593	4.15
268.052	4.12
268.512	4.11
268.971	4.09
269.431	4.08
269.89	4.06
270.349	4.05
270.809	4.05
271.268	4.04
271.727	4.02
272.186	4.01
272.645	3.99
273.104	3.99
273.563	3.98
274.022	3.98
274.481	3.97
274.94	3.96
275.399	3.95
275.857	3.93
276.316	3.92
276.775	3.91
277.233	3.9
277.692	3.89
278.15	3.87
278.609	3.86
279.067	3.85
279.525	3.83
279.984	3.83
280.442	3.82
280.9	3.81
281.358	3.8
281.816	3.8
282.274	3.78
282.732	3.77
283.19	3.77
283.648	3.77
284.106	3.76
284.564	3.76
285.021	3.75
285.479	3.75
285.937	3.75
286.394	3.74
286.852	3.74
287.309	3.73
287.767	3.72
288.224	3.71
288.682	3.7
289.139	3.7
289.596	3.68
290.053	3.67
290.511	3.65
290.968	3.63
291.425	3.61
291.882	3.6
292.339	3.59
292.796	3.58
293.252	3.56
293.709	3.55
294.166	3.54
294.623	3.53
295.079	3.52
295.536	3.51
295.992	3.5
296.449	3.5
296.905	3.49
297.362	3.48
297.818	3.48
298.274	3.47
298.731	3.46
299.187	3.46
299.643	3.45
300.099	3.45
300.555	3.43
301.011	3.43
301.467	3.41
301.923	3.41
302.379	3.4
302.835	3.39
303.291	3.39
303.746	3.38
304.202	3.37
304.658	3.36
305.113	3.35
305.569	3.36
306.024	3.35
306.479	3.35
306.935	3.35
307.39	3.34
307.845	3.34
308.301	3.33
308.756	3.34
309.211	3.35
309.666	3.35
310.121	3.35
310.576	3.34
311.031	3.34
311.486	3.34
311.94	3.34
312.395	3.34
312.85	3.33
313.305	3.33
313.759	3.32
314.214	3.31
314.668	3.32
315.123	3.32
315.577	3.32
316.032	3.32
316.486	3.32
316.94	3.31
317.394	3.31
317.849	3.3
318.303	3.3
318.757	3.3
319.211	3.29
319.665	3.28
320.119	3.27
320.572	3.27
321.026	3.26
321.48	3.25
321.934	3.25
322.387	3.24
322.841	3.24
323.295	3.23
323.748	3.23
324.202	3.23
324.655	3.23
325.108	3.21
325.562	3.2
326.015	3.19
326.468	3.18
326.921	3.17
327.374	3.16
327.827	3.16
328.28	3.16
328.733	3.15
329.186	3.15
329.639	3.15
330.092	3.16
330.545	3.16
330.997	3.17
331.45	3.18
331.903	3.17
332.355	3.18
332.808	3.17
333.26	3.17
333.713	3.18
334.165	3.17
334.617	3.18
335.069	3.17
335.522	3.18
335.974	3.18
336.426	3.18
336.878	3.17
337.33	3.18
337.782	3.19
338.234	3.19
338.686	3.18
339.137	3.18
339.589	3.17
340.041	3.17
340.493	3.17
340.944	3.15
341.396	3.16
341.847	3.16
342.299	3.15
342.75	3.13
343.201	3.12
343.653	3.11
344.104	3.09
344.555	3.07
345.006	3.06
345.457	3.06
345.908	3.06
346.359	3.05
346.81	3.05
347.261	3.04
347.712	3.04
348.163	3.03
348.613	3.03
349.064	3.02
349.515	3.03
349.965	3.02
350.416	3.01
350.866	3
351.317	2.99
351.767	2.98
352.217	2.97
352.668	2.98
353.118	2.99
353.568	3
354.018	3.01
354.468	3.01
354.918	3.02
355.368	3.04
355.818	3.04
356.268	3.05
356.718	3.05
357.168	3.05
357.617	3.05
358.067	3.03
358.517	3.03
358.966	3.03
359.416	3.03
359.865	3.03
360.315	3.01
360.764	3.01
361.213	3.01
361.663	3.01
362.112	3.03
362.561	3.03
363.01	3.05
363.459	3.04
363.908	3.04
364.357	3.04
364.806	3.04
365.255	3.06
365.703	3.06
366.152	3.07
366.601	3.08
367.05	3.08
367.498	3.08
367.947	3.08
368.395	3.1
368.844	3.12
369.292	3.13
369.74	3.14
370.189	3.15
370.637	3.16
371.085	3.18
371.533	3.18
371.981	3.2
372.429	3.22
372.877	3.23
373.325	3.25
373.773	3.26
374.221	3.27
374.669	3.29
375.116	3.3
375.564	3.31
376.012	3.32
376.459	3.36
376.907	3.37
377.354	3.4
377.801	3.42
378.249	3.44
378.696	3.48
379.143	3.5
379.591	3.53
380.038	3.57
380.485	3.61
380.932	3.64
381.379	3.65
381.826	3.69
382.273	3.73
382.72	3.77
383.166	3.8
383.613	3.83
384.06	3.87
384.506	3.9
384.953	3.94
385.4	3.97
385.846	4.01
386.292	4.07
386.739	4.1
387.185	4.16
387.631	4.21
388.078	4.26
388.524	4.29
388.97	4.34
389.416	4.37
389.862	4.43
390.308	4.49
390.754	4.54
391.2	4.6
391.645	4.67
392.091	4.71
392.537	4.77
392.983	4.84
393.428	4.92
393.874	5.02
394.319	5.13
394.765	5.22
395.21	5.31
395.655	5.42
396.101	5.52
396.546	5.63
396.991	5.76
397.436	5.86
397.881	6
398.326	6.15
398.771	6.27
399.216	6.39
399.661	6.53
400.106	6.67
400.551	6.77
400.995	6.87
401.44	6.96
401.885	7.03
402.329	7.14
402.774	7.23
403.218	7.32
403.663	7.42
404.107	7.55
404.551	7.67
404.995	7.75
405.44	7.85
405.884	7.97
406.328	8.09
406.772	8.24
407.216	8.39
407.66	8.54
408.104	8.65
408.547	8.78
408.991	8.86
409.435	8.96
409.879	9.08
410.322	9.22
410.766	9.37
411.209	9.52
411.653	9.64
412.096	9.74
412.54	9.84
412.983	9.94
413.426	10.06
413.869	10.2
414.312	10.34
414.756	10.47
415.199	10.59
415.642	10.7
416.085	10.8
416.527	10.89
416.97	10.95
417.413	10.98
417.856	11
418.298	11
418.741	11.01
419.184	11.05
419.626	11.09
420.069	11.12
420.511	11.15
420.953	11.16
421.396	11.21
421.838	11.29
422.28	11.4
422.722	11.52
423.164	11.62
423.606	11.71
424.048	11.75
424.49	11.78
424.932	11.76
425.374	11.67
425.816	11.54
426.258	11.4
426.699	11.28
427.141	11.25
427.582	11.31
428.024	11.4
428.465	11.52
428.907	11.64
429.348	11.75
429.789	11.87
430.231	12.09
430.672	12.4
431.113	12.76
431.554	13.1
431.995	13.38
432.436	13.56
432.877	13.69
433.318	13.78
433.759	13.89
434.2	14.05
434.64	14.26
435.081	14.47
435.522	14.64
435.962	14.8
436.403	14.95
436.843	15.07
437.284	15.2
437.724	15.34
438.164	15.53
438.604	15.75
439.045	15.93
439.485	16.08
439.925	16.21
440.365	16.33
440.805	16.4
441.245	16.44
441.685	16.54
442.125	16.65
442.564	16.81
443.004	16.93
443.444	17.07
443.883	17.25
444.323	17.42
444.762	17.62
445.202	17.84
445.641	18.1
446.081	18.39
446.52	18.64
446.959	18.89
447.398	19.09
447.837	19.24
448.276	19.32
448.716	19.4
449.154	19.5
449.593	19.57
450.032	19.61
450.471	19.6
450.91	19.58
451.349	19.56
451.787	19.56
452.226	19.55
452.664	19.57
453.103	19.59
453.541	19.59
453.98	19.58
454.418	19.54
454.856	19.45
455.295	19.41
455.733	19.36
456.171	19.33
456.609	19.29
457.047	19.28
457.485	19.26
457.923	19.28
458.361	19.29
458.798	19.32
459.236	19.38
459.674	19.44
460.111	19.51
460.549	19.56
460.987	19.62
461.424	19.69
461.862	19.72
462.299	19.77
462.736	19.84
463.173	19.96
463.611	20.06
464.048	20.19
464.485	20.35
464.922	20.51
465.359	20.67
465.796	20.8
466.233	20.95
466.67	21.13
467.106	21.37
467.543	21.6
467.98	21.81
468.416	22.02
468.853	22.19
469.29	22.4
469.726	22.57
470.162	22.77
470.599	23
471.035	23.18
471.471	23.3
471.907	23.39
472.344	23.45
472.78	23.51
473.216	23.59
473.652	23.64
474.088	23.68
474.523	23.73
474.959	23.75
475.395	23.76
475.831	23.79
476.266	23.82
476.702	23.84
477.138	23.85
477.573	23.83
478.008	23.8
478.444	23.74
478.879	23.67
479.314	23.58
479.75	23.48
480.185	23.33
480.62	23.16
481.055	22.88
481.49	22.52
481.925	22.13
482.36	21.78
482.795	21.49
483.229	21.28
483.664	21.11
484.099	20.97
484.534	20.84
484.968	20.78
485.403	20.76
485.837	20.84
486.271	21.01
486.706	21.17
487.14	21.29
487.574	21.36
488.009	21.4
488.443	21.43
488.877	21.46
489.311	21.5
489.745	21.56
490.179	21.62
490.613	21.69
491.046	21.76
491.48	21.87
491.914	22
492.348	22.17
492.781	22.32
493.215	22.46
493.648	22.59
494.082	22.72
494.515	22.81
494.948	22.91
495.382	23.02
495.815	23.1
496.248	23.17
496.681	23.22
497.114	23.29
497.547	23.37
497.98	23.49
498.413	23.65
498.846	23.82
499.279	24.01
499.711	24.18
500.144	24.36
500.577	24.6
501.009	24.91
501.442	25.28
501.874	25.66
502.306	26.01
502.739	26.31
503.171	26.6
503.603	26.93
504.036	27.25
504.468	27.63
504.9	28.01
505.332	28.37
505.764	28.7
506.196	29.02
506.627	29.37
507.059	29.76
507.491	30.17
507.923	30.6
508.354	30.99
508.786	31.37
509.217	31.71
509.649	32.05
510.08	32.41
510.512	32.79
510.943	33.17
511.374	33.54
511.805	33.83
512.237	34.05
512.668	34.2
513.099	34.43
513.53	34.69
513.961	34.98
514.391	35.31
514.822	35.68
515.253	36.09
515.684	36.5
516.114	36.93
516.545	37.45
516.975	38.1
517.406	38.8
517.836	39.43
518.267	40.06
518.697	40.67
519.127	41.27
519.558	41.84
519.988	42.39
520.418	42.93
520.848	43.42
521.278	43.88
521.708	44.17
522.138	44.4
522.567	44.67
522.997	44.93
523.427	45.25
523.857	45.54
524.286	45.89
524.716	46.21
525.145	46.5
525.575	46.82
526.004	47.15
526.433	47.6
526.863	48.12
527.292	48.58
527.721	48.96
528.15	49.21
528.579	49.44
529.008	49.58
529.437	49.71
529.866	49.83
530.295	49.95
530.724	50.12
531.152	50.26
531.581	50.38
532.01	50.47
532.438	50.58
532.867	50.72
533.295	50.88
533.723	51.05
534.152	51.18
534.58	51.26
535.008	51.29
535.436	51.23
535.865	51.15
536.293	51.05
536.721	51.04
537.149	51.07
537.576	51.11
538.004	51.15
538.432	51.15
538.86	51.19
539.287	51.3
539.715	51.44
540.143	51.62
540.57	51.79
540.998	52.02
541.425	52.22
541.852	52.39
542.28	52.55
542.707	52.68
543.134	52.83
543.561	52.93
543.988	53.02
544.415	53.14
544.842	53.26
545.269	53.4
545.696	53.49
546.123	53.6
546.549	53.68
546.976	53.79
547.403	53.9
547.829	54.03
548.256	54.16
548.682	54.23
549.108	54.32
549.535	54.38
549.961	54.45
550.387	54.52
550.813	54.58
551.24	54.65
551.666	54.7
552.092	54.71
552.518	54.67
552.943	54.64
553.369	54.6
553.795	54.51
554.221	54.39
554.646	54.21
555.072	54.04
555.498	53.85
555.923	53.68
556.349	53.49
556.774	53.36
557.199	53.23
557.625	53.09
558.05	52.96
558.475	52.84
558.9	52.75
559.325	52.66
559.75	52.52
560.175	52.39
560.6	52.2
561.025	52.02
561.449	51.75
561.874	51.5
562.299	51.27
562.723	51.05
563.148	50.81
563.572	50.57
563.997	50.29
564.421	50.01
564.846	49.71
565.27	49.47
565.694	49.15
566.118	48.87
566.542	48.59
566.966	48.27
567.39	47.96
567.814	47.69
568.238	47.42
568.662	47.23
569.086	47.06
569.509	46.87
569.933	46.65
570.357	46.46
570.78	46.26
571.204	46.07
571.627	45.89
572.05	45.71
572.474	45.51
572.897	45.31
573.32	45.07
573.743	44.81
574.166	44.56
574.589	44.35
575.012	44.19
575.435	44.05
575.858	43.96
576.281	43.84
576.704	43.73
577.126	43.6
577.549	43.5
577.972	43.46
578.394	43.42
578.817	43.4
579.239	43.39
579.661	43.36
580.084	43.3
580.506	43.2
580.928	43.1
581.35	42.99
581.772	42.9
582.194	42.78
582.616	42.65
583.038	42.53
583.46	42.39
583.882	42.18
584.303	41.93
584.725	41.62
585.147	41.3
585.568	41.05
585.99	40.84
586.411	40.66
586.833	40.49
587.254	40.33
587.675	40.17
588.096	40.02
588.518	39.93
588.939	39.9
589.36	39.96
589.781	40.04
590.202	40.05
590.623	40.02
591.043	39.95
591.464	39.89
591.885	39.81
592.305	39.75
592.726	39.67
593.147	39.61
593.567	39.5
593.987	39.38
594.408	39.24
594.828	39.12
595.248	39
595.669	38.89
596.089	38.75
596.509	38.59
596.929	38.43
597.349	38.24
597.769	38.06
598.189	37.91
598.608	37.77
599.028	37.66
599.448	37.54
599.867	37.47
600.287	37.37
600.706	37.27
601.126	37.17
601.545	37.07
601.965	36.99
602.384	36.91
602.803	36.8
603.222	36.67
603.641	36.53
604.061	36.38
604.48	36.16
604.898	35.98
605.317	35.8
605.736	35.61
606.155	35.4
606.574	35.22
606.992	35.02
607.411	34.82
607.829	34.6
608.248	34.41
608.666	34.22
609.085	34.04
609.503	33.85
609.921	33.67
610.339	33.51
610.758	33.36
611.176	33.16
611.594	32.97
612.012	32.78
612.43	32.62
612.847	32.43
613.265	32.28
613.683	32.14
614.101	32.01
614.518	31.88
614.936	31.74
615.353	31.6
615.771	31.51
616.188	31.44
616.606	31.36
617.023	31.29
617.44	31.19
617.857	31.08
618.274	30.96
618.691	30.84
619.108	30.72
619.525	30.6
619.942	30.46
620.359	30.34
620.776	30.17
621.192	30.01
621.609	29.87
622.026	29.76
622.442	29.68
622.859	29.58
623.275	29.5
623.691	29.39
624.108	29.28
624.524	29.22
624.94	29.15
625.356	29.08
625.772	29.02
626.188	28.96
626.604	28.89
627.02	28.8
627.436	28.73
627.852	28.66
628.268	28.63
628.683	28.6
629.099	28.56
629.514	28.5
629.93	28.47
630.345	28.45
630.761	28.42
631.176	28.39
631.591	28.34
632.007	28.27
632.422	28.21
632.837	28.14
633.252	28.06
633.667	27.97
634.082	27.9
634.497	27.79
634.911	27.67
635.326	27.54
635.741	27.38
636.155	27.23
636.57	27.08
636.984	26.91
637.399	26.7
637.813	26.51
638.228	26.32
638.642	26.12
639.056	25.91
639.47	25.71
639.884	25.48
640.298	25.29
640.712	25.09
641.126	24.87
641.54	24.67
641.954	24.49
642.368	24.28
642.781	24.05
643.195	23.81
643.609	23.6
644.022	23.4
644.436	23.2
644.849	22.98
645.262	22.78
645.676	22.57
646.089	22.4
646.502	22.23
646.915	22.09
647.328	21.95
647.741	21.83
648.154	21.71
648.567	21.6
648.98	21.51
649.393	21.44
649.805	21.37
650.218	21.3
650.631	21.19
651.043	21.05
651.456	20.85
651.868	20.63
652.28	20.38
652.693	20.17
653.105	19.97
653.517	19.81
653.929	19.67
654.341	19.54
654.753	19.42
655.165	19.32
655.577	19.24
655.989	19.2
656.401	19.22
656.813	19.23
657.224	19.21
657.636	19.18
658.047	19.11
658.459	18.99
658.87	18.86
659.282	18.72
659.693	18.58
660.104	18.42
660.515	18.27
660.926	18.12
661.338	17.97
661.749	17.81
662.159	17.64
662.57	17.49
662.981	17.34
663.392	17.19
663.803	17.04
664.213	16.89
664.624	16.78
665.035	16.65
665.445	16.52
665.855	16.39
666.266	16.29
666.676	16.16
667.086	16.04
667.497	15.92
667.907	15.82
668.317	15.71
668.727	15.63
669.137	15.55
669.547	15.47
669.956	15.38
670.366	15.34
670.776	15.26
671.186	15.22
671.595	15.17
672.005	15.14
672.414	15.1
672.824	15.09
673.233	15.07
673.642	15.01
674.052	14.99
674.461	14.98
674.87	14.97
675.279	14.99
675.688	14.99
676.097	14.99
676.506	14.99
676.915	15.01
677.323	15.05
677.732	15.11
678.141	15.18
678.549	15.25
678.958	15.34
679.366	15.4
679.775	15.48
680.183	15.57
680.592	15.71
681	15.85
681.408	16.01
681.816	16.13
682.224	16.23
682.632	16.3
683.04	16.34
683.448	16.43
683.856	16.56
684.264	16.72
684.671	16.92
685.079	17.13
685.487	17.4
685.894	17.7
686.302	18.06
686.709	18.5
687.116	19.03
687.524	19.64
687.931	20.29
688.338	20.94
688.745	21.6
689.152	22.29
689.559	22.97
689.966	23.66
690.373	24.35
690.78	25.05
691.187	25.75
691.593	26.42
692	27.11
692.407	27.77
692.813	28.43
693.22	29.11
693.626	29.75
694.032	30.39
694.439	31.02
694.845	31.61
695.251	32.21
695.657	32.78
696.063	33.38
696.469	33.92
696.875	34.41
697.281	34.88
697.687	35.35
698.093	35.81
698.498	36.3
698.904	36.77
699.31	37.23
699.715	37.7
700.12	38.15
700.526	38.59
700.931	39.03
701.337	39.51
701.742	39.93
702.147	40.36
702.552	40.78
702.957	41.15
703.362	41.53
703.767	41.91
704.172	42.27
704.577	42.6
704.981	42.93
705.386	43.24
705.791	43.57
706.195	43.93
706.6	44.23
707.004	44.52
707.408	44.85
707.813	45.12
708.217	45.38
708.621	45.63
709.025	45.89
709.43	46.15
709.834	46.41
710.237	46.61
710.641	46.84
711.045	47.06
711.449	47.28
711.853	47.45
712.256	47.62
712.66	47.76
713.064	47.9
713.467	47.96
713.87	47.99
714.274	48.02
714.677	48
715.08	47.95
715.484	47.93
715.887	47.94
716.29	47.97
716.693	48.01
717.096	48.14
717.499	48.31
717.901	48.52
718.304	48.79
718.707	49.04
719.109	49.32
719.512	49.57
719.915	49.8
720.317	50
720.719	50.15
721.122	50.33
721.524	50.45
721.926	50.53
722.328	50.61
722.731	50.63
723.133	50.67
723.535	50.78
723.937	50.87
724.338	50.93
724.74	51
725.142	51.02
725.544	51.09
725.945	51.16
726.347	51.24
726.748	51.29
727.15	51.39
727.551	51.5
727.952	51.56
728.354	51.7
728.755	51.83
729.156	51.99
729.557	52.22
729.958	52.36
730.359	52.49
730.76	52.62
731.161	52.75
731.562	52.86
731.962	52.93
732.363	53
732.763	53.02
733.164	53.08
733.564	53.09
733.965	53.06
734.365	53.01
734.766	53
735.166	52.97
735.566	52.92
735.966	52.9
736.366	52.88
736.766	52.83
737.166	52.86
737.566	52.81
737.966	52.81
738.365	52.82
738.765	52.87
739.165	52.87
739.564	52.86
739.964	52.9
740.363	52.9
740.763	52.92
741.162	52.95
741.561	52.95
741.96	53
742.36	53.03
742.759	53.03
743.158	53.02
743.557	53.02
743.955	53.04
744.354	53.06
744.753	53.07
745.152	53.05
745.55	53.04
745.949	53
746.348	52.96
746.746	52.93
747.144	52.92
747.543	52.91
747.941	52.95
748.339	52.94
748.737	52.92
749.136	52.92
749.534	52.95
749.932	52.96
750.33	52.98
750.727	52.99
751.125	52.97
751.523	52.92
751.921	52.92
752.318	52.86
752.716	52.81
753.113	52.77
753.511	52.69
753.908	52.61
754.305	52.5
754.703	52.32
755.1	52
755.497	51.5
755.894	50.85
756.291	50.01
756.688	49.19
757.085	48.41
757.482	47.68
757.878	47.03
758.275	46.36
758.672	45.73
759.068	45.14
759.465	44.7
759.861	44.5
760.258	44.52
760.654	44.74
761.05	45.05
761.447	45.33
761.843	45.58
762.239	45.89
762.635	46.21
763.031	46.65
763.427	47.12
763.822	47.61
764.218	48.11
764.614	48.56
765.01	48.96
765.405	49.3
765.801	49.65
766.196	49.94
766.592	50.17
766.987	50.4
767.382	50.5
767.778	50.62
768.173	50.71
768.568	50.73
768.963	50.76
769.358	50.8
769.753	50.85
770.148	50.85
770.542	50.85
770.937	50.83
771.332	50.79
771.726	50.77
772.121	50.72
772.515	50.66
772.91	50.64
773.304	50.62
773.699	50.58
774.093	50.49
774.487	50.46
