Data from C_2_div_pa_2n_086_Splice17_05.txt Node
Date: Sat Feb 29 14:16:05 EST 2020
User: sa697716
Spectrometer: FLMS03696
Trigger mode: 0
Integration Time (sec): 3.180400E-1
Scans to average: 20
Electric dark correction enabled: true
Nonlinearity correction enabled: true
Boxcar width: 5
XAxis mode: Wavelengths
Number of Pixels in Spectrum: 2048
>>>>>Begin Spectral Data<<<<<
187.83	84.6
188.298	88.6
188.766	86.11
189.233	72.32
189.701	83.27
190.169	80.11
190.636	90.25
191.104	87.78
191.571	252.69
192.039	335.92
192.506	-544.51
192.974	-944.56
193.441	-1.37
193.908	123.84
194.375	105.08
194.842	162.7
195.31	88.89
195.777	138.97
196.244	53.66
196.711	43.86
197.177	40.57
197.644	40.41
198.111	40.05
198.578	39.66
199.045	39.96
199.511	40.81
199.978	41.39
200.445	41.1
200.911	41.26
201.378	41.91
201.844	42.28
202.31	43.2
202.777	43.69
203.243	44.44
203.709	45.2
204.176	44.86
204.642	44.45
205.108	44.46
205.574	45.01
206.04	45.09
206.506	44.8
206.972	45.04
207.438	44.53
207.903	44.35
208.369	43.73
208.835	43.08
209.301	42.76
209.766	42.59
210.232	42.44
210.697	42.03
211.163	41.31
211.628	40.58
212.094	39.95
212.559	39.48
213.024	38.84
213.49	38.27
213.955	37.98
214.42	37.41
214.885	36.7
215.35	35.79
215.815	34.64
216.28	33.63
216.745	32.61
217.21	31.44
217.675	30.19
218.14	29.01
218.604	27.84
219.069	26.83
219.534	25.87
219.998	25.13
220.463	24.49
220.927	23.9
221.392	23.4
221.856	22.92
222.32	22.42
222.785	22.02
223.249	21.65
223.713	21.37
224.177	21.03
224.642	20.79
225.106	20.45
225.57	20.16
226.034	19.9
226.497	19.62
226.961	19.33
227.425	19.07
227.889	18.82
228.353	18.58
228.816	18.32
229.28	18.04
229.744	17.82
230.207	17.65
230.671	17.42
231.134	17.2
231.597	16.97
232.061	16.77
232.524	16.6
232.987	16.42
233.45	16.19
233.914	16
234.377	15.85
234.84	15.68
235.303	15.49
235.766	15.31
236.229	15.16
236.691	15.03
237.154	14.89
237.617	14.72
238.08	14.57
238.542	14.46
239.005	14.33
239.468	14.19
239.93	14.07
240.393	13.95
240.855	13.84
241.317	13.73
241.78	13.61
242.242	13.5
242.704	13.41
243.166	13.31
243.629	13.2
244.091	13.11
244.553	13.02
245.015	12.9
245.477	12.78
245.939	12.69
246.4	12.58
246.862	12.48
247.324	12.39
247.786	12.3
248.247	12.2
248.709	12.1
249.17	12.02
249.632	11.93
250.093	11.83
250.555	11.77
251.016	11.7
251.477	11.62
251.939	11.55
252.4	11.48
252.861	11.4
253.322	11.35
253.783	11.31
254.244	11.25
254.705	11.2
255.166	11.16
255.627	11.1
256.088	11.05
256.549	11.01
257.009	10.94
257.47	10.89
257.931	10.84
258.391	10.77
258.852	10.7
259.312	10.64
259.773	10.57
260.233	10.51
260.694	10.46
261.154	10.4
261.614	10.34
262.074	10.3
262.534	10.23
262.994	10.18
263.455	10.14
263.915	10.1
264.374	10.05
264.834	10.01
265.294	9.96
265.754	9.9
266.214	9.86
266.673	9.81
267.133	9.76
267.593	9.73
268.052	9.68
268.512	9.63
268.971	9.59
269.431	9.55
269.89	9.51
270.349	9.48
270.809	9.46
271.268	9.43
271.727	9.4
272.186	9.37
272.645	9.33
273.104	9.3
273.563	9.27
274.022	9.24
274.481	9.21
274.94	9.16
275.399	9.12
275.857	9.09
276.316	9.05
276.775	9
277.233	8.96
277.692	8.93
278.15	8.89
278.609	8.85
279.067	8.82
279.525	8.78
279.984	8.75
280.442	8.73
280.9	8.69
281.358	8.65
281.816	8.63
282.274	8.6
282.732	8.57
283.19	8.55
283.648	8.52
284.106	8.48
284.564	8.46
285.021	8.44
285.479	8.42
285.937	8.4
286.394	8.38
286.852	8.36
287.309	8.33
287.767	8.31
288.224	8.29
288.682	8.27
289.139	8.26
289.596	8.23
290.053	8.19
290.511	8.15
290.968	8.12
291.425	8.1
291.882	8.06
292.339	8.03
292.796	7.99
293.252	7.95
293.709	7.91
294.166	7.87
294.623	7.85
295.079	7.84
295.536	7.81
295.992	7.78
296.449	7.76
296.905	7.74
297.362	7.72
297.818	7.7
298.274	7.68
298.731	7.66
299.187	7.64
299.643	7.62
300.099	7.6
300.555	7.56
301.011	7.54
301.467	7.51
301.923	7.49
302.379	7.46
302.835	7.45
303.291	7.42
303.746	7.4
304.202	7.37
304.658	7.36
305.113	7.33
305.569	7.33
306.024	7.31
306.479	7.3
306.935	7.29
307.39	7.28
307.845	7.26
308.301	7.26
308.756	7.26
309.211	7.25
309.666	7.25
310.121	7.24
310.576	7.23
311.031	7.23
311.486	7.22
311.94	7.21
312.395	7.2
312.85	7.2
313.305	7.2
313.759	7.19
314.214	7.19
314.668	7.18
315.123	7.17
315.577	7.17
316.032	7.16
316.486	7.15
316.94	7.14
317.394	7.13
317.849	7.11
318.303	7.09
318.757	7.07
319.211	7.04
319.665	7.03
320.119	7.01
320.572	6.99
321.026	6.97
321.48	6.96
321.934	6.94
322.387	6.93
322.841	6.91
323.295	6.89
323.748	6.89
324.202	6.88
324.655	6.87
325.108	6.84
325.562	6.82
326.015	6.81
326.468	6.78
326.921	6.77
327.374	6.76
327.827	6.74
328.28	6.73
328.733	6.71
329.186	6.7
329.639	6.69
330.092	6.69
330.545	6.68
330.997	6.68
331.45	6.67
331.903	6.66
332.355	6.65
332.808	6.66
333.26	6.65
333.713	6.65
334.165	6.64
334.617	6.64
335.069	6.64
335.522	6.64
335.974	6.63
336.426	6.64
336.878	6.64
337.33	6.65
337.782	6.64
338.234	6.64
338.686	6.64
339.137	6.64
339.589	6.63
340.041	6.63
340.493	6.61
340.944	6.61
341.396	6.6
341.847	6.59
342.299	6.57
342.75	6.54
343.201	6.52
343.653	6.5
344.104	6.48
344.555	6.47
345.006	6.44
345.457	6.44
345.908	6.42
346.359	6.4
346.81	6.38
347.261	6.36
347.712	6.35
348.163	6.34
348.613	6.32
349.064	6.3
349.515	6.28
349.965	6.26
350.416	6.25
350.866	6.23
351.317	6.22
351.767	6.21
352.217	6.2
352.668	6.2
353.118	6.19
353.568	6.2
354.018	6.21
354.468	6.2
354.918	6.22
355.368	6.22
355.818	6.21
356.268	6.22
356.718	6.21
357.168	6.21
357.617	6.2
358.067	6.19
358.517	6.18
358.966	6.17
359.416	6.18
359.865	6.16
360.315	6.16
360.764	6.15
361.213	6.14
361.663	6.15
362.112	6.16
362.561	6.16
363.01	6.16
363.459	6.16
363.908	6.16
364.357	6.15
364.806	6.14
365.255	6.14
365.703	6.14
366.152	6.14
366.601	6.13
367.05	6.12
367.498	6.12
367.947	6.1
368.395	6.11
368.844	6.1
369.292	6.09
369.74	6.1
370.189	6.09
370.637	6.09
371.085	6.09
371.533	6.09
371.981	6.08
372.429	6.07
372.877	6.09
373.325	6.07
373.773	6.06
374.221	6.05
374.669	6.04
375.116	6.03
375.564	6.02
376.012	6.02
376.459	6.02
376.907	6.03
377.354	6.03
377.801	6.03
378.249	6.04
378.696	6.05
379.143	6.04
379.591	6.05
380.038	6.06
380.485	6.06
380.932	6.07
381.379	6.06
381.826	6.06
382.273	6.06
382.72	6.06
383.166	6.07
383.613	6.09
384.06	6.1
384.506	6.1
384.953	6.1
385.4	6.11
385.846	6.12
386.292	6.15
386.739	6.15
387.185	6.17
387.631	6.19
388.078	6.2
388.524	6.19
388.97	6.2
389.416	6.21
389.862	6.21
390.308	6.23
390.754	6.23
391.2	6.24
391.645	6.26
392.091	6.27
392.537	6.27
392.983	6.29
393.428	6.31
393.874	6.35
394.319	6.38
394.765	6.4
395.21	6.4
395.655	6.43
396.101	6.45
396.546	6.46
396.991	6.48
397.436	6.49
397.881	6.51
398.326	6.53
398.771	6.55
399.216	6.57
399.661	6.6
400.106	6.64
400.551	6.65
400.995	6.67
401.44	6.68
401.885	6.68
402.329	6.7
402.774	6.71
403.218	6.74
403.663	6.76
404.107	6.77
404.551	6.8
404.995	6.81
405.44	6.82
405.884	6.83
406.328	6.86
406.772	6.89
407.216	6.92
407.66	6.95
408.104	6.96
408.547	6.98
408.991	7
409.435	7
409.879	7.03
410.322	7.07
410.766	7.11
411.209	7.14
411.653	7.14
412.096	7.16
412.54	7.18
412.983	7.22
413.426	7.24
413.869	7.26
414.312	7.31
414.756	7.34
415.199	7.37
415.642	7.41
416.085	7.44
416.527	7.49
416.97	7.53
417.413	7.53
417.856	7.54
418.298	7.54
418.741	7.55
419.184	7.55
419.626	7.55
420.069	7.55
420.511	7.55
420.953	7.55
421.396	7.55
421.838	7.57
422.28	7.63
422.722	7.66
423.164	7.69
423.606	7.72
424.048	7.73
424.49	7.77
424.932	7.8
425.374	7.82
425.816	7.83
426.258	7.83
426.699	7.79
427.141	7.75
427.582	7.75
428.024	7.75
428.465	7.75
428.907	7.78
429.348	7.79
429.789	7.77
430.231	7.76
430.672	7.76
431.113	7.79
431.554	7.83
431.995	7.87
432.436	7.86
432.877	7.85
433.318	7.85
433.759	7.85
434.2	7.85
434.64	7.88
435.081	7.89
435.522	7.92
435.962	7.94
436.403	7.97
436.843	7.99
437.284	8.03
437.724	8.08
438.164	8.1
438.604	8.12
439.045	8.14
439.485	8.15
439.925	8.16
440.365	8.15
440.805	8.16
441.245	8.15
441.685	8.17
442.125	8.17
442.564	8.21
443.004	8.22
443.444	8.23
443.883	8.23
444.323	8.23
444.762	8.26
445.202	8.29
445.641	8.3
446.081	8.35
446.52	8.34
446.959	8.36
447.398	8.37
447.837	8.41
448.276	8.42
448.716	8.44
449.154	8.49
449.593	8.49
450.032	8.48
450.471	8.48
450.91	8.45
451.349	8.47
451.787	8.47
452.226	8.44
452.664	8.41
453.103	8.4
453.541	8.4
453.98	8.37
454.418	8.35
454.856	8.35
455.295	8.35
455.733	8.35
456.171	8.31
456.609	8.31
457.047	8.3
457.485	8.3
457.923	8.28
458.361	8.27
458.798	8.28
459.236	8.29
459.674	8.28
460.111	8.27
460.549	8.26
460.987	8.27
461.424	8.25
461.862	8.25
462.299	8.25
462.736	8.26
463.173	8.25
463.611	8.22
464.048	8.22
464.485	8.22
464.922	8.2
465.359	8.23
465.796	8.21
466.233	8.22
466.67	8.21
467.106	8.2
467.543	8.2
467.98	8.21
468.416	8.24
468.853	8.24
469.29	8.25
469.726	8.26
470.162	8.26
470.599	8.28
471.035	8.28
471.471	8.28
471.907	8.28
472.344	8.28
472.78	8.29
473.216	8.29
473.652	8.28
474.088	8.29
474.523	8.27
474.959	8.25
475.395	8.24
475.831	8.24
476.266	8.25
476.702	8.24
477.138	8.22
477.573	8.2
478.008	8.19
478.444	8.17
478.879	8.15
479.314	8.13
479.75	8.13
480.185	8.12
480.62	8.1
481.055	8.09
481.49	8.07
481.925	8.05
482.36	8.02
482.795	7.99
483.229	7.99
483.664	7.99
484.099	7.98
484.534	7.96
484.968	7.96
485.403	7.94
485.837	7.93
486.271	7.93
486.706	7.93
487.14	7.94
487.574	7.93
488.009	7.92
488.443	7.91
488.877	7.89
489.311	7.89
489.745	7.89
490.179	7.88
490.613	7.87
491.046	7.87
491.48	7.86
491.914	7.86
492.348	7.86
492.781	7.88
493.215	7.87
493.648	7.89
494.082	7.9
494.515	7.91
494.948	7.91
495.382	7.94
495.815	7.96
496.248	7.98
496.681	7.98
497.114	8
497.547	8
497.98	8.04
498.413	8.05
498.846	8.08
499.279	8.1
499.711	8.14
500.144	8.16
500.577	8.17
501.009	8.19
501.442	8.23
501.874	8.27
502.306	8.32
502.739	8.36
503.171	8.41
503.603	8.45
504.036	8.51
504.468	8.57
504.9	8.64
505.332	8.72
505.764	8.81
506.196	8.89
506.627	8.98
507.059	9.05
507.491	9.15
507.923	9.23
508.354	9.35
508.786	9.44
509.217	9.54
509.649	9.64
510.08	9.75
510.512	9.86
510.943	10
511.374	10.11
511.805	10.26
512.237	10.41
512.668	10.56
513.099	10.71
513.53	10.87
513.961	11.04
514.391	11.21
514.822	11.39
515.253	11.57
515.684	11.75
516.114	11.96
516.545	12.14
516.975	12.34
517.406	12.55
517.836	12.75
518.267	12.97
518.697	13.19
519.127	13.43
519.558	13.63
519.988	13.86
520.418	14.09
520.848	14.31
521.278	14.55
521.708	14.73
522.138	14.95
522.567	15.18
522.997	15.4
523.427	15.62
523.857	15.82
524.286	16.05
524.716	16.26
525.145	16.47
525.575	16.65
526.004	16.87
526.433	17.11
526.863	17.31
527.292	17.51
527.721	17.68
528.15	17.84
528.579	18.01
529.008	18.18
529.437	18.34
529.866	18.48
530.295	18.61
530.724	18.74
531.152	18.87
531.581	18.99
532.01	19.1
532.438	19.2
532.867	19.33
533.295	19.43
533.723	19.52
534.152	19.63
534.58	19.71
535.008	19.78
535.436	19.83
535.865	19.89
536.293	19.96
536.721	20.03
537.149	20.09
537.576	20.14
538.004	20.18
538.432	20.22
538.86	20.25
539.287	20.28
539.715	20.36
540.143	20.4
540.57	20.43
540.998	20.46
541.425	20.49
541.852	20.53
542.28	20.56
542.707	20.6
543.134	20.62
543.561	20.65
543.988	20.7
544.415	20.71
544.842	20.74
545.269	20.8
545.696	20.82
546.123	20.83
546.549	20.86
546.976	20.89
547.403	20.91
547.829	20.96
548.256	20.99
548.682	21
549.108	21.03
549.535	21.07
549.961	21.06
550.387	21.07
550.813	21.08
551.24	21.07
551.666	21.09
552.092	21.07
552.518	21.05
552.943	21.01
553.369	20.99
553.795	20.95
554.221	20.9
554.646	20.85
555.072	20.8
555.498	20.75
555.923	20.69
556.349	20.61
556.774	20.55
557.199	20.47
557.625	20.39
558.05	20.29
558.475	20.19
558.9	20.11
559.325	20.02
559.75	19.93
560.175	19.84
560.6	19.73
561.025	19.63
561.449	19.5
561.874	19.38
562.299	19.28
562.723	19.17
563.148	19.04
563.572	18.93
563.997	18.78
564.421	18.64
564.846	18.49
565.27	18.33
565.694	18.18
566.118	18.03
566.542	17.88
566.966	17.73
567.39	17.56
567.814	17.41
568.238	17.21
568.662	17.06
569.086	16.9
569.509	16.74
569.933	16.58
570.357	16.42
570.78	16.27
571.204	16.11
571.627	15.95
572.05	15.82
572.474	15.7
572.897	15.59
573.32	15.45
573.743	15.31
574.166	15.18
574.589	15.06
575.012	14.95
575.435	14.84
575.858	14.75
576.281	14.66
576.704	14.55
577.126	14.44
577.549	14.36
577.972	14.27
578.394	14.2
578.817	14.13
579.239	14.05
579.661	13.98
580.084	13.9
580.506	13.84
580.928	13.77
581.35	13.7
581.772	13.65
582.194	13.58
582.616	13.54
583.038	13.5
583.46	13.45
583.882	13.4
584.303	13.36
584.725	13.32
585.147	13.24
585.568	13.18
585.99	13.15
586.411	13.12
586.833	13.07
587.254	13.03
587.675	12.97
588.096	12.94
588.518	12.9
588.939	12.87
589.36	12.84
589.781	12.83
590.202	12.8
590.623	12.76
591.043	12.72
591.464	12.7
591.885	12.68
592.305	12.67
592.726	12.64
593.147	12.62
593.567	12.59
593.987	12.58
594.408	12.56
594.828	12.55
595.248	12.55
595.669	12.54
596.089	12.52
596.509	12.48
596.929	12.45
597.349	12.41
597.769	12.39
598.189	12.36
598.608	12.32
599.028	12.28
599.448	12.25
599.867	12.2
600.287	12.16
600.706	12.12
601.126	12.09
601.545	12.06
601.965	12.03
602.384	12
602.803	11.94
603.222	11.9
603.641	11.87
604.061	11.82
604.48	11.79
604.898	11.73
605.317	11.68
605.736	11.62
606.155	11.56
606.574	11.5
606.992	11.43
607.411	11.39
607.829	11.29
608.248	11.25
608.666	11.19
609.085	11.13
609.503	11.08
609.921	11.03
610.339	10.99
610.758	10.95
611.176	10.89
611.594	10.84
612.012	10.79
612.43	10.8
612.847	10.76
613.265	10.73
613.683	10.68
614.101	10.63
614.518	10.59
614.936	10.55
615.353	10.5
615.771	10.46
616.188	10.43
616.606	10.38
617.023	10.34
617.44	10.28
617.857	10.23
618.274	10.2
618.691	10.18
619.108	10.16
619.525	10.14
619.942	10.1
620.359	10.08
620.776	10.06
621.192	10.05
621.609	10.03
622.026	10.01
622.442	10
622.859	9.99
623.275	9.98
623.691	9.98
624.108	9.96
624.524	9.97
624.94	9.96
625.356	9.95
625.772	9.95
626.188	9.97
626.604	9.96
627.02	9.96
627.436	9.95
627.852	9.93
628.268	9.92
628.683	9.91
629.099	9.91
629.514	9.91
629.93	9.91
630.345	9.89
630.761	9.86
631.176	9.86
631.591	9.86
632.007	9.84
632.422	9.84
632.837	9.82
633.252	9.81
633.667	9.79
634.082	9.77
634.497	9.73
634.911	9.69
635.326	9.66
635.741	9.62
636.155	9.58
636.57	9.54
636.984	9.48
637.399	9.41
637.813	9.34
638.228	9.28
638.642	9.25
639.056	9.2
639.47	9.18
639.884	9.13
640.298	9.08
640.712	9.03
641.126	8.99
641.54	8.96
641.954	8.95
642.368	8.92
642.781	8.88
643.195	8.82
643.609	8.78
644.022	8.73
644.436	8.7
644.849	8.67
645.262	8.64
645.676	8.61
646.089	8.57
646.502	8.54
646.915	8.52
647.328	8.49
647.741	8.46
648.154	8.45
648.567	8.42
648.98	8.4
649.393	8.38
649.805	8.35
650.218	8.32
650.631	8.31
651.043	8.29
651.456	8.28
651.868	8.26
652.28	8.26
652.693	8.23
653.105	8.22
653.517	8.2
653.929	8.19
654.341	8.19
654.753	8.17
655.165	8.15
655.577	8.12
655.989	8.09
656.401	8.06
656.813	8.03
657.224	8.02
657.636	8
658.047	7.98
658.459	7.94
658.87	7.92
659.282	7.92
659.693	7.88
660.104	7.87
660.515	7.86
660.926	7.86
661.338	7.85
661.749	7.83
662.159	7.81
662.57	7.79
662.981	7.78
663.392	7.76
663.803	7.74
664.213	7.74
664.624	7.73
665.035	7.7
665.445	7.7
665.855	7.7
666.266	7.71
666.676	7.72
667.086	7.71
667.497	7.71
667.907	7.7
668.317	7.69
668.727	7.7
669.137	7.72
669.547	7.73
669.956	7.72
670.366	7.73
670.776	7.73
671.186	7.73
671.595	7.75
672.005	7.76
672.414	7.77
672.824	7.8
673.233	7.83
673.642	7.82
674.052	7.84
674.461	7.85
674.87	7.87
675.279	7.88
675.688	7.89
676.097	7.91
676.506	7.92
676.915	7.96
677.323	7.98
677.732	8
678.141	8.04
678.549	8.08
678.958	8.12
679.366	8.14
679.775	8.17
680.183	8.2
680.592	8.25
681	8.28
681.408	8.3
681.816	8.32
682.224	8.35
682.632	8.39
683.04	8.42
683.448	8.45
683.856	8.51
684.264	8.57
684.671	8.62
685.079	8.67
685.487	8.76
685.894	8.85
686.302	8.95
686.709	9.05
687.116	9.15
687.524	9.26
687.931	9.4
688.338	9.56
688.745	9.75
689.152	9.96
689.559	10.18
689.966	10.41
690.373	10.69
690.78	10.96
691.187	11.28
691.593	11.6
692	11.97
692.407	12.36
692.813	12.77
693.22	13.19
693.626	13.63
694.032	14.1
694.439	14.63
694.845	15.13
695.251	15.67
695.657	16.24
696.063	16.84
696.469	17.44
696.875	18.03
697.281	18.63
697.687	19.27
698.093	19.93
698.498	20.59
698.904	21.23
699.31	21.89
699.715	22.57
700.12	23.25
700.526	23.93
700.931	24.6
701.337	25.3
701.742	25.98
702.147	26.66
702.552	27.36
702.957	28.04
703.362	28.72
703.767	29.4
704.172	30.1
704.577	30.76
704.981	31.44
705.386	32.13
705.791	32.82
706.195	33.52
706.6	34.2
707.004	34.87
707.408	35.53
707.813	36.21
708.217	36.89
708.621	37.58
709.025	38.23
709.43	38.89
709.834	39.56
710.237	40.17
710.641	40.82
711.045	41.45
711.449	42.06
711.853	42.67
712.256	43.29
712.66	43.95
713.064	44.54
713.467	45.17
713.87	45.81
714.274	46.42
714.677	47.05
715.08	47.67
715.484	48.32
715.887	48.94
716.29	49.57
716.693	50.16
717.096	50.75
717.499	51.34
717.901	51.88
718.304	52.44
718.707	52.95
719.109	53.52
719.512	54.08
719.915	54.57
720.317	55.1
720.719	55.6
721.122	56.07
721.524	56.55
721.926	57.05
722.328	57.52
722.731	58.02
723.133	58.51
723.535	58.95
723.937	59.38
724.338	59.82
724.74	60.22
725.142	60.5
725.544	60.92
725.945	61.27
726.347	61.64
726.748	61.97
727.15	62.28
727.551	62.63
727.952	62.93
728.354	63.25
728.755	63.55
729.156	63.87
729.557	64.31
729.958	64.65
730.359	64.95
730.76	65.21
731.161	65.51
731.562	65.77
731.962	66.03
732.363	66.3
732.763	66.52
733.164	66.73
733.564	66.93
733.965	67.09
734.365	67.25
734.766	67.41
735.166	67.55
735.566	67.72
735.966	67.85
736.366	67.96
736.766	68.1
737.166	68.26
737.566	68.38
737.966	68.53
738.365	68.66
738.765	68.81
739.165	68.94
739.564	69.09
739.964	69.19
740.363	69.34
740.763	69.49
741.162	69.58
741.561	69.65
741.96	69.78
742.36	69.88
742.759	69.99
743.158	70.05
743.557	70.12
743.955	70.23
744.354	70.39
744.753	70.5
745.152	70.58
745.55	70.68
745.949	70.79
746.348	70.91
746.746	70.98
747.144	71.1
747.543	71.21
747.941	71.36
748.339	71.47
748.737	71.56
749.136	71.63
749.534	71.72
749.932	71.81
750.33	71.9
750.727	71.91
751.125	71.97
751.523	72
751.921	72.04
752.318	72.07
752.716	72.07
753.113	72.05
753.511	72.03
753.908	72.02
754.305	71.99
754.703	71.95
755.1	71.95
755.497	71.94
755.894	71.93
756.291	71.9
756.688	71.85
757.085	71.83
757.482	71.81
757.878	71.86
758.275	71.82
758.672	71.86
759.068	71.86
759.465	71.86
759.861	71.82
760.258	71.77
760.654	71.78
761.05	71.79
761.447	71.79
761.843	71.8
762.239	71.73
762.635	71.76
763.031	71.75
763.427	71.73
763.822	71.7
764.218	71.73
764.614	71.77
765.01	71.76
765.405	71.72
765.801	71.66
766.196	71.66
766.592	71.7
766.987	71.73
767.382	71.71
767.778	71.72
768.173	71.75
768.568	71.74
768.963	71.75
769.358	71.74
769.753	71.79
770.148	71.82
770.542	71.82
770.937	71.81
771.332	71.79
771.726	71.78
772.121	71.76
772.515	71.79
772.91	71.8
773.304	71.82
773.699	71.87
774.093	71.84
774.487	71.9
774.881	71.93
775.275	71.97
775.669	72.03
776.063	72.06
776.457	72.11
776.851	72.09
777.245	72.1
777.638	72.1
778.032	72.09
778.425	72.14
778.819	72.12
779.212	72.08
779.606	72.08
779.999	72.03
780.392	72.03
780.786	72.03
781.179	72.07
781.572	72.06
781.965	72.1
