Data from C_2_div_pa_2n_086_Splice17_12.txt Node
Date: Sat Feb 29 14:16:19 EST 2020
User: sa697716
Spectrometer: FLMS03696
Trigger mode: 0
Integration Time (sec): 3.180400E-1
Scans to average: 20
Electric dark correction enabled: true
Nonlinearity correction enabled: true
Boxcar width: 5
XAxis mode: Wavelengths
Number of Pixels in Spectrum: 2048
>>>>>Begin Spectral Data<<<<<
187.83	102.32
188.298	113.23
188.766	103.47
189.233	96.89
189.701	101.84
190.169	116.1
190.636	116.43
191.104	107.51
191.571	296.14
192.039	237.48
192.506	-223.35
192.974	2524.79
193.441	56.12
193.908	57.02
194.375	97.97
194.842	135.94
195.31	121.77
195.777	103.59
196.244	44.84
196.711	46.64
197.177	42.91
197.644	44.12
198.111	42.96
198.578	43.82
199.045	44.51
199.511	44.43
199.978	44.82
200.445	45.04
200.911	44.83
201.378	45.23
201.844	45.71
202.31	46.53
202.777	46.88
203.243	47.62
203.709	47.62
204.176	47.24
204.642	47.3
205.108	47.07
205.574	47.53
206.04	47.72
206.506	47.54
206.972	46.72
207.438	46.11
207.903	45.68
208.369	44.58
208.835	44.56
209.301	44.48
209.766	44.03
210.232	43.95
210.697	43.29
211.163	43
211.628	42.21
212.094	42.01
212.559	41.78
213.024	41.06
213.49	40.93
213.955	40.44
214.42	39.64
214.885	38.6
215.35	37.74
215.815	36.51
216.28	35.31
216.745	34.24
217.21	32.88
217.675	31.51
218.14	30.12
218.604	28.83
219.069	27.79
219.534	26.82
219.998	26.01
220.463	25.25
220.927	24.63
221.392	24.04
221.856	23.46
222.32	22.95
222.785	22.5
223.249	22.12
223.713	21.8
224.177	21.42
224.642	21.15
225.106	20.86
225.57	20.54
226.034	20.28
226.497	19.98
226.961	19.68
227.425	19.39
227.889	19.13
228.353	18.88
228.816	18.65
229.28	18.39
229.744	18.15
230.207	17.95
230.671	17.72
231.134	17.49
231.597	17.27
232.061	17.08
232.524	16.91
232.987	16.71
233.45	16.5
233.914	16.29
234.377	16.12
234.84	15.92
235.303	15.72
235.766	15.57
236.229	15.39
236.691	15.24
237.154	15.1
237.617	14.93
238.08	14.8
238.542	14.68
239.005	14.54
239.468	14.42
239.93	14.3
240.393	14.18
240.855	14.04
241.317	13.94
241.78	13.84
242.242	13.71
242.704	13.61
243.166	13.49
243.629	13.36
244.091	13.26
244.553	13.16
245.015	13.05
245.477	12.95
245.939	12.87
246.4	12.76
246.862	12.66
247.324	12.6
247.786	12.51
248.247	12.44
248.709	12.37
249.17	12.29
249.632	12.2
250.093	12.11
250.555	12.03
251.016	11.97
251.477	11.89
251.939	11.81
252.4	11.72
252.861	11.65
253.322	11.58
253.783	11.52
254.244	11.45
254.705	11.39
255.166	11.34
255.627	11.29
256.088	11.23
256.549	11.18
257.009	11.14
257.47	11.08
257.931	11.02
258.391	10.95
258.852	10.89
259.312	10.82
259.773	10.76
260.233	10.69
260.694	10.63
261.154	10.57
261.614	10.51
262.074	10.46
262.534	10.4
262.994	10.34
263.455	10.3
263.915	10.25
264.374	10.2
264.834	10.17
265.294	10.12
265.754	10.07
266.214	10.02
266.673	9.97
267.133	9.92
267.593	9.89
268.052	9.85
268.512	9.8
268.971	9.74
269.431	9.71
269.89	9.66
270.349	9.63
270.809	9.6
271.268	9.57
271.727	9.54
272.186	9.5
272.645	9.46
273.104	9.43
273.563	9.41
274.022	9.39
274.481	9.35
274.94	9.31
275.399	9.27
275.857	9.23
276.316	9.19
276.775	9.16
277.233	9.12
277.692	9.09
278.15	9.05
278.609	9.01
279.067	8.97
279.525	8.93
279.984	8.89
280.442	8.85
280.9	8.83
281.358	8.8
281.816	8.77
282.274	8.73
282.732	8.7
283.19	8.67
283.648	8.64
284.106	8.61
284.564	8.59
285.021	8.57
285.479	8.55
285.937	8.53
286.394	8.51
286.852	8.48
287.309	8.46
287.767	8.44
288.224	8.42
288.682	8.41
289.139	8.4
289.596	8.36
290.053	8.33
290.511	8.29
290.968	8.26
291.425	8.23
291.882	8.19
292.339	8.15
292.796	8.11
293.252	8.07
293.709	8.03
294.166	7.99
294.623	7.97
295.079	7.94
295.536	7.91
295.992	7.88
296.449	7.86
296.905	7.84
297.362	7.82
297.818	7.8
298.274	7.79
298.731	7.76
299.187	7.75
299.643	7.72
300.099	7.7
300.555	7.68
301.011	7.66
301.467	7.63
301.923	7.6
302.379	7.59
302.835	7.57
303.291	7.54
303.746	7.52
304.202	7.49
304.658	7.47
305.113	7.46
305.569	7.45
306.024	7.44
306.479	7.42
306.935	7.41
307.39	7.4
307.845	7.39
308.301	7.39
308.756	7.39
309.211	7.38
309.666	7.37
310.121	7.35
310.576	7.34
311.031	7.33
311.486	7.33
311.94	7.32
312.395	7.31
312.85	7.3
313.305	7.29
313.759	7.28
314.214	7.28
314.668	7.28
315.123	7.29
315.577	7.29
316.032	7.28
316.486	7.26
316.94	7.25
317.394	7.23
317.849	7.22
318.303	7.2
318.757	7.19
319.211	7.16
319.665	7.15
320.119	7.12
320.572	7.1
321.026	7.08
321.48	7.06
321.934	7.05
322.387	7.04
322.841	7.02
323.295	6.99
323.748	6.98
324.202	6.96
324.655	6.94
325.108	6.93
325.562	6.9
326.015	6.89
326.468	6.87
326.921	6.85
327.374	6.84
327.827	6.82
328.28	6.8
328.733	6.78
329.186	6.78
329.639	6.78
330.092	6.77
330.545	6.77
330.997	6.77
331.45	6.77
331.903	6.76
332.355	6.75
332.808	6.76
333.26	6.77
333.713	6.77
334.165	6.76
334.617	6.75
335.069	6.74
335.522	6.73
335.974	6.74
336.426	6.74
336.878	6.74
337.33	6.73
337.782	6.72
338.234	6.72
338.686	6.72
339.137	6.72
339.589	6.71
340.041	6.7
340.493	6.7
340.944	6.68
341.396	6.66
341.847	6.65
342.299	6.62
342.75	6.59
343.201	6.56
343.653	6.53
344.104	6.51
344.555	6.49
345.006	6.47
345.457	6.46
345.908	6.45
346.359	6.44
346.81	6.44
347.261	6.43
347.712	6.43
348.163	6.42
348.613	6.42
349.064	6.4
349.515	6.37
349.965	6.36
350.416	6.35
350.866	6.33
351.317	6.31
351.767	6.3
352.217	6.29
352.668	6.28
353.118	6.29
353.568	6.29
354.018	6.29
354.468	6.3
354.918	6.3
355.368	6.29
355.818	6.28
356.268	6.28
356.718	6.28
357.168	6.27
357.617	6.26
358.067	6.24
358.517	6.23
358.966	6.23
359.416	6.22
359.865	6.21
360.315	6.22
360.764	6.21
361.213	6.2
361.663	6.2
362.112	6.21
362.561	6.22
363.01	6.22
363.459	6.21
363.908	6.21
364.357	6.2
364.806	6.19
365.255	6.19
365.703	6.19
366.152	6.19
366.601	6.18
367.05	6.17
367.498	6.16
367.947	6.16
368.395	6.17
368.844	6.16
369.292	6.15
369.74	6.16
370.189	6.15
370.637	6.15
371.085	6.16
371.533	6.16
371.981	6.17
372.429	6.16
372.877	6.15
373.325	6.15
373.773	6.14
374.221	6.15
374.669	6.14
375.116	6.13
375.564	6.12
376.012	6.12
376.459	6.11
376.907	6.1
377.354	6.11
377.801	6.11
378.249	6.12
378.696	6.13
379.143	6.13
379.591	6.14
380.038	6.15
380.485	6.17
380.932	6.16
381.379	6.16
381.826	6.17
382.273	6.17
382.72	6.17
383.166	6.17
383.613	6.16
384.06	6.17
384.506	6.16
384.953	6.16
385.4	6.17
385.846	6.17
386.292	6.19
386.739	6.2
387.185	6.21
387.631	6.23
388.078	6.25
388.524	6.24
388.97	6.24
389.416	6.24
389.862	6.25
390.308	6.26
390.754	6.26
391.2	6.28
391.645	6.3
392.091	6.3
392.537	6.31
392.983	6.34
393.428	6.36
393.874	6.39
394.319	6.41
394.765	6.41
395.21	6.43
395.655	6.45
396.101	6.46
396.546	6.48
396.991	6.5
397.436	6.5
397.881	6.51
398.326	6.55
398.771	6.57
399.216	6.61
399.661	6.65
400.106	6.69
400.551	6.71
400.995	6.71
401.44	6.71
401.885	6.73
402.329	6.76
402.774	6.78
403.218	6.78
403.663	6.8
404.107	6.82
404.551	6.84
404.995	6.86
405.44	6.88
405.884	6.9
406.328	6.93
406.772	6.95
407.216	7
407.66	7.02
408.104	7.05
408.547	7.08
408.991	7.09
409.435	7.1
409.879	7.12
410.322	7.15
410.766	7.18
411.209	7.22
411.653	7.23
412.096	7.24
412.54	7.24
412.983	7.26
413.426	7.28
413.869	7.31
414.312	7.34
414.756	7.37
415.199	7.42
415.642	7.44
416.085	7.46
416.527	7.52
416.97	7.56
417.413	7.58
417.856	7.58
418.298	7.58
418.741	7.58
419.184	7.58
419.626	7.59
420.069	7.59
420.511	7.61
420.953	7.6
421.396	7.59
421.838	7.61
422.28	7.65
422.722	7.7
423.164	7.73
423.606	7.76
424.048	7.77
424.49	7.8
424.932	7.82
425.374	7.82
425.816	7.84
426.258	7.84
426.699	7.81
427.141	7.77
427.582	7.75
428.024	7.75
428.465	7.77
428.907	7.8
429.348	7.8
429.789	7.8
430.231	7.78
430.672	7.8
431.113	7.83
431.554	7.86
431.995	7.91
432.436	7.94
432.877	7.95
433.318	7.95
433.759	7.95
434.2	7.97
434.64	7.99
435.081	8
435.522	8.02
435.962	8.04
436.403	8.08
436.843	8.09
437.284	8.1
437.724	8.13
438.164	8.15
438.604	8.16
439.045	8.17
439.485	8.17
439.925	8.17
440.365	8.18
440.805	8.18
441.245	8.17
441.685	8.2
442.125	8.19
442.564	8.2
443.004	8.2
443.444	8.22
443.883	8.23
444.323	8.24
444.762	8.28
445.202	8.32
445.641	8.32
446.081	8.36
446.52	8.38
446.959	8.39
447.398	8.4
447.837	8.43
448.276	8.44
448.716	8.47
449.154	8.5
449.593	8.51
450.032	8.53
450.471	8.54
450.91	8.54
451.349	8.52
451.787	8.54
452.226	8.52
452.664	8.5
453.103	8.49
453.541	8.47
453.98	8.44
454.418	8.44
454.856	8.4
455.295	8.38
455.733	8.37
456.171	8.36
456.609	8.35
457.047	8.33
457.485	8.32
457.923	8.3
458.361	8.3
458.798	8.31
459.236	8.29
459.674	8.3
460.111	8.29
460.549	8.27
460.987	8.28
461.424	8.26
461.862	8.28
462.299	8.28
462.736	8.28
463.173	8.27
463.611	8.26
464.048	8.26
464.485	8.27
464.922	8.28
465.359	8.3
465.796	8.27
466.233	8.29
466.67	8.29
467.106	8.3
467.543	8.31
467.98	8.32
468.416	8.34
468.853	8.33
469.29	8.34
469.726	8.33
470.162	8.32
470.599	8.33
471.035	8.33
471.471	8.33
471.907	8.33
472.344	8.34
472.78	8.35
473.216	8.34
473.652	8.33
474.088	8.33
474.523	8.33
474.959	8.32
475.395	8.31
475.831	8.3
476.266	8.28
476.702	8.26
477.138	8.23
477.573	8.21
478.008	8.19
478.444	8.17
478.879	8.15
479.314	8.13
479.75	8.13
480.185	8.11
480.62	8.1
481.055	8.09
481.49	8.09
481.925	8.07
482.36	8.05
482.795	8.04
483.229	8.04
483.664	8.03
484.099	8.02
484.534	8
484.968	7.99
485.403	7.98
485.837	7.98
486.271	7.97
486.706	7.96
487.14	7.96
487.574	7.96
488.009	7.95
488.443	7.93
488.877	7.93
489.311	7.94
489.745	7.93
490.179	7.94
490.613	7.93
491.046	7.93
491.48	7.93
491.914	7.94
492.348	7.95
492.781	7.95
493.215	7.96
493.648	7.97
494.082	7.98
494.515	7.99
494.948	7.99
495.382	8
495.815	8.03
496.248	8.04
496.681	8.04
497.114	8.05
497.547	8.07
497.98	8.09
498.413	8.11
498.846	8.12
499.279	8.16
499.711	8.18
500.144	8.21
500.577	8.23
501.009	8.26
501.442	8.31
501.874	8.35
502.306	8.39
502.739	8.42
503.171	8.47
503.603	8.52
504.036	8.58
504.468	8.63
504.9	8.7
505.332	8.77
505.764	8.84
506.196	8.92
506.627	8.99
507.059	9.07
507.491	9.16
507.923	9.25
508.354	9.35
508.786	9.44
509.217	9.54
509.649	9.64
510.08	9.76
510.512	9.87
510.943	10
511.374	10.14
511.805	10.27
512.237	10.42
512.668	10.57
513.099	10.73
513.53	10.9
513.961	11.09
514.391	11.24
514.822	11.41
515.253	11.6
515.684	11.79
516.114	11.97
516.545	12.17
516.975	12.38
517.406	12.59
517.836	12.79
518.267	13
518.697	13.22
519.127	13.47
519.558	13.71
519.988	13.93
520.418	14.16
520.848	14.4
521.278	14.65
521.708	14.8
522.138	15.02
522.567	15.23
522.997	15.45
523.427	15.67
523.857	15.87
524.286	16.08
524.716	16.29
525.145	16.5
525.575	16.7
526.004	16.9
526.433	17.17
526.863	17.37
527.292	17.58
527.721	17.76
528.15	17.91
528.579	18.08
529.008	18.25
529.437	18.41
529.866	18.55
530.295	18.69
530.724	18.84
531.152	18.97
531.581	19.08
532.01	19.19
532.438	19.3
532.867	19.42
533.295	19.5
533.723	19.6
534.152	19.69
534.58	19.77
535.008	19.84
535.436	19.89
535.865	19.95
536.293	20.01
536.721	20.08
537.149	20.14
537.576	20.19
538.004	20.26
538.432	20.29
538.86	20.34
539.287	20.38
539.715	20.43
540.143	20.46
540.57	20.51
540.998	20.54
541.425	20.56
541.852	20.59
542.28	20.62
542.707	20.66
543.134	20.7
543.561	20.72
543.988	20.75
544.415	20.77
544.842	20.81
545.269	20.84
545.696	20.86
546.123	20.9
546.549	20.92
546.976	20.95
547.403	20.97
547.829	21
548.256	21.03
548.682	21.04
549.108	21.06
549.535	21.07
549.961	21.08
550.387	21.1
550.813	21.08
551.24	21.07
551.666	21.09
552.092	21.06
552.518	21.04
552.943	21.02
553.369	21
553.795	20.96
554.221	20.93
554.646	20.9
555.072	20.85
555.498	20.8
555.923	20.76
556.349	20.67
556.774	20.62
557.199	20.56
557.625	20.49
558.05	20.4
558.475	20.32
558.9	20.23
559.325	20.14
559.75	20.04
560.175	19.93
560.6	19.82
561.025	19.72
561.449	19.6
561.874	19.47
562.299	19.36
562.723	19.24
563.148	19.12
563.572	19
563.997	18.86
564.421	18.7
564.846	18.57
565.27	18.41
565.694	18.27
566.118	18.12
566.542	17.98
566.966	17.81
567.39	17.63
567.814	17.46
568.238	17.29
568.662	17.13
569.086	16.98
569.509	16.83
569.933	16.65
570.357	16.49
570.78	16.33
571.204	16.16
571.627	16.01
572.05	15.87
572.474	15.75
572.897	15.62
573.32	15.48
573.743	15.36
574.166	15.24
574.589	15.14
575.012	15.03
575.435	14.91
575.858	14.83
576.281	14.73
576.704	14.66
577.126	14.56
577.549	14.48
577.972	14.39
578.394	14.3
578.817	14.21
579.239	14.12
579.661	14.05
580.084	13.99
580.506	13.9
580.928	13.85
581.35	13.78
581.772	13.72
582.194	13.67
582.616	13.63
583.038	13.58
583.46	13.53
583.882	13.49
584.303	13.44
584.725	13.38
585.147	13.32
585.568	13.25
585.99	13.2
586.411	13.15
586.833	13.09
587.254	13.04
587.675	13
588.096	12.96
588.518	12.93
588.939	12.9
589.36	12.86
589.781	12.86
590.202	12.85
590.623	12.83
591.043	12.8
591.464	12.77
591.885	12.74
592.305	12.73
592.726	12.69
593.147	12.68
593.567	12.65
593.987	12.64
594.408	12.61
594.828	12.58
595.248	12.56
595.669	12.54
596.089	12.53
596.509	12.51
596.929	12.48
597.349	12.46
597.769	12.42
598.189	12.4
598.608	12.36
599.028	12.34
599.448	12.33
599.867	12.29
600.287	12.25
600.706	12.21
601.126	12.17
601.545	12.14
601.965	12.09
602.384	12.05
602.803	12.01
603.222	11.96
603.641	11.92
604.061	11.86
604.48	11.81
604.898	11.76
605.317	11.71
605.736	11.67
606.155	11.61
606.574	11.58
606.992	11.52
607.411	11.47
607.829	11.39
608.248	11.33
608.666	11.28
609.085	11.22
609.503	11.17
609.921	11.11
610.339	11.05
610.758	11
611.176	10.95
611.594	10.91
612.012	10.85
612.43	10.85
612.847	10.8
613.265	10.74
613.683	10.7
614.101	10.64
614.518	10.6
614.936	10.57
615.353	10.54
615.771	10.48
616.188	10.45
616.606	10.4
617.023	10.36
617.44	10.33
617.857	10.3
618.274	10.27
618.691	10.25
619.108	10.23
619.525	10.2
619.942	10.18
620.359	10.17
620.776	10.15
621.192	10.13
621.609	10.12
622.026	10.1
622.442	10.09
622.859	10.07
623.275	10.06
623.691	10.05
624.108	10.04
624.524	10.01
624.94	10
625.356	9.99
625.772	9.99
626.188	10
626.604	9.99
627.02	9.99
627.436	9.98
627.852	9.97
628.268	9.96
628.683	9.95
629.099	9.97
629.514	9.96
629.93	9.94
630.345	9.92
630.761	9.89
631.176	9.89
631.591	9.86
632.007	9.86
632.422	9.84
632.837	9.82
633.252	9.8
633.667	9.75
634.082	9.73
634.497	9.7
634.911	9.67
635.326	9.64
635.741	9.6
636.155	9.58
636.57	9.54
636.984	9.49
637.399	9.43
637.813	9.38
638.228	9.35
638.642	9.3
639.056	9.27
639.47	9.23
639.884	9.18
640.298	9.13
640.712	9.08
641.126	9.03
641.54	9.01
641.954	8.99
642.368	8.96
642.781	8.9
643.195	8.85
643.609	8.8
644.022	8.77
644.436	8.75
644.849	8.71
645.262	8.68
645.676	8.63
646.089	8.6
646.502	8.56
646.915	8.53
647.328	8.52
647.741	8.48
648.154	8.47
648.567	8.45
648.98	8.43
649.393	8.4
649.805	8.39
650.218	8.37
650.631	8.35
651.043	8.35
651.456	8.35
651.868	8.34
652.28	8.34
652.693	8.3
653.105	8.29
653.517	8.26
653.929	8.26
654.341	8.25
654.753	8.24
655.165	8.22
655.577	8.19
655.989	8.15
656.401	8.13
656.813	8.09
657.224	8.08
657.636	8.07
658.047	8.05
658.459	8.02
658.87	8
659.282	7.99
659.693	7.97
660.104	7.95
660.515	7.94
660.926	7.93
661.338	7.92
661.749	7.89
662.159	7.86
662.57	7.85
662.981	7.83
663.392	7.81
663.803	7.79
664.213	7.78
664.624	7.78
665.035	7.78
665.445	7.79
665.855	7.79
666.266	7.8
666.676	7.79
667.086	7.79
667.497	7.79
667.907	7.78
668.317	7.78
668.727	7.78
669.137	7.77
669.547	7.77
669.956	7.77
670.366	7.78
670.776	7.79
671.186	7.8
671.595	7.82
672.005	7.85
672.414	7.88
672.824	7.9
673.233	7.93
673.642	7.95
674.052	7.96
674.461	7.97
674.87	7.99
675.279	8.02
675.688	8.04
676.097	8.06
676.506	8.07
676.915	8.08
677.323	8.11
677.732	8.14
678.141	8.17
678.549	8.18
678.958	8.23
679.366	8.24
679.775	8.27
680.183	8.28
680.592	8.32
681	8.33
681.408	8.37
681.816	8.38
682.224	8.41
682.632	8.45
683.04	8.49
683.448	8.52
683.856	8.57
684.264	8.62
684.671	8.7
685.079	8.76
685.487	8.85
685.894	8.93
686.302	9.03
686.709	9.13
687.116	9.24
687.524	9.37
687.931	9.5
688.338	9.67
688.745	9.83
689.152	10.02
689.559	10.24
689.966	10.48
690.373	10.77
690.78	11.06
691.187	11.37
691.593	11.68
692	12.07
692.407	12.46
692.813	12.85
693.22	13.28
693.626	13.74
694.032	14.2
694.439	14.72
694.845	15.21
695.251	15.75
695.657	16.31
696.063	16.89
696.469	17.47
696.875	18.06
697.281	18.68
697.687	19.35
698.093	19.98
698.498	20.65
698.904	21.29
699.31	21.96
699.715	22.63
700.12	23.3
700.526	23.98
700.931	24.66
701.337	25.34
701.742	26.01
702.147	26.68
702.552	27.39
702.957	28.06
703.362	28.77
703.767	29.44
704.172	30.09
704.577	30.79
704.981	31.46
705.386	32.16
705.791	32.86
706.195	33.57
706.6	34.24
707.004	34.9
707.408	35.57
707.813	36.23
708.217	36.91
708.621	37.59
709.025	38.24
709.43	38.87
709.834	39.52
710.237	40.16
710.641	40.82
711.045	41.47
711.449	42.11
711.853	42.75
712.256	43.41
712.66	44.07
713.064	44.7
713.467	45.32
713.87	45.96
714.274	46.59
714.677	47.19
715.08	47.75
715.484	48.35
715.887	48.94
716.29	49.52
716.693	50.05
717.096	50.61
717.499	51.18
717.901	51.75
718.304	52.32
718.707	52.86
719.109	53.42
719.512	53.99
719.915	54.51
720.317	55.01
720.719	55.51
721.122	56.05
721.524	56.52
721.926	56.99
722.328	57.48
722.731	57.93
723.133	58.36
723.535	58.81
723.937	59.23
724.338	59.62
724.74	60.07
725.142	60.36
725.544	60.68
725.945	61.04
726.347	61.42
726.748	61.73
727.15	62.06
727.551	62.41
727.952	62.73
728.354	63.05
728.755	63.39
729.156	63.66
729.557	64.08
729.958	64.43
730.359	64.75
730.76	65
731.161	65.29
731.562	65.56
731.962	65.84
732.363	66.03
732.763	66.27
733.164	66.49
733.564	66.69
733.965	66.85
734.365	67
734.766	67.15
735.166	67.3
735.566	67.46
735.966	67.59
736.366	67.68
736.766	67.88
737.166	68.04
737.566	68.15
737.966	68.31
738.365	68.47
738.765	68.62
739.165	68.75
739.564	68.89
739.964	69
740.363	69.14
740.763	69.29
741.162	69.32
741.561	69.41
741.96	69.55
742.36	69.65
742.759	69.75
743.158	69.82
743.557	69.93
743.955	70.07
744.354	70.19
744.753	70.33
745.152	70.38
745.55	70.53
745.949	70.61
746.348	70.69
746.746	70.8
747.144	70.92
747.543	71.06
747.941	71.19
748.339	71.3
748.737	71.41
749.136	71.46
749.534	71.58
749.932	71.66
750.33	71.7
750.727	71.76
751.125	71.79
751.523	71.81
751.921	71.84
752.318	71.85
752.716	71.83
753.113	71.85
753.511	71.82
753.908	71.81
754.305	71.76
754.703	71.78
755.1	71.76
755.497	71.73
755.894	71.7
756.291	71.62
756.688	71.57
757.085	71.57
757.482	71.53
757.878	71.54
758.275	71.52
758.672	71.55
759.068	71.57
759.465	71.59
759.861	71.6
760.258	71.59
760.654	71.63
761.05	71.66
761.447	71.64
761.843	71.6
762.239	71.6
762.635	71.63
763.031	71.62
763.427	71.56
763.822	71.52
764.218	71.52
764.614	71.53
765.01	71.53
765.405	71.5
765.801	71.5
766.196	71.5
766.592	71.5
766.987	71.5
767.382	71.5
767.778	71.55
768.173	71.56
768.568	71.53
768.963	71.54
769.358	71.51
769.753	71.54
770.148	71.57
770.542	71.58
770.937	71.56
771.332	71.55
771.726	71.55
772.121	71.51
772.515	71.57
772.91	71.62
773.304	71.64
773.699	71.68
774.093	71.64
774.487	71.65
774.881	71.7
775.275	71.75
775.669	71.82
776.063	71.81
776.457	71.83
776.851	71.8
777.245	71.82
777.638	71.83
778.032	71.85
778.425	71.9
778.819	71.9
779.212	71.85
779.606	71.85
779.999	71.86
780.392	71.89
780.786	71.91
781.179	71.95
781.572	71.96
781.965	71.97
