Data from C_2_div_il_4n_082_Splice17_01.txt Node
Date: Sat Feb 29 14:18:07 EST 2020
User: sa697716
Spectrometer: FLMS03696
Trigger mode: 0
Integration Time (sec): 3.180400E-1
Scans to average: 20
Electric dark correction enabled: true
Nonlinearity correction enabled: true
Boxcar width: 5
XAxis mode: Wavelengths
Number of Pixels in Spectrum: 2048
>>>>>Begin Spectral Data<<<<<
187.83	39.01
188.298	22.75
188.766	25.75
189.233	11.07
189.701	30.1
190.169	25.42
190.636	46.5
191.104	66.59
191.571	388.54
192.039	440.47
192.506	-435.76
192.974	546.04
193.441	160.6
193.908	20.81
194.375	-89.6
194.842	86.36
195.31	60.89
195.777	136.14
196.244	59.09
196.711	39.88
197.177	34.37
197.644	34.74
198.111	32.99
198.578	31.67
199.045	31.47
199.511	31.92
199.978	31.37
200.445	31.35
200.911	31.39
201.378	31.33
201.844	31.58
202.31	32.01
202.777	32.15
203.243	32.58
203.709	33.02
204.176	32.43
204.642	31.98
205.108	32.07
205.574	31.81
206.04	31.37
206.506	31.09
206.972	30.53
207.438	29.66
207.903	29.36
208.369	28.6
208.835	28.24
209.301	28.43
209.766	27.81
210.232	27.2
210.697	26.45
211.163	25.77
211.628	25.18
212.094	24.49
212.559	24
213.024	23.01
213.49	22.4
213.955	21.68
214.42	20.79
214.885	19.86
215.35	18.72
215.815	17.31
216.28	15.87
216.745	14.57
217.21	12.95
217.675	11.48
218.14	10.05
218.604	8.8
219.069	7.77
219.534	6.84
219.998	6.08
220.463	5.54
220.927	5.06
221.392	4.6
221.856	4.15
222.32	3.87
222.785	3.6
223.249	3.36
223.713	3.19
224.177	2.97
224.642	2.84
225.106	2.72
225.57	2.57
226.034	2.45
226.497	2.33
226.961	2.22
227.425	2.08
227.889	1.98
228.353	1.9
228.816	1.8
229.28	1.72
229.744	1.66
230.207	1.59
230.671	1.52
231.134	1.46
231.597	1.42
232.061	1.37
232.524	1.36
232.987	1.34
233.45	1.31
233.914	1.29
234.377	1.27
234.84	1.22
235.303	1.21
235.766	1.2
236.229	1.18
236.691	1.19
237.154	1.19
237.617	1.16
238.08	1.14
238.542	1.14
239.005	1.13
239.468	1.1
239.93	1.1
240.393	1.08
240.855	1.05
241.317	1.03
241.78	1.02
242.242	1
242.704	0.98
243.166	0.97
243.629	0.95
244.091	0.92
244.553	0.92
245.015	0.92
245.477	0.9
245.939	0.9
246.4	0.89
246.862	0.87
247.324	0.86
247.786	0.85
248.247	0.83
248.709	0.83
249.17	0.82
249.632	0.79
250.093	0.77
250.555	0.76
251.016	0.75
251.477	0.75
251.939	0.74
252.4	0.73
252.861	0.73
253.322	0.72
253.783	0.71
254.244	0.71
254.705	0.71
255.166	0.71
255.627	0.72
256.088	0.7
256.549	0.69
257.009	0.68
257.47	0.68
257.931	0.67
258.391	0.65
258.852	0.64
259.312	0.62
259.773	0.62
260.233	0.6
260.694	0.59
261.154	0.58
261.614	0.56
262.074	0.56
262.534	0.54
262.994	0.53
263.455	0.53
263.915	0.52
264.374	0.51
264.834	0.51
265.294	0.49
265.754	0.49
266.214	0.48
266.673	0.48
267.133	0.47
267.593	0.47
268.052	0.46
268.512	0.46
268.971	0.45
269.431	0.45
269.89	0.44
270.349	0.44
270.809	0.44
271.268	0.44
271.727	0.44
272.186	0.43
272.645	0.43
273.104	0.44
273.563	0.44
274.022	0.44
274.481	0.44
274.94	0.45
275.399	0.45
275.857	0.45
276.316	0.45
276.775	0.44
277.233	0.45
277.692	0.45
278.15	0.45
278.609	0.45
279.067	0.45
279.525	0.45
279.984	0.45
280.442	0.46
280.9	0.47
281.358	0.47
281.816	0.48
282.274	0.48
282.732	0.49
283.19	0.5
283.648	0.5
284.106	0.51
284.564	0.52
285.021	0.53
285.479	0.53
285.937	0.53
286.394	0.53
286.852	0.53
287.309	0.53
287.767	0.53
288.224	0.52
288.682	0.52
289.139	0.52
289.596	0.51
290.053	0.5
290.511	0.49
290.968	0.48
291.425	0.48
291.882	0.47
292.339	0.47
292.796	0.47
293.252	0.46
293.709	0.46
294.166	0.46
294.623	0.46
295.079	0.46
295.536	0.46
295.992	0.46
296.449	0.46
296.905	0.46
297.362	0.46
297.818	0.46
298.274	0.46
298.731	0.46
299.187	0.46
299.643	0.45
300.099	0.45
300.555	0.45
301.011	0.45
301.467	0.45
301.923	0.46
302.379	0.45
302.835	0.46
303.291	0.46
303.746	0.45
304.202	0.45
304.658	0.45
305.113	0.45
305.569	0.46
306.024	0.47
306.479	0.46
306.935	0.46
307.39	0.47
307.845	0.48
308.301	0.48
308.756	0.49
309.211	0.5
309.666	0.5
310.121	0.51
310.576	0.5
311.031	0.51
311.486	0.52
311.94	0.52
312.395	0.53
312.85	0.53
313.305	0.53
313.759	0.53
314.214	0.53
314.668	0.53
315.123	0.54
315.577	0.54
316.032	0.54
316.486	0.54
316.94	0.54
317.394	0.53
317.849	0.53
318.303	0.53
318.757	0.53
319.211	0.52
319.665	0.52
320.119	0.52
320.572	0.53
321.026	0.52
321.48	0.52
321.934	0.52
322.387	0.53
322.841	0.53
323.295	0.53
323.748	0.53
324.202	0.54
324.655	0.54
325.108	0.54
325.562	0.52
326.015	0.52
326.468	0.52
326.921	0.52
327.374	0.52
327.827	0.52
328.28	0.52
328.733	0.52
329.186	0.53
329.639	0.53
330.092	0.53
330.545	0.55
330.997	0.56
331.45	0.56
331.903	0.55
332.355	0.56
332.808	0.56
333.26	0.56
333.713	0.57
334.165	0.57
334.617	0.57
335.069	0.57
335.522	0.57
335.974	0.57
336.426	0.57
336.878	0.58
337.33	0.57
337.782	0.57
338.234	0.57
338.686	0.57
339.137	0.57
339.589	0.57
340.041	0.56
340.493	0.56
340.944	0.55
341.396	0.56
341.847	0.55
342.299	0.55
342.75	0.54
343.201	0.54
343.653	0.53
344.104	0.53
344.555	0.53
345.006	0.53
345.457	0.53
345.908	0.54
346.359	0.53
346.81	0.54
347.261	0.54
347.712	0.55
348.163	0.55
348.613	0.55
349.064	0.55
349.515	0.54
349.965	0.53
350.416	0.53
350.866	0.53
351.317	0.54
351.767	0.53
352.217	0.53
352.668	0.53
353.118	0.52
353.568	0.54
354.018	0.55
354.468	0.55
354.918	0.56
355.368	0.57
355.818	0.56
356.268	0.56
356.718	0.56
357.168	0.56
357.617	0.56
358.067	0.56
358.517	0.55
358.966	0.55
359.416	0.56
359.865	0.57
360.315	0.58
360.764	0.59
361.213	0.59
361.663	0.6
362.112	0.61
362.561	0.62
363.01	0.63
363.459	0.62
363.908	0.62
364.357	0.62
364.806	0.62
365.255	0.63
365.703	0.63
366.152	0.63
366.601	0.64
367.05	0.64
367.498	0.64
367.947	0.64
368.395	0.66
368.844	0.66
369.292	0.66
369.74	0.66
370.189	0.65
370.637	0.66
371.085	0.66
371.533	0.66
371.981	0.65
372.429	0.65
372.877	0.65
373.325	0.64
373.773	0.65
374.221	0.65
374.669	0.66
375.116	0.66
375.564	0.66
376.012	0.65
376.459	0.66
376.907	0.67
377.354	0.68
377.801	0.68
378.249	0.69
378.696	0.71
379.143	0.71
379.591	0.72
380.038	0.74
380.485	0.77
380.932	0.78
381.379	0.8
381.826	0.83
382.273	0.87
382.72	0.91
383.166	0.96
383.613	1.01
384.06	1.08
384.506	1.15
384.953	1.24
385.4	1.36
385.846	1.49
386.292	1.64
386.739	1.81
387.185	2
387.631	2.17
388.078	2.31
388.524	2.41
388.97	2.53
389.416	2.69
389.862	2.91
390.308	3.17
390.754	3.47
391.2	3.76
391.645	4.01
392.091	4.2
392.537	4.45
392.983	4.85
393.428	5.44
393.874	6.14
394.319	6.91
394.765	7.68
395.21	8.46
395.655	9.29
396.101	10.19
396.546	11.22
396.991	12.37
397.436	13.58
397.881	14.78
398.326	15.92
398.771	16.98
399.216	18.02
399.661	18.98
400.106	19.87
400.551	20.66
400.995	21.36
401.44	21.97
401.885	22.59
402.329	23.22
402.774	23.9
403.218	24.68
403.663	25.53
404.107	26.44
404.551	27.38
404.995	28.24
405.44	29.06
405.884	29.95
406.328	31.04
406.772	32.24
407.216	33.49
407.66	34.63
408.104	35.62
408.547	36.51
408.991	37.29
409.435	38.13
409.879	39.14
410.322	40.31
410.766	41.5
411.209	42.6
411.653	43.58
412.096	44.45
412.54	45.27
412.983	46.14
413.426	47.06
413.869	48.06
414.312	49.06
414.756	49.98
415.199	50.77
415.642	51.52
416.085	52.17
416.527	52.7
416.97	53.06
417.413	53.22
417.856	53.22
418.298	53.21
418.741	53.27
419.184	53.42
419.626	53.68
420.069	54.02
420.511	54.33
420.953	54.66
421.396	55.08
421.838	55.71
422.28	56.58
422.722	57.55
423.164	58.46
423.606	59.24
424.048	59.79
424.49	60.01
424.932	59.67
425.374	58.82
425.816	57.58
426.258	56.27
426.699	55.44
427.141	55.37
427.582	55.92
428.024	56.86
428.465	57.89
428.907	58.87
429.348	59.78
429.789	61.08
430.231	63.15
430.672	66.04
431.113	69.32
431.554	72.41
431.995	74.75
432.436	76.42
432.877	77.64
433.318	78.56
433.759	79.62
434.2	81.06
434.64	82.89
435.081	84.62
435.522	86.07
435.962	87.25
436.403	88.19
436.843	89.07
437.284	90.03
437.724	91.13
438.164	92.52
438.604	94.02
439.045	95.62
439.485	96.95
439.925	98.05
440.365	98.92
440.805	99.52
441.245	99.98
441.685	100.55
442.125	101.28
442.564	102.14
443.004	103.07
443.444	104.11
443.883	105.2
444.323	106.34
444.762	107.48
445.202	108.8
445.641	110.44
446.081	112.37
446.52	114.27
446.959	116
447.398	117.25
447.837	118.08
448.276	118.35
448.716	118.52
449.154	118.78
449.593	119.08
450.032	119.15
450.471	118.85
450.91	118.38
451.349	117.88
451.787	117.53
452.226	117.47
452.664	117.46
453.103	117.57
453.541	117.55
453.98	117.19
454.418	116.73
454.856	116.15
455.295	115.71
455.733	115.27
456.171	114.9
456.609	114.54
457.047	114.22
457.485	114.08
457.923	114.16
458.361	114.41
458.798	114.84
459.236	115.25
459.674	115.67
460.111	116.03
460.549	116.42
460.987	116.89
461.424	117.33
461.862	117.73
462.299	118.02
462.736	118.38
463.173	118.93
463.611	119.69
464.048	120.65
464.485	121.88
464.922	123.21
465.359	124.45
465.796	125.51
466.233	126.61
466.67	127.95
467.106	129.7
467.543	131.61
467.98	133.34
468.416	134.81
468.853	136.11
469.29	137.39
469.726	138.73
470.162	140.23
470.599	141.79
471.035	143.12
471.471	144.04
471.907	144.54
472.344	144.88
472.78	145.24
473.216	145.78
473.652	146.27
474.088	146.58
474.523	146.73
474.959	146.77
475.395	146.81
475.831	146.81
476.266	146.9
476.702	147.04
477.138	146.99
477.573	146.8
478.008	146.26
478.444	145.66
478.879	144.91
479.314	144
479.75	142.99
480.185	141.71
480.62	140.08
481.055	137.8
481.49	134.77
481.925	131.55
482.36	128.59
482.795	126.22
483.229	124.33
483.664	122.86
484.099	121.58
484.534	120.47
484.968	119.66
485.403	119.43
485.837	119.84
486.271	120.84
486.706	121.88
487.14	122.51
487.574	122.69
488.009	122.7
488.443	122.58
488.877	122.49
489.311	122.43
489.745	122.38
490.179	122.35
490.613	122.26
491.046	122.27
491.48	122.42
491.914	122.91
492.348	123.56
492.781	124.06
493.215	124.44
493.648	124.64
494.082	124.73
494.515	124.81
494.948	124.82
495.382	124.84
495.815	124.69
496.248	124.48
496.681	124.11
497.114	123.69
497.547	123.38
497.98	123.34
498.413	123.62
498.846	123.98
499.279	124.22
499.711	124.35
500.144	124.68
500.577	125.31
501.009	126.36
501.442	127.65
501.874	129.03
502.306	130.26
502.739	131.18
503.171	131.93
503.603	132.63
504.036	133.51
504.468	134.61
504.9	135.63
505.332	136.46
505.764	137.05
506.196	137.6
506.627	138.23
507.059	139.02
507.491	139.94
507.923	140.86
508.354	141.75
508.786	142.43
509.217	142.83
509.649	143.22
510.08	143.67
510.512	144.22
510.943	144.73
511.374	145.08
511.805	144.92
512.237	144.3
512.668	143.48
513.099	142.83
513.53	142.39
513.961	142.1
514.391	142.03
514.822	142.34
515.253	142.79
515.684	143.32
516.114	144.05
516.545	145.24
516.975	147.2
517.406	149.41
517.836	151.45
518.267	153.25
518.697	155.02
519.127	156.74
519.558	158.28
519.988	159.65
520.418	160.9
520.848	161.98
521.278	162.83
521.708	163.03
522.138	162.72
522.567	162.47
522.997	162.43
523.427	162.68
523.857	162.98
524.286	163.39
524.716	163.8
525.145	164.17
525.575	164.54
526.004	165.24
526.433	166.38
526.863	168.02
527.292	169.52
527.721	170.57
528.15	171.02
528.579	171.14
529.008	170.98
529.437	170.71
529.866	170.43
530.295	170.34
530.724	170.31
531.152	170.25
531.581	170.13
532.01	169.89
532.438	169.8
532.867	169.99
533.295	170.29
533.723	170.52
534.152	170.65
534.58	170.69
535.008	170.34
535.436	169.64
535.865	168.78
536.293	167.93
536.721	167.43
537.149	167.24
537.576	167.13
538.004	167
538.432	166.87
538.86	166.86
539.287	167.05
539.715	167.54
540.143	168.2
540.57	169.01
540.998	169.94
541.425	170.78
541.852	171.47
542.28	172.12
542.707	172.71
543.134	173.18
543.561	173.56
543.988	173.98
544.415	174.42
544.842	174.86
545.269	175.36
545.696	175.81
546.123	176.22
546.549	176.67
546.976	177.09
547.403	177.51
547.829	178.07
548.256	178.58
548.682	178.84
549.108	179.18
549.535	179.51
549.961	179.76
550.387	180.01
550.813	180.34
551.24	180.55
551.666	180.69
552.092	180.62
552.518	180.4
552.943	180.25
553.369	180.09
553.795	179.67
554.221	178.99
554.646	178.1
555.072	177.17
555.498	176.21
555.923	175.48
556.349	174.85
556.774	174.42
557.199	174.01
557.625	173.5
558.05	173.01
558.475	172.66
558.9	172.45
559.325	172.36
559.75	172.19
560.175	171.96
560.6	171.39
561.025	170.57
561.449	169.62
561.874	168.68
562.299	167.98
562.723	167.25
563.148	166.51
563.572	165.75
563.997	164.86
564.421	163.94
564.846	162.96
565.27	162.16
565.694	161.3
566.118	160.42
566.542	159.48
566.966	158.41
567.39	157.48
567.814	156.68
568.238	155.98
568.662	155.52
569.086	155.12
569.509	154.83
569.933	154.43
570.357	154.14
570.78	153.88
571.204	153.67
571.627	153.51
572.05	153.34
572.474	153.02
572.897	152.65
573.32	152.12
573.743	151.55
574.166	150.89
574.589	150.34
575.012	150.02
575.435	149.83
575.858	149.8
576.281	149.77
576.704	149.66
577.126	149.64
577.549	149.73
577.972	149.99
578.394	150.31
578.817	150.7
579.239	151.16
579.661	151.44
580.084	151.68
580.506	151.7
580.928	151.56
581.35	151.4
581.772	151.11
582.194	150.75
582.616	150.37
583.038	149.98
583.46	149.57
583.882	148.78
584.303	147.63
584.725	146.13
585.147	144.67
585.568	143.49
585.99	142.57
586.411	141.87
586.833	141.17
587.254	140.47
587.675	139.83
588.096	139.31
588.518	139
588.939	139.08
589.36	139.53
589.781	140.04
590.202	140.31
590.623	140.32
591.043	140.11
591.464	139.91
591.885	139.68
592.305	139.36
592.726	139.03
593.147	138.67
593.567	138.18
593.987	137.7
594.408	137.22
594.828	136.77
595.248	136.36
595.669	135.86
596.089	135.27
596.509	134.56
596.929	133.84
597.349	132.97
597.769	132.17
598.189	131.54
598.608	130.95
599.028	130.43
599.448	130
599.867	129.57
600.287	129.2
600.706	128.81
601.126	128.46
601.545	128.11
601.965	127.84
602.384	127.59
602.803	127.23
603.222	126.81
603.641	126.27
604.061	125.64
604.48	124.92
604.898	124.2
605.317	123.5
605.736	122.77
606.155	122.03
606.574	121.33
606.992	120.64
607.411	119.96
607.829	119.23
608.248	118.61
608.666	117.95
609.085	117.3
609.503	116.63
609.921	116.02
610.339	115.49
610.758	114.98
611.176	114.34
611.594	113.59
612.012	112.81
612.43	112.1
612.847	111.42
613.265	110.93
613.683	110.53
614.101	110.16
614.518	109.8
614.936	109.4
615.353	109.1
615.771	108.91
616.188	108.85
616.606	108.82
617.023	108.78
617.44	108.62
617.857	108.31
618.274	107.93
618.691	107.48
619.108	107.02
619.525	106.55
619.942	105.97
620.359	105.32
620.776	104.59
621.192	103.85
621.609	103.17
622.026	102.6
622.442	102.1
622.859	101.55
623.275	101.03
623.691	100.44
624.108	99.93
624.524	99.47
624.94	99.05
625.356	98.63
625.772	98.31
626.188	97.99
626.604	97.6
627.02	97.18
627.436	96.82
627.852	96.54
628.268	96.4
628.683	96.25
629.099	96.14
629.514	96
629.93	95.88
630.345	95.81
630.761	95.72
631.176	95.63
631.591	95.55
632.007	95.51
632.422	95.49
632.837	95.42
633.252	95.31
633.667	95.22
634.082	95.19
634.497	95.16
634.911	94.98
635.326	94.72
635.741	94.48
636.155	94.21
636.57	93.89
636.984	93.46
637.399	93.02
637.813	92.63
638.228	92.21
638.642	91.77
639.056	91.33
639.47	90.95
639.884	90.63
640.298	90.31
640.712	90
641.126	89.69
641.54	89.41
641.954	89.1
642.368	88.71
642.781	88.28
643.195	87.82
643.609	87.41
644.022	86.98
644.436	86.52
644.849	85.93
645.262	85.35
645.676	84.83
646.089	84.42
646.502	84.07
646.915	83.77
647.328	83.46
647.741	83.2
648.154	82.92
648.567	82.72
648.98	82.55
649.393	82.49
649.805	82.43
650.218	82.31
650.631	81.99
651.043	81.41
651.456	80.46
651.868	79.26
652.28	78.03
652.693	76.94
653.105	76.04
653.517	75.33
653.929	74.83
654.341	74.44
654.753	74.16
655.165	73.97
655.577	74
655.989	74.46
656.401	75.12
656.813	75.88
657.224	76.54
657.636	76.94
658.047	77.16
658.459	77.16
658.87	77.05
659.282	76.86
659.693	76.65
660.104	76.43
660.515	76.18
660.926	75.98
661.338	75.71
661.749	75.39
662.159	75.07
662.57	74.7
662.981	74.34
663.392	74.05
663.803	73.72
664.213	73.47
664.624	73.21
665.035	72.9
665.445	72.59
665.855	72.25
666.266	71.89
666.676	71.51
667.086	71.18
667.497	70.85
667.907	70.48
668.317	70.15
668.727	69.79
669.137	69.46
669.547	69.13
669.956	68.8
670.366	68.51
670.776	68.22
671.186	67.98
671.595	67.72
672.005	67.53
672.414	67.31
672.824	67.13
673.233	66.94
673.642	66.76
674.052	66.59
674.461	66.43
674.87	66.28
675.279	66.15
675.688	66.02
676.097	65.92
676.506	65.79
676.915	65.72
677.323	65.64
677.732	65.55
678.141	65.48
678.549	65.44
678.958	65.41
679.366	65.37
679.775	65.32
680.183	65.27
680.592	65.24
681	65.22
681.408	65.16
681.816	64.93
682.224	64.4
682.632	63.52
683.04	62.37
683.448	61.27
683.856	60.33
684.264	59.49
684.671	58.71
685.079	57.95
685.487	57.3
685.894	56.78
686.302	56.52
686.709	56.7
687.116	57.34
687.524	58.33
687.931	59.36
688.338	60.32
688.745	61.28
689.152	62.25
689.559	63.12
689.966	63.95
690.373	64.74
690.78	65.44
691.187	66.08
691.593	66.61
692	67.15
692.407	67.64
692.813	68.11
693.22	68.48
693.626	68.82
694.032	69.2
694.439	69.54
694.845	69.79
695.251	70.04
695.657	70.21
696.063	70.38
696.469	70.45
696.875	70.44
697.281	70.39
697.687	70.39
698.093	70.36
698.498	70.34
698.904	70.36
699.31	70.39
699.715	70.51
700.12	70.67
700.526	70.84
700.931	70.99
701.337	71.22
701.742	71.43
702.147	71.65
702.552	71.87
702.957	72.09
703.362	72.29
703.767	72.45
704.172	72.54
704.577	72.63
704.981	72.7
705.386	72.75
705.791	72.81
706.195	72.85
706.6	72.86
707.004	72.89
707.408	72.9
707.813	72.85
708.217	72.81
708.621	72.78
709.025	72.73
709.43	72.67
709.834	72.66
710.237	72.55
710.641	72.49
711.045	72.39
711.449	72.27
711.853	72.07
712.256	71.79
712.66	71.36
713.064	70.81
713.467	70.14
713.87	69.33
714.274	68.43
714.677	67.48
715.08	66.49
715.484	65.53
715.887	64.63
716.29	63.91
716.693	63.4
717.096	63.29
717.499	63.41
717.901	63.68
718.304	64.11
718.707	64.55
719.109	65.02
719.512	65.44
719.915	65.8
720.317	66.08
720.719	66.25
721.122	66.3
721.524	66.19
721.926	65.96
722.328	65.66
722.731	65.41
723.133	65.17
723.535	64.99
723.937	64.93
724.338	64.84
724.74	64.79
725.142	64.63
725.544	64.59
725.945	64.53
726.347	64.47
726.748	64.42
727.15	64.35
727.551	64.4
727.952	64.48
728.354	64.66
728.755	64.88
729.156	65.19
729.557	65.62
729.958	65.96
730.359	66.26
730.76	66.47
731.161	66.69
731.562	66.9
731.962	67.04
732.363	67.1
732.763	67.12
733.164	67.12
733.564	67.02
733.965	66.87
734.365	66.66
734.766	66.44
735.166	66.26
735.566	66.08
735.966	65.93
736.366	65.74
736.766	65.58
737.166	65.39
737.566	65.19
737.966	65.02
738.365	64.91
738.765	64.85
739.165	64.8
739.564	64.8
739.964	64.76
740.363	64.68
740.763	64.62
741.162	64.57
741.561	64.56
741.96	64.54
742.36	64.52
742.759	64.43
743.158	64.33
743.557	64.27
743.955	64.18
744.354	64.11
744.753	64.02
745.152	63.9
745.55	63.78
745.949	63.6
746.348	63.46
746.746	63.28
747.144	63.16
747.543	63
747.941	62.87
748.339	62.74
748.737	62.62
749.136	62.5
749.534	62.46
749.932	62.42
750.33	62.34
750.727	62.29
751.125	62.22
751.523	62.07
751.921	61.97
752.318	61.82
752.716	61.65
753.113	61.49
753.511	61.32
753.908	61.08
754.305	60.74
754.703	60.07
755.1	58.7
755.497	56.5
755.894	53.49
756.291	49.92
756.688	46.19
757.085	42.71
757.482	39.51
757.878	36.48
758.275	33.47
758.672	30.47
759.068	27.83
759.465	25.93
759.861	25.09
760.258	25.29
760.654	26.31
761.05	27.73
