Data from C_2_hir_il_4n_054_Splice17_01.txt Node
Date: Sat Feb 29 14:32:16 EST 2020
User: sa697716
Spectrometer: FLMS03696
Trigger mode: 0
Integration Time (sec): 3.180400E-1
Scans to average: 20
Electric dark correction enabled: true
Nonlinearity correction enabled: true
Boxcar width: 5
XAxis mode: Wavelengths
Number of Pixels in Spectrum: 2048
>>>>>Begin Spectral Data<<<<<
187.83	60.15
188.298	54.46
188.766	65.13
189.233	53.52
189.701	69.47
190.169	69.97
190.636	73.49
191.104	63.72
191.571	343.66
192.039	342.33
192.506	-347.9
192.974	614.96
193.441	283.73
193.908	89.04
194.375	51.16
194.842	221.61
195.31	123.41
195.777	125.42
196.244	19.45
196.711	13.14
197.177	7.54
197.644	8.03
198.111	7.55
198.578	7.82
199.045	7.58
199.511	7.96
199.978	8.47
200.445	7.91
200.911	8.13
201.378	8.34
201.844	8.53
202.31	9.8
202.777	9.94
203.243	10.53
203.709	10.75
204.176	10.74
204.642	10.98
205.108	10.53
205.574	11.33
206.04	11.18
206.506	11.08
206.972	11.02
207.438	10.24
207.903	10.6
208.369	10.47
208.835	10.61
209.301	10.28
209.766	10.18
210.232	10.28
210.697	10.3
211.163	10.5
211.628	10.6
212.094	10.76
212.559	10.61
213.024	10.21
213.49	9.91
213.955	10.07
214.42	10.21
214.885	10.07
215.35	10.02
215.815	9.48
216.28	9.22
216.745	9.11
217.21	8.97
217.675	8.88
218.14	8.69
218.604	8.44
219.069	8.25
219.534	8.04
219.998	7.9
220.463	7.77
220.927	7.7
221.392	7.63
221.856	7.5
222.32	7.36
222.785	7.27
223.249	7.2
223.713	7.11
224.177	6.95
224.642	6.91
225.106	6.83
225.57	6.75
226.034	6.71
226.497	6.57
226.961	6.48
227.425	6.38
227.889	6.32
228.353	6.23
228.816	6.2
229.28	6.15
229.744	6.1
230.207	6.03
230.671	5.96
231.134	5.91
231.597	5.88
232.061	5.84
232.524	5.8
232.987	5.75
233.45	5.7
233.914	5.65
234.377	5.6
234.84	5.54
235.303	5.5
235.766	5.45
236.229	5.4
236.691	5.35
237.154	5.32
237.617	5.27
238.08	5.21
238.542	5.17
239.005	5.12
239.468	5.08
239.93	5.05
240.393	5.01
240.855	4.97
241.317	4.94
241.78	4.91
242.242	4.85
242.704	4.82
243.166	4.81
243.629	4.78
244.091	4.77
244.553	4.75
245.015	4.71
245.477	4.67
245.939	4.64
246.4	4.6
246.862	4.58
247.324	4.57
247.786	4.54
248.247	4.51
248.709	4.48
249.17	4.47
249.632	4.44
250.093	4.41
250.555	4.4
251.016	4.38
251.477	4.37
251.939	4.33
252.4	4.32
252.861	4.32
253.322	4.29
253.783	4.29
254.244	4.26
254.705	4.25
255.166	4.25
255.627	4.24
256.088	4.22
256.549	4.22
257.009	4.2
257.47	4.2
257.931	4.18
258.391	4.16
258.852	4.14
259.312	4.12
259.773	4.11
260.233	4.1
260.694	4.09
261.154	4.08
261.614	4.06
262.074	4.06
262.534	4.03
262.994	4.03
263.455	4.03
263.915	4.02
264.374	4.01
264.834	4.01
265.294	4
265.754	3.98
266.214	3.98
266.673	3.98
267.133	3.97
267.593	3.97
268.052	3.95
268.512	3.94
268.971	3.94
269.431	3.94
269.89	3.93
270.349	3.93
270.809	3.93
271.268	3.92
271.727	3.92
272.186	3.91
272.645	3.91
273.104	3.91
273.563	3.91
274.022	3.9
274.481	3.89
274.94	3.88
275.399	3.88
275.857	3.88
276.316	3.87
276.775	3.85
277.233	3.84
277.692	3.83
278.15	3.82
278.609	3.81
279.067	3.79
279.525	3.78
279.984	3.77
280.442	3.76
280.9	3.75
281.358	3.74
281.816	3.73
282.274	3.73
282.732	3.73
283.19	3.72
283.648	3.71
284.106	3.7
284.564	3.7
285.021	3.7
285.479	3.69
285.937	3.68
286.394	3.67
286.852	3.67
287.309	3.68
287.767	3.67
288.224	3.66
288.682	3.66
289.139	3.67
289.596	3.66
290.053	3.66
290.511	3.65
290.968	3.66
291.425	3.66
291.882	3.65
292.339	3.64
292.796	3.63
293.252	3.63
293.709	3.61
294.166	3.6
294.623	3.59
295.079	3.58
295.536	3.57
295.992	3.56
296.449	3.55
296.905	3.54
297.362	3.53
297.818	3.52
298.274	3.52
298.731	3.51
299.187	3.51
299.643	3.5
300.099	3.5
300.555	3.5
301.011	3.49
301.467	3.48
301.923	3.48
302.379	3.48
302.835	3.47
303.291	3.47
303.746	3.46
304.202	3.45
304.658	3.45
305.113	3.45
305.569	3.45
306.024	3.44
306.479	3.43
306.935	3.43
307.39	3.42
307.845	3.42
308.301	3.42
308.756	3.43
309.211	3.43
309.666	3.43
310.121	3.43
310.576	3.43
311.031	3.42
311.486	3.43
311.94	3.42
312.395	3.41
312.85	3.41
313.305	3.41
313.759	3.4
314.214	3.4
314.668	3.39
315.123	3.39
315.577	3.39
316.032	3.39
316.486	3.39
316.94	3.4
317.394	3.4
317.849	3.4
318.303	3.4
318.757	3.4
319.211	3.39
319.665	3.38
320.119	3.38
320.572	3.37
321.026	3.37
321.48	3.36
321.934	3.37
322.387	3.36
322.841	3.35
323.295	3.34
323.748	3.34
324.202	3.34
324.655	3.34
325.108	3.34
325.562	3.32
326.015	3.31
326.468	3.3
326.921	3.28
327.374	3.27
327.827	3.27
328.28	3.26
328.733	3.25
329.186	3.25
329.639	3.24
330.092	3.24
330.545	3.25
330.997	3.25
331.45	3.25
331.903	3.25
332.355	3.25
332.808	3.25
333.26	3.25
333.713	3.24
334.165	3.25
334.617	3.26
335.069	3.27
335.522	3.27
335.974	3.27
336.426	3.28
336.878	3.27
337.33	3.27
337.782	3.28
338.234	3.28
338.686	3.28
339.137	3.29
339.589	3.28
340.041	3.28
340.493	3.28
340.944	3.27
341.396	3.28
341.847	3.29
342.299	3.28
342.75	3.28
343.201	3.28
343.653	3.26
344.104	3.25
344.555	3.25
345.006	3.23
345.457	3.23
345.908	3.22
346.359	3.22
346.81	3.21
347.261	3.21
347.712	3.21
348.163	3.21
348.613	3.2
349.064	3.19
349.515	3.19
349.965	3.18
350.416	3.18
350.866	3.19
351.317	3.19
351.767	3.18
352.217	3.18
352.668	3.19
353.118	3.18
353.568	3.18
354.018	3.19
354.468	3.19
354.918	3.2
355.368	3.19
355.818	3.19
356.268	3.19
356.718	3.19
357.168	3.2
357.617	3.19
358.067	3.21
358.517	3.22
358.966	3.23
359.416	3.24
359.865	3.25
360.315	3.26
360.764	3.28
361.213	3.27
361.663	3.29
362.112	3.31
362.561	3.32
363.01	3.32
363.459	3.33
363.908	3.33
364.357	3.35
364.806	3.37
365.255	3.39
365.703	3.4
366.152	3.43
366.601	3.45
367.05	3.48
367.498	3.5
367.947	3.53
368.395	3.56
368.844	3.6
369.292	3.63
369.74	3.65
370.189	3.68
370.637	3.71
371.085	3.76
371.533	3.78
371.981	3.82
372.429	3.84
372.877	3.87
373.325	3.9
373.773	3.93
374.221	3.97
374.669	4.03
375.116	4.07
375.564	4.1
376.012	4.14
376.459	4.2
376.907	4.25
377.354	4.3
377.801	4.35
378.249	4.41
378.696	4.47
379.143	4.52
379.591	4.56
380.038	4.61
380.485	4.67
380.932	4.71
381.379	4.74
381.826	4.79
382.273	4.84
382.72	4.9
383.166	4.94
383.613	4.98
384.06	5.02
384.506	5.08
384.953	5.13
385.4	5.17
385.846	5.21
386.292	5.27
386.739	5.31
387.185	5.36
387.631	5.4
388.078	5.45
388.524	5.46
388.97	5.5
389.416	5.53
389.862	5.56
390.308	5.61
390.754	5.67
391.2	5.73
391.645	5.77
392.091	5.79
392.537	5.83
392.983	5.9
393.428	5.99
393.874	6.1
394.319	6.21
394.765	6.34
395.21	6.46
395.655	6.59
396.101	6.72
396.546	6.88
396.991	7.07
397.436	7.25
397.881	7.45
398.326	7.66
398.771	7.86
399.216	8.05
399.661	8.24
400.106	8.45
400.551	8.6
400.995	8.76
401.44	8.9
401.885	9.03
402.329	9.18
402.774	9.33
403.218	9.47
403.663	9.64
404.107	9.84
404.551	10.02
404.995	10.18
405.44	10.35
405.884	10.53
406.328	10.74
406.772	10.98
407.216	11.25
407.66	11.48
408.104	11.7
408.547	11.89
408.991	12.06
409.435	12.24
409.879	12.44
410.322	12.69
410.766	12.93
411.209	13.17
411.653	13.36
412.096	13.52
412.54	13.69
412.983	13.85
413.426	14.03
413.869	14.23
414.312	14.45
414.756	14.64
415.199	14.79
415.642	14.95
416.085	15.07
416.527	15.21
416.97	15.3
417.413	15.34
417.856	15.36
418.298	15.36
418.741	15.36
419.184	15.37
419.626	15.41
420.069	15.48
420.511	15.54
420.953	15.61
421.396	15.68
421.838	15.82
422.28	16
422.722	16.19
423.164	16.36
423.606	16.54
424.048	16.65
424.49	16.72
424.932	16.69
425.374	16.53
425.816	16.25
426.258	15.98
426.699	15.79
427.141	15.74
427.582	15.86
428.024	16.05
428.465	16.24
428.907	16.46
429.348	16.65
429.789	16.89
430.231	17.28
430.672	17.85
431.113	18.52
431.554	19.17
431.995	19.67
432.436	20
432.877	20.24
433.318	20.45
433.759	20.65
434.2	20.93
434.64	21.29
435.081	21.64
435.522	21.95
435.962	22.19
436.403	22.39
436.843	22.58
437.284	22.8
437.724	23.04
438.164	23.34
438.604	23.69
439.045	24.03
439.485	24.33
439.925	24.58
440.365	24.81
440.805	24.95
441.245	25.05
441.685	25.21
442.125	25.36
442.564	25.56
443.004	25.76
443.444	25.97
443.883	26.2
444.323	26.46
444.762	26.72
445.202	27.03
445.641	27.38
446.081	27.82
446.52	28.22
446.959	28.61
447.398	28.94
447.837	29.14
448.276	29.24
448.716	29.33
449.154	29.41
449.593	29.51
450.032	29.54
450.471	29.55
450.91	29.45
451.349	29.35
451.787	29.31
452.226	29.26
452.664	29.27
453.103	29.31
453.541	29.34
453.98	29.3
454.418	29.23
454.856	29.13
455.295	29.03
455.733	28.98
456.171	28.95
456.609	28.9
457.047	28.88
457.485	28.87
457.923	28.93
458.361	29
458.798	29.12
459.236	29.22
459.674	29.33
460.111	29.42
460.549	29.54
460.987	29.64
461.424	29.75
461.862	29.83
462.299	29.97
462.736	30.04
463.173	30.16
463.611	30.31
464.048	30.54
464.485	30.8
464.922	31.11
465.359	31.37
465.796	31.62
466.233	31.87
466.67	32.18
467.106	32.5
467.543	32.92
467.98	33.31
468.416	33.67
468.853	33.95
469.29	34.27
469.726	34.55
470.162	34.87
470.599	35.2
471.035	35.48
471.471	35.68
471.907	35.81
472.344	35.86
472.78	35.95
473.216	36.04
473.652	36.14
474.088	36.21
474.523	36.25
474.959	36.27
475.395	36.3
475.831	36.33
476.266	36.37
476.702	36.41
477.138	36.42
477.573	36.39
478.008	36.32
478.444	36.19
478.879	36.04
479.314	35.86
479.75	35.66
480.185	35.43
480.62	35.11
481.055	34.64
481.49	34.02
481.925	33.35
482.36	32.72
482.795	32.19
483.229	31.83
483.664	31.52
484.099	31.29
484.534	31.09
484.968	30.94
485.403	30.89
485.837	31.02
486.271	31.26
486.706	31.56
487.14	31.78
487.574	31.89
488.009	31.95
488.443	31.98
488.877	32.01
489.311	32.06
489.745	32.14
490.179	32.23
490.613	32.31
491.046	32.4
491.48	32.53
491.914	32.7
492.348	32.96
492.781	33.18
493.215	33.4
493.648	33.59
494.082	33.75
494.515	33.86
494.948	33.99
495.382	34.1
495.815	34.2
496.248	34.28
496.681	34.34
497.114	34.41
497.547	34.49
497.98	34.62
498.413	34.84
498.846	35.09
499.279	35.35
499.711	35.56
500.144	35.83
500.577	36.17
501.009	36.61
501.442	37.12
501.874	37.64
502.306	38.16
502.739	38.64
503.171	39.05
503.603	39.46
504.036	39.89
504.468	40.4
504.9	40.93
505.332	41.4
505.764	41.86
506.196	42.28
506.627	42.72
507.059	43.23
507.491	43.77
507.923	44.3
508.354	44.83
508.786	45.36
509.217	45.78
509.649	46.22
510.08	46.68
510.512	47.15
510.943	47.66
511.374	48.12
511.805	48.43
512.237	48.61
512.668	48.75
513.099	48.95
513.53	49.18
513.961	49.48
514.391	49.82
514.822	50.23
515.253	50.7
515.684	51.19
516.114	51.73
516.545	52.41
516.975	53.33
517.406	54.28
517.836	55.19
518.267	56.04
518.697	56.85
519.127	57.69
519.558	58.5
519.988	59.23
520.418	59.91
520.848	60.58
521.278	61.15
521.708	61.48
522.138	61.68
522.567	61.88
522.997	62.14
523.427	62.51
523.857	62.85
524.286	63.21
524.716	63.61
525.145	63.97
525.575	64.29
526.004	64.7
526.433	65.28
526.863	65.99
527.292	66.68
527.721	67.21
528.15	67.5
528.579	67.71
529.008	67.85
529.437	67.89
529.866	67.95
530.295	68.08
530.724	68.23
531.152	68.36
531.581	68.48
532.01	68.52
532.438	68.62
532.867	68.81
533.295	69.03
533.723	69.23
534.152	69.4
534.58	69.51
535.008	69.5
535.436	69.35
535.865	69.15
536.293	68.94
536.721	68.86
537.149	68.83
537.576	68.85
538.004	68.84
538.432	68.83
538.86	68.85
539.287	68.95
539.715	69.14
540.143	69.42
540.57	69.73
540.998	70.08
541.425	70.39
541.852	70.66
542.28	70.9
542.707	71.14
543.134	71.34
543.561	71.52
543.988	71.69
544.415	71.86
544.842	72.02
545.269	72.2
545.696	72.34
546.123	72.47
546.549	72.64
546.976	72.81
547.403	72.98
547.829	73.2
548.256	73.37
548.682	73.46
549.108	73.59
549.535	73.71
549.961	73.81
550.387	73.93
550.813	74.03
551.24	74.13
551.666	74.18
552.092	74.17
552.518	74.08
552.943	74.05
553.369	74.02
553.795	73.91
554.221	73.69
554.646	73.38
555.072	73.05
555.498	72.75
555.923	72.48
556.349	72.21
556.774	72.04
557.199	71.89
557.625	71.67
558.05	71.44
558.475	71.25
558.9	71.13
559.325	71.04
559.75	70.92
560.175	70.75
560.6	70.49
561.025	70.19
561.449	69.8
561.874	69.42
562.299	69.1
562.723	68.8
563.148	68.47
563.572	68.13
563.997	67.74
564.421	67.32
564.846	66.93
565.27	66.59
565.694	66.18
566.118	65.76
566.542	65.34
566.966	64.91
567.39	64.49
567.814	64.12
568.238	63.74
568.662	63.48
569.086	63.26
569.509	63.05
569.933	62.8
570.357	62.58
570.78	62.39
571.204	62.16
571.627	61.96
572.05	61.76
572.474	61.54
572.897	61.31
573.32	61.01
573.743	60.69
574.166	60.36
574.589	60.05
575.012	59.88
575.435	59.71
575.858	59.62
576.281	59.53
576.704	59.41
577.126	59.33
577.549	59.3
577.972	59.31
578.394	59.32
578.817	59.36
579.239	59.44
579.661	59.44
580.084	59.43
580.506	59.37
580.928	59.26
581.35	59.13
581.772	58.99
582.194	58.79
582.616	58.61
583.038	58.45
583.46	58.27
583.882	57.96
584.303	57.58
584.725	57.09
585.147	56.58
585.568	56.17
585.99	55.83
586.411	55.52
586.833	55.27
587.254	55.02
587.675	54.77
588.096	54.56
588.518	54.43
588.939	54.39
589.36	54.44
589.781	54.55
590.202	54.58
590.623	54.56
591.043	54.48
591.464	54.4
591.885	54.3
592.305	54.19
592.726	54.04
593.147	53.91
593.567	53.74
593.987	53.61
594.408	53.44
594.828	53.27
595.248	53.12
595.669	52.93
596.089	52.71
596.509	52.45
596.929	52.19
597.349	51.91
597.769	51.63
598.189	51.4
598.608	51.17
599.028	50.98
599.448	50.81
599.867	50.65
600.287	50.51
600.706	50.37
601.126	50.23
601.545	50.09
601.965	49.96
602.384	49.86
602.803	49.73
603.222	49.56
603.641	49.38
604.061	49.19
604.48	48.93
604.898	48.68
605.317	48.43
605.736	48.14
606.155	47.88
606.574	47.64
606.992	47.38
607.411	47.11
607.829	46.82
608.248	46.57
608.666	46.32
609.085	46.06
609.503	45.79
609.921	45.56
610.339	45.36
610.758	45.15
611.176	44.9
611.594	44.62
612.012	44.34
612.43	44.11
612.847	43.85
613.265	43.63
613.683	43.45
614.101	43.26
614.518	43.1
614.936	42.94
615.353	42.78
615.771	42.67
616.188	42.62
616.606	42.53
617.023	42.44
617.44	42.34
617.857	42.21
618.274	42.06
618.691	41.93
619.108	41.75
619.525	41.55
619.942	41.35
620.359	41.13
620.776	40.88
621.192	40.65
621.609	40.43
622.026	40.24
622.442	40.07
622.859	39.89
623.275	39.72
623.691	39.56
624.108	39.41
624.524	39.26
624.94	39.12
625.356	38.98
625.772	38.89
626.188	38.8
626.604	38.66
627.02	38.53
627.436	38.41
627.852	38.31
628.268	38.24
628.683	38.18
629.099	38.14
629.514	38.1
629.93	38.06
630.345	38
630.761	37.95
631.176	37.91
631.591	37.85
632.007	37.78
632.422	37.72
632.837	37.66
633.252	37.58
633.667	37.47
634.082	37.38
634.497	37.29
634.911	37.15
635.326	36.97
635.741	36.8
636.155	36.61
636.57	36.43
636.984	36.17
637.399	35.91
637.813	35.65
638.228	35.38
638.642	35.1
639.056	34.84
639.47	34.57
639.884	34.32
640.298	34.08
640.712	33.83
641.126	33.58
641.54	33.33
641.954	33.09
642.368	32.83
642.781	32.56
643.195	32.27
643.609	31.99
644.022	31.73
644.436	31.48
644.849	31.2
645.262	30.93
645.676	30.69
646.089	30.49
646.502	30.28
646.915	30.1
647.328	29.92
647.741	29.79
648.154	29.66
648.567	29.55
648.98	29.44
649.393	29.35
649.805	29.25
650.218	29.15
650.631	29.03
651.043	28.86
651.456	28.6
651.868	28.27
652.28	27.9
652.693	27.55
653.105	27.26
653.517	27.01
653.929	26.81
654.341	26.66
654.753	26.53
655.165	26.4
655.577	26.32
655.989	26.33
656.401	26.41
656.813	26.52
657.224	26.6
657.636	26.64
658.047	26.62
658.459	26.54
658.87	26.4
659.282	26.26
659.693	26.1
660.104	25.92
660.515	25.74
660.926	25.57
661.338	25.38
661.749	25.18
662.159	24.96
662.57	24.76
662.981	24.55
663.392	24.37
663.803	24.17
664.213	24.02
664.624	23.87
665.035	23.72
665.445	23.57
665.855	23.39
666.266	23.25
666.676	23.09
667.086	22.93
667.497	22.79
667.907	22.65
668.317	22.52
668.727	22.37
669.137	22.24
669.547	22.13
669.956	22.01
670.366	21.92
670.776	21.81
671.186	21.75
671.595	21.69
672.005	21.64
672.414	21.6
672.824	21.55
673.233	21.54
673.642	21.49
674.052	21.45
674.461	21.43
674.87	21.43
675.279	21.44
675.688	21.43
676.097	21.43
676.506	21.43
676.915	21.45
677.323	21.49
677.732	21.54
678.141	21.6
678.549	21.68
678.958	21.77
679.366	21.85
679.775	21.95
680.183	22.06
680.592	22.18
681	22.33
681.408	22.5
681.816	22.62
682.224	22.67
682.632	22.66
683.04	22.58
683.448	22.54
683.856	22.56
684.264	22.62
684.671	22.71
685.079	22.82
685.487	22.99
685.894	23.19
686.302	23.47
686.709	23.89
687.116	24.42
687.524	25.09
687.931	25.78
688.338	26.48
688.745	27.2
689.152	27.92
689.559	28.65
689.966	29.35
690.373	30.07
690.78	30.74
691.187	31.44
691.593	32.1
692	32.75
692.407	33.39
692.813	34.02
693.22	34.61
693.626	35.2
694.032	35.78
694.439	36.36
694.845	36.93
695.251	37.48
695.657	37.97
696.063	38.5
696.469	38.97
696.875	39.37
697.281	39.77
697.687	40.18
698.093	40.58
698.498	40.98
698.904	41.36
699.31	41.73
699.715	42.12
700.12	42.52
700.526	42.9
700.931	43.28
701.337	43.69
701.742	44.08
702.147	44.47
702.552	44.85
702.957	45.21
703.362	45.58
703.767	45.91
704.172	46.2
704.577	46.48
704.981	46.77
705.386	47.03
705.791	47.31
706.195	47.56
706.6	47.77
707.004	48
707.408	48.24
707.813	48.43
708.217	48.61
708.621	48.81
709.025	49.01
709.43	49.2
709.834	49.39
710.237	49.53
710.641	49.7
711.045	49.87
711.449	49.98
711.853	50.06
712.256	50.11
712.66	50.12
713.064	50.05
713.467	49.94
713.87	49.76
714.274	49.56
714.677	49.33
715.08	49.07
715.484	48.85
715.887	48.63
716.29	48.49
716.693	48.41
717.096	48.49
717.499	48.68
717.901	48.89
718.304	49.17
718.707	49.46
719.109	49.76
719.512	50.05
719.915	50.29
720.317	50.53
720.719	50.7
721.122	50.83
721.524	50.87
721.926	50.89
722.328	50.9
722.731	50.89
723.133	50.88
723.535	50.92
723.937	50.97
724.338	51.01
724.74	51.04
725.142	50.97
725.544	51.01
725.945	51.06
726.347	51.1
726.748	51.13
727.15	51.19
727.551	51.26
727.952	51.34
728.354	51.46
728.755	51.6
729.156	51.8
729.557	52.11
729.958	52.33
730.359	52.51
730.76	52.62
731.161	52.77
731.562	52.9
731.962	53.01
732.363	53.08
732.763	53.15
733.164	53.15
733.564	53.15
733.965	53.11
734.365	53.02
734.766	52.96
735.166	52.93
735.566	52.86
735.966	52.81
736.366	52.75
736.766	52.69
737.166	52.68
737.566	52.66
737.966	52.63
738.365	52.59
738.765	52.61
739.165	52.6
739.564	52.6
739.964	52.6
740.363	52.59
740.763	52.58
741.162	52.57
741.561	52.58
741.96	52.58
742.36	52.55
742.759	52.55
743.158	52.49
743.557	52.52
743.955	52.52
744.354	52.53
744.753	52.5
745.152	52.48
745.55	52.45
745.949	52.34
746.348	52.31
746.746	52.25
747.144	52.19
747.543	52.18
747.941	52.09
748.339	52.05
748.737	52.02
749.136	51.96
749.534	51.95
749.932	51.94
750.33	51.93
750.727	51.9
751.125	51.87
751.523	51.84
751.921	51.77
752.318	51.73
752.716	51.65
753.113	51.56
753.511	51.48
753.908	51.33
754.305	51.16
754.703	50.87
755.1	50.3
755.497	49.38
755.894	48.13
756.291	46.66
756.688	45.1
757.085	43.61
757.482	42.26
757.878	40.99
758.275	39.76
758.672	38.52
759.068	37.39
759.465	36.55
759.861	36.17
760.258	36.18
760.654	36.53
761.05	37.05
761.447	37.63
761.843	38.16
762.239	38.7
762.635	39.34
763.031	40.14
763.427	41.02
763.822	41.94
764.218	42.87
764.614	43.75
765.01	44.57
765.405	45.3
765.801	45.92
766.196	46.49
766.592	47
766.987	47.38
767.382	47.67
767.778	47.89
768.173	48.07
768.568	48.14
768.963	48.23
769.358	48.26
769.753	48.33
770.148	48.33
770.542	48.31
770.937	48.25
771.332	48.23
771.726	48.18
772.121	48.13
772.515	48.1
772.91	48.06
773.304	47.96
773.699	47.91
774.093	47.83
