Data from C_2_div_il_4n_082_Splice17_20.txt Node
Date: Sat Feb 29 14:18:45 EST 2020
User: sa697716
Spectrometer: FLMS03696
Trigger mode: 0
Integration Time (sec): 3.180400E-1
Scans to average: 20
Electric dark correction enabled: true
Nonlinearity correction enabled: true
Boxcar width: 5
XAxis mode: Wavelengths
Number of Pixels in Spectrum: 2048
>>>>>Begin Spectral Data<<<<<
187.83	48.1
188.298	28.36
188.766	44.78
189.233	35.62
189.701	36.74
190.169	37.95
190.636	46.8
191.104	19.53
191.571	29.1
192.039	137.38
192.506	285.61
192.974	11657.95
193.441	-491.02
193.908	142.12
194.375	157.68
194.842	116.95
195.31	47.12
195.777	47.2
196.244	7.34
196.711	32.03
197.177	35.15
197.644	34.37
198.111	34.84
198.578	35.45
199.045	36.3
199.511	36.46
199.978	37.81
200.445	37.94
200.911	38.48
201.378	39.41
201.844	40.14
202.31	40.46
202.777	41.01
203.243	41.45
203.709	41.95
204.176	41.96
204.642	42.32
205.108	41.9
205.574	41.89
206.04	41.73
206.506	41.38
206.972	41.12
207.438	40.7
207.903	40.42
208.369	39.66
208.835	39.33
209.301	38.94
209.766	38.35
210.232	37.73
210.697	37.19
211.163	36.42
211.628	35.16
212.094	34.48
212.559	33.57
213.024	32.7
213.49	31.99
213.955	31.45
214.42	30.73
214.885	29.72
215.35	28.87
215.815	27.34
216.28	26.07
216.745	24.8
217.21	23.01
217.675	21.61
218.14	20.06
218.604	18.67
219.069	17.51
219.534	16.34
219.998	15.48
220.463	14.71
220.927	14.17
221.392	13.64
221.856	13.12
222.32	12.7
222.785	12.33
223.249	12.03
223.713	11.79
224.177	11.45
224.642	11.27
225.106	11.05
225.57	10.84
226.034	10.62
226.497	10.42
226.961	10.24
227.425	10.05
227.889	9.89
228.353	9.7
228.816	9.52
229.28	9.36
229.744	9.2
230.207	9.06
230.671	8.91
231.134	8.79
231.597	8.63
232.061	8.52
232.524	8.41
232.987	8.28
233.45	8.17
233.914	8.08
234.377	8
234.84	7.89
235.303	7.8
235.766	7.71
236.229	7.63
236.691	7.57
237.154	7.49
237.617	7.41
238.08	7.34
238.542	7.27
239.005	7.2
239.468	7.13
239.93	7.07
240.393	7
240.855	6.92
241.317	6.85
241.78	6.8
242.242	6.72
242.704	6.66
243.166	6.59
243.629	6.52
244.091	6.46
244.553	6.4
245.015	6.34
245.477	6.29
245.939	6.25
246.4	6.19
246.862	6.14
247.324	6.11
247.786	6.06
248.247	6.02
248.709	5.99
249.17	5.95
249.632	5.9
250.093	5.84
250.555	5.8
251.016	5.76
251.477	5.72
251.939	5.68
252.4	5.64
252.861	5.61
253.322	5.57
253.783	5.54
254.244	5.5
254.705	5.48
255.166	5.47
255.627	5.44
256.088	5.4
256.549	5.38
257.009	5.35
257.47	5.31
257.931	5.27
258.391	5.24
258.852	5.2
259.312	5.17
259.773	5.14
260.233	5.09
260.694	5.06
261.154	5.03
261.614	4.98
262.074	4.96
262.534	4.92
262.994	4.9
263.455	4.87
263.915	4.84
264.374	4.82
264.834	4.79
265.294	4.77
265.754	4.73
266.214	4.72
266.673	4.69
267.133	4.67
267.593	4.66
268.052	4.63
268.512	4.61
268.971	4.59
269.431	4.57
269.89	4.55
270.349	4.54
270.809	4.53
271.268	4.51
271.727	4.5
272.186	4.49
272.645	4.47
273.104	4.45
273.563	4.44
274.022	4.43
274.481	4.41
274.94	4.4
275.399	4.38
275.857	4.36
276.316	4.34
276.775	4.32
277.233	4.31
277.692	4.3
278.15	4.28
278.609	4.26
279.067	4.24
279.525	4.24
279.984	4.23
280.442	4.22
280.9	4.21
281.358	4.19
281.816	4.18
282.274	4.16
282.732	4.16
283.19	4.16
283.648	4.15
284.106	4.15
284.564	4.14
285.021	4.13
285.479	4.13
285.937	4.13
286.394	4.13
286.852	4.13
287.309	4.12
287.767	4.11
288.224	4.09
288.682	4.08
289.139	4.06
289.596	4.04
290.053	4.02
290.511	4
290.968	3.99
291.425	3.97
291.882	3.94
292.339	3.93
292.796	3.91
293.252	3.9
293.709	3.89
294.166	3.88
294.623	3.86
295.079	3.85
295.536	3.84
295.992	3.83
296.449	3.81
296.905	3.8
297.362	3.78
297.818	3.77
298.274	3.76
298.731	3.75
299.187	3.74
299.643	3.73
300.099	3.72
300.555	3.7
301.011	3.69
301.467	3.68
301.923	3.67
302.379	3.67
302.835	3.66
303.291	3.65
303.746	3.64
304.202	3.64
304.658	3.63
305.113	3.62
305.569	3.63
306.024	3.62
306.479	3.63
306.935	3.62
307.39	3.62
307.845	3.61
308.301	3.62
308.756	3.62
309.211	3.62
309.666	3.61
310.121	3.6
310.576	3.6
311.031	3.6
311.486	3.59
311.94	3.59
312.395	3.59
312.85	3.59
313.305	3.58
313.759	3.58
314.214	3.58
314.668	3.58
315.123	3.6
315.577	3.6
316.032	3.59
316.486	3.59
316.94	3.58
317.394	3.57
317.849	3.56
318.303	3.56
318.757	3.55
319.211	3.52
319.665	3.51
320.119	3.49
320.572	3.49
321.026	3.48
321.48	3.47
321.934	3.46
322.387	3.46
322.841	3.45
323.295	3.43
323.748	3.44
324.202	3.44
324.655	3.43
325.108	3.42
325.562	3.4
326.015	3.4
326.468	3.38
326.921	3.37
327.374	3.36
327.827	3.35
328.28	3.34
328.733	3.33
329.186	3.33
329.639	3.33
330.092	3.33
330.545	3.33
330.997	3.33
331.45	3.33
331.903	3.33
332.355	3.33
332.808	3.34
333.26	3.35
333.713	3.36
334.165	3.36
334.617	3.36
335.069	3.36
335.522	3.36
335.974	3.36
336.426	3.37
336.878	3.38
337.33	3.38
337.782	3.37
338.234	3.38
338.686	3.37
339.137	3.37
339.589	3.37
340.041	3.37
340.493	3.36
340.944	3.36
341.396	3.35
341.847	3.34
342.299	3.32
342.75	3.31
343.201	3.3
343.653	3.29
344.104	3.28
344.555	3.28
345.006	3.26
345.457	3.25
345.908	3.24
346.359	3.23
346.81	3.23
347.261	3.24
347.712	3.23
348.163	3.22
348.613	3.21
349.064	3.2
349.515	3.19
349.965	3.19
350.416	3.19
350.866	3.2
351.317	3.2
351.767	3.19
352.217	3.19
352.668	3.2
353.118	3.2
353.568	3.21
354.018	3.22
354.468	3.22
354.918	3.23
355.368	3.23
355.818	3.22
356.268	3.23
356.718	3.23
357.168	3.23
357.617	3.22
358.067	3.22
358.517	3.22
358.966	3.22
359.416	3.22
359.865	3.22
360.315	3.23
360.764	3.24
361.213	3.24
361.663	3.24
362.112	3.25
362.561	3.26
363.01	3.27
363.459	3.27
363.908	3.28
364.357	3.28
364.806	3.29
365.255	3.3
365.703	3.31
366.152	3.32
366.601	3.34
367.05	3.35
367.498	3.35
367.947	3.35
368.395	3.37
368.844	3.38
369.292	3.38
369.74	3.4
370.189	3.41
370.637	3.42
371.085	3.44
371.533	3.45
371.981	3.47
372.429	3.48
372.877	3.51
373.325	3.52
373.773	3.54
374.221	3.57
374.669	3.6
375.116	3.62
375.564	3.64
376.012	3.67
376.459	3.7
376.907	3.74
377.354	3.76
377.801	3.79
378.249	3.83
378.696	3.88
379.143	3.91
379.591	3.95
380.038	3.99
380.485	4.03
380.932	4.06
381.379	4.08
381.826	4.12
382.273	4.17
382.72	4.22
383.166	4.26
383.613	4.29
384.06	4.34
384.506	4.38
384.953	4.41
385.4	4.46
385.846	4.51
386.292	4.57
386.739	4.61
387.185	4.67
387.631	4.73
388.078	4.79
388.524	4.83
388.97	4.87
389.416	4.93
389.862	4.99
390.308	5.04
390.754	5.09
391.2	5.15
391.645	5.2
392.091	5.24
392.537	5.29
392.983	5.34
393.428	5.4
393.874	5.47
394.319	5.53
394.765	5.57
395.21	5.61
395.655	5.66
396.101	5.71
396.546	5.75
396.991	5.8
397.436	5.82
397.881	5.87
398.326	5.93
398.771	5.97
399.216	6.01
399.661	6.09
400.106	6.15
400.551	6.19
400.995	6.22
401.44	6.25
401.885	6.29
402.329	6.33
402.774	6.36
403.218	6.38
403.663	6.39
404.107	6.43
404.551	6.46
404.995	6.47
405.44	6.5
405.884	6.52
406.328	6.55
406.772	6.57
407.216	6.6
407.66	6.63
408.104	6.66
408.547	6.7
408.991	6.71
409.435	6.72
409.879	6.73
410.322	6.74
410.766	6.76
411.209	6.8
411.653	6.82
412.096	6.84
412.54	6.86
412.983	6.87
413.426	6.89
413.869	6.91
414.312	6.94
414.756	6.97
415.199	7.01
415.642	7.04
416.085	7.06
416.527	7.1
416.97	7.13
417.413	7.13
417.856	7.14
418.298	7.14
418.741	7.15
419.184	7.16
419.626	7.16
420.069	7.16
420.511	7.16
420.953	7.15
421.396	7.15
421.838	7.15
422.28	7.17
422.722	7.2
423.164	7.21
423.606	7.23
424.048	7.23
424.49	7.26
424.932	7.25
425.374	7.27
425.816	7.26
426.258	7.25
426.699	7.23
427.141	7.19
427.582	7.18
428.024	7.17
428.465	7.16
428.907	7.18
429.348	7.17
429.789	7.16
430.231	7.14
430.672	7.13
431.113	7.14
431.554	7.18
431.995	7.21
432.436	7.2
432.877	7.2
433.318	7.19
433.759	7.18
434.2	7.18
434.64	7.2
435.081	7.21
435.522	7.24
435.962	7.25
436.403	7.27
436.843	7.29
437.284	7.32
437.724	7.36
438.164	7.4
438.604	7.42
439.045	7.44
439.485	7.44
439.925	7.45
440.365	7.45
440.805	7.47
441.245	7.47
441.685	7.49
442.125	7.5
442.564	7.54
443.004	7.57
443.444	7.6
443.883	7.62
444.323	7.68
444.762	7.73
445.202	7.81
445.641	7.86
446.081	7.93
446.52	7.96
446.959	8
447.398	8.04
447.837	8.11
448.276	8.16
448.716	8.21
449.154	8.26
449.593	8.29
450.032	8.32
450.471	8.36
450.91	8.37
451.349	8.41
451.787	8.44
452.226	8.44
452.664	8.42
453.103	8.42
453.541	8.44
453.98	8.44
454.418	8.44
454.856	8.42
455.295	8.41
455.733	8.4
456.171	8.39
456.609	8.39
457.047	8.38
457.485	8.38
457.923	8.37
458.361	8.35
458.798	8.36
459.236	8.36
459.674	8.36
460.111	8.35
460.549	8.34
460.987	8.34
461.424	8.32
461.862	8.33
462.299	8.31
462.736	8.31
463.173	8.31
463.611	8.27
464.048	8.28
464.485	8.27
464.922	8.27
465.359	8.26
465.796	8.23
466.233	8.25
466.67	8.24
467.106	8.24
467.543	8.25
467.98	8.27
468.416	8.29
468.853	8.3
469.29	8.33
469.726	8.33
470.162	8.35
470.599	8.38
471.035	8.41
471.471	8.41
471.907	8.45
472.344	8.45
472.78	8.47
473.216	8.48
473.652	8.49
474.088	8.49
474.523	8.49
474.959	8.5
475.395	8.52
475.831	8.53
476.266	8.54
476.702	8.55
477.138	8.54
477.573	8.52
478.008	8.51
478.444	8.5
478.879	8.5
479.314	8.51
479.75	8.51
480.185	8.5
480.62	8.49
481.055	8.5
481.49	8.49
481.925	8.5
482.36	8.48
482.795	8.48
483.229	8.48
483.664	8.49
484.099	8.49
484.534	8.5
484.968	8.52
485.403	8.54
485.837	8.53
486.271	8.55
486.706	8.56
487.14	8.6
487.574	8.64
488.009	8.67
488.443	8.71
488.877	8.74
489.311	8.76
489.745	8.8
490.179	8.84
490.613	8.9
491.046	8.96
491.48	9.03
491.914	9.09
492.348	9.14
492.781	9.2
493.215	9.27
493.648	9.35
494.082	9.43
494.515	9.52
494.948	9.59
495.382	9.68
495.815	9.77
496.248	9.86
496.681	9.96
497.114	10.06
497.547	10.17
497.98	10.29
498.413	10.41
498.846	10.53
499.279	10.68
499.711	10.83
500.144	10.97
500.577	11.13
501.009	11.29
501.442	11.47
501.874	11.65
502.306	11.84
502.739	12.01
503.171	12.21
503.603	12.42
504.036	12.62
504.468	12.85
504.9	13.09
505.332	13.34
505.764	13.58
506.196	13.83
506.627	14.1
507.059	14.37
507.491	14.66
507.923	14.94
508.354	15.24
508.786	15.54
509.217	15.82
509.649	16.12
510.08	16.42
510.512	16.73
510.943	17.06
511.374	17.4
511.805	17.74
512.237	18.08
512.668	18.43
513.099	18.78
513.53	19.16
513.961	19.52
514.391	19.86
514.822	20.21
515.253	20.57
515.684	20.94
516.114	21.27
516.545	21.6
516.975	21.97
517.406	22.32
517.836	22.64
518.267	22.97
518.697	23.32
519.127	23.68
519.558	24.02
519.988	24.36
520.418	24.68
520.848	25.01
521.278	25.35
521.708	25.61
522.138	25.89
522.567	26.21
522.997	26.5
523.427	26.79
523.857	27.07
524.286	27.33
524.716	27.59
525.145	27.84
525.575	28.1
526.004	28.34
526.433	28.64
526.863	28.89
527.292	29.11
527.721	29.32
528.15	29.48
528.579	29.7
529.008	29.89
529.437	30.06
529.866	30.25
530.295	30.39
530.724	30.56
531.152	30.7
531.581	30.83
532.01	30.95
532.438	31.09
532.867	31.25
533.295	31.34
533.723	31.47
534.152	31.6
534.58	31.67
535.008	31.75
535.436	31.82
535.865	31.91
536.293	31.97
536.721	32.05
537.149	32.09
537.576	32.13
538.004	32.17
538.432	32.21
538.86	32.23
539.287	32.3
539.715	32.34
540.143	32.38
540.57	32.41
540.998	32.45
541.425	32.5
541.852	32.55
542.28	32.59
542.707	32.63
543.134	32.66
543.561	32.69
543.988	32.72
544.415	32.76
544.842	32.78
545.269	32.81
545.696	32.85
546.123	32.86
546.549	32.87
546.976	32.9
547.403	32.91
547.829	32.95
548.256	32.98
548.682	32.99
549.108	33.02
549.535	33.04
549.961	33.06
550.387	33.06
550.813	33.06
551.24	33.09
551.666	33.09
552.092	33.1
552.518	33.08
552.943	33.09
553.369	33.07
553.795	33.03
554.221	33.01
554.646	32.99
555.072	32.96
555.498	32.95
555.923	32.9
556.349	32.84
556.774	32.8
557.199	32.75
557.625	32.66
558.05	32.6
558.475	32.53
558.9	32.45
559.325	32.37
559.75	32.28
560.175	32.19
560.6	32.07
561.025	31.98
561.449	31.89
561.874	31.78
562.299	31.69
562.723	31.58
563.148	31.47
563.572	31.35
563.997	31.22
564.421	31.09
564.846	30.96
565.27	30.84
565.694	30.7
566.118	30.53
566.542	30.38
566.966	30.21
567.39	30.04
567.814	29.87
568.238	29.67
568.662	29.52
569.086	29.35
569.509	29.15
569.933	28.97
570.357	28.77
570.78	28.6
571.204	28.42
571.627	28.25
572.05	28.08
572.474	27.92
572.897	27.78
573.32	27.6
573.743	27.44
574.166	27.29
574.589	27.13
575.012	27.01
575.435	26.88
575.858	26.78
576.281	26.64
576.704	26.51
577.126	26.38
577.549	26.27
577.972	26.17
578.394	26.05
578.817	25.94
579.239	25.86
579.661	25.75
580.084	25.66
580.506	25.52
580.928	25.42
581.35	25.36
581.772	25.28
582.194	25.17
582.616	25.1
583.038	25.02
583.46	24.96
583.882	24.88
584.303	24.79
584.725	24.71
585.147	24.64
585.568	24.57
585.99	24.48
586.411	24.43
586.833	24.38
587.254	24.32
587.675	24.25
588.096	24.2
588.518	24.14
588.939	24.09
589.36	24.03
589.781	23.99
590.202	23.96
590.623	23.9
591.043	23.83
591.464	23.76
591.885	23.71
592.305	23.66
592.726	23.61
593.147	23.59
593.567	23.54
593.987	23.51
594.408	23.47
594.828	23.43
595.248	23.41
595.669	23.38
596.089	23.35
596.509	23.31
596.929	23.26
597.349	23.21
597.769	23.15
598.189	23.12
598.608	23.06
599.028	23.01
599.448	22.97
599.867	22.91
600.287	22.83
600.706	22.75
601.126	22.69
601.545	22.63
601.965	22.57
602.384	22.5
602.803	22.42
603.222	22.34
603.641	22.28
604.061	22.19
604.48	22.11
604.898	22.04
605.317	21.98
605.736	21.9
606.155	21.81
606.574	21.73
606.992	21.64
607.411	21.56
607.829	21.44
608.248	21.32
608.666	21.24
609.085	21.15
609.503	21.04
609.921	20.94
610.339	20.86
610.758	20.76
611.176	20.66
611.594	20.57
612.012	20.47
612.43	20.43
612.847	20.34
613.265	20.24
613.683	20.14
614.101	20.06
614.518	19.97
614.936	19.88
615.353	19.8
615.771	19.71
616.188	19.64
616.606	19.55
617.023	19.46
617.44	19.41
617.857	19.33
618.274	19.27
618.691	19.2
619.108	19.16
619.525	19.1
619.942	19.05
620.359	19.01
620.776	18.97
621.192	18.93
621.609	18.9
622.026	18.86
622.442	18.84
622.859	18.81
623.275	18.81
623.691	18.78
624.108	18.75
624.524	18.73
624.94	18.69
625.356	18.68
625.772	18.66
626.188	18.64
626.604	18.63
627.02	18.62
627.436	18.6
627.852	18.57
628.268	18.54
628.683	18.53
629.099	18.52
629.514	18.49
629.93	18.45
630.345	18.39
630.761	18.37
631.176	18.33
631.591	18.26
632.007	18.22
632.422	18.16
632.837	18.11
633.252	18.03
633.667	17.95
634.082	17.86
634.497	17.76
634.911	17.67
635.326	17.55
635.741	17.43
636.155	17.31
636.57	17.17
636.984	17.02
637.399	16.86
637.813	16.69
638.228	16.53
638.642	16.38
639.056	16.22
639.47	16.05
639.884	15.88
640.298	15.71
640.712	15.52
641.126	15.35
641.54	15.19
641.954	15.04
642.368	14.87
642.781	14.69
643.195	14.52
643.609	14.38
644.022	14.21
644.436	14.06
644.849	13.93
645.262	13.79
645.676	13.65
646.089	13.51
646.502	13.36
646.915	13.25
647.328	13.15
647.741	13.05
648.154	12.95
648.567	12.86
648.98	12.79
649.393	12.71
649.805	12.62
650.218	12.56
650.631	12.51
651.043	12.47
651.456	12.42
651.868	12.37
652.28	12.31
652.693	12.23
653.105	12.16
653.517	12.09
653.929	12.01
654.341	11.93
654.753	11.84
655.165	11.74
655.577	11.63
655.989	11.51
656.401	11.38
656.813	11.27
657.224	11.17
657.636	11.07
658.047	10.93
658.459	10.79
658.87	10.66
659.282	10.54
659.693	10.41
660.104	10.27
660.515	10.15
660.926	10.04
661.338	9.91
661.749	9.77
662.159	9.63
662.57	9.52
662.981	9.43
663.392	9.32
663.803	9.2
664.213	9.1
664.624	9.01
665.035	8.9
665.445	8.81
665.855	8.73
666.266	8.66
666.676	8.58
667.086	8.53
667.497	8.44
667.907	8.39
668.317	8.35
668.727	8.3
669.137	8.26
669.547	8.24
669.956	8.21
670.366	8.2
670.776	8.18
671.186	8.16
671.595	8.15
672.005	8.16
672.414	8.17
672.824	8.18
673.233	8.19
673.642	8.19
674.052	8.19
674.461	8.21
674.87	8.23
675.279	8.26
675.688	8.29
676.097	8.33
676.506	8.35
676.915	8.4
677.323	8.45
677.732	8.53
678.141	8.61
678.549	8.7
678.958	8.77
679.366	8.86
679.775	8.96
680.183	9.07
680.592	9.2
681	9.35
681.408	9.5
681.816	9.65
682.224	9.84
682.632	10.06
683.04	10.29
683.448	10.55
683.856	10.84
684.264	11.14
684.671	11.5
685.079	11.87
685.487	12.27
685.894	12.71
686.302	13.18
686.709	13.65
687.116	14.16
687.524	14.69
687.931	15.24
688.338	15.82
688.745	16.45
689.152	17.08
689.559	17.73
689.966	18.38
690.373	19.06
690.78	19.75
691.187	20.46
691.593	21.16
692	21.88
692.407	22.61
692.813	23.33
693.22	24.03
693.626	24.74
694.032	25.46
694.439	26.2
694.845	26.9
695.251	27.59
695.657	28.26
696.063	28.95
696.469	29.6
696.875	30.22
697.281	30.83
697.687	31.47
698.093	32.06
698.498	32.69
698.904	33.24
699.31	33.82
699.715	34.4
700.12	34.95
700.526	35.48
700.931	36
701.337	36.51
701.742	37.01
702.147	37.49
702.552	37.99
702.957	38.43
703.362	38.9
703.767	39.33
704.172	39.74
704.577	40.16
704.981	40.58
705.386	41
705.791	41.43
706.195	41.83
706.6	42.19
707.004	42.54
707.408	42.91
707.813	43.23
708.217	43.58
708.621	43.92
709.025	44.26
709.43	44.56
709.834	44.89
710.237	45.17
710.641	45.48
711.045	45.77
711.449	46.05
711.853	46.3
712.256	46.6
712.66	46.86
713.064	47.13
713.467	47.36
713.87	47.62
714.274	47.89
714.677	48.1
715.08	48.35
715.484	48.61
715.887	48.85
716.29	49.1
716.693	49.31
717.096	49.54
717.499	49.76
717.901	49.93
718.304	50.16
718.707	50.32
719.109	50.55
719.512	50.75
719.915	50.93
720.317	51.1
720.719	51.27
721.122	51.44
721.524	51.61
721.926	51.79
722.328	52
722.731	52.14
723.133	52.29
723.535	52.44
723.937	52.57
724.338	52.69
724.74	52.84
725.142	52.87
725.544	52.96
725.945	53.09
726.347	53.17
726.748	53.25
727.15	53.35
727.551	53.44
727.952	53.53
728.354	53.64
728.755	53.73
729.156	53.82
729.557	53.98
729.958	54.09
730.359	54.16
730.76	54.25
731.161	54.31
731.562	54.38
731.962	54.46
732.363	54.52
732.763	54.58
733.164	54.61
733.564	54.64
733.965	54.67
734.365	54.69
734.766	54.73
735.166	54.75
735.566	54.81
735.966	54.84
736.366	54.87
736.766	54.9
737.166	54.93
737.566	54.98
737.966	55.04
738.365	55.09
738.765	55.13
739.165	55.11
739.564	55.14
739.964	55.14
740.363	55.17
740.763	55.17
741.162	55.19
741.561	55.22
741.96	55.26
742.36	55.28
742.759	55.3
743.158	55.34
743.557	55.41
743.955	55.46
744.354	55.5
744.753	55.55
745.152	55.58
745.55	55.61
745.949	55.62
746.348	55.66
746.746	55.7
747.144	55.75
747.543	55.76
747.941	55.84
748.339	55.91
748.737	55.98
749.136	55.99
749.534	56.07
749.932	56.12
750.33	56.14
750.727	56.14
751.125	56.13
751.523	56.08
751.921	56.11
752.318	56.06
752.716	55.99
753.113	55.97
753.511	55.92
753.908	55.88
754.305	55.81
754.703	55.81
755.1	55.76
755.497	55.74
755.894	55.78
756.291	55.73
756.688	55.73
757.085	55.71
757.482	55.68
757.878	55.7
758.275	55.7
758.672	55.71
759.068	55.68
759.465	55.7
759.861	55.7
760.258	55.68
760.654	55.69
761.05	55.68
761.447	55.64
761.843	55.6
762.239	55.56
762.635	55.52
763.031	55.51
763.427	55.47
763.822	55.46
764.218	55.44
764.614	55.43
765.01	55.41
765.405	55.37
765.801	55.37
766.196	55.41
766.592	55.42
766.987	55.42
767.382	55.4
767.778	55.4
768.173	55.39
768.568	55.37
768.963	55.3
769.358	55.33
769.753	55.35
770.148	55.36
770.542	55.35
770.937	55.34
771.332	55.31
771.726	55.3
772.121	55.27
772.515	55.27
772.91	55.3
773.304	55.35
773.699	55.3
774.093	55.25
774.487	55.27
774.881	55.27
775.275	55.26
775.669	55.27
776.063	55.28
776.457	55.29
776.851	55.27
777.245	55.27
777.638	55.25
778.032	55.26
778.425	55.31
778.819	55.31
779.212	55.29
779.606	55.28
779.999	55.26
