Data from C_2_hir_wi_4n_078_Splice17_12.txt Node
Date: Sat Feb 29 14:20:08 EST 2020
User: sa697716
Spectrometer: FLMS03696
Trigger mode: 0
Integration Time (sec): 3.180400E-1
Scans to average: 20
Electric dark correction enabled: true
Nonlinearity correction enabled: true
Boxcar width: 5
XAxis mode: Wavelengths
Number of Pixels in Spectrum: 2048
>>>>>Begin Spectral Data<<<<<
187.83	10.76
188.298	-12.74
188.766	-0.01
189.233	-24.55
189.701	-9.13
190.169	-2.1
190.636	-8.02
191.104	-50.79
191.571	-327.52
192.039	-10.16
192.506	319.7
192.974	6256.72
193.441	-103.65
193.908	56.83
194.375	-155.85
194.842	-106.81
195.31	-15.85
195.777	6.13
196.244	13.42
196.711	39.35
197.177	41.18
197.644	43.48
198.111	43.1
198.578	43.51
199.045	44.4
199.511	46.09
199.978	46.83
200.445	46.18
200.911	46.43
201.378	46.84
201.844	47.26
202.31	47.78
202.777	47.9
203.243	48.28
203.709	48.69
204.176	48.2
204.642	47.68
205.108	47.25
205.574	47.76
206.04	47.6
206.506	47.22
206.972	47
207.438	46.43
207.903	46.54
208.369	45.76
208.835	45.16
209.301	45.09
209.766	44.49
210.232	44.04
210.697	43.35
211.163	42.91
211.628	42.87
212.094	42.31
212.559	41.92
213.024	40.94
213.49	40.15
213.955	39.64
214.42	38.89
214.885	37.77
215.35	36.37
215.815	34.53
216.28	32.84
216.745	30.69
217.21	28.71
217.675	26.74
218.14	25.05
218.604	23.61
219.069	22.28
219.534	21.05
219.998	20.16
220.463	19.43
220.927	18.81
221.392	18.14
221.856	17.65
222.32	17.21
222.785	16.83
223.249	16.48
223.713	16.22
224.177	15.89
224.642	15.66
225.106	15.36
225.57	15.1
226.034	14.86
226.497	14.63
226.961	14.38
227.425	14.12
227.889	13.93
228.353	13.73
228.816	13.55
229.28	13.36
229.744	13.18
230.207	13.03
230.671	12.86
231.134	12.69
231.597	12.55
232.061	12.43
232.524	12.3
232.987	12.15
233.45	11.99
233.914	11.87
234.377	11.76
234.84	11.61
235.303	11.48
235.766	11.36
236.229	11.26
236.691	11.16
237.154	11.04
237.617	10.94
238.08	10.82
238.542	10.74
239.005	10.62
239.468	10.51
239.93	10.43
240.393	10.35
240.855	10.24
241.317	10.16
241.78	10.07
242.242	9.98
242.704	9.9
243.166	9.83
243.629	9.75
244.091	9.67
244.553	9.58
245.015	9.5
245.477	9.41
245.939	9.33
246.4	9.24
246.862	9.17
247.324	9.11
247.786	9.03
248.247	8.96
248.709	8.88
249.17	8.82
249.632	8.73
250.093	8.66
250.555	8.6
251.016	8.55
251.477	8.47
251.939	8.41
252.4	8.35
252.861	8.29
253.322	8.23
253.783	8.19
254.244	8.14
254.705	8.12
255.166	8.09
255.627	8.05
256.088	7.99
256.549	7.96
257.009	7.91
257.47	7.87
257.931	7.82
258.391	7.77
258.852	7.71
259.312	7.67
259.773	7.61
260.233	7.55
260.694	7.5
261.154	7.47
261.614	7.41
262.074	7.37
262.534	7.31
262.994	7.27
263.455	7.23
263.915	7.19
264.374	7.14
264.834	7.1
265.294	7.05
265.754	7.01
266.214	6.96
266.673	6.93
267.133	6.89
267.593	6.86
268.052	6.82
268.512	6.78
268.971	6.75
269.431	6.73
269.89	6.7
270.349	6.68
270.809	6.66
271.268	6.64
271.727	6.62
272.186	6.6
272.645	6.57
273.104	6.56
273.563	6.54
274.022	6.52
274.481	6.5
274.94	6.47
275.399	6.45
275.857	6.43
276.316	6.41
276.775	6.38
277.233	6.35
277.692	6.33
278.15	6.3
278.609	6.27
279.067	6.24
279.525	6.22
279.984	6.21
280.442	6.18
280.9	6.16
281.358	6.14
281.816	6.12
282.274	6.1
282.732	6.09
283.19	6.07
283.648	6.07
284.106	6.05
284.564	6.05
285.021	6.04
285.479	6.03
285.937	6.03
286.394	6.02
286.852	6.02
287.309	6.02
287.767	6.02
288.224	6.01
288.682	5.99
289.139	5.98
289.596	5.95
290.053	5.93
290.511	5.9
290.968	5.87
291.425	5.85
291.882	5.81
292.339	5.79
292.796	5.76
293.252	5.74
293.709	5.72
294.166	5.69
294.623	5.68
295.079	5.66
295.536	5.65
295.992	5.63
296.449	5.62
296.905	5.61
297.362	5.59
297.818	5.58
298.274	5.56
298.731	5.55
299.187	5.53
299.643	5.51
300.099	5.5
300.555	5.48
301.011	5.47
301.467	5.45
301.923	5.43
302.379	5.42
302.835	5.41
303.291	5.4
303.746	5.38
304.202	5.37
304.658	5.36
305.113	5.34
305.569	5.34
306.024	5.33
306.479	5.33
306.935	5.32
307.39	5.31
307.845	5.3
308.301	5.31
308.756	5.31
309.211	5.31
309.666	5.3
310.121	5.3
310.576	5.3
311.031	5.29
311.486	5.29
311.94	5.29
312.395	5.29
312.85	5.29
313.305	5.28
313.759	5.27
314.214	5.27
314.668	5.27
315.123	5.27
315.577	5.27
316.032	5.26
316.486	5.26
316.94	5.26
317.394	5.25
317.849	5.23
318.303	5.21
318.757	5.2
319.211	5.18
319.665	5.17
320.119	5.16
320.572	5.15
321.026	5.13
321.48	5.11
321.934	5.11
322.387	5.11
322.841	5.1
323.295	5.08
323.748	5.06
324.202	5.06
324.655	5.06
325.108	5.03
325.562	5.02
326.015	5.01
326.468	4.99
326.921	4.97
327.374	4.96
327.827	4.94
328.28	4.94
328.733	4.92
329.186	4.92
329.639	4.9
330.092	4.9
330.545	4.9
330.997	4.89
331.45	4.9
331.903	4.9
332.355	4.9
332.808	4.9
333.26	4.9
333.713	4.92
334.165	4.92
334.617	4.93
335.069	4.93
335.522	4.94
335.974	4.94
336.426	4.94
336.878	4.94
337.33	4.93
337.782	4.94
338.234	4.93
338.686	4.93
339.137	4.93
339.589	4.93
340.041	4.93
340.493	4.91
340.944	4.9
341.396	4.9
341.847	4.88
342.299	4.86
342.75	4.83
343.201	4.81
343.653	4.8
344.104	4.78
344.555	4.76
345.006	4.73
345.457	4.71
345.908	4.7
346.359	4.69
346.81	4.68
347.261	4.68
347.712	4.68
348.163	4.67
348.613	4.66
349.064	4.65
349.515	4.65
349.965	4.64
350.416	4.64
350.866	4.64
351.317	4.64
351.767	4.63
352.217	4.62
352.668	4.62
353.118	4.63
353.568	4.63
354.018	4.64
354.468	4.63
354.918	4.64
355.368	4.65
355.818	4.64
356.268	4.64
356.718	4.65
357.168	4.66
357.617	4.66
358.067	4.66
358.517	4.65
358.966	4.66
359.416	4.68
359.865	4.68
360.315	4.69
360.764	4.7
361.213	4.7
361.663	4.7
362.112	4.72
362.561	4.73
363.01	4.75
363.459	4.76
363.908	4.76
364.357	4.77
364.806	4.76
365.255	4.77
365.703	4.77
366.152	4.78
366.601	4.8
367.05	4.8
367.498	4.8
367.947	4.79
368.395	4.82
368.844	4.83
369.292	4.83
369.74	4.85
370.189	4.87
370.637	4.89
371.085	4.91
371.533	4.92
371.981	4.94
372.429	4.95
372.877	4.97
373.325	4.98
373.773	4.99
374.221	5.02
374.669	5.02
375.116	5.03
375.564	5.03
376.012	5.05
376.459	5.06
376.907	5.07
377.354	5.1
377.801	5.14
378.249	5.16
378.696	5.19
379.143	5.21
379.591	5.26
380.038	5.3
380.485	5.34
380.932	5.36
381.379	5.38
381.826	5.41
382.273	5.43
382.72	5.47
383.166	5.49
383.613	5.51
384.06	5.53
384.506	5.54
384.953	5.56
385.4	5.59
385.846	5.62
386.292	5.66
386.739	5.7
387.185	5.74
387.631	5.77
388.078	5.81
388.524	5.83
388.97	5.86
389.416	5.89
389.862	5.91
390.308	5.94
390.754	5.98
391.2	6.01
391.645	6.05
392.091	6.07
392.537	6.1
392.983	6.14
393.428	6.18
393.874	6.22
394.319	6.26
394.765	6.29
395.21	6.32
395.655	6.35
396.101	6.38
396.546	6.4
396.991	6.43
397.436	6.44
397.881	6.46
398.326	6.5
398.771	6.53
399.216	6.57
399.661	6.62
400.106	6.67
400.551	6.68
400.995	6.68
401.44	6.68
401.885	6.69
402.329	6.72
402.774	6.73
403.218	6.74
403.663	6.75
404.107	6.76
404.551	6.76
404.995	6.75
405.44	6.76
405.884	6.76
406.328	6.79
406.772	6.8
407.216	6.83
407.66	6.84
408.104	6.85
408.547	6.85
408.991	6.85
409.435	6.86
409.879	6.88
410.322	6.9
410.766	6.93
411.209	6.95
411.653	6.94
412.096	6.94
412.54	6.95
412.983	6.97
413.426	6.99
413.869	7.02
414.312	7.03
414.756	7.05
415.199	7.06
415.642	7.09
416.085	7.13
416.527	7.16
416.97	7.18
417.413	7.18
417.856	7.18
418.298	7.17
418.741	7.17
419.184	7.18
419.626	7.18
420.069	7.19
420.511	7.18
420.953	7.16
421.396	7.16
421.838	7.17
422.28	7.21
422.722	7.22
423.164	7.23
423.606	7.24
424.048	7.24
424.49	7.26
424.932	7.27
425.374	7.27
425.816	7.27
426.258	7.25
426.699	7.2
427.141	7.15
427.582	7.13
428.024	7.14
428.465	7.13
428.907	7.15
429.348	7.14
429.789	7.13
430.231	7.11
430.672	7.11
431.113	7.14
431.554	7.18
431.995	7.21
432.436	7.21
432.877	7.18
433.318	7.17
433.759	7.17
434.2	7.17
434.64	7.19
435.081	7.21
435.522	7.23
435.962	7.24
436.403	7.27
436.843	7.29
437.284	7.33
437.724	7.4
438.164	7.44
438.604	7.45
439.045	7.48
439.485	7.5
439.925	7.51
440.365	7.53
440.805	7.53
441.245	7.52
441.685	7.55
442.125	7.56
442.564	7.57
443.004	7.59
443.444	7.62
443.883	7.65
444.323	7.67
444.762	7.74
445.202	7.8
445.641	7.85
446.081	7.93
446.52	7.94
446.959	7.98
447.398	8.05
447.837	8.1
448.276	8.13
448.716	8.17
449.154	8.25
449.593	8.26
450.032	8.27
450.471	8.31
450.91	8.32
451.349	8.36
451.787	8.39
452.226	8.39
452.664	8.39
453.103	8.41
453.541	8.43
453.98	8.4
454.418	8.4
454.856	8.37
455.295	8.34
455.733	8.34
456.171	8.33
456.609	8.32
457.047	8.31
457.485	8.3
457.923	8.28
458.361	8.24
458.798	8.25
459.236	8.25
459.674	8.26
460.111	8.26
460.549	8.24
460.987	8.23
461.424	8.22
461.862	8.22
462.299	8.2
462.736	8.21
463.173	8.21
463.611	8.2
464.048	8.19
464.485	8.18
464.922	8.17
465.359	8.18
465.796	8.14
466.233	8.14
466.67	8.15
467.106	8.15
467.543	8.14
467.98	8.16
468.416	8.18
468.853	8.18
469.29	8.21
469.726	8.23
470.162	8.24
470.599	8.28
471.035	8.29
471.471	8.3
471.907	8.32
472.344	8.35
472.78	8.36
473.216	8.36
473.652	8.34
474.088	8.35
474.523	8.35
474.959	8.36
475.395	8.36
475.831	8.37
476.266	8.37
476.702	8.38
477.138	8.37
477.573	8.36
478.008	8.37
478.444	8.37
478.879	8.36
479.314	8.37
479.75	8.38
480.185	8.37
480.62	8.38
481.055	8.38
481.49	8.37
481.925	8.36
482.36	8.35
482.795	8.34
483.229	8.35
483.664	8.35
484.099	8.34
484.534	8.34
484.968	8.34
485.403	8.34
485.837	8.35
486.271	8.36
486.706	8.37
487.14	8.4
487.574	8.43
488.009	8.45
488.443	8.47
488.877	8.51
489.311	8.55
489.745	8.61
490.179	8.65
490.613	8.7
491.046	8.74
491.48	8.81
491.914	8.87
492.348	8.94
492.781	9.01
493.215	9.09
493.648	9.17
494.082	9.26
494.515	9.34
494.948	9.43
495.382	9.54
495.815	9.65
496.248	9.77
496.681	9.88
497.114	9.99
497.547	10.11
497.98	10.23
498.413	10.36
498.846	10.5
499.279	10.65
499.711	10.8
500.144	10.96
500.577	11.13
501.009	11.3
501.442	11.48
501.874	11.67
502.306	11.89
502.739	12.1
503.171	12.34
503.603	12.57
504.036	12.81
504.468	13.07
504.9	13.33
505.332	13.62
505.764	13.91
506.196	14.22
506.627	14.53
507.059	14.84
507.491	15.17
507.923	15.5
508.354	15.85
508.786	16.2
509.217	16.55
509.649	16.92
510.08	17.3
510.512	17.67
510.943	18.06
511.374	18.46
511.805	18.85
512.237	19.27
512.668	19.66
513.099	20.1
513.53	20.53
513.961	20.95
514.391	21.38
514.822	21.82
515.253	22.25
515.684	22.67
516.114	23.11
516.545	23.57
516.975	24.03
517.406	24.5
517.836	24.94
518.267	25.37
518.697	25.82
519.127	26.26
519.558	26.71
519.988	27.15
520.418	27.58
520.848	28
521.278	28.42
521.708	28.77
522.138	29.13
522.567	29.54
522.997	29.92
523.427	30.3
523.857	30.66
524.286	31.01
524.716	31.36
525.145	31.7
525.575	32
526.004	32.3
526.433	32.65
526.863	32.97
527.292	33.22
527.721	33.5
528.15	33.75
528.579	34
529.008	34.24
529.437	34.45
529.866	34.67
530.295	34.9
530.724	35.12
531.152	35.3
531.581	35.48
532.01	35.65
532.438	35.82
532.867	35.98
533.295	36.13
533.723	36.27
534.152	36.4
534.58	36.53
535.008	36.63
535.436	36.71
535.865	36.78
536.293	36.88
536.721	36.97
537.149	37.04
537.576	37.09
538.004	37.17
538.432	37.23
538.86	37.28
539.287	37.33
539.715	37.41
540.143	37.48
540.57	37.54
540.998	37.59
541.425	37.64
541.852	37.69
542.28	37.76
542.707	37.79
543.134	37.84
543.561	37.87
543.988	37.92
544.415	37.97
544.842	37.98
545.269	38.03
545.696	38.07
546.123	38.12
546.549	38.15
546.976	38.18
547.403	38.18
547.829	38.22
548.256	38.27
548.682	38.3
549.108	38.33
549.535	38.36
549.961	38.38
550.387	38.38
550.813	38.37
551.24	38.36
551.666	38.38
552.092	38.4
552.518	38.37
552.943	38.35
553.369	38.33
553.795	38.29
554.221	38.25
554.646	38.2
555.072	38.19
555.498	38.16
555.923	38.12
556.349	38.04
556.774	37.97
557.199	37.92
557.625	37.84
558.05	37.74
558.475	37.67
558.9	37.58
559.325	37.49
559.75	37.34
560.175	37.21
560.6	37.09
561.025	36.98
561.449	36.83
561.874	36.68
562.299	36.54
562.723	36.37
563.148	36.18
563.572	36.02
563.997	35.84
564.421	35.66
564.846	35.49
565.27	35.29
565.694	35.07
566.118	34.88
566.542	34.67
566.966	34.45
567.39	34.23
567.814	34.03
568.238	33.79
568.662	33.56
569.086	33.32
569.509	33.07
569.933	32.82
570.357	32.57
570.78	32.31
571.204	32.05
571.627	31.81
572.05	31.6
572.474	31.36
572.897	31.14
573.32	30.92
573.743	30.72
574.166	30.52
574.589	30.32
575.012	30.14
575.435	29.96
575.858	29.82
576.281	29.66
576.704	29.49
577.126	29.34
577.549	29.21
577.972	29.07
578.394	28.92
578.817	28.78
579.239	28.66
579.661	28.53
580.084	28.41
580.506	28.28
580.928	28.16
581.35	28.04
581.772	27.93
582.194	27.8
582.616	27.69
583.038	27.6
583.46	27.51
583.882	27.43
584.303	27.34
584.725	27.23
585.147	27.1
585.568	27.02
585.99	26.93
586.411	26.83
586.833	26.76
587.254	26.65
587.675	26.56
588.096	26.49
588.518	26.4
588.939	26.34
589.36	26.26
589.781	26.21
590.202	26.15
590.623	26.08
591.043	26.03
591.464	25.97
591.885	25.95
592.305	25.9
592.726	25.85
593.147	25.81
593.567	25.74
593.987	25.73
594.408	25.7
594.828	25.64
595.248	25.59
595.669	25.55
596.089	25.53
596.509	25.45
596.929	25.4
597.349	25.33
597.769	25.27
598.189	25.23
598.608	25.17
599.028	25.11
599.448	25.06
599.867	25
600.287	24.93
600.706	24.83
601.126	24.76
601.545	24.69
601.965	24.62
602.384	24.53
602.803	24.45
603.222	24.35
603.641	24.25
604.061	24.13
604.48	24.03
604.898	23.92
605.317	23.81
605.736	23.71
606.155	23.58
606.574	23.47
606.992	23.34
607.411	23.21
607.829	23.04
608.248	22.92
608.666	22.79
609.085	22.66
609.503	22.53
609.921	22.41
610.339	22.27
610.758	22.15
611.176	22.03
611.594	21.92
612.012	21.79
612.43	21.71
612.847	21.59
613.265	21.48
613.683	21.36
614.101	21.23
614.518	21.12
614.936	21.01
615.353	20.91
615.771	20.78
616.188	20.68
616.606	20.57
617.023	20.48
617.44	20.39
617.857	20.31
618.274	20.25
618.691	20.19
619.108	20.12
619.525	20.05
619.942	19.97
620.359	19.93
620.776	19.87
621.192	19.82
621.609	19.78
622.026	19.74
622.442	19.69
622.859	19.65
623.275	19.62
623.691	19.59
624.108	19.58
624.524	19.56
624.94	19.53
625.356	19.51
625.772	19.5
626.188	19.49
626.604	19.46
627.02	19.43
627.436	19.41
627.852	19.37
628.268	19.34
628.683	19.31
629.099	19.28
629.514	19.25
629.93	19.22
630.345	19.17
630.761	19.12
631.176	19.07
631.591	19
632.007	18.93
632.422	18.88
632.837	18.78
633.252	18.71
633.667	18.6
634.082	18.51
634.497	18.39
634.911	18.29
635.326	18.16
635.741	18.03
636.155	17.91
636.57	17.77
636.984	17.6
637.399	17.44
637.813	17.26
638.228	17.1
638.642	16.91
639.056	16.74
639.47	16.54
639.884	16.34
640.298	16.14
640.712	15.93
641.126	15.73
641.54	15.54
641.954	15.37
642.368	15.18
642.781	14.98
643.195	14.79
643.609	14.59
644.022	14.41
644.436	14.27
644.849	14.11
645.262	13.95
645.676	13.8
646.089	13.64
646.502	13.49
646.915	13.36
647.328	13.25
647.741	13.12
648.154	13.03
648.567	12.93
648.98	12.82
649.393	12.73
649.805	12.65
650.218	12.58
650.631	12.52
651.043	12.44
651.456	12.37
651.868	12.29
652.28	12.23
652.693	12.13
653.105	12.04
653.517	11.96
653.929	11.87
654.341	11.77
654.753	11.67
655.165	11.55
655.577	11.44
655.989	11.32
656.401	11.19
656.813	11.05
657.224	10.93
657.636	10.81
658.047	10.67
658.459	10.53
658.87	10.38
659.282	10.25
659.693	10.1
660.104	9.95
660.515	9.81
660.926	9.69
661.338	9.57
661.749	9.43
662.159	9.29
662.57	9.16
662.981	9.04
663.392	8.93
663.803	8.82
664.213	8.73
664.624	8.64
665.035	8.55
665.445	8.46
665.855	8.4
666.266	8.33
666.676	8.27
667.086	8.21
667.497	8.16
667.907	8.11
668.317	8.06
668.727	8.01
669.137	7.98
669.547	7.96
669.956	7.93
670.366	7.91
670.776	7.88
671.186	7.88
671.595	7.87
672.005	7.87
672.414	7.87
672.824	7.89
673.233	7.91
673.642	7.92
674.052	7.93
674.461	7.95
674.87	7.98
675.279	8
675.688	8.03
676.097	8.07
676.506	8.12
676.915	8.16
677.323	8.22
677.732	8.27
678.141	8.33
678.549	8.4
678.958	8.48
679.366	8.55
679.775	8.67
680.183	8.78
680.592	8.9
681	9.02
681.408	9.18
681.816	9.34
682.224	9.52
682.632	9.75
683.04	9.98
683.448	10.25
683.856	10.55
684.264	10.86
684.671	11.21
685.079	11.59
685.487	12.02
685.894	12.48
686.302	12.98
686.709	13.52
687.116	14.07
687.524	14.69
687.931	15.32
688.338	16
688.745	16.71
689.152	17.47
689.559	18.25
689.966	19.05
690.373	19.87
690.78	20.72
691.187	21.59
691.593	22.45
692	23.35
692.407	24.25
692.813	25.14
693.22	26.03
693.626	26.94
694.032	27.86
694.439	28.78
694.845	29.7
695.251	30.59
695.657	31.46
696.063	32.35
696.469	33.21
696.875	34.06
697.281	34.89
697.687	35.75
698.093	36.55
698.498	37.34
698.904	38.12
699.31	38.87
699.715	39.64
700.12	40.37
700.526	41.14
700.931	41.88
701.337	42.59
701.742	43.27
702.147	43.94
702.552	44.61
702.957	45.24
703.362	45.89
703.767	46.51
704.172	47.11
704.577	47.71
704.981	48.27
705.386	48.81
705.791	49.35
706.195	49.9
706.6	50.42
707.004	50.95
707.408	51.47
707.813	51.93
708.217	52.4
708.621	52.86
709.025	53.3
709.43	53.73
709.834	54.19
710.237	54.57
710.641	55.04
711.045	55.42
711.449	55.77
711.853	56.13
712.256	56.51
712.66	56.91
713.064	57.26
713.467	57.63
713.87	57.96
714.274	58.3
714.677	58.68
715.08	58.97
715.484	59.33
715.887	59.71
716.29	60.03
716.693	60.37
717.096	60.65
717.499	60.95
717.901	61.22
718.304	61.52
718.707	61.78
719.109	62.08
719.512	62.35
719.915	62.61
720.317	62.81
720.719	63.07
721.122	63.3
721.524	63.55
721.926	63.79
722.328	64.02
722.731	64.24
723.133	64.44
723.535	64.65
723.937	64.84
724.338	64.98
724.74	65.18
725.142	65.23
725.544	65.38
725.945	65.54
726.347	65.69
726.748	65.8
727.15	65.91
727.551	66.04
727.952	66.14
728.354	66.27
728.755	66.42
729.156	66.54
729.557	66.78
729.958	66.89
730.359	67.01
730.76	67.09
731.161	67.22
731.562	67.36
731.962	67.48
732.363	67.55
732.763	67.63
733.164	67.69
733.564	67.76
733.965	67.81
734.365	67.88
734.766	67.94
735.166	67.99
735.566	68
735.966	68.03
736.366	68.06
736.766	68.13
737.166	68.16
737.566	68.21
737.966	68.27
738.365	68.34
738.765	68.39
739.165	68.38
739.564	68.42
739.964	68.5
740.363	68.53
740.763	68.55
741.162	68.57
741.561	68.62
741.96	68.65
742.36	68.67
742.759	68.66
743.158	68.7
743.557	68.78
743.955	68.85
744.354	68.91
744.753	69
745.152	69.06
745.55	69.12
745.949	69.19
746.348	69.24
746.746	69.34
747.144	69.41
747.543	69.46
747.941	69.53
748.339	69.61
748.737	69.65
749.136	69.63
749.534	69.67
749.932	69.7
750.33	69.71
750.727	69.7
751.125	69.71
751.523	69.73
751.921	69.71
752.318	69.67
752.716	69.61
753.113	69.56
753.511	69.53
753.908	69.5
754.305	69.43
754.703	69.39
755.1	69.39
755.497	69.33
755.894	69.29
756.291	69.3
756.688	69.3
757.085	69.28
757.482	69.28
757.878	69.3
758.275	69.27
758.672	69.33
759.068	69.35
759.465	69.32
759.861	69.33
760.258	69.28
760.654	69.21
761.05	69.17
761.447	69.15
761.843	69.1
762.239	69.06
762.635	69.05
763.031	69.02
763.427	68.96
763.822	68.93
764.218	68.87
764.614	68.89
765.01	68.91
765.405	68.92
765.801	68.91
766.196	68.93
766.592	68.94
766.987	68.94
767.382	68.94
767.778	68.99
768.173	68.99
768.568	68.99
768.963	69.02
769.358	69.02
769.753	69.05
770.148	69.07
770.542	69.09
770.937	69.09
771.332	69.09
771.726	69.06
772.121	68.98
772.515	69
772.91	69.04
773.304	68.98
773.699	68.94
774.093	68.9
774.487	68.89
774.881	68.91
775.275	68.92
775.669	68.98
776.063	68.99
776.457	69.04
776.851	69.02
777.245	69.01
777.638	69.01
778.032	69.04
778.425	69.09
778.819	69.08
