Data from C_3_hir_il_4n_Splice17_10.txt Node
Date: Sat Feb 29 15:11:23 EST 2020
User: sa697716
Spectrometer: FLMS03696
Trigger mode: 0
Integration Time (sec): 3.180400E-1
Scans to average: 20
Electric dark correction enabled: true
Nonlinearity correction enabled: true
Boxcar width: 5
XAxis mode: Wavelengths
Number of Pixels in Spectrum: 2048
>>>>>Begin Spectral Data<<<<<
187.83	136.62
188.298	140.02
188.766	114.61
189.233	111.13
189.701	117.86
190.169	116.32
190.636	121.76
191.104	101.73
191.571	115.33
192.039	25.34
192.506	-29.69
192.974	2155.04
193.441	31.59
193.908	23.67
194.375	8.19
194.842	87.26
195.31	39.96
195.777	19.46
196.244	47.65
196.711	73.3
197.177	76.37
197.644	79.59
198.111	81.36
198.578	82.07
199.045	82.7
199.511	82.71
199.978	82.59
200.445	82.91
200.911	83.57
201.378	84
201.844	84.8
202.31	85.45
202.777	85.77
203.243	86.05
203.709	85.75
204.176	85.51
204.642	85.37
205.108	85.54
205.574	85.88
206.04	85.34
206.506	84.74
206.972	83.63
207.438	82.73
207.903	82.27
208.369	80.91
208.835	80.36
209.301	79.61
209.766	78.36
210.232	76.85
210.697	75.08
211.163	73.57
211.628	72.21
212.094	71.21
212.559	70.11
213.024	68.59
213.49	67.18
213.955	65.7
214.42	63.83
214.885	62.09
215.35	59.92
215.815	57.44
216.28	54.54
216.745	51.17
217.21	47.53
217.675	44.04
218.14	40.86
218.604	38.07
219.069	35.75
219.534	33.7
219.998	31.93
220.463	30.51
220.927	29.21
221.392	28.06
221.856	27.17
222.32	26.36
222.785	25.69
223.249	25.07
223.713	24.56
224.177	24
224.642	23.57
225.106	23.13
225.57	22.7
226.034	22.31
226.497	21.93
226.961	21.51
227.425	21.14
227.889	20.77
228.353	20.43
228.816	20.11
229.28	19.78
229.744	19.48
230.207	19.2
230.671	18.91
231.134	18.64
231.597	18.39
232.061	18.15
232.524	17.92
232.987	17.7
233.45	17.46
233.914	17.22
234.377	17.03
234.84	16.83
235.303	16.64
235.766	16.47
236.229	16.3
236.691	16.14
237.154	16.01
237.617	15.88
238.08	15.74
238.542	15.61
239.005	15.5
239.468	15.36
239.93	15.25
240.393	15.12
240.855	14.97
241.317	14.86
241.78	14.74
242.242	14.58
242.704	14.46
243.166	14.33
243.629	14.2
244.091	14.08
244.553	13.96
245.015	13.83
245.477	13.71
245.939	13.61
246.4	13.48
246.862	13.36
247.324	13.3
247.786	13.18
248.247	13.09
248.709	12.98
249.17	12.89
249.632	12.79
250.093	12.7
250.555	12.61
251.016	12.52
251.477	12.43
251.939	12.36
252.4	12.26
252.861	12.18
253.322	12.1
253.783	12.06
254.244	11.99
254.705	11.92
255.166	11.87
255.627	11.81
256.088	11.73
256.549	11.68
257.009	11.61
257.47	11.55
257.931	11.48
258.391	11.4
258.852	11.3
259.312	11.22
259.773	11.14
260.233	11.05
260.694	10.98
261.154	10.91
261.614	10.83
262.074	10.78
262.534	10.71
262.994	10.66
263.455	10.6
263.915	10.55
264.374	10.49
264.834	10.43
265.294	10.39
265.754	10.33
266.214	10.28
266.673	10.23
267.133	10.18
267.593	10.13
268.052	10.08
268.512	10.04
268.971	10.01
269.431	9.99
269.89	9.96
270.349	9.93
270.809	9.9
271.268	9.87
271.727	9.83
272.186	9.8
272.645	9.77
273.104	9.73
273.563	9.71
274.022	9.68
274.481	9.63
274.94	9.6
275.399	9.56
275.857	9.53
276.316	9.5
276.775	9.47
277.233	9.44
277.692	9.42
278.15	9.39
278.609	9.35
279.067	9.32
279.525	9.29
279.984	9.26
280.442	9.24
280.9	9.22
281.358	9.19
281.816	9.17
282.274	9.15
282.732	9.14
283.19	9.11
283.648	9.1
284.106	9.07
284.564	9.07
285.021	9.06
285.479	9.04
285.937	9.03
286.394	9.01
286.852	9
287.309	8.98
287.767	8.96
288.224	8.95
288.682	8.92
289.139	8.91
289.596	8.87
290.053	8.84
290.511	8.79
290.968	8.74
291.425	8.7
291.882	8.67
292.339	8.63
292.796	8.59
293.252	8.55
293.709	8.52
294.166	8.48
294.623	8.44
295.079	8.42
295.536	8.4
295.992	8.37
296.449	8.35
296.905	8.32
297.362	8.29
297.818	8.27
298.274	8.24
298.731	8.22
299.187	8.2
299.643	8.17
300.099	8.15
300.555	8.13
301.011	8.11
301.467	8.08
301.923	8.06
302.379	8.04
302.835	8.02
303.291	8.01
303.746	7.98
304.202	7.96
304.658	7.95
305.113	7.93
305.569	7.93
306.024	7.92
306.479	7.91
306.935	7.91
307.39	7.91
307.845	7.91
308.301	7.9
308.756	7.9
309.211	7.91
309.666	7.9
310.121	7.89
310.576	7.88
311.031	7.87
311.486	7.87
311.94	7.86
312.395	7.85
312.85	7.84
313.305	7.83
313.759	7.82
314.214	7.81
314.668	7.8
315.123	7.8
315.577	7.8
316.032	7.79
316.486	7.77
316.94	7.77
317.394	7.75
317.849	7.74
318.303	7.74
318.757	7.71
319.211	7.68
319.665	7.67
320.119	7.64
320.572	7.63
321.026	7.6
321.48	7.59
321.934	7.57
322.387	7.55
322.841	7.53
323.295	7.5
323.748	7.49
324.202	7.49
324.655	7.48
325.108	7.46
325.562	7.43
326.015	7.43
326.468	7.41
326.921	7.39
327.374	7.38
327.827	7.37
328.28	7.35
328.733	7.34
329.186	7.31
329.639	7.31
330.092	7.31
330.545	7.32
330.997	7.31
331.45	7.31
331.903	7.3
332.355	7.3
332.808	7.31
333.26	7.31
333.713	7.32
334.165	7.33
334.617	7.32
335.069	7.32
335.522	7.31
335.974	7.32
336.426	7.32
336.878	7.32
337.33	7.32
337.782	7.31
338.234	7.32
338.686	7.3
339.137	7.29
339.589	7.29
340.041	7.28
340.493	7.25
340.944	7.24
341.396	7.22
341.847	7.19
342.299	7.17
342.75	7.13
343.201	7.09
343.653	7.07
344.104	7.03
344.555	7
345.006	6.98
345.457	6.96
345.908	6.94
346.359	6.93
346.81	6.92
347.261	6.9
347.712	6.9
348.163	6.89
348.613	6.89
349.064	6.87
349.515	6.86
349.965	6.85
350.416	6.84
350.866	6.83
351.317	6.82
351.767	6.8
352.217	6.79
352.668	6.78
353.118	6.78
353.568	6.78
354.018	6.79
354.468	6.78
354.918	6.78
355.368	6.79
355.818	6.78
356.268	6.77
356.718	6.78
357.168	6.78
357.617	6.78
358.067	6.77
358.517	6.76
358.966	6.76
359.416	6.78
359.865	6.78
360.315	6.77
360.764	6.76
361.213	6.75
361.663	6.76
362.112	6.75
362.561	6.75
363.01	6.76
363.459	6.75
363.908	6.74
364.357	6.72
364.806	6.72
365.255	6.73
365.703	6.73
366.152	6.74
366.601	6.73
367.05	6.74
367.498	6.75
367.947	6.74
368.395	6.74
368.844	6.74
369.292	6.74
369.74	6.74
370.189	6.73
370.637	6.74
371.085	6.74
371.533	6.73
371.981	6.74
372.429	6.72
372.877	6.71
373.325	6.7
373.773	6.69
374.221	6.69
374.669	6.68
375.116	6.67
375.564	6.67
376.012	6.66
376.459	6.66
376.907	6.66
377.354	6.66
377.801	6.67
378.249	6.69
378.696	6.7
379.143	6.71
379.591	6.72
380.038	6.73
380.485	6.74
380.932	6.74
381.379	6.74
381.826	6.74
382.273	6.76
382.72	6.76
383.166	6.75
383.613	6.74
384.06	6.74
384.506	6.74
384.953	6.73
385.4	6.73
385.846	6.72
386.292	6.72
386.739	6.72
387.185	6.73
387.631	6.74
388.078	6.76
388.524	6.76
388.97	6.77
389.416	6.79
389.862	6.8
390.308	6.81
390.754	6.84
391.2	6.86
391.645	6.88
392.091	6.88
392.537	6.89
392.983	6.91
393.428	6.94
393.874	6.95
394.319	6.96
394.765	6.98
395.21	6.98
395.655	7
396.101	7.02
396.546	7.04
396.991	7.06
397.436	7.07
397.881	7.09
398.326	7.13
398.771	7.16
399.216	7.19
399.661	7.22
400.106	7.27
400.551	7.27
400.995	7.27
401.44	7.28
401.885	7.29
402.329	7.3
402.774	7.3
403.218	7.31
403.663	7.32
404.107	7.33
404.551	7.36
404.995	7.36
405.44	7.38
405.884	7.41
406.328	7.44
406.772	7.48
407.216	7.52
407.66	7.55
408.104	7.58
408.547	7.61
408.991	7.62
409.435	7.62
409.879	7.65
410.322	7.69
410.766	7.72
411.209	7.75
411.653	7.77
412.096	7.78
412.54	7.79
412.983	7.81
413.426	7.85
413.869	7.88
414.312	7.94
414.756	7.99
415.199	8.03
415.642	8.09
416.085	8.12
416.527	8.15
416.97	8.2
417.413	8.22
417.856	8.23
418.298	8.21
418.741	8.21
419.184	8.2
419.626	8.19
420.069	8.2
420.511	8.18
420.953	8.17
421.396	8.17
421.838	8.19
422.28	8.22
422.722	8.25
423.164	8.29
423.606	8.34
424.048	8.34
424.49	8.36
424.932	8.37
425.374	8.39
425.816	8.38
426.258	8.36
426.699	8.33
427.141	8.3
427.582	8.29
428.024	8.3
428.465	8.31
428.907	8.35
429.348	8.36
429.789	8.37
430.231	8.38
430.672	8.44
431.113	8.48
431.554	8.54
431.995	8.58
432.436	8.58
432.877	8.59
433.318	8.59
433.759	8.58
434.2	8.59
434.64	8.6
435.081	8.62
435.522	8.64
435.962	8.66
436.403	8.69
436.843	8.7
437.284	8.75
437.724	8.77
438.164	8.79
438.604	8.81
439.045	8.82
439.485	8.84
439.925	8.83
440.365	8.82
440.805	8.82
441.245	8.78
441.685	8.81
442.125	8.8
442.564	8.83
443.004	8.86
443.444	8.88
443.883	8.9
444.323	8.9
444.762	8.94
445.202	9
445.641	9.02
446.081	9.08
446.52	9.07
446.959	9.11
447.398	9.13
447.837	9.17
448.276	9.18
448.716	9.2
449.154	9.25
449.593	9.26
450.032	9.24
450.471	9.24
450.91	9.23
451.349	9.25
451.787	9.21
452.226	9.18
452.664	9.13
453.103	9.1
453.541	9.09
453.98	9.04
454.418	9.01
454.856	8.98
455.295	8.95
455.733	8.92
456.171	8.89
456.609	8.9
457.047	8.87
457.485	8.86
457.923	8.86
458.361	8.83
458.798	8.83
459.236	8.82
459.674	8.81
460.111	8.81
460.549	8.79
460.987	8.78
461.424	8.76
461.862	8.77
462.299	8.76
462.736	8.75
463.173	8.75
463.611	8.73
464.048	8.71
464.485	8.71
464.922	8.7
465.359	8.71
465.796	8.7
466.233	8.7
466.67	8.7
467.106	8.7
467.543	8.7
467.98	8.72
468.416	8.73
468.853	8.74
469.29	8.75
469.726	8.76
470.162	8.75
470.599	8.77
471.035	8.77
471.471	8.76
471.907	8.75
472.344	8.75
472.78	8.73
473.216	8.72
473.652	8.7
474.088	8.72
474.523	8.69
474.959	8.69
475.395	8.67
475.831	8.67
476.266	8.65
476.702	8.62
477.138	8.6
477.573	8.58
478.008	8.56
478.444	8.55
478.879	8.51
479.314	8.5
479.75	8.48
480.185	8.46
480.62	8.43
481.055	8.43
481.49	8.42
481.925	8.4
482.36	8.37
482.795	8.35
483.229	8.33
483.664	8.31
484.099	8.29
484.534	8.28
484.968	8.26
485.403	8.24
485.837	8.23
486.271	8.22
486.706	8.21
487.14	8.21
487.574	8.21
488.009	8.22
488.443	8.22
488.877	8.22
489.311	8.22
489.745	8.23
490.179	8.23
490.613	8.22
491.046	8.22
491.48	8.24
491.914	8.25
492.348	8.25
492.781	8.24
493.215	8.27
493.648	8.28
494.082	8.3
494.515	8.31
494.948	8.33
495.382	8.36
495.815	8.37
496.248	8.39
496.681	8.4
497.114	8.43
497.547	8.46
497.98	8.48
498.413	8.5
498.846	8.53
499.279	8.58
499.711	8.61
500.144	8.65
500.577	8.69
501.009	8.74
501.442	8.79
501.874	8.84
502.306	8.9
502.739	8.96
503.171	9.02
503.603	9.1
504.036	9.16
504.468	9.25
504.9	9.33
505.332	9.42
505.764	9.52
506.196	9.62
506.627	9.74
507.059	9.85
507.491	9.97
507.923	10.09
508.354	10.21
508.786	10.35
509.217	10.46
509.649	10.61
510.08	10.76
510.512	10.91
510.943	11.07
511.374	11.22
511.805	11.39
512.237	11.57
512.668	11.75
513.099	11.93
513.53	12.13
513.961	12.36
514.391	12.56
514.822	12.76
515.253	12.99
515.684	13.19
516.114	13.43
516.545	13.66
516.975	13.89
517.406	14.14
517.836	14.38
518.267	14.62
518.697	14.86
519.127	15.11
519.558	15.36
519.988	15.61
520.418	15.87
520.848	16.1
521.278	16.34
521.708	16.45
522.138	16.68
522.567	16.91
522.997	17.14
523.427	17.38
523.857	17.6
524.286	17.83
524.716	18.06
525.145	18.28
525.575	18.5
526.004	18.72
526.433	19.05
526.863	19.28
527.292	19.48
527.721	19.68
528.15	19.85
528.579	20.04
529.008	20.19
529.437	20.34
529.866	20.48
530.295	20.63
530.724	20.77
531.152	20.92
531.581	21.04
532.01	21.16
532.438	21.27
532.867	21.39
533.295	21.48
533.723	21.6
534.152	21.7
534.58	21.78
535.008	21.84
535.436	21.91
535.865	21.96
536.293	22.04
536.721	22.11
537.149	22.15
537.576	22.21
538.004	22.25
538.432	22.28
538.86	22.32
539.287	22.37
539.715	22.41
540.143	22.46
540.57	22.49
540.998	22.51
541.425	22.54
541.852	22.57
542.28	22.58
542.707	22.62
543.134	22.65
543.561	22.67
543.988	22.69
544.415	22.73
544.842	22.75
545.269	22.79
545.696	22.82
546.123	22.86
546.549	22.88
546.976	22.93
547.403	22.95
547.829	23
548.256	23.03
548.682	23.06
549.108	23.09
549.535	23.12
549.961	23.13
550.387	23.13
550.813	23.13
551.24	23.14
551.666	23.15
552.092	23.16
552.518	23.14
552.943	23.12
553.369	23.11
553.795	23.09
554.221	23.06
554.646	23.04
555.072	23.01
555.498	22.96
555.923	22.91
556.349	22.84
556.774	22.77
557.199	22.72
557.625	22.67
558.05	22.59
558.475	22.51
558.9	22.44
559.325	22.34
559.75	22.26
560.175	22.16
560.6	22.08
561.025	21.96
561.449	21.84
561.874	21.7
562.299	21.57
562.723	21.43
563.148	21.28
563.572	21.13
563.997	20.99
564.421	20.83
564.846	20.69
565.27	20.53
565.694	20.38
566.118	20.23
566.542	20.09
566.966	19.93
567.39	19.76
567.814	19.57
568.238	19.4
568.662	19.24
569.086	19.06
569.509	18.89
569.933	18.71
570.357	18.52
570.78	18.36
571.204	18.19
571.627	18.04
572.05	17.92
572.474	17.78
572.897	17.63
573.32	17.49
573.743	17.35
574.166	17.22
574.589	17.11
575.012	17.01
575.435	16.89
575.858	16.8
576.281	16.69
576.704	16.58
577.126	16.48
577.549	16.39
577.972	16.3
578.394	16.22
578.817	16.13
579.239	16.05
579.661	15.98
580.084	15.9
580.506	15.82
580.928	15.73
581.35	15.66
581.772	15.6
582.194	15.52
582.616	15.46
583.038	15.4
583.46	15.36
583.882	15.3
584.303	15.23
584.725	15.18
585.147	15.11
585.568	15.04
585.99	15
586.411	14.95
586.833	14.92
587.254	14.87
587.675	14.81
588.096	14.75
588.518	14.7
588.939	14.67
589.36	14.61
589.781	14.57
590.202	14.54
590.623	14.48
591.043	14.42
591.464	14.38
591.885	14.35
592.305	14.32
592.726	14.28
593.147	14.26
593.567	14.22
593.987	14.21
594.408	14.19
594.828	14.16
595.248	14.13
595.669	14.12
596.089	14.08
596.509	14.03
596.929	13.99
597.349	13.96
597.769	13.92
598.189	13.89
598.608	13.86
599.028	13.81
599.448	13.77
599.867	13.71
600.287	13.67
600.706	13.64
601.126	13.59
601.545	13.55
601.965	13.49
602.384	13.45
602.803	13.38
603.222	13.32
603.641	13.28
604.061	13.23
604.48	13.19
604.898	13.12
605.317	13.06
605.736	13.02
606.155	12.96
606.574	12.9
606.992	12.84
607.411	12.81
607.829	12.71
608.248	12.66
608.666	12.6
609.085	12.54
609.503	12.48
609.921	12.42
610.339	12.37
610.758	12.31
611.176	12.26
611.594	12.18
612.012	12.12
612.43	12.1
612.847	12.04
613.265	11.99
613.683	11.94
614.101	11.87
614.518	11.82
614.936	11.76
615.353	11.71
615.771	11.66
616.188	11.62
616.606	11.56
617.023	11.51
617.44	11.46
617.857	11.42
618.274	11.37
618.691	11.35
619.108	11.32
619.525	11.29
619.942	11.27
620.359	11.25
620.776	11.22
621.192	11.2
621.609	11.18
622.026	11.17
622.442	11.15
622.859	11.13
623.275	11.11
623.691	11.09
624.108	11.07
624.524	11.05
624.94	11.02
625.356	11.01
625.772	11.01
626.188	11
626.604	10.97
627.02	10.95
627.436	10.95
627.852	10.93
628.268	10.91
628.683	10.9
629.099	10.9
629.514	10.88
629.93	10.86
630.345	10.83
630.761	10.8
631.176	10.79
631.591	10.76
632.007	10.74
632.422	10.72
632.837	10.69
633.252	10.67
633.667	10.61
634.082	10.58
634.497	10.53
634.911	10.48
635.326	10.43
635.741	10.37
636.155	10.32
636.57	10.26
636.984	10.18
637.399	10.11
637.813	10.02
638.228	9.95
638.642	9.87
639.056	9.82
639.47	9.74
639.884	9.67
640.298	9.6
640.712	9.53
641.126	9.45
641.54	9.39
641.954	9.34
642.368	9.28
642.781	9.23
643.195	9.16
643.609	9.11
644.022	9.06
644.436	9.01
644.849	8.95
645.262	8.91
645.676	8.86
646.089	8.81
646.502	8.76
646.915	8.72
647.328	8.68
647.741	8.65
648.154	8.62
648.567	8.59
648.98	8.56
649.393	8.54
649.805	8.52
650.218	8.5
650.631	8.49
651.043	8.47
651.456	8.47
651.868	8.45
652.28	8.44
652.693	8.42
653.105	8.39
653.517	8.36
653.929	8.35
654.341	8.34
654.753	8.32
655.165	8.3
655.577	8.25
655.989	8.2
656.401	8.17
656.813	8.14
657.224	8.12
657.636	8.1
658.047	8.07
658.459	8.03
658.87	7.99
659.282	7.97
659.693	7.93
660.104	7.92
660.515	7.9
660.926	7.88
661.338	7.86
661.749	7.82
662.159	7.8
662.57	7.77
662.981	7.76
663.392	7.74
663.803	7.72
664.213	7.71
664.624	7.69
665.035	7.68
665.445	7.68
665.855	7.68
666.266	7.69
666.676	7.68
667.086	7.68
667.497	7.67
667.907	7.67
668.317	7.67
668.727	7.68
669.137	7.67
669.547	7.69
669.956	7.68
670.366	7.69
670.776	7.69
671.186	7.7
671.595	7.72
672.005	7.74
672.414	7.76
672.824	7.77
673.233	7.79
673.642	7.8
674.052	7.81
674.461	7.84
674.87	7.86
675.279	7.87
675.688	7.89
676.097	7.92
676.506	7.94
676.915	7.98
677.323	8.01
677.732	8.04
678.141	8.08
678.549	8.12
678.958	8.15
679.366	8.18
679.775	8.21
680.183	8.26
680.592	8.3
681	8.34
681.408	8.38
681.816	8.42
682.224	8.45
682.632	8.49
683.04	8.56
683.448	8.61
683.856	8.68
684.264	8.76
684.671	8.83
685.079	8.91
685.487	9.01
685.894	9.13
686.302	9.25
686.709	9.4
687.116	9.56
687.524	9.72
687.931	9.91
688.338	10.14
688.745	10.36
689.152	10.61
689.559	10.88
689.966	11.19
690.373	11.5
690.78	11.84
691.187	12.22
691.593	12.61
692	13.03
692.407	13.44
692.813	13.88
693.22	14.35
693.626	14.84
694.032	15.36
694.439	15.9
694.845	16.45
695.251	17.02
695.657	17.58
696.063	18.16
696.469	18.75
696.875	19.35
697.281	19.92
697.687	20.53
698.093	21.12
698.498	21.73
698.904	22.3
699.31	22.89
699.715	23.49
700.12	24.08
700.526	24.69
700.931	25.27
701.337	25.87
701.742	26.46
702.147	27.05
702.552	27.66
702.957	28.24
703.362	28.86
703.767	29.45
704.172	30.02
704.577	30.6
704.981	31.18
705.386	31.75
705.791	32.36
706.195	32.94
706.6	33.51
707.004	34.05
707.408	34.62
707.813	35.13
708.217	35.66
708.621	36.21
709.025	36.75
709.43	37.27
709.834	37.8
710.237	38.29
710.641	38.81
711.045	39.32
711.449	39.82
711.853	40.34
712.256	40.87
712.66	41.37
713.064	41.85
713.467	42.36
713.87	42.85
714.274	43.34
714.677	43.86
715.08	44.32
715.484	44.8
715.887	45.31
716.29	45.76
716.693	46.23
717.096	46.7
717.499	47.17
717.901	47.59
718.304	48.03
718.707	48.46
719.109	48.85
719.512	49.29
719.915	49.7
720.317	50.09
720.719	50.5
721.122	50.86
721.524	51.25
721.926	51.64
722.328	52.03
722.731	52.39
723.133	52.71
723.535	53.07
723.937	53.37
724.338	53.67
724.74	53.97
725.142	54.2
725.544	54.49
725.945	54.77
726.347	55.06
726.748	55.29
727.15	55.54
727.551	55.82
727.952	56.04
728.354	56.29
728.755	56.55
729.156	56.78
729.557	57.05
729.958	57.28
730.359	57.48
730.76	57.61
731.161	57.82
731.562	58.03
731.962	58.22
732.363	58.42
732.763	58.6
733.164	58.74
733.564	58.87
733.965	59.01
734.365	59.13
734.766	59.24
735.166	59.37
735.566	59.46
735.966	59.54
736.366	59.6
736.766	59.68
737.166	59.77
737.566	59.88
737.966	60.03
738.365	60.17
738.765	60.3
739.165	60.39
739.564	60.5
739.964	60.61
740.363	60.71
740.763	60.79
741.162	60.86
741.561	60.97
741.96	61.03
742.36	61.08
742.759	61.1
743.158	61.12
743.557	61.2
743.955	61.32
744.354	61.38
744.753	61.47
745.152	61.54
745.55	61.64
745.949	61.67
746.348	61.72
746.746	61.75
747.144	61.84
747.543	61.92
747.941	62.01
748.339	62.04
748.737	62.1
749.136	62.13
749.534	62.19
749.932	62.22
750.33	62.27
750.727	62.35
751.125	62.39
751.523	62.38
751.921	62.4
752.318	62.4
752.716	62.38
753.113	62.38
753.511	62.34
753.908	62.33
754.305	62.29
754.703	62.24
755.1	62.18
755.497	62.16
755.894	62.18
756.291	62.18
756.688	62.17
757.085	62.16
757.482	62.16
757.878	62.22
758.275	62.2
758.672	62.23
759.068	62.29
759.465	62.33
759.861	62.33
760.258	62.26
760.654	62.24
761.05	62.25
761.447	62.25
761.843	62.22
762.239	62.19
762.635	62.18
763.031	62.19
763.427	62.18
763.822	62.13
764.218	62.14
764.614	62.19
765.01	62.19
765.405	62.18
765.801	62.2
766.196	62.19
766.592	62.22
766.987	62.26
767.382	62.28
767.778	62.26
768.173	62.31
768.568	62.29
768.963	62.27
769.358	62.28
769.753	62.31
770.148	62.32
770.542	62.34
770.937	62.28
771.332	62.27
771.726	62.22
772.121	62.21
772.515	62.21
772.91	62.23
773.304	62.24
773.699	62.23
774.093	62.22
774.487	62.21
774.881	62.22
775.275	62.25
775.669	62.29
776.063	62.28
776.457	62.25
776.851	62.21
777.245	62.24
777.638	62.25
778.032	62.28
778.425	62.29
778.819	62.3
779.212	62.27
779.606	62.28
779.999	62.24
