Data from C_3_dec_on_6n_Splice17_04.txt Node
Date: Sat Feb 29 15:07:41 EST 2020
User: sa697716
Spectrometer: FLMS03696
Trigger mode: 0
Integration Time (sec): 3.180400E-1
Scans to average: 20
Electric dark correction enabled: true
Nonlinearity correction enabled: true
Boxcar width: 5
XAxis mode: Wavelengths
Number of Pixels in Spectrum: 2048
>>>>>Begin Spectral Data<<<<<
187.83	19.11
188.298	14.31
188.766	17.12
189.233	12
189.701	22.74
190.169	28.76
190.636	26.35
191.104	-15.23
191.571	-175.73
192.039	3.08
192.506	162.86
192.974	-1360.02
193.441	276.46
193.908	-7.24
194.375	-53.55
194.842	-4.55
195.31	27.04
195.777	-10.43
196.244	14.77
196.711	46.91
197.177	52.46
197.644	53.76
198.111	54.72
198.578	55.05
199.045	56.33
199.511	56.46
199.978	56.93
200.445	56.68
200.911	56.99
201.378	57.66
201.844	58.04
202.31	58.39
202.777	58.96
203.243	59.42
203.709	59.57
204.176	59.16
204.642	58.87
205.108	58.6
205.574	58.83
206.04	58.69
206.506	58.66
206.972	58.52
207.438	58.19
207.903	57.21
208.369	56
208.835	55.3
209.301	54.5
209.766	53.31
210.232	52.11
210.697	51.04
211.163	50.18
211.628	48.77
212.094	47.86
212.559	46.8
213.024	46.18
213.49	45.18
213.955	44.26
214.42	42.95
214.885	41.66
215.35	39.97
215.815	37.91
216.28	35.52
216.745	32.89
217.21	30.01
217.675	27.31
218.14	24.77
218.604	22.63
219.069	20.88
219.534	19.47
219.998	18.21
220.463	17.23
220.927	16.31
221.392	15.52
221.856	14.83
222.32	14.35
222.785	13.88
223.249	13.49
223.713	13.13
224.177	12.75
224.642	12.45
225.106	12.16
225.57	11.87
226.034	11.61
226.497	11.38
226.961	11.17
227.425	10.9
227.889	10.71
228.353	10.5
228.816	10.3
229.28	10.09
229.744	9.9
230.207	9.74
230.671	9.57
231.134	9.44
231.597	9.28
232.061	9.14
232.524	9.01
232.987	8.87
233.45	8.75
233.914	8.65
234.377	8.56
234.84	8.45
235.303	8.36
235.766	8.27
236.229	8.16
236.691	8.08
237.154	7.97
237.617	7.89
238.08	7.83
238.542	7.75
239.005	7.69
239.468	7.59
239.93	7.5
240.393	7.42
240.855	7.32
241.317	7.25
241.78	7.19
242.242	7.12
242.704	7.05
243.166	6.96
243.629	6.88
244.091	6.8
244.553	6.75
245.015	6.69
245.477	6.63
245.939	6.58
246.4	6.51
246.862	6.45
247.324	6.4
247.786	6.34
248.247	6.29
248.709	6.24
249.17	6.2
249.632	6.14
250.093	6.09
250.555	6.04
251.016	6.01
251.477	5.96
251.939	5.91
252.4	5.86
252.861	5.82
253.322	5.77
253.783	5.74
254.244	5.7
254.705	5.66
255.166	5.64
255.627	5.6
256.088	5.54
256.549	5.51
257.009	5.47
257.47	5.43
257.931	5.4
258.391	5.34
258.852	5.29
259.312	5.24
259.773	5.2
260.233	5.14
260.694	5.1
261.154	5.06
261.614	5.01
262.074	4.97
262.534	4.92
262.994	4.89
263.455	4.86
263.915	4.82
264.374	4.78
264.834	4.74
265.294	4.71
265.754	4.68
266.214	4.65
266.673	4.62
267.133	4.58
267.593	4.56
268.052	4.52
268.512	4.49
268.971	4.48
269.431	4.46
269.89	4.43
270.349	4.42
270.809	4.4
271.268	4.38
271.727	4.36
272.186	4.35
272.645	4.33
273.104	4.32
273.563	4.31
274.022	4.29
274.481	4.27
274.94	4.26
275.399	4.25
275.857	4.23
276.316	4.22
276.775	4.2
277.233	4.18
277.692	4.17
278.15	4.16
278.609	4.14
279.067	4.13
279.525	4.12
279.984	4.1
280.442	4.1
280.9	4.08
281.358	4.07
281.816	4.07
282.274	4.07
282.732	4.06
283.19	4.06
283.648	4.06
284.106	4.05
284.564	4.05
285.021	4.05
285.479	4.04
285.937	4.04
286.394	4.03
286.852	4.03
287.309	4.02
287.767	4.01
288.224	3.99
288.682	3.98
289.139	3.97
289.596	3.95
290.053	3.93
290.511	3.91
290.968	3.89
291.425	3.87
291.882	3.84
292.339	3.82
292.796	3.8
293.252	3.78
293.709	3.76
294.166	3.75
294.623	3.74
295.079	3.73
295.536	3.71
295.992	3.7
296.449	3.69
296.905	3.69
297.362	3.67
297.818	3.67
298.274	3.66
298.731	3.66
299.187	3.64
299.643	3.64
300.099	3.63
300.555	3.62
301.011	3.62
301.467	3.61
301.923	3.6
302.379	3.6
302.835	3.59
303.291	3.58
303.746	3.57
304.202	3.57
304.658	3.56
305.113	3.55
305.569	3.56
306.024	3.56
306.479	3.56
306.935	3.55
307.39	3.56
307.845	3.56
308.301	3.57
308.756	3.58
309.211	3.58
309.666	3.59
310.121	3.58
310.576	3.58
311.031	3.59
311.486	3.59
311.94	3.59
312.395	3.59
312.85	3.59
313.305	3.58
313.759	3.59
314.214	3.58
314.668	3.59
315.123	3.59
315.577	3.58
316.032	3.57
316.486	3.58
316.94	3.57
317.394	3.56
317.849	3.56
318.303	3.56
318.757	3.55
319.211	3.53
319.665	3.52
320.119	3.51
320.572	3.51
321.026	3.5
321.48	3.48
321.934	3.48
322.387	3.48
322.841	3.46
323.295	3.46
323.748	3.44
324.202	3.44
324.655	3.44
325.108	3.43
325.562	3.42
326.015	3.42
326.468	3.42
326.921	3.4
327.374	3.39
327.827	3.38
328.28	3.38
328.733	3.38
329.186	3.38
329.639	3.37
330.092	3.37
330.545	3.38
330.997	3.38
331.45	3.37
331.903	3.38
332.355	3.39
332.808	3.39
333.26	3.39
333.713	3.4
334.165	3.41
334.617	3.42
335.069	3.42
335.522	3.42
335.974	3.43
336.426	3.43
336.878	3.43
337.33	3.43
337.782	3.43
338.234	3.43
338.686	3.43
339.137	3.43
339.589	3.42
340.041	3.41
340.493	3.4
340.944	3.39
341.396	3.39
341.847	3.39
342.299	3.37
342.75	3.36
343.201	3.34
343.653	3.33
344.104	3.31
344.555	3.3
345.006	3.29
345.457	3.29
345.908	3.28
346.359	3.27
346.81	3.26
347.261	3.25
347.712	3.25
348.163	3.25
348.613	3.25
349.064	3.24
349.515	3.23
349.965	3.22
350.416	3.22
350.866	3.21
351.317	3.2
351.767	3.19
352.217	3.19
352.668	3.19
353.118	3.19
353.568	3.2
354.018	3.21
354.468	3.22
354.918	3.24
355.368	3.24
355.818	3.25
356.268	3.26
356.718	3.27
357.168	3.28
357.617	3.27
358.067	3.28
358.517	3.28
358.966	3.29
359.416	3.3
359.865	3.29
360.315	3.29
360.764	3.3
361.213	3.31
361.663	3.32
362.112	3.32
362.561	3.33
363.01	3.34
363.459	3.35
363.908	3.34
364.357	3.34
364.806	3.35
365.255	3.35
365.703	3.34
366.152	3.34
366.601	3.35
367.05	3.37
367.498	3.37
367.947	3.37
368.395	3.39
368.844	3.41
369.292	3.41
369.74	3.42
370.189	3.43
370.637	3.45
371.085	3.47
371.533	3.47
371.981	3.47
372.429	3.47
372.877	3.47
373.325	3.46
373.773	3.47
374.221	3.48
374.669	3.49
375.116	3.49
375.564	3.5
376.012	3.51
376.459	3.53
376.907	3.55
377.354	3.57
377.801	3.59
378.249	3.61
378.696	3.63
379.143	3.64
379.591	3.65
380.038	3.68
380.485	3.7
380.932	3.71
381.379	3.71
381.826	3.73
382.273	3.74
382.72	3.75
383.166	3.76
383.613	3.76
384.06	3.78
384.506	3.8
384.953	3.8
385.4	3.81
385.846	3.81
386.292	3.83
386.739	3.84
387.185	3.86
387.631	3.88
388.078	3.9
388.524	3.9
388.97	3.91
389.416	3.92
389.862	3.91
390.308	3.94
390.754	3.96
391.2	3.98
391.645	4
392.091	4.01
392.537	4.03
392.983	4.05
393.428	4.08
393.874	4.11
394.319	4.13
394.765	4.16
395.21	4.16
395.655	4.18
396.101	4.19
396.546	4.21
396.991	4.21
397.436	4.21
397.881	4.22
398.326	4.25
398.771	4.26
399.216	4.27
399.661	4.29
400.106	4.32
400.551	4.31
400.995	4.31
401.44	4.31
401.885	4.31
402.329	4.32
402.774	4.32
403.218	4.32
403.663	4.32
404.107	4.32
404.551	4.33
404.995	4.32
405.44	4.33
405.884	4.33
406.328	4.32
406.772	4.33
407.216	4.34
407.66	4.35
408.104	4.35
408.547	4.36
408.991	4.35
409.435	4.36
409.879	4.37
410.322	4.38
410.766	4.4
411.209	4.41
411.653	4.4
412.096	4.4
412.54	4.41
412.983	4.41
413.426	4.42
413.869	4.44
414.312	4.45
414.756	4.46
415.199	4.46
415.642	4.49
416.085	4.52
416.527	4.54
416.97	4.55
417.413	4.53
417.856	4.54
418.298	4.52
418.741	4.51
419.184	4.52
419.626	4.51
420.069	4.5
420.511	4.48
420.953	4.45
421.396	4.45
421.838	4.46
422.28	4.49
422.722	4.51
423.164	4.51
423.606	4.52
424.048	4.52
424.49	4.52
424.932	4.53
425.374	4.52
425.816	4.52
426.258	4.5
426.699	4.46
427.141	4.43
427.582	4.43
428.024	4.43
428.465	4.43
428.907	4.43
429.348	4.45
429.789	4.45
430.231	4.46
430.672	4.46
431.113	4.49
431.554	4.52
431.995	4.55
432.436	4.55
432.877	4.56
433.318	4.55
433.759	4.56
434.2	4.55
434.64	4.57
435.081	4.58
435.522	4.62
435.962	4.63
436.403	4.66
436.843	4.67
437.284	4.69
437.724	4.72
438.164	4.74
438.604	4.76
439.045	4.75
439.485	4.75
439.925	4.76
440.365	4.75
440.805	4.75
441.245	4.73
441.685	4.74
442.125	4.76
442.564	4.78
443.004	4.78
443.444	4.8
443.883	4.83
444.323	4.84
444.762	4.87
445.202	4.93
445.641	4.95
446.081	4.99
446.52	4.98
446.959	4.98
447.398	5
447.837	5.04
448.276	5.04
448.716	5.06
449.154	5.11
449.593	5.13
450.032	5.11
450.471	5.11
450.91	5.09
451.349	5.14
451.787	5.15
452.226	5.14
452.664	5.1
453.103	5.11
453.541	5.08
453.98	5.05
454.418	5
454.856	4.98
455.295	4.97
455.733	4.96
456.171	4.93
456.609	4.92
457.047	4.9
457.485	4.9
457.923	4.88
458.361	4.87
458.798	4.88
459.236	4.89
459.674	4.89
460.111	4.9
460.549	4.89
460.987	4.89
461.424	4.88
461.862	4.9
462.299	4.89
462.736	4.9
463.173	4.9
463.611	4.89
464.048	4.9
464.485	4.89
464.922	4.89
465.359	4.89
465.796	4.87
466.233	4.89
466.67	4.89
467.106	4.89
467.543	4.89
467.98	4.9
468.416	4.91
468.853	4.9
469.29	4.91
469.726	4.9
470.162	4.9
470.599	4.91
471.035	4.91
471.471	4.9
471.907	4.9
472.344	4.9
472.78	4.9
473.216	4.89
473.652	4.89
474.088	4.9
474.523	4.89
474.959	4.88
475.395	4.89
475.831	4.89
476.266	4.89
476.702	4.89
477.138	4.86
477.573	4.84
478.008	4.83
478.444	4.82
478.879	4.81
479.314	4.8
479.75	4.79
480.185	4.77
480.62	4.76
481.055	4.75
481.49	4.74
481.925	4.73
482.36	4.72
482.795	4.72
483.229	4.69
483.664	4.69
484.099	4.69
484.534	4.68
484.968	4.69
485.403	4.68
485.837	4.68
486.271	4.67
486.706	4.66
487.14	4.68
487.574	4.66
488.009	4.69
488.443	4.7
488.877	4.7
489.311	4.7
489.745	4.71
490.179	4.73
490.613	4.75
491.046	4.78
491.48	4.8
491.914	4.81
492.348	4.85
492.781	4.87
493.215	4.89
493.648	4.93
494.082	4.98
494.515	5
494.948	5.04
495.382	5.07
495.815	5.11
496.248	5.16
496.681	5.2
497.114	5.25
497.547	5.29
497.98	5.36
498.413	5.41
498.846	5.47
499.279	5.54
499.711	5.6
500.144	5.67
500.577	5.74
501.009	5.81
501.442	5.89
501.874	5.99
502.306	6.07
502.739	6.16
503.171	6.27
503.603	6.38
504.036	6.49
504.468	6.61
504.9	6.74
505.332	6.86
505.764	7
506.196	7.15
506.627	7.29
507.059	7.43
507.491	7.6
507.923	7.77
508.354	7.94
508.786	8.13
509.217	8.31
509.649	8.52
510.08	8.74
510.512	8.94
510.943	9.16
511.374	9.39
511.805	9.63
512.237	9.87
512.668	10.1
513.099	10.35
513.53	10.61
513.961	10.88
514.391	11.13
514.822	11.39
515.253	11.67
515.684	11.94
516.114	12.22
516.545	12.49
516.975	12.79
517.406	13.08
517.836	13.36
518.267	13.63
518.697	13.93
519.127	14.24
519.558	14.53
519.988	14.84
520.418	15.13
520.848	15.44
521.278	15.75
521.708	16.07
522.138	16.36
522.567	16.65
522.997	16.94
523.427	17.23
523.857	17.48
524.286	17.76
524.716	17.99
525.145	18.24
525.575	18.47
526.004	18.7
526.433	18.9
526.863	19.13
527.292	19.35
527.721	19.56
528.15	19.73
528.579	19.94
529.008	20.11
529.437	20.29
529.866	20.46
530.295	20.63
530.724	20.8
531.152	20.95
531.581	21.08
532.01	21.22
532.438	21.34
532.867	21.46
533.295	21.57
533.723	21.7
534.152	21.8
534.58	21.89
535.008	21.95
535.436	22.02
535.865	22.08
536.293	22.17
536.721	22.23
537.149	22.3
537.576	22.38
538.004	22.42
538.432	22.44
538.86	22.5
539.287	22.55
539.715	22.6
540.143	22.64
540.57	22.7
540.998	22.74
541.425	22.78
541.852	22.8
542.28	22.82
542.707	22.86
543.134	22.89
543.561	22.92
543.988	22.98
544.415	23.01
544.842	23.05
545.269	23.08
545.696	23.11
546.123	23.14
546.549	23.18
546.976	23.23
547.403	23.28
547.829	23.31
548.256	23.35
548.682	23.36
549.108	23.4
549.535	23.42
549.961	23.43
550.387	23.44
550.813	23.44
551.24	23.45
551.666	23.46
552.092	23.46
552.518	23.46
552.943	23.45
553.369	23.43
553.795	23.4
554.221	23.37
554.646	23.35
555.072	23.32
555.498	23.27
555.923	23.25
556.349	23.17
556.774	23.09
557.199	23.03
557.625	22.93
558.05	22.85
558.475	22.77
558.9	22.69
559.325	22.58
559.75	22.46
560.175	22.36
560.6	22.22
561.025	22.1
561.449	21.97
561.874	21.82
562.299	21.72
562.723	21.56
563.148	21.41
563.572	21.27
563.997	21.11
564.421	20.95
564.846	20.76
565.27	20.61
565.694	20.45
566.118	20.28
566.542	20.12
566.966	19.94
567.39	19.76
567.814	19.56
568.238	19.36
568.662	19.18
569.086	19
569.509	18.83
569.933	18.64
570.357	18.45
570.78	18.27
571.204	18.07
571.627	17.91
572.05	17.76
572.474	17.62
572.897	17.47
573.32	17.31
573.743	17.17
574.166	17.03
574.589	16.9
575.012	16.77
575.435	16.63
575.858	16.53
576.281	16.41
576.704	16.29
577.126	16.18
577.549	16.08
577.972	15.97
578.394	15.86
578.817	15.75
579.239	15.66
579.661	15.57
580.084	15.48
580.506	15.39
580.928	15.29
581.35	15.21
581.772	15.14
582.194	15.05
582.616	14.97
583.038	14.92
583.46	14.85
583.882	14.75
584.303	14.69
584.725	14.62
585.147	14.55
585.568	14.47
585.99	14.39
586.411	14.33
586.833	14.28
587.254	14.23
587.675	14.17
588.096	14.11
588.518	14.06
588.939	14.02
589.36	13.97
589.781	13.9
590.202	13.86
590.623	13.81
591.043	13.76
591.464	13.71
591.885	13.66
592.305	13.62
592.726	13.59
593.147	13.55
593.567	13.51
593.987	13.48
594.408	13.45
594.828	13.42
595.248	13.39
595.669	13.37
596.089	13.32
596.509	13.26
596.929	13.23
597.349	13.18
597.769	13.14
598.189	13.09
598.608	13.04
599.028	12.99
599.448	12.95
599.867	12.89
600.287	12.85
600.706	12.81
601.126	12.76
601.545	12.71
601.965	12.66
602.384	12.62
602.803	12.56
603.222	12.5
603.641	12.45
604.061	12.39
604.48	12.34
604.898	12.27
605.317	12.2
605.736	12.15
606.155	12.09
606.574	12.03
606.992	11.95
607.411	11.9
607.829	11.8
608.248	11.74
608.666	11.66
609.085	11.59
609.503	11.52
609.921	11.45
610.339	11.37
610.758	11.29
611.176	11.22
611.594	11.14
612.012	11.05
612.43	11.03
612.847	10.96
613.265	10.91
613.683	10.85
614.101	10.78
614.518	10.7
614.936	10.64
615.353	10.59
615.771	10.52
616.188	10.48
616.606	10.45
617.023	10.37
617.44	10.3
617.857	10.24
618.274	10.19
618.691	10.14
619.108	10.1
619.525	10.05
619.942	10.01
620.359	9.98
620.776	9.94
621.192	9.9
621.609	9.88
622.026	9.87
622.442	9.84
622.859	9.81
623.275	9.82
623.691	9.81
624.108	9.79
624.524	9.78
624.94	9.77
625.356	9.76
625.772	9.76
626.188	9.76
626.604	9.74
627.02	9.74
627.436	9.74
627.852	9.71
628.268	9.7
628.683	9.68
629.099	9.67
629.514	9.65
629.93	9.64
630.345	9.61
630.761	9.57
631.176	9.53
631.591	9.51
632.007	9.47
632.422	9.43
632.837	9.38
633.252	9.34
633.667	9.27
634.082	9.2
634.497	9.12
634.911	9.04
635.326	8.97
635.741	8.89
636.155	8.78
636.57	8.69
636.984	8.59
637.399	8.47
637.813	8.35
638.228	8.24
638.642	8.14
639.056	8.03
639.47	7.93
639.884	7.82
640.298	7.72
640.712	7.6
641.126	7.49
641.54	7.39
641.954	7.32
642.368	7.22
642.781	7.13
643.195	7.04
643.609	6.95
644.022	6.85
644.436	6.77
644.849	6.69
645.262	6.63
645.676	6.56
646.089	6.49
646.502	6.41
646.915	6.35
647.328	6.3
647.741	6.24
648.154	6.21
648.567	6.17
648.98	6.15
649.393	6.12
649.805	6.08
650.218	6.07
650.631	6.05
651.043	6.03
651.456	6.01
651.868	5.99
652.28	5.98
652.693	5.95
653.105	5.93
653.517	5.89
653.929	5.87
654.341	5.85
654.753	5.8
655.165	5.77
655.577	5.73
655.989	5.69
656.401	5.65
656.813	5.6
657.224	5.56
657.636	5.51
658.047	5.47
658.459	5.41
658.87	5.36
659.282	5.32
659.693	5.27
660.104	5.25
660.515	5.2
660.926	5.15
661.338	5.11
661.749	5.06
662.159	5.01
662.57	4.96
662.981	4.93
663.392	4.9
663.803	4.87
664.213	4.83
664.624	4.81
665.035	4.78
665.445	4.77
665.855	4.76
666.266	4.75
666.676	4.73
667.086	4.73
667.497	4.71
667.907	4.7
668.317	4.68
668.727	4.68
669.137	4.68
669.547	4.69
669.956	4.69
670.366	4.69
670.776	4.7
671.186	4.71
671.595	4.74
672.005	4.76
672.414	4.79
672.824	4.82
673.233	4.85
673.642	4.86
674.052	4.88
674.461	4.91
674.87	4.93
675.279	4.95
675.688	4.97
676.097	5
676.506	5.03
676.915	5.06
677.323	5.09
677.732	5.12
678.141	5.16
678.549	5.22
678.958	5.26
679.366	5.3
679.775	5.37
680.183	5.45
680.592	5.52
681	5.58
681.408	5.65
681.816	5.73
682.224	5.81
682.632	5.9
683.04	5.99
683.448	6.1
683.856	6.23
684.264	6.37
684.671	6.51
685.079	6.67
685.487	6.86
685.894	7.06
686.302	7.29
686.709	7.55
687.116	7.82
687.524	8.11
687.931	8.43
688.338	8.79
688.745	9.15
689.152	9.56
689.559	9.97
689.966	10.42
690.373	10.92
690.78	11.41
691.187	11.94
691.593	12.49
692	13.06
692.407	13.65
692.813	14.26
693.22	14.89
693.626	15.52
694.032	16.17
694.439	16.84
694.845	17.48
695.251	18.13
695.657	18.81
696.063	19.48
696.469	20.16
696.875	20.84
697.281	21.5
697.687	22.21
698.093	22.9
698.498	23.6
698.904	24.25
699.31	24.92
699.715	25.6
700.12	26.25
700.526	26.91
700.931	27.55
701.337	28.19
701.742	28.81
702.147	29.43
702.552	30.05
702.957	30.66
703.362	31.27
703.767	31.85
704.172	32.45
704.577	33.03
704.981	33.6
705.386	34.16
705.791	34.73
706.195	35.3
706.6	35.83
707.004	36.35
707.408	36.85
707.813	37.37
708.217	37.87
708.621	38.39
709.025	38.9
709.43	39.38
709.834	39.88
710.237	40.35
710.641	40.84
711.045	41.3
711.449	41.74
711.853	42.23
712.256	42.69
712.66	43.17
713.064	43.61
713.467	44.06
713.87	44.52
714.274	44.97
714.677	45.41
715.08	45.8
715.484	46.25
715.887	46.68
716.29	47.06
716.693	47.43
717.096	47.83
717.499	48.22
717.901	48.56
718.304	48.92
718.707	49.27
719.109	49.63
719.512	50.01
719.915	50.31
720.317	50.69
720.719	51.01
721.122	51.34
721.524	51.65
721.926	51.96
722.328	52.27
722.731	52.56
723.133	52.85
723.535	53.15
723.937	53.42
724.338	53.66
724.74	53.85
725.142	54.09
725.544	54.34
725.945	54.58
726.347	54.81
726.748	54.99
727.15	55.19
727.551	55.41
727.952	55.57
728.354	55.75
728.755	55.98
729.156	56.2
729.557	56.41
729.958	56.61
730.359	56.76
730.76	56.91
731.161	57.09
731.562	57.26
731.962	57.37
732.363	57.51
732.763	57.66
733.164	57.76
733.564	57.87
733.965	57.95
734.365	58.03
734.766	58.16
735.166	58.24
735.566	58.28
735.966	58.35
736.366	58.46
736.766	58.54
737.166	58.6
737.566	58.65
737.966	58.74
738.365	58.85
738.765	58.92
739.165	58.96
739.564	59.04
739.964	59.14
740.363	59.19
740.763	59.22
741.162	59.27
741.561	59.33
741.96	59.41
742.36	59.45
742.759	59.44
743.158	59.47
743.557	59.53
743.955	59.58
744.354	59.65
744.753	59.7
745.152	59.75
745.55	59.81
745.949	59.85
746.348	59.89
746.746	59.92
747.144	60.01
747.543	60.07
747.941	60.15
748.339	60.21
748.737	60.28
749.136	60.29
749.534	60.37
749.932	60.38
750.33	60.38
750.727	60.41
751.125	60.45
751.523	60.43
751.921	60.44
752.318	60.42
752.716	60.41
753.113	60.35
753.511	60.32
753.908	60.28
754.305	60.26
754.703	60.24
755.1	60.17
755.497	60.17
755.894	60.16
756.291	60.14
756.688	60.12
757.085	60.09
757.482	60.09
757.878	60.13
758.275	60.14
758.672	60.16
759.068	60.17
759.465	60.25
759.861	60.21
760.258	60.17
760.654	60.17
761.05	60.17
761.447	60.16
761.843	60.15
762.239	60.15
762.635	60.13
763.031	60.12
763.427	60.11
763.822	60.05
764.218	60.05
764.614	60.05
765.01	60.06
765.405	60.02
765.801	60
766.196	59.99
766.592	59.94
766.987	59.95
767.382	59.93
767.778	59.94
768.173	59.96
768.568	59.94
768.963	59.94
769.358	59.91
769.753	59.96
770.148	60
770.542	60.02
770.937	60.02
771.332	60.03
771.726	60.02
772.121	60.01
772.515	60
772.91	60.01
773.304	59.99
773.699	60.01
774.093	59.97
774.487	59.97
774.881	59.98
775.275	60
775.669	59.99
776.063	60
776.457	59.99
776.851	59.96
777.245	59.95
777.638	59.99
778.032	60
778.425	59.98
778.819	59.98
779.212	59.94
779.606	59.93
779.999	59.9
780.392	59.91
780.786	59.92
781.179	59.95
781.572	59.98
781.965	59.98
782.358	59.94
782.751	59.98
783.143	60
783.536	60.07
783.929	60.09
784.322	60.13
