Data from c_3_dec_nc_4n_Splice17_11.txt Node
Date: Sat Feb 29 14:49:14 EST 2020
User: sa697716
Spectrometer: FLMS03696
Trigger mode: 0
Integration Time (sec): 3.180400E-1
Scans to average: 20
Electric dark correction enabled: true
Nonlinearity correction enabled: true
Boxcar width: 5
XAxis mode: Wavelengths
Number of Pixels in Spectrum: 2048
>>>>>Begin Spectral Data<<<<<
187.83	112.75
188.298	121.03
188.766	110.73
189.233	104.78
189.701	104.78
190.169	106.84
190.636	113.22
191.104	118.63
191.571	398.63
192.039	378.1
192.506	-451.76
192.974	2250.98
193.441	-447.72
193.908	82.43
194.375	169.05
194.842	194.01
195.31	103.51
195.777	90.37
196.244	53.77
196.711	44.07
197.177	38.92
197.644	38.77
198.111	37.99
198.578	37.82
199.045	39.29
199.511	39.06
199.978	40.22
200.445	40.78
200.911	40.98
201.378	40.87
201.844	41.15
202.31	41.97
202.777	41.85
203.243	42.49
203.709	42.71
204.176	42.53
204.642	42.87
205.108	42.57
205.574	42.79
206.04	42.84
206.506	42.55
206.972	42.44
207.438	42.1
207.903	42.37
208.369	41.61
208.835	41.38
209.301	41.06
209.766	40.28
210.232	39.49
210.697	38.87
211.163	38.27
211.628	37.76
212.094	37.38
212.559	36.84
213.024	36.09
213.49	35.58
213.955	35.07
214.42	34.36
214.885	33.59
215.35	32.84
215.815	31.5
216.28	30.23
216.745	29.03
217.21	27.47
217.675	26.24
218.14	24.78
218.604	23.53
219.069	22.36
219.534	21.33
219.998	20.55
220.463	19.92
220.927	19.36
221.392	18.87
221.856	18.41
222.32	18.05
222.785	17.7
223.249	17.49
223.713	17.29
224.177	17.01
224.642	16.85
225.106	16.65
225.57	16.42
226.034	16.23
226.497	16.03
226.961	15.81
227.425	15.6
227.889	15.42
228.353	15.22
228.816	15.01
229.28	14.84
229.744	14.66
230.207	14.53
230.671	14.37
231.134	14.2
231.597	14.03
232.061	13.9
232.524	13.76
232.987	13.6
233.45	13.48
233.914	13.35
234.377	13.24
234.84	13.13
235.303	12.98
235.766	12.87
236.229	12.77
236.691	12.69
237.154	12.59
237.617	12.5
238.08	12.4
238.542	12.3
239.005	12.19
239.468	12.09
239.93	11.99
240.393	11.9
240.855	11.8
241.317	11.71
241.78	11.62
242.242	11.53
242.704	11.44
243.166	11.37
243.629	11.28
244.091	11.2
244.553	11.14
245.015	11.06
245.477	10.99
245.939	10.92
246.4	10.83
246.862	10.77
247.324	10.71
247.786	10.65
248.247	10.58
248.709	10.52
249.17	10.47
249.632	10.41
250.093	10.35
250.555	10.3
251.016	10.26
251.477	10.21
251.939	10.17
252.4	10.11
252.861	10.07
253.322	10.02
253.783	10.01
254.244	9.97
254.705	9.93
255.166	9.91
255.627	9.86
256.088	9.82
256.549	9.81
257.009	9.77
257.47	9.74
257.931	9.7
258.391	9.67
258.852	9.63
259.312	9.58
259.773	9.54
260.233	9.5
260.694	9.47
261.154	9.43
261.614	9.38
262.074	9.36
262.534	9.31
262.994	9.28
263.455	9.26
263.915	9.22
264.374	9.2
264.834	9.18
265.294	9.16
265.754	9.13
266.214	9.11
266.673	9.09
267.133	9.07
267.593	9.06
268.052	9.05
268.512	9.03
268.971	9.02
269.431	9
269.89	8.98
270.349	8.96
270.809	8.95
271.268	8.94
271.727	8.92
272.186	8.9
272.645	8.88
273.104	8.86
273.563	8.85
274.022	8.83
274.481	8.82
274.94	8.8
275.399	8.79
275.857	8.77
276.316	8.75
276.775	8.73
277.233	8.71
277.692	8.69
278.15	8.67
278.609	8.64
279.067	8.62
279.525	8.59
279.984	8.58
280.442	8.57
280.9	8.55
281.358	8.53
281.816	8.52
282.274	8.5
282.732	8.49
283.19	8.47
283.648	8.46
284.106	8.45
284.564	8.44
285.021	8.42
285.479	8.41
285.937	8.4
286.394	8.39
286.852	8.39
287.309	8.38
287.767	8.36
288.224	8.35
288.682	8.34
289.139	8.34
289.596	8.32
290.053	8.3
290.511	8.28
290.968	8.26
291.425	8.23
291.882	8.21
292.339	8.19
292.796	8.17
293.252	8.15
293.709	8.13
294.166	8.1
294.623	8.08
295.079	8.06
295.536	8.04
295.992	8.02
296.449	8.01
296.905	7.98
297.362	7.97
297.818	7.96
298.274	7.94
298.731	7.91
299.187	7.9
299.643	7.89
300.099	7.88
300.555	7.86
301.011	7.85
301.467	7.82
301.923	7.81
302.379	7.79
302.835	7.78
303.291	7.77
303.746	7.76
304.202	7.75
304.658	7.73
305.113	7.72
305.569	7.71
306.024	7.7
306.479	7.68
306.935	7.68
307.39	7.67
307.845	7.66
308.301	7.65
308.756	7.64
309.211	7.63
309.666	7.62
310.121	7.61
310.576	7.6
311.031	7.59
311.486	7.59
311.94	7.58
312.395	7.57
312.85	7.56
313.305	7.56
313.759	7.55
314.214	7.54
314.668	7.53
315.123	7.54
315.577	7.53
316.032	7.53
316.486	7.53
316.94	7.53
317.394	7.52
317.849	7.51
318.303	7.52
318.757	7.5
319.211	7.49
319.665	7.48
320.119	7.47
320.572	7.46
321.026	7.45
321.48	7.43
321.934	7.41
322.387	7.39
322.841	7.38
323.295	7.35
323.748	7.34
324.202	7.33
324.655	7.31
325.108	7.29
325.562	7.27
326.015	7.25
326.468	7.23
326.921	7.21
327.374	7.21
327.827	7.19
328.28	7.19
328.733	7.17
329.186	7.16
329.639	7.14
330.092	7.14
330.545	7.13
330.997	7.13
331.45	7.12
331.903	7.12
332.355	7.11
332.808	7.1
333.26	7.1
333.713	7.1
334.165	7.09
334.617	7.1
335.069	7.1
335.522	7.11
335.974	7.11
336.426	7.11
336.878	7.09
337.33	7.09
337.782	7.09
338.234	7.09
338.686	7.1
339.137	7.1
339.589	7.09
340.041	7.08
340.493	7.06
340.944	7.06
341.396	7.05
341.847	7.04
342.299	7.02
342.75	7
343.201	6.98
343.653	6.96
344.104	6.93
344.555	6.92
345.006	6.9
345.457	6.88
345.908	6.85
346.359	6.84
346.81	6.83
347.261	6.82
347.712	6.82
348.163	6.81
348.613	6.79
349.064	6.77
349.515	6.75
349.965	6.75
350.416	6.75
350.866	6.76
351.317	6.74
351.767	6.74
352.217	6.73
352.668	6.73
353.118	6.72
353.568	6.72
354.018	6.73
354.468	6.74
354.918	6.73
355.368	6.73
355.818	6.73
356.268	6.73
356.718	6.73
357.168	6.73
357.617	6.72
358.067	6.72
358.517	6.72
358.966	6.74
359.416	6.75
359.865	6.76
360.315	6.76
360.764	6.77
361.213	6.77
361.663	6.78
362.112	6.81
362.561	6.83
363.01	6.85
363.459	6.86
363.908	6.86
364.357	6.88
364.806	6.89
365.255	6.92
365.703	6.92
366.152	6.93
366.601	6.95
367.05	6.96
367.498	6.98
367.947	6.99
368.395	7.02
368.844	7.03
369.292	7.04
369.74	7.07
370.189	7.07
370.637	7.12
371.085	7.14
371.533	7.15
371.981	7.17
372.429	7.18
372.877	7.21
373.325	7.23
373.773	7.26
374.221	7.29
374.669	7.3
375.116	7.32
375.564	7.33
376.012	7.34
376.459	7.37
376.907	7.4
377.354	7.44
377.801	7.46
378.249	7.5
378.696	7.54
379.143	7.56
379.591	7.58
380.038	7.62
380.485	7.66
380.932	7.71
381.379	7.73
381.826	7.77
382.273	7.8
382.72	7.84
383.166	7.87
383.613	7.89
384.06	7.92
384.506	7.97
384.953	8
385.4	8.03
385.846	8.05
386.292	8.09
386.739	8.1
387.185	8.14
387.631	8.16
388.078	8.19
388.524	8.21
388.97	8.24
389.416	8.25
389.862	8.26
390.308	8.29
390.754	8.32
391.2	8.35
391.645	8.39
392.091	8.4
392.537	8.43
392.983	8.46
393.428	8.5
393.874	8.52
394.319	8.55
394.765	8.57
395.21	8.58
395.655	8.6
396.101	8.6
396.546	8.61
396.991	8.62
397.436	8.61
397.881	8.6
398.326	8.6
398.771	8.61
399.216	8.64
399.661	8.65
400.106	8.68
400.551	8.68
400.995	8.68
401.44	8.67
401.885	8.66
402.329	8.66
402.774	8.64
403.218	8.62
403.663	8.61
404.107	8.61
404.551	8.61
404.995	8.59
405.44	8.56
405.884	8.56
406.328	8.55
406.772	8.57
407.216	8.57
407.66	8.59
408.104	8.61
408.547	8.61
408.991	8.59
409.435	8.58
409.879	8.57
410.322	8.58
410.766	8.59
411.209	8.6
411.653	8.58
412.096	8.57
412.54	8.56
412.983	8.53
413.426	8.53
413.869	8.54
414.312	8.54
414.756	8.55
415.199	8.54
415.642	8.54
416.085	8.55
416.527	8.56
416.97	8.59
417.413	8.6
417.856	8.59
418.298	8.57
418.741	8.56
419.184	8.55
419.626	8.54
420.069	8.52
420.511	8.51
420.953	8.48
421.396	8.47
421.838	8.45
422.28	8.45
422.722	8.46
423.164	8.47
423.606	8.47
424.048	8.46
424.49	8.45
424.932	8.45
425.374	8.46
425.816	8.45
426.258	8.44
426.699	8.41
427.141	8.36
427.582	8.35
428.024	8.35
428.465	8.35
428.907	8.35
429.348	8.34
429.789	8.33
430.231	8.31
430.672	8.3
431.113	8.3
431.554	8.31
431.995	8.32
432.436	8.32
432.877	8.31
433.318	8.29
433.759	8.26
434.2	8.27
434.64	8.27
435.081	8.24
435.522	8.25
435.962	8.25
436.403	8.27
436.843	8.27
437.284	8.27
437.724	8.28
438.164	8.28
438.604	8.31
439.045	8.31
439.485	8.3
439.925	8.31
440.365	8.32
440.805	8.31
441.245	8.29
441.685	8.3
442.125	8.29
442.564	8.3
443.004	8.31
443.444	8.31
443.883	8.32
444.323	8.32
444.762	8.36
445.202	8.39
445.641	8.41
446.081	8.43
446.52	8.42
446.959	8.43
447.398	8.46
447.837	8.49
448.276	8.5
448.716	8.51
449.154	8.56
449.593	8.56
450.032	8.57
450.471	8.58
450.91	8.58
451.349	8.6
451.787	8.61
452.226	8.6
452.664	8.56
453.103	8.55
453.541	8.55
453.98	8.53
454.418	8.5
454.856	8.45
455.295	8.42
455.733	8.4
456.171	8.38
456.609	8.35
457.047	8.33
457.485	8.34
457.923	8.33
458.361	8.3
458.798	8.3
459.236	8.3
459.674	8.31
460.111	8.31
460.549	8.29
460.987	8.28
461.424	8.27
461.862	8.27
462.299	8.24
462.736	8.23
463.173	8.22
463.611	8.2
464.048	8.18
464.485	8.15
464.922	8.15
465.359	8.15
465.796	8.13
466.233	8.15
466.67	8.15
467.106	8.15
467.543	8.16
467.98	8.16
468.416	8.18
468.853	8.19
469.29	8.19
469.726	8.2
470.162	8.2
470.599	8.22
471.035	8.21
471.471	8.21
471.907	8.22
472.344	8.21
472.78	8.2
473.216	8.18
473.652	8.19
474.088	8.22
474.523	8.22
474.959	8.23
475.395	8.23
475.831	8.23
476.266	8.23
476.702	8.21
477.138	8.22
477.573	8.22
478.008	8.22
478.444	8.2
478.879	8.2
479.314	8.18
479.75	8.17
480.185	8.16
480.62	8.17
481.055	8.17
481.49	8.16
481.925	8.15
482.36	8.15
482.795	8.12
483.229	8.14
483.664	8.13
484.099	8.14
484.534	8.13
484.968	8.14
485.403	8.14
485.837	8.14
486.271	8.14
486.706	8.14
487.14	8.17
487.574	8.19
488.009	8.2
488.443	8.2
488.877	8.22
489.311	8.24
489.745	8.27
490.179	8.29
490.613	8.32
491.046	8.36
491.48	8.41
491.914	8.44
492.348	8.48
492.781	8.52
493.215	8.57
493.648	8.61
494.082	8.67
494.515	8.72
494.948	8.79
495.382	8.84
495.815	8.9
496.248	8.96
496.681	9.02
497.114	9.08
497.547	9.16
497.98	9.24
498.413	9.31
498.846	9.4
499.279	9.48
499.711	9.56
500.144	9.66
500.577	9.76
501.009	9.87
501.442	9.99
501.874	10.11
502.306	10.23
502.739	10.36
503.171	10.5
503.603	10.64
504.036	10.79
504.468	10.96
504.9	11.15
505.332	11.3
505.764	11.49
506.196	11.67
506.627	11.85
507.059	12.05
507.491	12.25
507.923	12.46
508.354	12.68
508.786	12.91
509.217	13.15
509.649	13.36
510.08	13.63
510.512	13.85
510.943	14.12
511.374	14.4
511.805	14.66
512.237	14.95
512.668	15.22
513.099	15.51
513.53	15.79
513.961	16.07
514.391	16.35
514.822	16.64
515.253	16.94
515.684	17.23
516.114	17.54
516.545	17.85
516.975	18.14
517.406	18.44
517.836	18.74
518.267	19.04
518.697	19.35
519.127	19.67
519.558	19.98
519.988	20.29
520.418	20.58
520.848	20.85
521.278	21.14
521.708	21.3
522.138	21.56
522.567	21.83
522.997	22.11
523.427	22.37
523.857	22.62
524.286	22.86
524.716	23.09
525.145	23.34
525.575	23.56
526.004	23.77
526.433	24.12
526.863	24.35
527.292	24.55
527.721	24.76
528.15	24.93
528.579	25.13
529.008	25.31
529.437	25.49
529.866	25.66
530.295	25.83
530.724	26.01
531.152	26.16
531.581	26.29
532.01	26.43
532.438	26.56
532.867	26.68
533.295	26.78
533.723	26.88
534.152	26.98
534.58	27.06
535.008	27.11
535.436	27.17
535.865	27.22
536.293	27.28
536.721	27.33
537.149	27.37
537.576	27.41
538.004	27.45
538.432	27.48
538.86	27.52
539.287	27.57
539.715	27.61
540.143	27.65
540.57	27.69
540.998	27.72
541.425	27.77
541.852	27.8
542.28	27.83
542.707	27.87
543.134	27.91
543.561	27.92
543.988	27.94
544.415	27.98
544.842	28.02
545.269	28.06
545.696	28.08
546.123	28.1
546.549	28.13
546.976	28.15
547.403	28.18
547.829	28.2
548.256	28.23
548.682	28.24
549.108	28.28
549.535	28.28
549.961	28.3
550.387	28.29
550.813	28.27
551.24	28.27
551.666	28.3
552.092	28.31
552.518	28.3
552.943	28.31
553.369	28.29
553.795	28.26
554.221	28.25
554.646	28.2
555.072	28.2
555.498	28.19
555.923	28.17
556.349	28.1
556.774	28.04
557.199	28
557.625	27.91
558.05	27.84
558.475	27.77
558.9	27.69
559.325	27.63
559.75	27.53
560.175	27.43
560.6	27.3
561.025	27.2
561.449	27.07
561.874	26.94
562.299	26.83
562.723	26.73
563.148	26.59
563.572	26.46
563.997	26.32
564.421	26.16
564.846	26.02
565.27	25.87
565.694	25.71
566.118	25.56
566.542	25.39
566.966	25.22
567.39	25.02
567.814	24.85
568.238	24.67
568.662	24.49
569.086	24.33
569.509	24.16
569.933	23.97
570.357	23.79
570.78	23.61
571.204	23.45
571.627	23.28
572.05	23.13
572.474	22.97
572.897	22.82
573.32	22.65
573.743	22.5
574.166	22.37
574.589	22.24
575.012	22.11
575.435	21.99
575.858	21.87
576.281	21.76
576.704	21.63
577.126	21.52
577.549	21.42
577.972	21.32
578.394	21.21
578.817	21.1
579.239	21
579.661	20.93
580.084	20.84
580.506	20.73
580.928	20.64
581.35	20.57
581.772	20.5
582.194	20.41
582.616	20.35
583.038	20.29
583.46	20.21
583.882	20.13
584.303	20.06
584.725	19.99
585.147	19.91
585.568	19.83
585.99	19.76
586.411	19.68
586.833	19.61
587.254	19.54
587.675	19.46
588.096	19.41
588.518	19.34
588.939	19.27
589.36	19.21
589.781	19.18
590.202	19.12
590.623	19.08
591.043	19.03
591.464	18.98
591.885	18.93
592.305	18.9
592.726	18.84
593.147	18.79
593.567	18.76
593.987	18.73
594.408	18.66
594.828	18.63
595.248	18.59
595.669	18.53
596.089	18.5
596.509	18.45
596.929	18.4
597.349	18.36
597.769	18.32
598.189	18.28
598.608	18.22
599.028	18.17
599.448	18.13
599.867	18.08
600.287	18.05
600.706	17.99
601.126	17.94
601.545	17.87
601.965	17.82
602.384	17.76
602.803	17.7
603.222	17.64
603.641	17.61
604.061	17.54
604.48	17.48
604.898	17.4
605.317	17.34
605.736	17.29
606.155	17.22
606.574	17.15
606.992	17.08
607.411	17.02
607.829	16.93
608.248	16.84
608.666	16.77
609.085	16.71
609.503	16.64
609.921	16.56
610.339	16.48
610.758	16.42
611.176	16.37
611.594	16.3
612.012	16.22
612.43	16.18
612.847	16.12
613.265	16.06
613.683	15.97
614.101	15.91
614.518	15.84
614.936	15.78
615.353	15.71
615.771	15.63
616.188	15.57
616.606	15.52
617.023	15.46
617.44	15.39
617.857	15.32
618.274	15.27
618.691	15.22
619.108	15.17
619.525	15.12
619.942	15.08
620.359	15.04
620.776	14.99
621.192	14.94
621.609	14.92
622.026	14.88
622.442	14.85
622.859	14.82
623.275	14.81
623.691	14.8
624.108	14.78
624.524	14.77
624.94	14.74
625.356	14.73
625.772	14.74
626.188	14.74
626.604	14.72
627.02	14.71
627.436	14.69
627.852	14.66
628.268	14.64
628.683	14.63
629.099	14.6
629.514	14.58
629.93	14.56
630.345	14.5
630.761	14.45
631.176	14.41
631.591	14.36
632.007	14.31
632.422	14.25
632.837	14.2
633.252	14.13
633.667	14.04
634.082	13.94
634.497	13.84
634.911	13.74
635.326	13.63
635.741	13.51
636.155	13.39
636.57	13.27
636.984	13.13
637.399	12.97
637.813	12.81
638.228	12.67
638.642	12.54
639.056	12.41
639.47	12.27
639.884	12.13
640.298	12
640.712	11.84
641.126	11.71
641.54	11.56
641.954	11.45
642.368	11.33
642.781	11.22
643.195	11.08
643.609	10.95
644.022	10.84
644.436	10.73
644.849	10.61
645.262	10.52
645.676	10.42
646.089	10.34
646.502	10.25
646.915	10.17
647.328	10.09
647.741	10.04
648.154	9.97
648.567	9.92
648.98	9.88
649.393	9.85
649.805	9.81
650.218	9.78
650.631	9.75
651.043	9.73
651.456	9.71
651.868	9.67
652.28	9.63
652.693	9.6
653.105	9.56
653.517	9.52
653.929	9.49
654.341	9.46
654.753	9.41
655.165	9.38
655.577	9.31
655.989	9.25
656.401	9.2
656.813	9.16
657.224	9.11
657.636	9.06
658.047	9
658.459	8.93
658.87	8.84
659.282	8.79
659.693	8.71
660.104	8.66
660.515	8.61
660.926	8.55
661.338	8.5
661.749	8.43
662.159	8.37
662.57	8.32
662.981	8.29
663.392	8.25
663.803	8.2
664.213	8.15
664.624	8.12
665.035	8.06
665.445	8.03
665.855	7.99
666.266	7.97
666.676	7.94
667.086	7.9
667.497	7.87
667.907	7.83
668.317	7.81
668.727	7.79
669.137	7.78
669.547	7.78
669.956	7.78
670.366	7.79
670.776	7.78
671.186	7.78
671.595	7.8
672.005	7.82
672.414	7.84
672.824	7.88
673.233	7.91
673.642	7.93
674.052	7.95
674.461	7.98
674.87	8.01
675.279	8.04
675.688	8.07
676.097	8.1
676.506	8.12
676.915	8.17
677.323	8.21
677.732	8.26
678.141	8.32
678.549	8.38
678.958	8.46
679.366	8.53
679.775	8.6
680.183	8.68
680.592	8.78
681	8.88
681.408	8.98
681.816	9.09
682.224	9.21
682.632	9.34
683.04	9.48
683.448	9.64
683.856	9.8
684.264	10.02
684.671	10.23
685.079	10.48
685.487	10.75
685.894	11.04
686.302	11.35
686.709	11.68
687.116	12.05
687.524	12.45
687.931	12.86
688.338	13.32
688.745	13.78
689.152	14.29
689.559	14.79
689.966	15.34
690.373	15.93
690.78	16.5
691.187	17.12
691.593	17.73
692	18.37
692.407	19.01
692.813	19.67
693.22	20.33
693.626	21
694.032	21.68
694.439	22.35
694.845	23.02
695.251	23.71
695.657	24.36
696.063	25.04
696.469	25.71
696.875	26.38
697.281	27.01
697.687	27.69
698.093	28.33
698.498	28.96
698.904	29.59
699.31	30.19
699.715	30.77
700.12	31.38
700.526	31.94
700.931	32.5
701.337	33.06
701.742	33.61
702.147	34.13
702.552	34.67
702.957	35.19
703.362	35.71
703.767	36.23
704.172	36.73
704.577	37.19
704.981	37.69
705.386	38.16
705.791	38.63
706.195	39.07
706.6	39.52
707.004	39.93
707.408	40.36
707.813	40.77
708.217	41.15
708.621	41.54
709.025	41.94
709.43	42.31
709.834	42.68
710.237	43.02
710.641	43.41
711.045	43.76
711.449	44.1
711.853	44.44
712.256	44.79
712.66	45.11
713.064	45.45
713.467	45.79
713.87	46.07
714.274	46.39
714.677	46.73
715.08	47
715.484	47.28
715.887	47.57
716.29	47.84
716.693	48.08
717.096	48.37
717.499	48.63
717.901	48.86
718.304	49.15
718.707	49.4
719.109	49.63
719.512	49.9
719.915	50.15
720.317	50.37
720.719	50.6
721.122	50.85
721.524	51.1
721.926	51.33
722.328	51.57
722.731	51.75
723.133	51.94
723.535	52.15
723.937	52.34
724.338	52.5
724.74	52.68
725.142	52.8
725.544	52.94
725.945	53.03
726.347	53.19
726.748	53.29
727.15	53.43
727.551	53.55
727.952	53.63
728.354	53.75
728.755	53.88
729.156	54.02
729.557	54.18
729.958	54.31
730.359	54.48
730.76	54.55
731.161	54.69
731.562	54.81
731.962	54.9
732.363	55.02
732.763	55.14
733.164	55.2
733.564	55.25
733.965	55.3
734.365	55.38
734.766	55.42
735.166	55.45
735.566	55.45
735.966	55.49
736.366	55.57
736.766	55.61
737.166	55.63
737.566	55.67
737.966	55.75
738.365	55.8
738.765	55.82
739.165	55.85
739.564	55.93
739.964	55.98
740.363	56.02
740.763	56.03
741.162	56.06
741.561	56.09
741.96	56.14
742.36	56.14
742.759	56.14
743.158	56.14
743.557	56.13
743.955	56.2
744.354	56.28
744.753	56.33
745.152	56.38
745.55	56.42
745.949	56.44
746.348	56.47
746.746	56.52
747.144	56.6
747.543	56.67
747.941	56.78
748.339	56.77
748.737	56.78
749.136	56.77
749.534	56.82
749.932	56.85
750.33	56.87
750.727	56.88
751.125	56.91
751.523	56.88
751.921	56.89
752.318	56.86
752.716	56.83
753.113	56.8
753.511	56.8
753.908	56.74
754.305	56.65
754.703	56.62
755.1	56.6
755.497	56.55
755.894	56.52
756.291	56.44
756.688	56.38
757.085	56.35
757.482	56.32
757.878	56.26
758.275	56.23
758.672	56.26
759.068	56.24
759.465	56.19
759.861	56.15
760.258	56.11
760.654	56.12
761.05	56.13
761.447	56.11
761.843	56.1
762.239	56.12
762.635	56.1
763.031	56.13
763.427	56.1
763.822	56.11
764.218	56.11
764.614	56.14
765.01	56.15
765.405	56.13
765.801	56.14
766.196	56.16
766.592	56.16
766.987	56.17
767.382	56.14
767.778	56.17
768.173	56.17
768.568	56.16
768.963	56.16
769.358	56.14
769.753	56.15
770.148	56.14
770.542	56.09
770.937	56.08
771.332	56.07
771.726	56.07
772.121	56.04
772.515	56.03
772.91	56.06
773.304	56.04
773.699	56.02
774.093	55.99
774.487	55.99
774.881	56
775.275	56
775.669	56.01
776.063	55.98
776.457	55.97
776.851	55.94
777.245	55.93
777.638	55.93
778.032	55.97
778.425	55.99
778.819	55.98
779.212	55.97
779.606	55.99
