Data from c_3_hir_wi_4n_Splice17_12.txt Node
Date: Sat Feb 29 14:52:35 EST 2020
User: sa697716
Spectrometer: FLMS03696
Trigger mode: 0
Integration Time (sec): 3.180400E-1
Scans to average: 20
Electric dark correction enabled: true
Nonlinearity correction enabled: true
Boxcar width: 5
XAxis mode: Wavelengths
Number of Pixels in Spectrum: 2048
>>>>>Begin Spectral Data<<<<<
187.83	46.76
188.298	52.84
188.766	56.15
189.233	51.29
189.701	64.54
190.169	66.2
190.636	77.58
191.104	78.32
191.571	525.38
192.039	451.11
192.506	-863.79
192.974	-2234.19
193.441	-177.66
193.908	114.72
194.375	147.07
194.842	288.85
195.31	160.78
195.777	186.36
196.244	69.04
196.711	61.17
197.177	60.01
197.644	59.77
198.111	58.6
198.578	57.73
199.045	58.09
199.511	58.13
199.978	58.38
200.445	58.09
200.911	58.38
201.378	58.8
201.844	59.73
202.31	59.94
202.777	59.78
203.243	60.23
203.709	59.83
204.176	59.46
204.642	59.55
205.108	59.36
205.574	59.78
206.04	59.61
206.506	58.99
206.972	58.48
207.438	58.03
207.903	57.86
208.369	56.79
208.835	57.01
209.301	56.39
209.766	55.25
210.232	54.38
210.697	53.25
211.163	51.82
211.628	51.1
212.094	50.17
212.559	49.07
213.024	47.91
213.49	46.9
213.955	45.76
214.42	44.67
214.885	43.43
215.35	41.82
215.815	39.93
216.28	38.2
216.745	35.8
217.21	33.16
217.675	30.88
218.14	28.59
218.604	26.49
219.069	24.73
219.534	23.09
219.998	21.87
220.463	20.8
220.927	19.77
221.392	18.86
221.856	18.13
222.32	17.55
222.785	16.98
223.249	16.55
223.713	16.18
224.177	15.79
224.642	15.52
225.106	15.19
225.57	14.87
226.034	14.63
226.497	14.35
226.961	14.09
227.425	13.83
227.889	13.63
228.353	13.38
228.816	13.18
229.28	12.94
229.744	12.74
230.207	12.55
230.671	12.38
231.134	12.2
231.597	12.04
232.061	11.87
232.524	11.73
232.987	11.55
233.45	11.41
233.914	11.24
234.377	11.13
234.84	10.99
235.303	10.86
235.766	10.73
236.229	10.62
236.691	10.53
237.154	10.43
237.617	10.35
238.08	10.26
238.542	10.17
239.005	10.09
239.468	9.97
239.93	9.88
240.393	9.8
240.855	9.71
241.317	9.63
241.78	9.53
242.242	9.43
242.704	9.34
243.166	9.26
243.629	9.17
244.091	9.1
244.553	9.03
245.015	8.97
245.477	8.87
245.939	8.8
246.4	8.72
246.862	8.66
247.324	8.6
247.786	8.53
248.247	8.47
248.709	8.41
249.17	8.34
249.632	8.28
250.093	8.2
250.555	8.16
251.016	8.11
251.477	8.06
251.939	8
252.4	7.95
252.861	7.9
253.322	7.85
253.783	7.82
254.244	7.78
254.705	7.74
255.166	7.71
255.627	7.67
256.088	7.62
256.549	7.59
257.009	7.53
257.47	7.5
257.931	7.46
258.391	7.43
258.852	7.38
259.312	7.34
259.773	7.3
260.233	7.24
260.694	7.2
261.154	7.15
261.614	7.11
262.074	7.08
262.534	7.03
262.994	6.99
263.455	6.96
263.915	6.91
264.374	6.88
264.834	6.85
265.294	6.82
265.754	6.78
266.214	6.75
266.673	6.72
267.133	6.7
267.593	6.67
268.052	6.64
268.512	6.61
268.971	6.59
269.431	6.56
269.89	6.54
270.349	6.52
270.809	6.5
271.268	6.5
271.727	6.48
272.186	6.46
272.645	6.44
273.104	6.42
273.563	6.41
274.022	6.4
274.481	6.38
274.94	6.37
275.399	6.35
275.857	6.33
276.316	6.31
276.775	6.28
277.233	6.27
277.692	6.26
278.15	6.23
278.609	6.21
279.067	6.19
279.525	6.17
279.984	6.15
280.442	6.14
280.9	6.13
281.358	6.12
281.816	6.11
282.274	6.09
282.732	6.08
283.19	6.07
283.648	6.07
284.106	6.05
284.564	6.05
285.021	6.05
285.479	6.04
285.937	6.04
286.394	6.03
286.852	6.03
287.309	6.03
287.767	6.02
288.224	6.02
288.682	6.02
289.139	6.02
289.596	6
290.053	5.98
290.511	5.96
290.968	5.94
291.425	5.93
291.882	5.9
292.339	5.88
292.796	5.85
293.252	5.82
293.709	5.8
294.166	5.78
294.623	5.76
295.079	5.75
295.536	5.73
295.992	5.71
296.449	5.69
296.905	5.68
297.362	5.67
297.818	5.66
298.274	5.65
298.731	5.64
299.187	5.63
299.643	5.63
300.099	5.62
300.555	5.6
301.011	5.59
301.467	5.58
301.923	5.58
302.379	5.58
302.835	5.57
303.291	5.56
303.746	5.55
304.202	5.54
304.658	5.53
305.113	5.52
305.569	5.51
306.024	5.51
306.479	5.5
306.935	5.48
307.39	5.48
307.845	5.48
308.301	5.48
308.756	5.49
309.211	5.49
309.666	5.5
310.121	5.5
310.576	5.51
311.031	5.51
311.486	5.52
311.94	5.52
312.395	5.53
312.85	5.52
313.305	5.52
313.759	5.53
314.214	5.52
314.668	5.51
315.123	5.52
315.577	5.53
316.032	5.53
316.486	5.52
316.94	5.52
317.394	5.51
317.849	5.49
318.303	5.49
318.757	5.47
319.211	5.45
319.665	5.44
320.119	5.43
320.572	5.41
321.026	5.4
321.48	5.39
321.934	5.39
322.387	5.38
322.841	5.38
323.295	5.37
323.748	5.36
324.202	5.36
324.655	5.36
325.108	5.35
325.562	5.33
326.015	5.32
326.468	5.3
326.921	5.29
327.374	5.28
327.827	5.27
328.28	5.26
328.733	5.25
329.186	5.25
329.639	5.24
330.092	5.23
330.545	5.23
330.997	5.24
331.45	5.24
331.903	5.24
332.355	5.24
332.808	5.24
333.26	5.25
333.713	5.25
334.165	5.25
334.617	5.26
335.069	5.27
335.522	5.28
335.974	5.29
336.426	5.29
336.878	5.3
337.33	5.3
337.782	5.3
338.234	5.31
338.686	5.31
339.137	5.31
339.589	5.3
340.041	5.3
340.493	5.29
340.944	5.28
341.396	5.28
341.847	5.28
342.299	5.25
342.75	5.24
343.201	5.22
343.653	5.21
344.104	5.19
344.555	5.19
345.006	5.17
345.457	5.16
345.908	5.15
346.359	5.14
346.81	5.14
347.261	5.14
347.712	5.13
348.163	5.14
348.613	5.13
349.064	5.13
349.515	5.12
349.965	5.11
350.416	5.11
350.866	5.12
351.317	5.12
351.767	5.11
352.217	5.1
352.668	5.1
353.118	5.1
353.568	5.11
354.018	5.11
354.468	5.1
354.918	5.11
355.368	5.13
355.818	5.12
356.268	5.14
356.718	5.14
357.168	5.15
357.617	5.16
358.067	5.17
358.517	5.17
358.966	5.19
359.416	5.22
359.865	5.22
360.315	5.23
360.764	5.25
361.213	5.25
361.663	5.27
362.112	5.3
362.561	5.31
363.01	5.34
363.459	5.36
363.908	5.37
364.357	5.39
364.806	5.42
365.255	5.44
365.703	5.46
366.152	5.49
366.601	5.51
367.05	5.53
367.498	5.56
367.947	5.59
368.395	5.62
368.844	5.64
369.292	5.66
369.74	5.68
370.189	5.71
370.637	5.74
371.085	5.78
371.533	5.82
371.981	5.85
372.429	5.88
372.877	5.91
373.325	5.95
373.773	6
374.221	6.05
374.669	6.1
375.116	6.14
375.564	6.17
376.012	6.21
376.459	6.25
376.907	6.29
377.354	6.32
377.801	6.36
378.249	6.4
378.696	6.44
379.143	6.48
379.591	6.52
380.038	6.57
380.485	6.63
380.932	6.68
381.379	6.72
381.826	6.77
382.273	6.82
382.72	6.88
383.166	6.92
383.613	6.96
384.06	7
384.506	7.04
384.953	7.06
385.4	7.09
385.846	7.11
386.292	7.16
386.739	7.17
387.185	7.2
387.631	7.22
388.078	7.25
388.524	7.25
388.97	7.28
389.416	7.29
389.862	7.31
390.308	7.34
390.754	7.36
391.2	7.37
391.645	7.4
392.091	7.43
392.537	7.45
392.983	7.48
393.428	7.53
393.874	7.56
394.319	7.58
394.765	7.6
395.21	7.6
395.655	7.62
396.101	7.64
396.546	7.66
396.991	7.68
397.436	7.67
397.881	7.67
398.326	7.68
398.771	7.69
399.216	7.72
399.661	7.74
400.106	7.77
400.551	7.78
400.995	7.78
401.44	7.76
401.885	7.76
402.329	7.75
402.774	7.75
403.218	7.74
403.663	7.72
404.107	7.7
404.551	7.69
404.995	7.66
405.44	7.64
405.884	7.62
406.328	7.61
406.772	7.61
407.216	7.6
407.66	7.61
408.104	7.59
408.547	7.58
408.991	7.56
409.435	7.55
409.879	7.54
410.322	7.54
410.766	7.54
411.209	7.55
411.653	7.54
412.096	7.53
412.54	7.52
412.983	7.52
413.426	7.52
413.869	7.52
414.312	7.55
414.756	7.58
415.199	7.6
415.642	7.62
416.085	7.64
416.527	7.65
416.97	7.68
417.413	7.68
417.856	7.67
418.298	7.67
418.741	7.66
419.184	7.65
419.626	7.62
420.069	7.6
420.511	7.59
420.953	7.56
421.396	7.55
421.838	7.54
422.28	7.57
422.722	7.59
423.164	7.58
423.606	7.6
424.048	7.58
424.49	7.6
424.932	7.6
425.374	7.59
425.816	7.58
426.258	7.54
426.699	7.5
427.141	7.44
427.582	7.42
428.024	7.42
428.465	7.4
428.907	7.39
429.348	7.39
429.789	7.37
430.231	7.34
430.672	7.32
431.113	7.35
431.554	7.37
431.995	7.41
432.436	7.39
432.877	7.38
433.318	7.37
433.759	7.36
434.2	7.34
434.64	7.37
435.081	7.36
435.522	7.36
435.962	7.37
436.403	7.39
436.843	7.39
437.284	7.43
437.724	7.46
438.164	7.48
438.604	7.51
439.045	7.52
439.485	7.53
439.925	7.55
440.365	7.56
440.805	7.55
441.245	7.53
441.685	7.55
442.125	7.52
442.564	7.54
443.004	7.55
443.444	7.56
443.883	7.58
444.323	7.58
444.762	7.64
445.202	7.69
445.641	7.72
446.081	7.76
446.52	7.74
446.959	7.77
447.398	7.8
447.837	7.83
448.276	7.83
448.716	7.86
449.154	7.89
449.593	7.88
450.032	7.89
450.471	7.9
450.91	7.91
451.349	7.95
451.787	7.96
452.226	7.94
452.664	7.93
453.103	7.92
453.541	7.91
453.98	7.88
454.418	7.86
454.856	7.82
455.295	7.81
455.733	7.79
456.171	7.77
456.609	7.74
457.047	7.73
457.485	7.71
457.923	7.69
458.361	7.69
458.798	7.69
459.236	7.68
459.674	7.69
460.111	7.68
460.549	7.66
460.987	7.65
461.424	7.65
461.862	7.63
462.299	7.65
462.736	7.66
463.173	7.66
463.611	7.64
464.048	7.67
464.485	7.66
464.922	7.65
465.359	7.67
465.796	7.65
466.233	7.67
466.67	7.68
467.106	7.64
467.543	7.64
467.98	7.64
468.416	7.64
468.853	7.64
469.29	7.65
469.726	7.65
470.162	7.64
470.599	7.64
471.035	7.64
471.471	7.64
471.907	7.64
472.344	7.64
472.78	7.64
473.216	7.65
473.652	7.64
474.088	7.65
474.523	7.66
474.959	7.67
475.395	7.68
475.831	7.68
476.266	7.69
476.702	7.7
477.138	7.69
477.573	7.67
478.008	7.66
478.444	7.66
478.879	7.64
479.314	7.64
479.75	7.63
480.185	7.63
480.62	7.61
481.055	7.61
481.49	7.57
481.925	7.57
482.36	7.56
482.795	7.55
483.229	7.54
483.664	7.53
484.099	7.54
484.534	7.53
484.968	7.52
485.403	7.52
485.837	7.53
486.271	7.54
486.706	7.54
487.14	7.55
487.574	7.56
488.009	7.58
488.443	7.59
488.877	7.6
489.311	7.62
489.745	7.64
490.179	7.67
490.613	7.69
491.046	7.74
491.48	7.79
491.914	7.84
492.348	7.89
492.781	7.94
493.215	7.98
493.648	8.03
494.082	8.1
494.515	8.15
494.948	8.2
495.382	8.26
495.815	8.32
496.248	8.38
496.681	8.44
497.114	8.51
497.547	8.59
497.98	8.68
498.413	8.77
498.846	8.86
499.279	8.96
499.711	9.07
500.144	9.18
500.577	9.29
501.009	9.41
501.442	9.52
501.874	9.66
502.306	9.78
502.739	9.91
503.171	10.06
503.603	10.23
504.036	10.38
504.468	10.56
504.9	10.74
505.332	10.92
505.764	11.12
506.196	11.32
506.627	11.52
507.059	11.74
507.491	11.97
507.923	12.18
508.354	12.4
508.786	12.63
509.217	12.85
509.649	13.09
510.08	13.35
510.512	13.59
510.943	13.86
511.374	14.13
511.805	14.39
512.237	14.66
512.668	14.94
513.099	15.25
513.53	15.55
513.961	15.87
514.391	16.16
514.822	16.46
515.253	16.77
515.684	17.06
516.114	17.37
516.545	17.69
516.975	18
517.406	18.3
517.836	18.58
518.267	18.89
518.697	19.19
519.127	19.49
519.558	19.77
519.988	20.06
520.418	20.35
520.848	20.64
521.278	20.92
521.708	21.06
522.138	21.32
522.567	21.59
522.997	21.82
523.427	22.07
523.857	22.32
524.286	22.57
524.716	22.81
525.145	23.03
525.575	23.25
526.004	23.46
526.433	23.8
526.863	24.02
527.292	24.2
527.721	24.4
528.15	24.56
528.579	24.73
529.008	24.89
529.437	25.05
529.866	25.19
530.295	25.35
530.724	25.48
531.152	25.62
531.581	25.73
532.01	25.88
532.438	25.98
532.867	26.11
533.295	26.2
533.723	26.3
534.152	26.38
534.58	26.43
535.008	26.48
535.436	26.53
535.865	26.59
536.293	26.66
536.721	26.71
537.149	26.77
537.576	26.81
538.004	26.86
538.432	26.9
538.86	26.94
539.287	27.01
539.715	27.06
540.143	27.09
540.57	27.12
540.998	27.14
541.425	27.15
541.852	27.16
542.28	27.18
542.707	27.22
543.134	27.23
543.561	27.25
543.988	27.28
544.415	27.29
544.842	27.34
545.269	27.38
545.696	27.41
546.123	27.45
546.549	27.49
546.976	27.52
547.403	27.54
547.829	27.58
548.256	27.6
548.682	27.62
549.108	27.66
549.535	27.66
549.961	27.66
550.387	27.68
550.813	27.68
551.24	27.67
551.666	27.68
552.092	27.7
552.518	27.69
552.943	27.7
553.369	27.69
553.795	27.66
554.221	27.64
554.646	27.61
555.072	27.56
555.498	27.53
555.923	27.5
556.349	27.42
556.774	27.34
557.199	27.3
557.625	27.22
558.05	27.14
558.475	27.06
558.9	27
559.325	26.93
559.75	26.84
560.175	26.75
560.6	26.65
561.025	26.56
561.449	26.47
561.874	26.33
562.299	26.22
562.723	26.13
563.148	26.02
563.572	25.89
563.997	25.74
564.421	25.61
564.846	25.47
565.27	25.32
565.694	25.18
566.118	25.02
566.542	24.89
566.966	24.73
567.39	24.54
567.814	24.37
568.238	24.17
568.662	24
569.086	23.83
569.509	23.65
569.933	23.47
570.357	23.29
570.78	23.11
571.204	22.93
571.627	22.76
572.05	22.61
572.474	22.44
572.897	22.28
573.32	22.14
573.743	22
574.166	21.86
574.589	21.72
575.012	21.6
575.435	21.48
575.858	21.35
576.281	21.24
576.704	21.12
577.126	21.03
577.549	20.95
577.972	20.85
578.394	20.75
578.817	20.66
579.239	20.58
579.661	20.49
580.084	20.4
580.506	20.33
580.928	20.24
581.35	20.17
581.772	20.08
582.194	20
582.616	19.91
583.038	19.84
583.46	19.75
583.882	19.69
584.303	19.62
584.725	19.55
585.147	19.46
585.568	19.39
585.99	19.32
586.411	19.24
586.833	19.19
587.254	19.15
587.675	19.08
588.096	19.04
588.518	19
588.939	18.93
589.36	18.89
589.781	18.85
590.202	18.83
590.623	18.78
591.043	18.74
591.464	18.68
591.885	18.64
592.305	18.62
592.726	18.57
593.147	18.52
593.567	18.48
593.987	18.44
594.408	18.4
594.828	18.36
595.248	18.34
595.669	18.32
596.089	18.29
596.509	18.23
596.929	18.18
597.349	18.14
597.769	18.08
598.189	18.06
598.608	18.01
599.028	17.97
599.448	17.93
599.867	17.88
600.287	17.81
600.706	17.78
601.126	17.74
601.545	17.7
601.965	17.65
602.384	17.6
602.803	17.53
603.222	17.46
603.641	17.4
604.061	17.32
604.48	17.26
604.898	17.21
605.317	17.13
605.736	17.04
606.155	16.95
606.574	16.88
606.992	16.81
607.411	16.75
607.829	16.63
608.248	16.57
608.666	16.48
609.085	16.4
609.503	16.29
609.921	16.2
610.339	16.12
610.758	16.06
611.176	15.98
611.594	15.89
612.012	15.81
612.43	15.77
612.847	15.68
613.265	15.61
613.683	15.52
614.101	15.44
614.518	15.35
614.936	15.28
615.353	15.2
615.771	15.12
616.188	15.06
616.606	14.98
617.023	14.92
617.44	14.86
617.857	14.8
618.274	14.74
618.691	14.68
619.108	14.64
619.525	14.6
619.942	14.55
620.359	14.51
620.776	14.47
621.192	14.43
621.609	14.4
622.026	14.35
622.442	14.31
622.859	14.3
623.275	14.29
623.691	14.28
624.108	14.25
624.524	14.23
624.94	14.21
625.356	14.19
625.772	14.18
626.188	14.19
626.604	14.17
627.02	14.17
627.436	14.13
627.852	14.11
628.268	14.08
628.683	14.06
629.099	14.03
629.514	14
629.93	13.98
630.345	13.93
630.761	13.88
631.176	13.86
631.591	13.81
632.007	13.79
632.422	13.74
632.837	13.69
633.252	13.63
633.667	13.57
634.082	13.5
634.497	13.43
634.911	13.34
635.326	13.26
635.741	13.15
636.155	13.06
636.57	12.94
636.984	12.81
637.399	12.69
637.813	12.56
638.228	12.45
638.642	12.33
639.056	12.21
639.47	12.09
639.884	11.95
640.298	11.83
640.712	11.69
641.126	11.55
641.54	11.45
641.954	11.35
642.368	11.23
642.781	11.1
643.195	10.98
643.609	10.87
644.022	10.76
644.436	10.66
644.849	10.55
645.262	10.48
645.676	10.39
646.089	10.28
646.502	10.19
646.915	10.11
647.328	10.05
647.741	9.99
648.154	9.94
648.567	9.9
648.98	9.84
649.393	9.79
649.805	9.73
650.218	9.7
650.631	9.67
651.043	9.64
651.456	9.61
651.868	9.56
652.28	9.51
652.693	9.45
653.105	9.4
653.517	9.36
653.929	9.32
654.341	9.27
654.753	9.21
655.165	9.14
655.577	9.05
655.989	8.97
656.401	8.89
656.813	8.81
657.224	8.73
657.636	8.66
658.047	8.58
658.459	8.48
658.87	8.38
659.282	8.3
659.693	8.22
660.104	8.15
660.515	8.08
660.926	8.02
661.338	7.95
661.749	7.88
662.159	7.8
662.57	7.73
662.981	7.67
663.392	7.61
663.803	7.55
664.213	7.5
664.624	7.44
665.035	7.39
665.445	7.33
665.855	7.3
666.266	7.26
666.676	7.22
667.086	7.2
667.497	7.15
667.907	7.12
668.317	7.09
668.727	7.07
669.137	7.05
669.547	7.05
669.956	7.03
670.366	7.02
670.776	7.02
671.186	7.02
671.595	7.03
672.005	7.05
672.414	7.07
672.824	7.09
673.233	7.11
673.642	7.11
674.052	7.12
674.461	7.14
674.87	7.17
675.279	7.18
675.688	7.21
676.097	7.23
676.506	7.26
676.915	7.29
677.323	7.32
677.732	7.36
678.141	7.41
678.549	7.47
678.958	7.53
679.366	7.58
679.775	7.67
680.183	7.73
680.592	7.81
681	7.88
681.408	7.98
681.816	8.08
682.224	8.2
682.632	8.35
683.04	8.48
683.448	8.63
683.856	8.79
684.264	8.98
684.671	9.21
685.079	9.44
685.487	9.71
685.894	9.99
686.302	10.31
686.709	10.63
687.116	10.97
687.524	11.36
687.931	11.76
688.338	12.2
688.745	12.66
689.152	13.12
689.559	13.63
689.966	14.13
690.373	14.68
690.78	15.24
691.187	15.8
691.593	16.39
692	16.98
692.407	17.59
692.813	18.21
693.22	18.84
693.626	19.48
694.032	20.11
694.439	20.77
694.845	21.41
695.251	22.04
695.657	22.68
696.063	23.32
696.469	23.93
696.875	24.55
697.281	25.15
697.687	25.76
698.093	26.36
698.498	26.97
698.904	27.55
699.31	28.11
699.715	28.69
700.12	29.23
700.526	29.78
700.931	30.31
701.337	30.84
701.742	31.34
702.147	31.84
702.552	32.35
702.957	32.81
703.362	33.29
703.767	33.77
704.172	34.23
704.577	34.69
704.981	35.16
705.386	35.61
705.791	36.07
706.195	36.52
706.6	36.93
707.004	37.35
707.408	37.78
707.813	38.18
708.217	38.55
708.621	38.93
709.025	39.31
709.43	39.64
709.834	40.01
710.237	40.34
710.641	40.7
711.045	41.04
711.449	41.35
711.853	41.66
712.256	42
712.66	42.34
713.064	42.66
713.467	42.95
713.87	43.26
714.274	43.56
714.677	43.86
715.08	44.14
715.484	44.44
715.887	44.74
716.29	45.02
716.693	45.28
717.096	45.55
717.499	45.82
717.901	46.08
718.304	46.35
718.707	46.59
719.109	46.84
719.512	47.08
719.915	47.31
720.317	47.52
720.719	47.74
721.122	47.95
721.524	48.15
721.926	48.35
722.328	48.55
722.731	48.75
723.133	48.96
723.535	49.17
723.937	49.36
724.338	49.53
724.74	49.72
725.142	49.81
725.544	49.95
725.945	50.11
726.347	50.27
726.748	50.39
727.15	50.52
727.551	50.65
727.952	50.74
728.354	50.87
728.755	50.99
729.156	51.12
729.557	51.31
729.958	51.47
730.359	51.56
730.76	51.62
731.161	51.76
731.562	51.88
731.962	51.99
732.363	52.06
732.763	52.17
733.164	52.23
733.564	52.31
733.965	52.38
734.365	52.42
734.766	52.51
735.166	52.55
735.566	52.57
735.966	52.58
736.366	52.62
736.766	52.7
737.166	52.75
737.566	52.81
737.966	52.85
738.365	52.89
738.765	52.94
739.165	52.95
739.564	53.04
739.964	53.09
740.363	53.13
740.763	53.13
741.162	53.13
741.561	53.14
741.96	53.16
742.36	53.21
742.759	53.22
743.158	53.22
743.557	53.25
743.955	53.35
744.354	53.4
744.753	53.46
745.152	53.5
745.55	53.54
745.949	53.56
746.348	53.61
746.746	53.62
747.144	53.69
747.543	53.71
747.941	53.76
748.339	53.75
748.737	53.81
749.136	53.8
749.534	53.83
749.932	53.83
750.33	53.87
750.727	53.86
751.125	53.87
751.523	53.87
751.921	53.9
752.318	53.89
752.716	53.85
753.113	53.82
753.511	53.82
753.908	53.78
754.305	53.77
754.703	53.73
755.1	53.73
755.497	53.73
755.894	53.68
756.291	53.66
756.688	53.61
757.085	53.59
757.482	53.57
757.878	53.56
758.275	53.58
758.672	53.59
759.068	53.63
759.465	53.63
759.861	53.6
760.258	53.59
760.654	53.57
761.05	53.59
761.447	53.58
761.843	53.56
762.239	53.55
762.635	53.54
763.031	53.55
763.427	53.52
763.822	53.5
764.218	53.49
764.614	53.51
765.01	53.54
765.405	53.55
765.801	53.53
766.196	53.52
766.592	53.5
766.987	53.49
767.382	53.44
767.778	53.42
768.173	53.42
768.568	53.39
768.963	53.35
769.358	53.32
769.753	53.32
770.148	53.31
770.542	53.33
770.937	53.34
771.332	53.35
771.726	53.36
772.121	53.37
772.515	53.38
772.91	53.41
773.304	53.42
773.699	53.44
774.093	53.43
774.487	53.45
774.881	53.46
775.275	53.46
775.669	53.48
776.063	53.44
776.457	53.41
776.851	53.4
777.245	53.4
777.638	53.4
778.032	53.4
778.425	53.39
778.819	53.38
779.212	53.37
779.606	53.35
779.999	53.33
780.392	53.37
