Data from c_3_div_il_4n_Splice17_20.txt Node
Date: Sat Feb 29 14:58:14 EST 2020
User: sa697716
Spectrometer: FLMS03696
Trigger mode: 0
Integration Time (sec): 3.180400E-1
Scans to average: 20
Electric dark correction enabled: true
Nonlinearity correction enabled: true
Boxcar width: 5
XAxis mode: Wavelengths
Number of Pixels in Spectrum: 2048
>>>>>Begin Spectral Data<<<<<
187.83	95.65
188.298	91.51
188.766	80.71
189.233	84.48
189.701	92.83
190.169	97.19
190.636	106.32
191.104	104.62
191.571	408.54
192.039	336.54
192.506	-533.82
192.974	-844.5
193.441	512.4
193.908	14.28
194.375	54.88
194.842	162.84
195.31	134.08
195.777	135.01
196.244	60.9
196.711	55.64
197.177	52.14
197.644	53.24
198.111	53.31
198.578	54.23
199.045	54.02
199.511	54.24
199.978	54.05
200.445	54.04
200.911	54.69
201.378	54.85
201.844	55.84
202.31	56.76
202.777	56.96
203.243	57.16
203.709	57
204.176	56.59
204.642	56.38
205.108	56.23
205.574	56.37
206.04	55.75
206.506	55.26
206.972	54.23
207.438	53.25
207.903	53.12
208.369	51.89
208.835	51.46
209.301	50.86
209.766	49.6
210.232	48.93
210.697	47.7
211.163	46.9
211.628	45.97
212.094	45.25
212.559	44.4
213.024	43.02
213.49	42.33
213.955	41.13
214.42	40.03
214.885	38.77
215.35	37.15
215.815	34.83
216.28	32.53
216.745	30.05
217.21	27.33
217.675	24.83
218.14	22.5
218.604	20.41
219.069	18.72
219.534	17.24
219.998	16.05
220.463	14.91
220.927	14.13
221.392	13.33
221.856	12.67
222.32	12.11
222.785	11.64
223.249	11.25
223.713	10.88
224.177	10.52
224.642	10.23
225.106	9.94
225.57	9.69
226.034	9.44
226.497	9.21
226.961	8.99
227.425	8.77
227.889	8.57
228.353	8.38
228.816	8.2
229.28	8.02
229.744	7.86
230.207	7.69
230.671	7.54
231.134	7.4
231.597	7.25
232.061	7.12
232.524	7.01
232.987	6.88
233.45	6.78
233.914	6.68
234.377	6.6
234.84	6.49
235.303	6.41
235.766	6.34
236.229	6.27
236.691	6.21
237.154	6.14
237.617	6.08
238.08	6.02
238.542	5.94
239.005	5.88
239.468	5.81
239.93	5.76
240.393	5.71
240.855	5.64
241.317	5.58
241.78	5.53
242.242	5.48
242.704	5.42
243.166	5.38
243.629	5.34
244.091	5.29
244.553	5.25
245.015	5.2
245.477	5.15
245.939	5.11
246.4	5.05
246.862	5.01
247.324	4.97
247.786	4.93
248.247	4.89
248.709	4.84
249.17	4.8
249.632	4.77
250.093	4.71
250.555	4.69
251.016	4.67
251.477	4.65
251.939	4.62
252.4	4.58
252.861	4.57
253.322	4.54
253.783	4.52
254.244	4.49
254.705	4.46
255.166	4.46
255.627	4.42
256.088	4.38
256.549	4.35
257.009	4.32
257.47	4.28
257.931	4.24
258.391	4.2
258.852	4.17
259.312	4.14
259.773	4.1
260.233	4.05
260.694	4.03
261.154	4
261.614	3.97
262.074	3.94
262.534	3.9
262.994	3.88
263.455	3.86
263.915	3.84
264.374	3.81
264.834	3.79
265.294	3.77
265.754	3.75
266.214	3.74
266.673	3.73
267.133	3.71
267.593	3.71
268.052	3.69
268.512	3.67
268.971	3.66
269.431	3.66
269.89	3.65
270.349	3.64
270.809	3.62
271.268	3.62
271.727	3.61
272.186	3.6
272.645	3.58
273.104	3.57
273.563	3.57
274.022	3.57
274.481	3.56
274.94	3.55
275.399	3.55
275.857	3.55
276.316	3.53
276.775	3.52
277.233	3.51
277.692	3.52
278.15	3.51
278.609	3.49
279.067	3.48
279.525	3.47
279.984	3.47
280.442	3.48
280.9	3.47
281.358	3.47
281.816	3.48
282.274	3.47
282.732	3.47
283.19	3.47
283.648	3.48
284.106	3.48
284.564	3.48
285.021	3.47
285.479	3.46
285.937	3.45
286.394	3.45
286.852	3.45
287.309	3.44
287.767	3.43
288.224	3.42
288.682	3.4
289.139	3.4
289.596	3.39
290.053	3.37
290.511	3.35
290.968	3.34
291.425	3.33
291.882	3.31
292.339	3.3
292.796	3.29
293.252	3.27
293.709	3.27
294.166	3.26
294.623	3.25
295.079	3.25
295.536	3.24
295.992	3.23
296.449	3.23
296.905	3.21
297.362	3.2
297.818	3.2
298.274	3.19
298.731	3.18
299.187	3.17
299.643	3.17
300.099	3.17
300.555	3.16
301.011	3.16
301.467	3.16
301.923	3.16
302.379	3.16
302.835	3.17
303.291	3.16
303.746	3.16
304.202	3.15
304.658	3.15
305.113	3.14
305.569	3.15
306.024	3.15
306.479	3.15
306.935	3.15
307.39	3.15
307.845	3.15
308.301	3.16
308.756	3.17
309.211	3.19
309.666	3.18
310.121	3.19
310.576	3.19
311.031	3.19
311.486	3.19
311.94	3.19
312.395	3.19
312.85	3.18
313.305	3.18
313.759	3.18
314.214	3.17
314.668	3.18
315.123	3.18
315.577	3.19
316.032	3.18
316.486	3.18
316.94	3.18
317.394	3.17
317.849	3.18
318.303	3.17
318.757	3.16
319.211	3.15
319.665	3.14
320.119	3.13
320.572	3.13
321.026	3.12
321.48	3.11
321.934	3.12
322.387	3.12
322.841	3.11
323.295	3.11
323.748	3.12
324.202	3.12
324.655	3.13
325.108	3.12
325.562	3.1
326.015	3.11
326.468	3.11
326.921	3.1
327.374	3.1
327.827	3.1
328.28	3.09
328.733	3.09
329.186	3.08
329.639	3.07
330.092	3.08
330.545	3.09
330.997	3.09
331.45	3.1
331.903	3.1
332.355	3.1
332.808	3.1
333.26	3.11
333.713	3.13
334.165	3.13
334.617	3.14
335.069	3.15
335.522	3.15
335.974	3.15
336.426	3.16
336.878	3.16
337.33	3.16
337.782	3.16
338.234	3.17
338.686	3.15
339.137	3.16
339.589	3.15
340.041	3.14
340.493	3.13
340.944	3.13
341.396	3.12
341.847	3.12
342.299	3.1
342.75	3.08
343.201	3.07
343.653	3.07
344.104	3.05
344.555	3.04
345.006	3.04
345.457	3.02
345.908	3.02
346.359	3.02
346.81	3.02
347.261	3.01
347.712	3.02
348.163	3.01
348.613	3.01
349.064	3
349.515	3
349.965	2.99
350.416	2.99
350.866	3
351.317	2.99
351.767	2.99
352.217	3
352.668	3
353.118	3
353.568	3.01
354.018	3.03
354.468	3.03
354.918	3.04
355.368	3.06
355.818	3.05
356.268	3.06
356.718	3.06
357.168	3.06
357.617	3.07
358.067	3.07
358.517	3.08
358.966	3.08
359.416	3.1
359.865	3.1
360.315	3.09
360.764	3.1
361.213	3.09
361.663	3.11
362.112	3.13
362.561	3.14
363.01	3.15
363.459	3.15
363.908	3.16
364.357	3.17
364.806	3.18
365.255	3.21
365.703	3.23
366.152	3.26
366.601	3.28
367.05	3.29
367.498	3.31
367.947	3.34
368.395	3.37
368.844	3.4
369.292	3.42
369.74	3.45
370.189	3.48
370.637	3.5
371.085	3.52
371.533	3.55
371.981	3.58
372.429	3.61
372.877	3.64
373.325	3.67
373.773	3.7
374.221	3.75
374.669	3.79
375.116	3.83
375.564	3.87
376.012	3.92
376.459	3.97
376.907	4
377.354	4.04
377.801	4.09
378.249	4.14
378.696	4.18
379.143	4.22
379.591	4.26
380.038	4.33
380.485	4.38
380.932	4.42
381.379	4.46
381.826	4.51
382.273	4.56
382.72	4.61
383.166	4.66
383.613	4.72
384.06	4.76
384.506	4.81
384.953	4.84
385.4	4.88
385.846	4.92
386.292	4.98
386.739	5.02
387.185	5.08
387.631	5.13
388.078	5.17
388.524	5.19
388.97	5.23
389.416	5.25
389.862	5.28
390.308	5.32
390.754	5.35
391.2	5.38
391.645	5.41
392.091	5.43
392.537	5.45
392.983	5.49
393.428	5.53
393.874	5.57
394.319	5.6
394.765	5.63
395.21	5.63
395.655	5.66
396.101	5.68
396.546	5.68
396.991	5.69
397.436	5.7
397.881	5.7
398.326	5.72
398.771	5.72
399.216	5.75
399.661	5.76
400.106	5.79
400.551	5.79
400.995	5.77
401.44	5.76
401.885	5.76
402.329	5.76
402.774	5.75
403.218	5.74
403.663	5.73
404.107	5.73
404.551	5.73
404.995	5.72
405.44	5.72
405.884	5.73
406.328	5.73
406.772	5.74
407.216	5.76
407.66	5.76
408.104	5.76
408.547	5.76
408.991	5.74
409.435	5.72
409.879	5.71
410.322	5.72
410.766	5.71
411.209	5.72
411.653	5.71
412.096	5.69
412.54	5.69
412.983	5.69
413.426	5.7
413.869	5.72
414.312	5.74
414.756	5.76
415.199	5.78
415.642	5.79
416.085	5.8
416.527	5.82
416.97	5.84
417.413	5.82
417.856	5.8
418.298	5.79
418.741	5.77
419.184	5.75
419.626	5.73
420.069	5.73
420.511	5.71
420.953	5.69
421.396	5.67
421.838	5.68
422.28	5.69
422.722	5.71
423.164	5.72
423.606	5.71
424.048	5.73
424.49	5.75
424.932	5.74
425.374	5.75
425.816	5.75
426.258	5.74
426.699	5.71
427.141	5.68
427.582	5.68
428.024	5.69
428.465	5.69
428.907	5.7
429.348	5.69
429.789	5.67
430.231	5.65
430.672	5.65
431.113	5.66
431.554	5.68
431.995	5.69
432.436	5.69
432.877	5.67
433.318	5.65
433.759	5.63
434.2	5.63
434.64	5.64
435.081	5.65
435.522	5.66
435.962	5.69
436.403	5.7
436.843	5.7
437.284	5.7
437.724	5.73
438.164	5.74
438.604	5.78
439.045	5.79
439.485	5.79
439.925	5.81
440.365	5.8
440.805	5.77
441.245	5.78
441.685	5.8
442.125	5.82
442.564	5.83
443.004	5.85
443.444	5.85
443.883	5.84
444.323	5.85
444.762	5.89
445.202	5.93
445.641	5.96
446.081	5.99
446.52	5.99
446.959	6
447.398	6
447.837	6.04
448.276	6.07
448.716	6.11
449.154	6.13
449.593	6.12
450.032	6.11
450.471	6.12
450.91	6.13
451.349	6.14
451.787	6.14
452.226	6.14
452.664	6.11
453.103	6.09
453.541	6.08
453.98	6.07
454.418	6.07
454.856	6.05
455.295	6.02
455.733	6
456.171	5.98
456.609	5.97
457.047	5.98
457.485	5.97
457.923	5.95
458.361	5.94
458.798	5.93
459.236	5.94
459.674	5.94
460.111	5.94
460.549	5.94
460.987	5.94
461.424	5.92
461.862	5.9
462.299	5.89
462.736	5.89
463.173	5.88
463.611	5.86
464.048	5.85
464.485	5.85
464.922	5.85
465.359	5.87
465.796	5.85
466.233	5.88
466.67	5.9
467.106	5.89
467.543	5.9
467.98	5.92
468.416	5.94
468.853	5.96
469.29	5.98
469.726	5.98
470.162	5.96
470.599	5.99
471.035	6
471.471	5.99
471.907	6.01
472.344	6.02
472.78	6.02
473.216	6.03
473.652	6.03
474.088	6.03
474.523	6.04
474.959	6.03
475.395	6.02
475.831	6.02
476.266	6.03
476.702	6.01
477.138	6.01
477.573	6.01
478.008	6
478.444	5.99
478.879	5.98
479.314	5.97
479.75	5.98
480.185	5.98
480.62	5.97
481.055	5.96
481.49	5.95
481.925	5.94
482.36	5.93
482.795	5.92
483.229	5.92
483.664	5.92
484.099	5.92
484.534	5.91
484.968	5.92
485.403	5.92
485.837	5.93
486.271	5.93
486.706	5.95
487.14	5.97
487.574	5.98
488.009	5.99
488.443	6.01
488.877	6.02
489.311	6.04
489.745	6.07
490.179	6.09
490.613	6.12
491.046	6.15
491.48	6.18
491.914	6.21
492.348	6.26
492.781	6.29
493.215	6.32
493.648	6.38
494.082	6.44
494.515	6.49
494.948	6.55
495.382	6.6
495.815	6.66
496.248	6.72
496.681	6.78
497.114	6.84
497.547	6.91
497.98	6.99
498.413	7.07
498.846	7.14
499.279	7.23
499.711	7.32
500.144	7.4
500.577	7.5
501.009	7.6
501.442	7.7
501.874	7.82
502.306	7.94
502.739	8.06
503.171	8.18
503.603	8.31
504.036	8.43
504.468	8.58
504.9	8.74
505.332	8.89
505.764	9.04
506.196	9.21
506.627	9.38
507.059	9.56
507.491	9.75
507.923	9.94
508.354	10.14
508.786	10.33
509.217	10.51
509.649	10.72
510.08	10.94
510.512	11.16
510.943	11.39
511.374	11.6
511.805	11.82
512.237	12.06
512.668	12.28
513.099	12.53
513.53	12.77
513.961	13.06
514.391	13.31
514.822	13.54
515.253	13.79
515.684	14.04
516.114	14.31
516.545	14.58
516.975	14.83
517.406	15.1
517.836	15.36
518.267	15.63
518.697	15.89
519.127	16.15
519.558	16.42
519.988	16.68
520.418	16.93
520.848	17.19
521.278	17.43
521.708	17.51
522.138	17.72
522.567	17.93
522.997	18.15
523.427	18.37
523.857	18.56
524.286	18.77
524.716	18.97
525.145	19.16
525.575	19.34
526.004	19.54
526.433	19.88
526.863	20.09
527.292	20.28
527.721	20.44
528.15	20.58
528.579	20.75
529.008	20.89
529.437	21.04
529.866	21.17
530.295	21.3
530.724	21.43
531.152	21.56
531.581	21.66
532.01	21.76
532.438	21.86
532.867	21.97
533.295	22.05
533.723	22.14
534.152	22.23
534.58	22.3
535.008	22.36
535.436	22.42
535.865	22.47
536.293	22.53
536.721	22.57
537.149	22.62
537.576	22.68
538.004	22.73
538.432	22.77
538.86	22.79
539.287	22.84
539.715	22.86
540.143	22.89
540.57	22.93
540.998	22.97
541.425	23
541.852	23.04
542.28	23.06
542.707	23.1
543.134	23.13
543.561	23.15
543.988	23.19
544.415	23.23
544.842	23.24
545.269	23.26
545.696	23.29
546.123	23.31
546.549	23.35
546.976	23.37
547.403	23.39
547.829	23.42
548.256	23.45
548.682	23.46
549.108	23.49
549.535	23.51
549.961	23.52
550.387	23.54
550.813	23.54
551.24	23.54
551.666	23.56
552.092	23.57
552.518	23.57
552.943	23.57
553.369	23.58
553.795	23.57
554.221	23.57
554.646	23.56
555.072	23.53
555.498	23.49
555.923	23.46
556.349	23.4
556.774	23.34
557.199	23.3
557.625	23.24
558.05	23.16
558.475	23.09
558.9	23.03
559.325	22.95
559.75	22.87
560.175	22.81
560.6	22.73
561.025	22.64
561.449	22.55
561.874	22.45
562.299	22.37
562.723	22.28
563.148	22.18
563.572	22.08
563.997	21.97
564.421	21.85
564.846	21.73
565.27	21.61
565.694	21.5
566.118	21.36
566.542	21.23
566.966	21.08
567.39	20.93
567.814	20.78
568.238	20.61
568.662	20.47
569.086	20.33
569.509	20.19
569.933	20.04
570.357	19.89
570.78	19.75
571.204	19.61
571.627	19.47
572.05	19.34
572.474	19.22
572.897	19.12
573.32	19
573.743	18.88
574.166	18.75
574.589	18.64
575.012	18.55
575.435	18.44
575.858	18.35
576.281	18.27
576.704	18.18
577.126	18.07
577.549	17.98
577.972	17.9
578.394	17.82
578.817	17.74
579.239	17.67
579.661	17.59
580.084	17.51
580.506	17.45
580.928	17.37
581.35	17.3
581.772	17.25
582.194	17.17
582.616	17.1
583.038	17.04
583.46	16.97
583.882	16.91
584.303	16.82
584.725	16.77
585.147	16.69
585.568	16.62
585.99	16.57
586.411	16.51
586.833	16.46
587.254	16.42
587.675	16.37
588.096	16.32
588.518	16.27
588.939	16.25
589.36	16.2
589.781	16.17
590.202	16.13
590.623	16.08
591.043	16.05
591.464	16.02
591.885	15.99
592.305	15.97
592.726	15.93
593.147	15.91
593.567	15.89
593.987	15.86
594.408	15.84
594.828	15.82
595.248	15.8
595.669	15.76
596.089	15.73
596.509	15.68
596.929	15.64
597.349	15.61
597.769	15.58
598.189	15.54
598.608	15.5
599.028	15.47
599.448	15.43
599.867	15.4
600.287	15.38
600.706	15.34
601.126	15.29
601.545	15.26
601.965	15.22
602.384	15.18
602.803	15.12
603.222	15.05
603.641	15
604.061	14.94
604.48	14.87
604.898	14.8
605.317	14.76
605.736	14.7
606.155	14.62
606.574	14.55
606.992	14.47
607.411	14.4
607.829	14.3
608.248	14.23
608.666	14.16
609.085	14.09
609.503	14
609.921	13.92
610.339	13.85
610.758	13.78
611.176	13.71
611.594	13.64
612.012	13.56
612.43	13.53
612.847	13.46
613.265	13.4
613.683	13.33
614.101	13.29
614.518	13.21
614.936	13.14
615.353	13.07
615.771	13.01
616.188	12.96
616.606	12.91
617.023	12.87
617.44	12.8
617.857	12.74
618.274	12.7
618.691	12.65
619.108	12.62
619.525	12.58
619.942	12.53
620.359	12.5
620.776	12.46
621.192	12.44
621.609	12.41
622.026	12.4
622.442	12.36
622.859	12.34
623.275	12.33
623.691	12.31
624.108	12.29
624.524	12.27
624.94	12.26
625.356	12.24
625.772	12.22
626.188	12.22
626.604	12.2
627.02	12.19
627.436	12.19
627.852	12.18
628.268	12.16
628.683	12.16
629.099	12.15
629.514	12.13
629.93	12.12
630.345	12.08
630.761	12.04
631.176	12.01
631.591	11.98
632.007	11.94
632.422	11.91
632.837	11.86
633.252	11.83
633.667	11.76
634.082	11.7
634.497	11.64
634.911	11.58
635.326	11.52
635.741	11.46
636.155	11.39
636.57	11.31
636.984	11.21
637.399	11.11
637.813	11
638.228	10.93
638.642	10.85
639.056	10.76
639.47	10.68
639.884	10.55
640.298	10.45
640.712	10.34
641.126	10.22
641.54	10.12
641.954	10.02
642.368	9.92
642.781	9.79
643.195	9.68
643.609	9.59
644.022	9.48
644.436	9.39
644.849	9.28
645.262	9.2
645.676	9.12
646.089	9.04
646.502	8.96
646.915	8.89
647.328	8.84
647.741	8.78
648.154	8.73
648.567	8.67
648.98	8.64
649.393	8.6
649.805	8.54
650.218	8.49
650.631	8.45
651.043	8.41
651.456	8.37
651.868	8.34
652.28	8.3
652.693	8.24
653.105	8.19
653.517	8.14
653.929	8.09
654.341	8.05
654.753	8
655.165	7.95
655.577	7.87
655.989	7.8
656.401	7.72
656.813	7.65
657.224	7.57
657.636	7.5
658.047	7.41
658.459	7.33
658.87	7.24
659.282	7.17
659.693	7.08
660.104	7.01
660.515	6.93
660.926	6.85
661.338	6.76
661.749	6.68
662.159	6.6
662.57	6.53
662.981	6.46
663.392	6.4
663.803	6.32
664.213	6.25
664.624	6.21
665.035	6.15
665.445	6.1
665.855	6.06
666.266	6.04
666.676	6
667.086	5.96
667.497	5.92
667.907	5.87
668.317	5.84
668.727	5.82
669.137	5.8
669.547	5.78
669.956	5.76
670.366	5.75
670.776	5.72
671.186	5.71
671.595	5.71
672.005	5.72
672.414	5.72
672.824	5.75
673.233	5.75
673.642	5.74
674.052	5.74
674.461	5.75
674.87	5.77
675.279	5.79
675.688	5.8
676.097	5.81
676.506	5.82
676.915	5.84
677.323	5.86
677.732	5.9
678.141	5.95
678.549	6
678.958	6.05
679.366	6.08
679.775	6.14
680.183	6.2
680.592	6.28
681	6.36
681.408	6.45
681.816	6.53
682.224	6.65
682.632	6.78
683.04	6.91
683.448	7.05
683.856	7.21
684.264	7.38
684.671	7.58
685.079	7.78
685.487	8.03
685.894	8.28
686.302	8.54
686.709	8.81
687.116	9.1
687.524	9.42
687.931	9.76
688.338	10.13
688.745	10.53
689.152	10.93
689.559	11.34
689.966	11.76
690.373	12.24
690.78	12.71
691.187	13.21
691.593	13.7
692	14.21
692.407	14.72
692.813	15.23
693.22	15.75
693.626	16.28
694.032	16.83
694.439	17.37
694.845	17.88
695.251	18.43
695.657	18.96
696.063	19.51
696.469	20.04
696.875	20.56
697.281	21.07
697.687	21.59
698.093	22.09
698.498	22.59
698.904	23.07
699.31	23.57
699.715	24.05
700.12	24.49
700.526	24.93
700.931	25.38
701.337	25.83
701.742	26.27
702.147	26.69
702.552	27.11
702.957	27.53
703.362	27.95
703.767	28.34
704.172	28.73
704.577	29.14
704.981	29.55
705.386	29.9
705.791	30.29
706.195	30.65
706.6	31.01
707.004	31.37
707.408	31.71
707.813	32.03
708.217	32.36
708.621	32.69
709.025	33.01
709.43	33.29
709.834	33.62
710.237	33.92
710.641	34.26
711.045	34.54
711.449	34.84
711.853	35.12
712.256	35.43
712.66	35.7
713.064	35.97
713.467	36.22
713.87	36.49
714.274	36.75
714.677	37
715.08	37.21
715.484	37.46
715.887	37.69
716.29	37.95
716.693	38.14
717.096	38.38
717.499	38.61
717.901	38.83
718.304	39.03
718.707	39.23
719.109	39.45
719.512	39.68
719.915	39.86
720.317	40.08
720.719	40.27
721.122	40.49
721.524	40.67
721.926	40.86
722.328	41.05
722.731	41.25
723.133	41.43
723.535	41.59
723.937	41.74
724.338	41.9
724.74	41.98
725.142	42.03
725.544	42.14
725.945	42.23
726.347	42.35
726.748	42.44
727.15	42.56
727.551	42.67
727.952	42.75
728.354	42.88
728.755	43
729.156	43.14
729.557	43.35
729.958	43.48
730.359	43.59
730.76	43.68
731.161	43.8
731.562	43.88
731.962	43.92
732.363	44.03
732.763	44.08
733.164	44.13
733.564	44.19
733.965	44.2
734.365	44.23
734.766	44.3
735.166	44.32
735.566	44.33
735.966	44.34
736.366	44.41
736.766	44.42
737.166	44.46
737.566	44.51
737.966	44.56
738.365	44.59
738.765	44.64
739.165	44.67
739.564	44.73
739.964	44.8
740.363	44.85
740.763	44.89
741.162	44.92
741.561	44.92
741.96	44.93
742.36	44.94
742.759	44.99
743.158	45
743.557	45.02
743.955	45.03
744.354	45.07
744.753	45.09
745.152	45.13
745.55	45.17
745.949	45.22
746.348	45.28
746.746	45.32
747.144	45.37
747.543	45.42
747.941	45.5
748.339	45.55
748.737	45.57
749.136	45.62
749.534	45.64
749.932	45.68
750.33	45.71
750.727	45.74
751.125	45.76
751.523	45.73
751.921	45.71
752.318	45.67
752.716	45.64
753.113	45.63
753.511	45.58
753.908	45.55
754.305	45.51
754.703	45.45
755.1	45.4
755.497	45.39
755.894	45.37
756.291	45.35
756.688	45.31
757.085	45.27
757.482	45.26
757.878	45.3
758.275	45.29
758.672	45.29
759.068	45.34
759.465	45.38
759.861	45.36
760.258	45.33
760.654	45.33
761.05	45.36
761.447	45.39
761.843	45.36
762.239	45.32
762.635	45.33
763.031	45.32
763.427	45.29
763.822	45.24
764.218	45.25
764.614	45.26
765.01	45.26
765.405	45.28
765.801	45.27
766.196	45.3
766.592	45.34
766.987	45.36
767.382	45.35
767.778	45.36
768.173	45.38
768.568	45.36
768.963	45.37
769.358	45.37
769.753	45.39
770.148	45.39
770.542	45.38
770.937	45.36
771.332	45.35
771.726	45.34
772.121	45.32
772.515	45.33
772.91	45.35
773.304	45.35
773.699	45.34
774.093	45.29
774.487	45.29
774.881	45.3
775.275	45.31
775.669	45.31
776.063	45.32
776.457	45.34
776.851	45.32
777.245	45.33
777.638	45.33
778.032	45.37
778.425	45.4
778.819	45.4
779.212	45.38
779.606	45.37
779.999	45.38
780.392	45.4
780.786	45.41
781.179	45.46
781.572	45.42
781.965	45.44
782.358	45.42
782.751	45.46
783.143	45.46
