Data from c_3_div_wi_4n_Splice17_08.txt Node
Date: Sat Feb 29 14:42:24 EST 2020
User: sa697716
Spectrometer: FLMS03696
Trigger mode: 0
Integration Time (sec): 3.180400E-1
Scans to average: 20
Electric dark correction enabled: true
Nonlinearity correction enabled: true
Boxcar width: 5
XAxis mode: Wavelengths
Number of Pixels in Spectrum: 2048
>>>>>Begin Spectral Data<<<<<
187.83	99
188.298	88.89
188.766	65.4
189.233	61.56
189.701	76.88
190.169	82.4
190.636	56.18
191.104	25.66
191.571	-226.31
192.039	-53.52
192.506	459.39
192.974	5143.41
193.441	-170.24
193.908	-19.69
194.375	-99.73
194.842	-51.93
195.31	3.84
195.777	-51.69
196.244	8.96
196.711	20.51
197.177	20.15
197.644	20.26
198.111	21.75
198.578	21.9
199.045	22.8
199.511	23.48
199.978	24.65
200.445	24.61
200.911	24.76
201.378	24.91
201.844	25.51
202.31	26.42
202.777	27.3
203.243	27.23
203.709	27.72
204.176	27.7
204.642	27.77
205.108	27.48
205.574	28.28
206.04	28.05
206.506	27.93
206.972	27.81
207.438	27.02
207.903	27.07
208.369	27.08
208.835	27.04
209.301	26.94
209.766	26.39
210.232	26.41
210.697	26.01
211.163	26.3
211.628	25.93
212.094	25.59
212.559	25.77
213.024	25.64
213.49	25.34
213.955	24.9
214.42	24.76
214.885	24.73
215.35	24.27
215.815	23.5
216.28	22.86
216.745	22.51
217.21	22.01
217.675	21.55
218.14	20.78
218.604	20.21
219.069	19.84
219.534	19.37
219.998	19
220.463	18.71
220.927	18.48
221.392	18.17
221.856	17.92
222.32	17.7
222.785	17.43
223.249	17.21
223.713	17.04
224.177	16.83
224.642	16.65
225.106	16.43
225.57	16.23
226.034	16.07
226.497	15.9
226.961	15.69
227.425	15.48
227.889	15.31
228.353	15.18
228.816	15
229.28	14.81
229.744	14.65
230.207	14.51
230.671	14.33
231.134	14.12
231.597	13.97
232.061	13.83
232.524	13.71
232.987	13.54
233.45	13.36
233.914	13.22
234.377	13.09
234.84	12.95
235.303	12.82
235.766	12.68
236.229	12.58
236.691	12.45
237.154	12.33
237.617	12.2
238.08	12.11
238.542	12.03
239.005	11.91
239.468	11.8
239.93	11.68
240.393	11.57
240.855	11.46
241.317	11.38
241.78	11.29
242.242	11.18
242.704	11.08
243.166	10.98
243.629	10.87
244.091	10.79
244.553	10.7
245.015	10.64
245.477	10.55
245.939	10.49
246.4	10.41
246.862	10.34
247.324	10.29
247.786	10.23
248.247	10.17
248.709	10.11
249.17	10.05
249.632	9.99
250.093	9.94
250.555	9.9
251.016	9.85
251.477	9.79
251.939	9.75
252.4	9.71
252.861	9.67
253.322	9.65
253.783	9.61
254.244	9.58
254.705	9.55
255.166	9.52
255.627	9.49
256.088	9.44
256.549	9.42
257.009	9.39
257.47	9.34
257.931	9.3
258.391	9.25
258.852	9.21
259.312	9.17
259.773	9.13
260.233	9.09
260.694	9.05
261.154	9.01
261.614	8.97
262.074	8.91
262.534	8.87
262.994	8.84
263.455	8.79
263.915	8.74
264.374	8.7
264.834	8.66
265.294	8.6
265.754	8.56
266.214	8.51
266.673	8.47
267.133	8.43
267.593	8.39
268.052	8.33
268.512	8.3
268.971	8.26
269.431	8.22
269.89	8.18
270.349	8.15
270.809	8.12
271.268	8.09
271.727	8.06
272.186	8.04
272.645	8.01
273.104	7.99
273.563	7.97
274.022	7.94
274.481	7.91
274.94	7.88
275.399	7.86
275.857	7.83
276.316	7.79
276.775	7.75
277.233	7.71
277.692	7.68
278.15	7.63
278.609	7.59
279.067	7.55
279.525	7.51
279.984	7.48
280.442	7.43
280.9	7.4
281.358	7.37
281.816	7.35
282.274	7.31
282.732	7.28
283.19	7.27
283.648	7.25
284.106	7.23
284.564	7.22
285.021	7.21
285.479	7.2
285.937	7.19
286.394	7.17
286.852	7.16
287.309	7.15
287.767	7.14
288.224	7.12
288.682	7.1
289.139	7.09
289.596	7.07
290.053	7.05
290.511	7.03
290.968	7.01
291.425	6.98
291.882	6.95
292.339	6.92
292.796	6.9
293.252	6.87
293.709	6.84
294.166	6.82
294.623	6.79
295.079	6.77
295.536	6.75
295.992	6.73
296.449	6.72
296.905	6.7
297.362	6.69
297.818	6.68
298.274	6.67
298.731	6.66
299.187	6.64
299.643	6.63
300.099	6.61
300.555	6.59
301.011	6.58
301.467	6.57
301.923	6.55
302.379	6.54
302.835	6.52
303.291	6.51
303.746	6.5
304.202	6.48
304.658	6.47
305.113	6.45
305.569	6.43
306.024	6.41
306.479	6.4
306.935	6.39
307.39	6.37
307.845	6.36
308.301	6.35
308.756	6.34
309.211	6.34
309.666	6.33
310.121	6.33
310.576	6.33
311.031	6.32
311.486	6.32
311.94	6.31
312.395	6.31
312.85	6.3
313.305	6.29
313.759	6.29
314.214	6.28
314.668	6.27
315.123	6.27
315.577	6.26
316.032	6.26
316.486	6.25
316.94	6.23
317.394	6.22
317.849	6.22
318.303	6.21
318.757	6.2
319.211	6.17
319.665	6.17
320.119	6.15
320.572	6.14
321.026	6.13
321.48	6.12
321.934	6.12
322.387	6.1
322.841	6.08
323.295	6.06
323.748	6.04
324.202	6.04
324.655	6.02
325.108	6
325.562	5.98
326.015	5.96
326.468	5.94
326.921	5.92
327.374	5.91
327.827	5.91
328.28	5.9
328.733	5.88
329.186	5.87
329.639	5.86
330.092	5.85
330.545	5.85
330.997	5.86
331.45	5.85
331.903	5.83
332.355	5.82
332.808	5.81
333.26	5.82
333.713	5.82
334.165	5.81
334.617	5.82
335.069	5.82
335.522	5.81
335.974	5.81
336.426	5.81
336.878	5.82
337.33	5.82
337.782	5.83
338.234	5.82
338.686	5.82
339.137	5.83
339.589	5.83
340.041	5.83
340.493	5.83
340.944	5.82
341.396	5.82
341.847	5.81
342.299	5.79
342.75	5.76
343.201	5.76
343.653	5.74
344.104	5.73
344.555	5.73
345.006	5.71
345.457	5.7
345.908	5.69
346.359	5.69
346.81	5.69
347.261	5.7
347.712	5.71
348.163	5.72
348.613	5.72
349.064	5.71
349.515	5.71
349.965	5.73
350.416	5.74
350.866	5.75
351.317	5.78
351.767	5.79
352.217	5.8
352.668	5.82
353.118	5.84
353.568	5.87
354.018	5.92
354.468	5.95
354.918	5.98
355.368	6.02
355.818	6.05
356.268	6.07
356.718	6.11
357.168	6.14
357.617	6.18
358.067	6.23
358.517	6.27
358.966	6.31
359.416	6.35
359.865	6.39
360.315	6.44
360.764	6.49
361.213	6.53
361.663	6.58
362.112	6.64
362.561	6.7
363.01	6.75
363.459	6.8
363.908	6.87
364.357	6.92
364.806	6.98
365.255	7.02
365.703	7.08
366.152	7.15
366.601	7.2
367.05	7.26
367.498	7.31
367.947	7.36
368.395	7.42
368.844	7.47
369.292	7.53
369.74	7.58
370.189	7.63
370.637	7.69
371.085	7.74
371.533	7.79
371.981	7.85
372.429	7.88
372.877	7.92
373.325	7.97
373.773	8.01
374.221	8.05
374.669	8.09
375.116	8.13
375.564	8.16
376.012	8.18
376.459	8.22
376.907	8.25
377.354	8.29
377.801	8.32
378.249	8.36
378.696	8.4
379.143	8.43
379.591	8.46
380.038	8.49
380.485	8.51
380.932	8.54
381.379	8.56
381.826	8.58
382.273	8.61
382.72	8.62
383.166	8.63
383.613	8.64
384.06	8.66
384.506	8.67
384.953	8.68
385.4	8.7
385.846	8.71
386.292	8.74
386.739	8.75
387.185	8.77
387.631	8.77
388.078	8.8
388.524	8.81
388.97	8.8
389.416	8.8
389.862	8.81
390.308	8.81
390.754	8.82
391.2	8.83
391.645	8.85
392.091	8.85
392.537	8.86
392.983	8.86
393.428	8.87
393.874	8.89
394.319	8.89
394.765	8.88
395.21	8.87
395.655	8.87
396.101	8.85
396.546	8.84
396.991	8.82
397.436	8.79
397.881	8.78
398.326	8.77
398.771	8.76
399.216	8.75
399.661	8.76
400.106	8.76
400.551	8.73
400.995	8.72
401.44	8.68
401.885	8.66
402.329	8.64
402.774	8.61
403.218	8.58
403.663	8.55
404.107	8.54
404.551	8.51
404.995	8.48
405.44	8.46
405.884	8.43
406.328	8.41
406.772	8.39
407.216	8.39
407.66	8.38
408.104	8.37
408.547	8.35
408.991	8.32
409.435	8.29
409.879	8.27
410.322	8.26
410.766	8.25
411.209	8.23
411.653	8.21
412.096	8.19
412.54	8.17
412.983	8.17
413.426	8.18
413.869	8.18
414.312	8.2
414.756	8.22
415.199	8.22
415.642	8.24
416.085	8.26
416.527	8.29
416.97	8.3
417.413	8.28
417.856	8.24
418.298	8.21
418.741	8.19
419.184	8.15
419.626	8.13
420.069	8.11
420.511	8.09
420.953	8.05
421.396	8.03
421.838	8.02
422.28	8.06
422.722	8.07
423.164	8.07
423.606	8.09
424.048	8.09
424.49	8.09
424.932	8.09
425.374	8.07
425.816	8.07
426.258	8.05
426.699	8
427.141	7.94
427.582	7.92
428.024	7.91
428.465	7.91
428.907	7.9
429.348	7.9
429.789	7.9
430.231	7.88
430.672	7.87
431.113	7.89
431.554	7.91
431.995	7.92
432.436	7.91
432.877	7.9
433.318	7.89
433.759	7.9
434.2	7.88
434.64	7.88
435.081	7.86
435.522	7.87
435.962	7.86
436.403	7.87
436.843	7.88
437.284	7.92
437.724	7.95
438.164	7.95
438.604	7.97
439.045	7.99
439.485	8.01
439.925	8.04
440.365	8.05
440.805	8.05
441.245	8.04
441.685	8.06
442.125	8.06
442.564	8.08
443.004	8.09
443.444	8.09
443.883	8.11
444.323	8.12
444.762	8.16
445.202	8.19
445.641	8.24
446.081	8.29
446.52	8.3
446.959	8.31
447.398	8.35
447.837	8.4
448.276	8.43
448.716	8.46
449.154	8.49
449.593	8.52
450.032	8.54
450.471	8.57
450.91	8.57
451.349	8.6
451.787	8.62
452.226	8.62
452.664	8.6
453.103	8.59
453.541	8.6
453.98	8.59
454.418	8.58
454.856	8.56
455.295	8.54
455.733	8.54
456.171	8.55
456.609	8.54
457.047	8.52
457.485	8.51
457.923	8.49
458.361	8.47
458.798	8.47
459.236	8.47
459.674	8.46
460.111	8.46
460.549	8.44
460.987	8.42
461.424	8.4
461.862	8.4
462.299	8.38
462.736	8.37
463.173	8.38
463.611	8.37
464.048	8.36
464.485	8.36
464.922	8.35
465.359	8.37
465.796	8.35
466.233	8.36
466.67	8.36
467.106	8.37
467.543	8.38
467.98	8.38
468.416	8.39
468.853	8.39
469.29	8.39
469.726	8.4
470.162	8.4
470.599	8.43
471.035	8.43
471.471	8.42
471.907	8.43
472.344	8.43
472.78	8.43
473.216	8.42
473.652	8.41
474.088	8.42
474.523	8.4
474.959	8.42
475.395	8.42
475.831	8.42
476.266	8.44
476.702	8.45
477.138	8.44
477.573	8.43
478.008	8.43
478.444	8.43
478.879	8.43
479.314	8.44
479.75	8.44
480.185	8.43
480.62	8.43
481.055	8.42
481.49	8.41
481.925	8.41
482.36	8.41
482.795	8.41
483.229	8.42
483.664	8.42
484.099	8.42
484.534	8.41
484.968	8.42
485.403	8.43
485.837	8.44
486.271	8.44
486.706	8.45
487.14	8.47
487.574	8.48
488.009	8.5
488.443	8.53
488.877	8.56
489.311	8.58
489.745	8.61
490.179	8.64
490.613	8.68
491.046	8.74
491.48	8.8
491.914	8.84
492.348	8.89
492.781	8.95
493.215	9
493.648	9.07
494.082	9.14
494.515	9.2
494.948	9.28
495.382	9.35
495.815	9.42
496.248	9.5
496.681	9.6
497.114	9.71
497.547	9.81
497.98	9.93
498.413	10.04
498.846	10.15
499.279	10.29
499.711	10.42
500.144	10.57
500.577	10.7
501.009	10.85
501.442	11.02
501.874	11.17
502.306	11.33
502.739	11.48
503.171	11.66
503.603	11.85
504.036	12.04
504.468	12.23
504.9	12.45
505.332	12.68
505.764	12.9
506.196	13.11
506.627	13.35
507.059	13.61
507.491	13.88
507.923	14.14
508.354	14.41
508.786	14.69
509.217	14.98
509.649	15.26
510.08	15.56
510.512	15.85
510.943	16.16
511.374	16.47
511.805	16.79
512.237	17.12
512.668	17.44
513.099	17.78
513.53	18.11
513.961	18.46
514.391	18.8
514.822	19.14
515.253	19.5
515.684	19.86
516.114	20.22
516.545	20.57
516.975	20.92
517.406	21.29
517.836	21.64
518.267	21.99
518.697	22.35
519.127	22.7
519.558	23.04
519.988	23.4
520.418	23.74
520.848	24.08
521.278	24.41
521.708	24.72
522.138	25.03
522.567	25.32
522.997	25.64
523.427	25.94
523.857	26.2
524.286	26.47
524.716	26.73
525.145	26.99
525.575	27.23
526.004	27.46
526.433	27.72
526.863	27.98
527.292	28.23
527.721	28.43
528.15	28.63
528.579	28.86
529.008	29.04
529.437	29.22
529.866	29.37
530.295	29.56
530.724	29.75
531.152	29.88
531.581	30
532.01	30.11
532.438	30.23
532.867	30.35
533.295	30.47
533.723	30.59
534.152	30.69
534.58	30.78
535.008	30.84
535.436	30.88
535.865	30.96
536.293	31.04
536.721	31.12
537.149	31.18
537.576	31.21
538.004	31.24
538.432	31.28
538.86	31.34
539.287	31.39
539.715	31.44
540.143	31.49
540.57	31.51
540.998	31.54
541.425	31.55
541.852	31.56
542.28	31.58
542.707	31.62
543.134	31.66
543.561	31.65
543.988	31.66
544.415	31.67
544.842	31.69
545.269	31.73
545.696	31.75
546.123	31.79
546.549	31.81
546.976	31.85
547.403	31.88
547.829	31.91
548.256	31.95
548.682	31.96
549.108	31.99
549.535	32
549.961	32.02
550.387	32.01
550.813	32
551.24	32
551.666	32.01
552.092	32
552.518	31.97
552.943	31.98
553.369	31.97
553.795	31.95
554.221	31.92
554.646	31.88
555.072	31.84
555.498	31.8
555.923	31.76
556.349	31.68
556.774	31.63
557.199	31.56
557.625	31.43
558.05	31.32
558.475	31.22
558.9	31.13
559.325	31.03
559.75	30.91
560.175	30.8
560.6	30.68
561.025	30.58
561.449	30.45
561.874	30.3
562.299	30.2
562.723	30.08
563.148	29.92
563.572	29.78
563.997	29.6
564.421	29.44
564.846	29.28
565.27	29.11
565.694	28.91
566.118	28.73
566.542	28.56
566.966	28.38
567.39	28.17
567.814	27.96
568.238	27.74
568.662	27.55
569.086	27.36
569.509	27.17
569.933	26.96
570.357	26.74
570.78	26.54
571.204	26.31
571.627	26.13
572.05	25.96
572.474	25.79
572.897	25.62
573.32	25.44
573.743	25.25
574.166	25.06
574.589	24.9
575.012	24.77
575.435	24.62
575.858	24.5
576.281	24.34
576.704	24.2
577.126	24.07
577.549	23.95
577.972	23.83
578.394	23.71
578.817	23.61
579.239	23.52
579.661	23.4
580.084	23.29
580.506	23.19
580.928	23.09
581.35	23.01
581.772	22.92
582.194	22.82
582.616	22.75
583.038	22.66
583.46	22.58
583.882	22.48
584.303	22.4
584.725	22.33
585.147	22.22
585.568	22.13
585.99	22.06
586.411	21.99
586.833	21.92
587.254	21.84
587.675	21.78
588.096	21.73
588.518	21.66
588.939	21.61
589.36	21.53
589.781	21.51
590.202	21.44
590.623	21.37
591.043	21.32
591.464	21.26
591.885	21.21
592.305	21.18
592.726	21.13
593.147	21.09
593.567	21.03
593.987	21.01
594.408	20.95
594.828	20.92
595.248	20.88
595.669	20.85
596.089	20.81
596.509	20.74
596.929	20.69
597.349	20.63
597.769	20.58
598.189	20.56
598.608	20.5
599.028	20.45
599.448	20.41
599.867	20.36
600.287	20.29
600.706	20.23
601.126	20.2
601.545	20.13
601.965	20.06
602.384	19.99
602.803	19.91
603.222	19.84
603.641	19.77
604.061	19.69
604.48	19.61
604.898	19.53
605.317	19.45
605.736	19.36
606.155	19.27
606.574	19.19
606.992	19.11
607.411	19.02
607.829	18.9
608.248	18.8
608.666	18.72
609.085	18.64
609.503	18.54
609.921	18.45
610.339	18.36
610.758	18.28
611.176	18.19
611.594	18.08
612.012	17.98
612.43	17.94
612.847	17.86
613.265	17.76
613.683	17.65
614.101	17.56
614.518	17.46
614.936	17.36
615.353	17.27
615.771	17.18
616.188	17.13
616.606	17.05
617.023	16.96
617.44	16.87
617.857	16.81
618.274	16.76
618.691	16.7
619.108	16.67
619.525	16.62
619.942	16.58
620.359	16.54
620.776	16.49
621.192	16.46
621.609	16.43
622.026	16.4
622.442	16.36
622.859	16.34
623.275	16.31
623.691	16.29
624.108	16.27
624.524	16.25
624.94	16.23
625.356	16.2
625.772	16.19
626.188	16.2
626.604	16.18
627.02	16.16
627.436	16.13
627.852	16.11
628.268	16.09
628.683	16.06
629.099	16.03
629.514	16.01
629.93	15.99
630.345	15.94
630.761	15.87
631.176	15.84
631.591	15.79
632.007	15.75
632.422	15.69
632.837	15.63
633.252	15.55
633.667	15.48
634.082	15.38
634.497	15.27
634.911	15.16
635.326	15.05
635.741	14.93
636.155	14.82
636.57	14.68
636.984	14.54
637.399	14.39
637.813	14.24
638.228	14.09
638.642	13.96
639.056	13.82
639.47	13.68
639.884	13.53
640.298	13.38
640.712	13.22
641.126	13.08
641.54	12.94
641.954	12.8
642.368	12.66
642.781	12.53
643.195	12.38
643.609	12.25
644.022	12.12
644.436	12
644.849	11.88
645.262	11.77
645.676	11.65
646.089	11.54
646.502	11.45
646.915	11.35
647.328	11.27
647.741	11.18
648.154	11.11
648.567	11.04
648.98	10.97
649.393	10.92
649.805	10.86
650.218	10.83
650.631	10.79
651.043	10.76
651.456	10.72
651.868	10.67
652.28	10.63
652.693	10.57
653.105	10.52
653.517	10.48
653.929	10.42
654.341	10.38
654.753	10.31
655.165	10.25
655.577	10.16
655.989	10.09
656.401	10.02
656.813	9.94
657.224	9.86
657.636	9.78
658.047	9.69
658.459	9.6
658.87	9.5
659.282	9.42
659.693	9.33
660.104	9.24
660.515	9.14
660.926	9.06
661.338	8.98
661.749	8.91
662.159	8.83
662.57	8.76
662.981	8.69
663.392	8.63
663.803	8.56
664.213	8.49
664.624	8.45
665.035	8.41
665.445	8.37
665.855	8.32
666.266	8.28
666.676	8.24
667.086	8.21
667.497	8.18
667.907	8.15
668.317	8.12
668.727	8.1
669.137	8.07
669.547	8.06
669.956	8.04
670.366	8.05
670.776	8.05
671.186	8.05
671.595	8.05
672.005	8.07
672.414	8.08
672.824	8.1
673.233	8.13
673.642	8.15
674.052	8.17
674.461	8.18
674.87	8.21
675.279	8.24
675.688	8.3
676.097	8.34
676.506	8.38
676.915	8.42
677.323	8.49
677.732	8.53
678.141	8.6
678.549	8.67
678.958	8.76
679.366	8.83
679.775	8.9
680.183	8.98
680.592	9.08
681	9.17
681.408	9.29
681.816	9.38
682.224	9.53
682.632	9.68
683.04	9.84
683.448	10.01
683.856	10.22
684.264	10.45
684.671	10.7
685.079	10.95
685.487	11.25
685.894	11.57
686.302	11.92
686.709	12.3
687.116	12.7
687.524	13.14
687.931	13.6
688.338	14.09
688.745	14.59
689.152	15.14
689.559	15.72
689.966	16.33
690.373	16.97
690.78	17.61
691.187	18.28
691.593	18.96
692	19.66
692.407	20.37
692.813	21.09
693.22	21.81
693.626	22.53
694.032	23.27
694.439	24.03
694.845	24.75
695.251	25.5
695.657	26.22
696.063	26.96
696.469	27.66
696.875	28.38
697.281	29.09
697.687	29.82
698.093	30.55
698.498	31.25
698.904	31.93
699.31	32.59
699.715	33.27
700.12	33.93
700.526	34.58
700.931	35.25
701.337	35.89
701.742	36.5
702.147	37.11
702.552	37.68
702.957	38.28
703.362	38.86
703.767	39.42
704.172	39.98
704.577	40.52
704.981	41.09
705.386	41.6
705.791	42.12
706.195	42.63
706.6	43.16
707.004	43.68
707.408	44.16
707.813	44.63
708.217	45.11
708.621	45.58
709.025	46.07
709.43	46.51
709.834	46.99
710.237	47.4
710.641	47.86
711.045	48.22
711.449	48.62
711.853	49.02
712.256	49.45
712.66	49.88
713.064	50.24
713.467	50.59
713.87	50.95
714.274	51.3
714.677	51.67
715.08	51.98
715.484	52.36
715.887	52.71
716.29	53.05
716.693	53.35
717.096	53.63
717.499	53.94
717.901	54.23
718.304	54.52
718.707	54.8
719.109	55.11
719.512	55.41
719.915	55.7
720.317	55.96
720.719	56.21
721.122	56.45
721.524	56.71
721.926	57.01
722.328	57.29
722.731	57.51
723.133	57.73
723.535	57.95
723.937	58.16
724.338	58.34
724.74	58.52
725.142	58.67
725.544	58.86
725.945	59.04
726.347	59.2
726.748	59.31
727.15	59.49
727.551	59.69
727.952	59.82
728.354	59.99
728.755	60.15
729.156	60.32
729.557	60.51
729.958	60.66
730.359	60.77
730.76	60.86
731.161	61.03
731.562	61.15
731.962	61.24
732.363	61.34
732.763	61.44
733.164	61.5
733.564	61.57
733.965	61.65
734.365	61.72
734.766	61.82
735.166	61.86
735.566	61.89
735.966	61.89
736.366	61.96
736.766	62.04
737.166	62.09
737.566	62.18
737.966	62.25
738.365	62.31
738.765	62.38
739.165	62.41
739.564	62.48
739.964	62.53
740.363	62.62
740.763	62.61
741.162	62.56
741.561	62.62
741.96	62.65
742.36	62.67
742.759	62.67
743.158	62.68
743.557	62.7
743.955	62.76
744.354	62.83
744.753	62.87
745.152	62.92
745.55	63.01
745.949	63
746.348	63.03
746.746	63.07
747.144	63.12
747.543	63.16
747.941	63.2
748.339	63.25
748.737	63.29
749.136	63.31
749.534	63.37
749.932	63.39
750.33	63.4
750.727	63.41
751.125	63.42
751.523	63.4
751.921	63.42
752.318	63.42
752.716	63.38
753.113	63.35
753.511	63.32
753.908	63.29
754.305	63.27
754.703	63.25
755.1	63.22
755.497	63.23
755.894	63.24
756.291	63.23
756.688	63.2
757.085	63.2
757.482	63.18
757.878	63.2
758.275	63.21
758.672	63.21
759.068	63.25
759.465	63.27
759.861	63.24
760.258	63.21
760.654	63.19
761.05	63.21
761.447	63.19
761.843	63.17
762.239	63.12
762.635	63.11
763.031	63.1
763.427	63.06
763.822	63.03
764.218	63
764.614	62.98
765.01	62.98
765.405	62.95
765.801	62.95
766.196	62.96
766.592	62.96
766.987	62.95
767.382	62.97
767.778	62.98
768.173	62.95
768.568	62.94
768.963	62.95
769.358	62.94
769.753	62.95
770.148	62.92
770.542	62.9
770.937	62.89
771.332	62.87
771.726	62.81
772.121	62.77
772.515	62.81
772.91	62.8
773.304	62.77
773.699	62.74
774.093	62.7
774.487	62.71
774.881	62.71
775.275	62.7
775.669	62.73
776.063	62.75
776.457	62.74
776.851	62.69
777.245	62.73
777.638	62.75
778.032	62.76
778.425	62.76
778.819	62.75
779.212	62.74
