Data from c_3_dec_ct_2n_Splice17_13.txt Node
Date: Sat Feb 29 14:45:52 EST 2020
User: sa697716
Spectrometer: FLMS03696
Trigger mode: 0
Integration Time (sec): 3.180400E-1
Scans to average: 20
Electric dark correction enabled: true
Nonlinearity correction enabled: true
Boxcar width: 5
XAxis mode: Wavelengths
Number of Pixels in Spectrum: 2048
>>>>>Begin Spectral Data<<<<<
187.83	124.5
188.298	128.37
188.766	109.19
189.233	111.1
189.701	111.97
190.169	108.91
190.636	126.98
191.104	149.68
191.571	603.46
192.039	399.95
192.506	-254.05
192.974	7325.96
193.441	-258.82
193.908	97.71
194.375	146.78
194.842	204.56
195.31	99.53
195.777	52.61
196.244	11.51
196.711	9.59
197.177	8.49
197.644	9.12
198.111	8.91
198.578	8.98
199.045	8.93
199.511	9.83
199.978	10.43
200.445	10.87
200.911	11.66
201.378	11.65
201.844	12.41
202.31	13.23
202.777	13.53
203.243	13.82
203.709	14.77
204.176	14.92
204.642	14.94
205.108	14.88
205.574	15.36
206.04	15.29
206.506	15.62
206.972	15.88
207.438	16.04
207.903	16.39
208.369	16.61
208.835	16.69
209.301	16.92
209.766	16.92
210.232	16.87
210.697	16.77
211.163	16.98
211.628	16.75
212.094	16.51
212.559	15.91
213.024	15.53
213.49	15.17
213.955	14.97
214.42	14.75
214.885	14.62
215.35	14.67
215.815	14.37
216.28	14.11
216.745	13.98
217.21	13.73
217.675	13.65
218.14	13.33
218.604	13.1
219.069	12.96
219.534	12.78
219.998	12.59
220.463	12.47
220.927	12.34
221.392	12.16
221.856	12.04
222.32	11.92
222.785	11.8
223.249	11.72
223.713	11.64
224.177	11.48
224.642	11.41
225.106	11.29
225.57	11.17
226.034	11.06
226.497	10.93
226.961	10.82
227.425	10.67
227.889	10.57
228.353	10.43
228.816	10.31
229.28	10.18
229.744	10.04
230.207	9.96
230.671	9.85
231.134	9.73
231.597	9.65
232.061	9.54
232.524	9.44
232.987	9.33
233.45	9.23
233.914	9.14
234.377	9.06
234.84	8.96
235.303	8.85
235.766	8.74
236.229	8.64
236.691	8.55
237.154	8.46
237.617	8.37
238.08	8.27
238.542	8.2
239.005	8.11
239.468	8.01
239.93	7.93
240.393	7.86
240.855	7.77
241.317	7.72
241.78	7.64
242.242	7.56
242.704	7.5
243.166	7.43
243.629	7.34
244.091	7.28
244.553	7.21
245.015	7.15
245.477	7.07
245.939	7.01
246.4	6.94
246.862	6.89
247.324	6.83
247.786	6.78
248.247	6.73
248.709	6.68
249.17	6.61
249.632	6.56
250.093	6.49
250.555	6.45
251.016	6.41
251.477	6.35
251.939	6.3
252.4	6.26
252.861	6.21
253.322	6.17
253.783	6.13
254.244	6.1
254.705	6.07
255.166	6.03
255.627	6
256.088	5.96
256.549	5.94
257.009	5.9
257.47	5.87
257.931	5.83
258.391	5.8
258.852	5.77
259.312	5.74
259.773	5.71
260.233	5.68
260.694	5.65
261.154	5.63
261.614	5.59
262.074	5.57
262.534	5.54
262.994	5.52
263.455	5.5
263.915	5.47
264.374	5.44
264.834	5.42
265.294	5.4
265.754	5.38
266.214	5.36
266.673	5.35
267.133	5.33
267.593	5.32
268.052	5.29
268.512	5.27
268.971	5.25
269.431	5.24
269.89	5.22
270.349	5.21
270.809	5.2
271.268	5.18
271.727	5.17
272.186	5.15
272.645	5.13
273.104	5.12
273.563	5.11
274.022	5.1
274.481	5.08
274.94	5.07
275.399	5.05
275.857	5.03
276.316	5.01
276.775	4.98
277.233	4.96
277.692	4.94
278.15	4.93
278.609	4.9
279.067	4.87
279.525	4.85
279.984	4.83
280.442	4.81
280.9	4.79
281.358	4.77
281.816	4.77
282.274	4.75
282.732	4.73
283.19	4.72
283.648	4.71
284.106	4.69
284.564	4.67
285.021	4.66
285.479	4.65
285.937	4.63
286.394	4.62
286.852	4.6
287.309	4.6
287.767	4.59
288.224	4.57
288.682	4.57
289.139	4.55
289.596	4.54
290.053	4.52
290.511	4.5
290.968	4.48
291.425	4.47
291.882	4.45
292.339	4.43
292.796	4.4
293.252	4.38
293.709	4.35
294.166	4.34
294.623	4.33
295.079	4.32
295.536	4.3
295.992	4.3
296.449	4.29
296.905	4.27
297.362	4.26
297.818	4.25
298.274	4.24
298.731	4.23
299.187	4.22
299.643	4.21
300.099	4.2
300.555	4.18
301.011	4.17
301.467	4.15
301.923	4.15
302.379	4.14
302.835	4.13
303.291	4.12
303.746	4.11
304.202	4.09
304.658	4.08
305.113	4.06
305.569	4.06
306.024	4.05
306.479	4.03
306.935	4.02
307.39	4.01
307.845	4.01
308.301	4.02
308.756	4.02
309.211	4.03
309.666	4.02
310.121	4.02
310.576	4.02
311.031	4.02
311.486	4.03
311.94	4.03
312.395	4.03
312.85	4.02
313.305	4.02
313.759	4
314.214	4
314.668	4
315.123	3.99
315.577	3.98
316.032	3.98
316.486	3.97
316.94	3.95
317.394	3.94
317.849	3.93
318.303	3.92
318.757	3.91
319.211	3.89
319.665	3.87
320.119	3.87
320.572	3.86
321.026	3.85
321.48	3.84
321.934	3.83
322.387	3.83
322.841	3.82
323.295	3.81
323.748	3.81
324.202	3.8
324.655	3.79
325.108	3.79
325.562	3.77
326.015	3.77
326.468	3.77
326.921	3.76
327.374	3.74
327.827	3.74
328.28	3.72
328.733	3.71
329.186	3.71
329.639	3.69
330.092	3.69
330.545	3.69
330.997	3.69
331.45	3.68
331.903	3.67
332.355	3.67
332.808	3.67
333.26	3.67
333.713	3.67
334.165	3.68
334.617	3.68
335.069	3.67
335.522	3.68
335.974	3.68
336.426	3.67
336.878	3.67
337.33	3.67
337.782	3.67
338.234	3.67
338.686	3.66
339.137	3.66
339.589	3.66
340.041	3.65
340.493	3.62
340.944	3.62
341.396	3.61
341.847	3.61
342.299	3.59
342.75	3.57
343.201	3.57
343.653	3.56
344.104	3.54
344.555	3.53
345.006	3.52
345.457	3.51
345.908	3.5
346.359	3.49
346.81	3.48
347.261	3.48
347.712	3.49
348.163	3.47
348.613	3.47
349.064	3.46
349.515	3.46
349.965	3.46
350.416	3.46
350.866	3.46
351.317	3.46
351.767	3.45
352.217	3.45
352.668	3.44
353.118	3.44
353.568	3.44
354.018	3.45
354.468	3.44
354.918	3.44
355.368	3.45
355.818	3.43
356.268	3.43
356.718	3.44
357.168	3.43
357.617	3.42
358.067	3.42
358.517	3.41
358.966	3.41
359.416	3.4
359.865	3.4
360.315	3.39
360.764	3.39
361.213	3.39
361.663	3.38
362.112	3.39
362.561	3.4
363.01	3.4
363.459	3.4
363.908	3.4
364.357	3.4
364.806	3.41
365.255	3.42
365.703	3.41
366.152	3.42
366.601	3.42
367.05	3.42
367.498	3.42
367.947	3.42
368.395	3.42
368.844	3.42
369.292	3.42
369.74	3.41
370.189	3.41
370.637	3.41
371.085	3.41
371.533	3.4
371.981	3.4
372.429	3.39
372.877	3.39
373.325	3.38
373.773	3.38
374.221	3.38
374.669	3.38
375.116	3.38
375.564	3.38
376.012	3.38
376.459	3.37
376.907	3.37
377.354	3.37
377.801	3.37
378.249	3.38
378.696	3.38
379.143	3.39
379.591	3.38
380.038	3.38
380.485	3.39
380.932	3.39
381.379	3.4
381.826	3.4
382.273	3.4
382.72	3.41
383.166	3.41
383.613	3.41
384.06	3.41
384.506	3.41
384.953	3.4
385.4	3.4
385.846	3.4
386.292	3.4
386.739	3.4
387.185	3.41
387.631	3.41
388.078	3.42
388.524	3.42
388.97	3.41
389.416	3.42
389.862	3.42
390.308	3.42
390.754	3.43
391.2	3.44
391.645	3.45
392.091	3.44
392.537	3.45
392.983	3.45
393.428	3.46
393.874	3.49
394.319	3.5
394.765	3.51
395.21	3.51
395.655	3.53
396.101	3.55
396.546	3.54
396.991	3.56
397.436	3.56
397.881	3.56
398.326	3.58
398.771	3.58
399.216	3.59
399.661	3.61
400.106	3.63
400.551	3.63
400.995	3.63
401.44	3.64
401.885	3.64
402.329	3.66
402.774	3.65
403.218	3.65
403.663	3.64
404.107	3.66
404.551	3.67
404.995	3.67
405.44	3.67
405.884	3.68
406.328	3.69
406.772	3.71
407.216	3.72
407.66	3.74
408.104	3.76
408.547	3.78
408.991	3.77
409.435	3.78
409.879	3.79
410.322	3.8
410.766	3.82
411.209	3.83
411.653	3.82
412.096	3.82
412.54	3.82
412.983	3.82
413.426	3.84
413.869	3.86
414.312	3.87
414.756	3.88
415.199	3.88
415.642	3.92
416.085	3.93
416.527	3.98
416.97	4.02
417.413	4.03
417.856	4.03
418.298	4.03
418.741	4.05
419.184	4.06
419.626	4.06
420.069	4.07
420.511	4.05
420.953	4.05
421.396	4.04
421.838	4.04
422.28	4.06
422.722	4.08
423.164	4.08
423.606	4.09
424.048	4.08
424.49	4.1
424.932	4.1
425.374	4.12
425.816	4.11
426.258	4.11
426.699	4.11
427.141	4.09
427.582	4.08
428.024	4.09
428.465	4.08
428.907	4.1
429.348	4.1
429.789	4.11
430.231	4.1
430.672	4.11
431.113	4.11
431.554	4.11
431.995	4.12
432.436	4.12
432.877	4.1
433.318	4.09
433.759	4.1
434.2	4.1
434.64	4.1
435.081	4.1
435.522	4.1
435.962	4.11
436.403	4.13
436.843	4.14
437.284	4.17
437.724	4.2
438.164	4.21
438.604	4.22
439.045	4.22
439.485	4.23
439.925	4.24
440.365	4.22
440.805	4.21
441.245	4.19
441.685	4.21
442.125	4.19
442.564	4.18
443.004	4.18
443.444	4.18
443.883	4.18
444.323	4.17
444.762	4.19
445.202	4.23
445.641	4.25
446.081	4.27
446.52	4.26
446.959	4.27
447.398	4.29
447.837	4.32
448.276	4.31
448.716	4.33
449.154	4.35
449.593	4.36
450.032	4.35
450.471	4.36
450.91	4.35
451.349	4.35
451.787	4.36
452.226	4.35
452.664	4.32
453.103	4.33
453.541	4.34
453.98	4.32
454.418	4.32
454.856	4.29
455.295	4.27
455.733	4.26
456.171	4.25
456.609	4.24
457.047	4.24
457.485	4.24
457.923	4.23
458.361	4.21
458.798	4.22
459.236	4.21
459.674	4.21
460.111	4.21
460.549	4.21
460.987	4.21
461.424	4.2
461.862	4.21
462.299	4.21
462.736	4.22
463.173	4.21
463.611	4.19
464.048	4.19
464.485	4.19
464.922	4.2
465.359	4.21
465.796	4.19
466.233	4.19
466.67	4.2
467.106	4.18
467.543	4.18
467.98	4.2
468.416	4.21
468.853	4.2
469.29	4.19
469.726	4.18
470.162	4.17
470.599	4.18
471.035	4.2
471.471	4.19
471.907	4.2
472.344	4.19
472.78	4.17
473.216	4.17
473.652	4.18
474.088	4.2
474.523	4.19
474.959	4.19
475.395	4.2
475.831	4.19
476.266	4.2
476.702	4.19
477.138	4.19
477.573	4.19
478.008	4.19
478.444	4.17
478.879	4.16
479.314	4.17
479.75	4.17
480.185	4.16
480.62	4.14
481.055	4.13
481.49	4.14
481.925	4.13
482.36	4.13
482.795	4.12
483.229	4.12
483.664	4.11
484.099	4.11
484.534	4.09
484.968	4.08
485.403	4.07
485.837	4.06
486.271	4.03
486.706	4.03
487.14	4.03
487.574	4.03
488.009	4.03
488.443	4.02
488.877	4.02
489.311	4.03
489.745	4.04
490.179	4.04
490.613	4.05
491.046	4.07
491.48	4.07
491.914	4.07
492.348	4.07
492.781	4.08
493.215	4.09
493.648	4.1
494.082	4.1
494.515	4.11
494.948	4.12
495.382	4.12
495.815	4.14
496.248	4.15
496.681	4.15
497.114	4.16
497.547	4.17
497.98	4.19
498.413	4.21
498.846	4.22
499.279	4.24
499.711	4.25
500.144	4.27
500.577	4.28
501.009	4.3
501.442	4.34
501.874	4.36
502.306	4.39
502.739	4.41
503.171	4.44
503.603	4.48
504.036	4.52
504.468	4.56
504.9	4.6
505.332	4.65
505.764	4.71
506.196	4.76
506.627	4.82
507.059	4.86
507.491	4.92
507.923	4.98
508.354	5.03
508.786	5.1
509.217	5.15
509.649	5.23
510.08	5.3
510.512	5.35
510.943	5.43
511.374	5.51
511.805	5.6
512.237	5.68
512.668	5.76
513.099	5.86
513.53	5.95
513.961	6.07
514.391	6.17
514.822	6.26
515.253	6.38
515.684	6.48
516.114	6.6
516.545	6.72
516.975	6.83
517.406	6.94
517.836	7.07
518.267	7.19
518.697	7.32
519.127	7.44
519.558	7.57
519.988	7.69
520.418	7.82
520.848	7.93
521.278	8.06
521.708	8.16
522.138	8.28
522.567	8.39
522.997	8.5
523.427	8.61
523.857	8.73
524.286	8.85
524.716	8.97
525.145	9.09
525.575	9.19
526.004	9.3
526.433	9.43
526.863	9.55
527.292	9.64
527.721	9.75
528.15	9.85
528.579	9.93
529.008	10.01
529.437	10.09
529.866	10.16
530.295	10.26
530.724	10.35
531.152	10.43
531.581	10.49
532.01	10.58
532.438	10.63
532.867	10.68
533.295	10.74
533.723	10.8
534.152	10.85
534.58	10.89
535.008	10.92
535.436	10.94
535.865	10.97
536.293	11.02
536.721	11.02
537.149	11.05
537.576	11.08
538.004	11.1
538.432	11.12
538.86	11.15
539.287	11.17
539.715	11.2
540.143	11.22
540.57	11.24
540.998	11.26
541.425	11.28
541.852	11.32
542.28	11.33
542.707	11.36
543.134	11.37
543.561	11.37
543.988	11.38
544.415	11.4
544.842	11.41
545.269	11.43
545.696	11.44
546.123	11.47
546.549	11.47
546.976	11.49
547.403	11.5
547.829	11.53
548.256	11.55
548.682	11.56
549.108	11.56
549.535	11.56
549.961	11.57
550.387	11.56
550.813	11.54
551.24	11.55
551.666	11.55
552.092	11.55
552.518	11.53
552.943	11.53
553.369	11.51
553.795	11.5
554.221	11.48
554.646	11.45
555.072	11.45
555.498	11.44
555.923	11.42
556.349	11.36
556.774	11.32
557.199	11.28
557.625	11.24
558.05	11.18
558.475	11.12
558.9	11.06
559.325	11
559.75	10.92
560.175	10.84
560.6	10.77
561.025	10.71
561.449	10.63
561.874	10.55
562.299	10.47
562.723	10.4
563.148	10.32
563.572	10.24
563.997	10.17
564.421	10.08
564.846	10.01
565.27	9.91
565.694	9.83
566.118	9.75
566.542	9.67
566.966	9.59
567.39	9.49
567.814	9.41
568.238	9.31
568.662	9.21
569.086	9.12
569.509	9.02
569.933	8.93
570.357	8.82
570.78	8.73
571.204	8.65
571.627	8.56
572.05	8.49
572.474	8.41
572.897	8.34
573.32	8.26
573.743	8.2
574.166	8.12
574.589	8.06
575.012	8.01
575.435	7.95
575.858	7.88
576.281	7.81
576.704	7.76
577.126	7.71
577.549	7.65
577.972	7.6
578.394	7.54
578.817	7.5
579.239	7.46
579.661	7.41
580.084	7.36
580.506	7.33
580.928	7.29
581.35	7.25
581.772	7.21
582.194	7.18
582.616	7.15
583.038	7.13
583.46	7.09
583.882	7.06
584.303	7.03
584.725	7
585.147	6.97
585.568	6.93
585.99	6.91
586.411	6.87
586.833	6.85
587.254	6.83
587.675	6.82
588.096	6.79
588.518	6.76
588.939	6.74
589.36	6.72
589.781	6.71
590.202	6.69
590.623	6.67
591.043	6.65
591.464	6.62
591.885	6.59
592.305	6.56
592.726	6.55
593.147	6.53
593.567	6.51
593.987	6.5
594.408	6.48
594.828	6.47
595.248	6.46
595.669	6.47
596.089	6.46
596.509	6.43
596.929	6.41
597.349	6.4
597.769	6.38
598.189	6.38
598.608	6.37
599.028	6.34
599.448	6.32
599.867	6.29
600.287	6.26
600.706	6.24
601.126	6.23
601.545	6.22
601.965	6.2
602.384	6.17
602.803	6.13
603.222	6.1
603.641	6.08
604.061	6.05
604.48	6.03
604.898	6
605.317	5.96
605.736	5.93
606.155	5.89
606.574	5.86
606.992	5.82
607.411	5.8
607.829	5.73
608.248	5.69
608.666	5.67
609.085	5.63
609.503	5.59
609.921	5.55
610.339	5.53
610.758	5.5
611.176	5.48
611.594	5.45
612.012	5.42
612.43	5.44
612.847	5.41
613.265	5.38
613.683	5.36
614.101	5.33
614.518	5.31
614.936	5.28
615.353	5.26
615.771	5.24
616.188	5.22
616.606	5.2
617.023	5.17
617.44	5.14
617.857	5.12
618.274	5.09
618.691	5.09
619.108	5.07
619.525	5.05
619.942	5.03
620.359	5.02
620.776	5.01
621.192	4.99
621.609	4.98
622.026	4.98
622.442	4.97
622.859	4.95
623.275	4.96
623.691	4.96
624.108	4.95
624.524	4.94
624.94	4.94
625.356	4.94
625.772	4.94
626.188	4.93
626.604	4.92
627.02	4.92
627.436	4.92
627.852	4.9
628.268	4.89
628.683	4.89
629.099	4.89
629.514	4.88
629.93	4.87
630.345	4.85
630.761	4.86
631.176	4.85
631.591	4.84
632.007	4.82
632.422	4.82
632.837	4.81
633.252	4.79
633.667	4.76
634.082	4.75
634.497	4.72
634.911	4.7
635.326	4.68
635.741	4.65
636.155	4.63
636.57	4.61
636.984	4.56
637.399	4.54
637.813	4.5
638.228	4.48
638.642	4.44
639.056	4.41
639.47	4.38
639.884	4.33
640.298	4.3
640.712	4.26
641.126	4.23
641.54	4.21
641.954	4.2
642.368	4.18
642.781	4.15
643.195	4.12
643.609	4.1
644.022	4.08
644.436	4.07
644.849	4.06
645.262	4.05
645.676	4.02
646.089	4
646.502	3.96
646.915	3.94
647.328	3.93
647.741	3.9
648.154	3.9
648.567	3.89
648.98	3.87
649.393	3.85
649.805	3.82
650.218	3.82
650.631	3.82
651.043	3.81
651.456	3.81
651.868	3.8
652.28	3.8
652.693	3.77
653.105	3.76
653.517	3.75
653.929	3.75
654.341	3.75
654.753	3.74
655.165	3.73
655.577	3.71
655.989	3.68
656.401	3.67
656.813	3.65
657.224	3.65
657.636	3.63
658.047	3.61
658.459	3.58
658.87	3.56
659.282	3.57
659.693	3.55
660.104	3.54
660.515	3.52
660.926	3.5
661.338	3.5
661.749	3.48
662.159	3.47
662.57	3.46
662.981	3.45
663.392	3.44
663.803	3.42
664.213	3.4
664.624	3.41
665.035	3.41
665.445	3.41
665.855	3.4
666.266	3.41
666.676	3.41
667.086	3.4
667.497	3.39
667.907	3.38
668.317	3.38
668.727	3.38
669.137	3.38
669.547	3.39
669.956	3.39
670.366	3.39
670.776	3.39
671.186	3.4
671.595	3.41
672.005	3.42
672.414	3.43
672.824	3.45
673.233	3.46
673.642	3.46
674.052	3.45
674.461	3.44
674.87	3.45
675.279	3.45
675.688	3.46
676.097	3.46
676.506	3.46
676.915	3.47
677.323	3.48
677.732	3.48
678.141	3.5
678.549	3.53
678.958	3.56
679.366	3.56
679.775	3.6
680.183	3.62
680.592	3.64
681	3.65
681.408	3.67
681.816	3.68
682.224	3.71
682.632	3.74
683.04	3.76
683.448	3.78
683.856	3.81
684.264	3.84
684.671	3.89
685.079	3.92
685.487	3.98
685.894	4.03
686.302	4.09
686.709	4.15
687.116	4.21
687.524	4.28
687.931	4.38
688.338	4.48
688.745	4.59
689.152	4.7
689.559	4.83
689.966	4.96
690.373	5.11
690.78	5.28
691.187	5.45
691.593	5.62
692	5.82
692.407	6.01
692.813	6.22
693.22	6.45
693.626	6.68
694.032	6.94
694.439	7.22
694.845	7.49
695.251	7.77
695.657	8.07
696.063	8.38
696.469	8.7
696.875	9.02
697.281	9.34
697.687	9.67
698.093	10.01
698.498	10.35
698.904	10.69
699.31	11.04
699.715	11.39
700.12	11.75
700.526	12.12
700.931	12.5
701.337	12.88
701.742	13.24
702.147	13.61
702.552	14
702.957	14.38
703.362	14.76
703.767	15.13
704.172	15.49
704.577	15.87
704.981	16.24
705.386	16.62
705.791	17.01
706.195	17.39
706.6	17.78
707.004	18.14
707.408	18.52
707.813	18.89
708.217	19.29
708.621	19.68
709.025	20.05
709.43	20.42
709.834	20.8
710.237	21.15
710.641	21.54
711.045	21.91
711.449	22.28
711.853	22.65
712.256	23.04
712.66	23.39
713.064	23.76
713.467	24.12
713.87	24.47
714.274	24.83
714.677	25.19
715.08	25.51
715.484	25.88
715.887	26.22
716.29	26.59
716.693	26.92
717.096	27.28
717.499	27.62
717.901	27.94
718.304	28.29
718.707	28.64
719.109	28.95
719.512	29.32
719.915	29.62
720.317	29.95
720.719	30.27
721.122	30.58
721.524	30.88
721.926	31.17
722.328	31.47
722.731	31.76
723.133	32.02
723.535	32.32
723.937	32.56
724.338	32.8
724.74	33.04
725.142	33.22
725.544	33.44
725.945	33.66
726.347	33.9
726.748	34.12
727.15	34.35
727.551	34.56
727.952	34.77
728.354	35.01
728.755	35.24
729.156	35.46
729.557	35.69
729.958	35.88
730.359	36.07
730.76	36.23
731.161	36.38
731.562	36.54
731.962	36.7
732.363	36.85
732.763	37.01
733.164	37.14
733.564	37.26
733.965	37.39
734.365	37.52
734.766	37.62
735.166	37.74
735.566	37.87
735.966	37.96
736.366	38.04
736.766	38.13
737.166	38.19
737.566	38.26
737.966	38.36
738.365	38.46
738.765	38.55
739.165	38.65
739.564	38.73
739.964	38.79
740.363	38.89
740.763	38.98
741.162	39.04
741.561	39.13
741.96	39.23
742.36	39.31
742.759	39.34
743.158	39.38
743.557	39.42
743.955	39.52
744.354	39.58
744.753	39.63
745.152	39.71
745.55	39.78
745.949	39.83
746.348	39.88
746.746	39.88
747.144	39.96
747.543	40.03
747.941	40.13
748.339	40.21
748.737	40.29
749.136	40.32
749.534	40.35
749.932	40.4
750.33	40.42
750.727	40.43
751.125	40.47
751.523	40.46
751.921	40.48
752.318	40.47
752.716	40.44
753.113	40.42
753.511	40.4
753.908	40.38
754.305	40.37
754.703	40.36
755.1	40.37
755.497	40.38
755.894	40.39
756.291	40.37
756.688	40.37
757.085	40.37
757.482	40.39
757.878	40.42
758.275	40.43
758.672	40.47
759.068	40.49
759.465	40.49
759.861	40.51
760.258	40.47
760.654	40.49
761.05	40.5
761.447	40.5
761.843	40.49
762.239	40.48
762.635	40.47
763.031	40.43
763.427	40.41
763.822	40.39
764.218	40.36
764.614	40.4
765.01	40.42
765.405	40.41
765.801	40.37
766.196	40.38
766.592	40.39
766.987	40.39
767.382	40.4
767.778	40.44
768.173	40.46
768.568	40.45
768.963	40.46
769.358	40.42
769.753	40.43
770.148	40.45
770.542	40.43
770.937	40.4
771.332	40.4
771.726	40.4
772.121	40.38
772.515	40.37
772.91	40.39
773.304	40.39
773.699	40.39
774.093	40.37
774.487	40.39
774.881	40.44
775.275	40.47
775.669	40.47
776.063	40.47
776.457	40.47
776.851	40.45
777.245	40.47
777.638	40.45
778.032	40.46
778.425	40.49
778.819	40.5
779.212	40.45
779.606	40.43
779.999	40.44
780.392	40.46
780.786	40.46
781.179	40.47
781.572	40.46
781.965	40.46
782.358	40.44
782.751	40.44
783.143	40.43
783.536	40.44
783.929	40.46
784.322	40.46
784.714	40.46
785.107	40.45
785.499	40.47
785.891	40.47
786.284	40.46
786.676	40.52
787.068	40.52
787.46	40.52
787.852	40.56
788.245	40.54
788.636	40.56
