Data from C_3_div_oh_2n_Splice17_12.txt Node
Date: Sat Feb 29 14:39:00 EST 2020
User: sa697716
Spectrometer: FLMS03696
Trigger mode: 0
Integration Time (sec): 3.180400E-1
Scans to average: 20
Electric dark correction enabled: true
Nonlinearity correction enabled: true
Boxcar width: 5
XAxis mode: Wavelengths
Number of Pixels in Spectrum: 2048
>>>>>Begin Spectral Data<<<<<
187.83	40.36
188.298	29.27
188.766	33.85
189.233	23.64
189.701	36.17
190.169	45.49
190.636	55.98
191.104	37.7
191.571	175.36
192.039	222.82
192.506	-207.38
192.974	969.14
193.441	122.15
193.908	32.96
194.375	19.56
194.842	75.58
195.31	66.21
195.777	84.41
196.244	-27.13
196.711	-21.03
197.177	-22.69
197.644	-22.22
198.111	-22.88
198.578	-22.72
199.045	-22.8
199.511	-21.91
199.978	-21.15
200.445	-21.18
200.911	-21.12
201.378	-20.35
201.844	-20.16
202.31	-19.44
202.777	-19.11
203.243	-18.59
203.709	-17.97
204.176	-17.8
204.642	-17.65
205.108	-17.78
205.574	-17.25
206.04	-16.71
206.506	-16.68
206.972	-16.37
207.438	-16.76
207.903	-15.91
208.369	-15.35
208.835	-15.23
209.301	-14.42
209.766	-13.89
210.232	-13.3
210.697	-12.54
211.163	-12.12
211.628	-11.45
212.094	-10.8
212.559	-10.19
213.024	-10.07
213.49	-9.69
213.955	-9.08
214.42	-8.46
214.885	-7.94
215.35	-6.99
215.815	-6.3
216.28	-5.16
216.745	-3.84
217.21	-2.61
217.675	-1.3
218.14	-0.31
218.604	0.43
219.069	1.24
219.534	1.78
219.998	2.24
220.463	2.69
220.927	3.05
221.392	3.37
221.856	3.57
222.32	3.75
222.785	3.86
223.249	4.01
223.713	4.13
224.177	4.16
224.642	4.25
225.106	4.31
225.57	4.32
226.034	4.36
226.497	4.35
226.961	4.35
227.425	4.35
227.889	4.36
228.353	4.37
228.816	4.39
229.28	4.39
229.744	4.38
230.207	4.37
230.671	4.36
231.134	4.34
231.597	4.32
232.061	4.3
232.524	4.3
232.987	4.28
233.45	4.24
233.914	4.21
234.377	4.2
234.84	4.17
235.303	4.15
235.766	4.13
236.229	4.11
236.691	4.1
237.154	4.08
237.617	4.02
238.08	3.97
238.542	3.93
239.005	3.89
239.468	3.84
239.93	3.8
240.393	3.76
240.855	3.71
241.317	3.68
241.78	3.67
242.242	3.61
242.704	3.61
243.166	3.61
243.629	3.61
244.091	3.59
244.553	3.58
245.015	3.57
245.477	3.55
245.939	3.55
246.4	3.54
246.862	3.52
247.324	3.54
247.786	3.54
248.247	3.52
248.709	3.51
249.17	3.51
249.632	3.49
250.093	3.47
250.555	3.46
251.016	3.46
251.477	3.45
251.939	3.43
252.4	3.42
252.861	3.4
253.322	3.38
253.783	3.37
254.244	3.36
254.705	3.36
255.166	3.37
255.627	3.37
256.088	3.36
256.549	3.37
257.009	3.37
257.47	3.37
257.931	3.36
258.391	3.36
258.852	3.35
259.312	3.34
259.773	3.33
260.233	3.32
260.694	3.31
261.154	3.3
261.614	3.29
262.074	3.28
262.534	3.26
262.994	3.26
263.455	3.26
263.915	3.26
264.374	3.25
264.834	3.25
265.294	3.25
265.754	3.24
266.214	3.24
266.673	3.23
267.133	3.23
267.593	3.23
268.052	3.22
268.512	3.22
268.971	3.21
269.431	3.21
269.89	3.21
270.349	3.19
270.809	3.19
271.268	3.19
271.727	3.18
272.186	3.18
272.645	3.17
273.104	3.17
273.563	3.17
274.022	3.16
274.481	3.16
274.94	3.16
275.399	3.17
275.857	3.16
276.316	3.15
276.775	3.14
277.233	3.13
277.692	3.12
278.15	3.11
278.609	3.09
279.067	3.08
279.525	3.07
279.984	3.06
280.442	3.05
280.9	3.04
281.358	3.02
281.816	3.02
282.274	3.01
282.732	3
283.19	3
283.648	2.99
284.106	2.98
284.564	2.99
285.021	2.98
285.479	2.98
285.937	2.97
286.394	2.97
286.852	2.97
287.309	2.98
287.767	2.98
288.224	2.99
288.682	2.98
289.139	2.99
289.596	2.98
290.053	2.98
290.511	2.98
290.968	2.99
291.425	2.99
291.882	2.99
292.339	2.98
292.796	2.97
293.252	2.97
293.709	2.97
294.166	2.97
294.623	2.98
295.079	2.97
295.536	2.97
295.992	2.96
296.449	2.95
296.905	2.95
297.362	2.94
297.818	2.94
298.274	2.93
298.731	2.92
299.187	2.91
299.643	2.9
300.099	2.89
300.555	2.88
301.011	2.87
301.467	2.86
301.923	2.86
302.379	2.85
302.835	2.83
303.291	2.83
303.746	2.82
304.202	2.81
304.658	2.79
305.113	2.79
305.569	2.78
306.024	2.76
306.479	2.75
306.935	2.75
307.39	2.74
307.845	2.74
308.301	2.74
308.756	2.74
309.211	2.73
309.666	2.73
310.121	2.72
310.576	2.71
311.031	2.71
311.486	2.7
311.94	2.69
312.395	2.68
312.85	2.66
313.305	2.65
313.759	2.64
314.214	2.63
314.668	2.63
315.123	2.63
315.577	2.63
316.032	2.62
316.486	2.62
316.94	2.61
317.394	2.61
317.849	2.61
318.303	2.61
318.757	2.6
319.211	2.6
319.665	2.59
320.119	2.59
320.572	2.59
321.026	2.58
321.48	2.57
321.934	2.58
322.387	2.58
322.841	2.57
323.295	2.57
323.748	2.56
324.202	2.56
324.655	2.56
325.108	2.54
325.562	2.53
326.015	2.53
326.468	2.52
326.921	2.5
327.374	2.49
327.827	2.49
328.28	2.48
328.733	2.47
329.186	2.47
329.639	2.45
330.092	2.44
330.545	2.43
330.997	2.43
331.45	2.42
331.903	2.41
332.355	2.41
332.808	2.41
333.26	2.41
333.713	2.41
334.165	2.4
334.617	2.41
335.069	2.41
335.522	2.41
335.974	2.41
336.426	2.4
336.878	2.41
337.33	2.4
337.782	2.4
338.234	2.39
338.686	2.39
339.137	2.4
339.589	2.4
340.041	2.4
340.493	2.39
340.944	2.39
341.396	2.39
341.847	2.4
342.299	2.39
342.75	2.38
343.201	2.37
343.653	2.37
344.104	2.36
344.555	2.35
345.006	2.36
345.457	2.36
345.908	2.36
346.359	2.37
346.81	2.38
347.261	2.38
347.712	2.4
348.163	2.4
348.613	2.39
349.064	2.38
349.515	2.38
349.965	2.37
350.416	2.36
350.866	2.35
351.317	2.34
351.767	2.33
352.217	2.33
352.668	2.32
353.118	2.32
353.568	2.33
354.018	2.34
354.468	2.34
354.918	2.34
355.368	2.34
355.818	2.34
356.268	2.34
356.718	2.34
357.168	2.33
357.617	2.33
358.067	2.33
358.517	2.32
358.966	2.31
359.416	2.32
359.865	2.31
360.315	2.31
360.764	2.32
361.213	2.3
361.663	2.31
362.112	2.3
362.561	2.29
363.01	2.31
363.459	2.3
363.908	2.3
364.357	2.3
364.806	2.3
365.255	2.3
365.703	2.3
366.152	2.31
366.601	2.3
367.05	2.3
367.498	2.31
367.947	2.3
368.395	2.31
368.844	2.3
369.292	2.29
369.74	2.3
370.189	2.29
370.637	2.28
371.085	2.28
371.533	2.27
371.981	2.27
372.429	2.26
372.877	2.27
373.325	2.26
373.773	2.26
374.221	2.26
374.669	2.25
375.116	2.25
375.564	2.24
376.012	2.23
376.459	2.23
376.907	2.24
377.354	2.23
377.801	2.22
378.249	2.22
378.696	2.22
379.143	2.22
379.591	2.22
380.038	2.23
380.485	2.23
380.932	2.23
381.379	2.21
381.826	2.22
382.273	2.21
382.72	2.21
383.166	2.22
383.613	2.22
384.06	2.22
384.506	2.21
384.953	2.2
385.4	2.2
385.846	2.2
386.292	2.2
386.739	2.19
387.185	2.2
387.631	2.2
388.078	2.2
388.524	2.19
388.97	2.18
389.416	2.17
389.862	2.16
390.308	2.17
390.754	2.16
391.2	2.16
391.645	2.16
392.091	2.14
392.537	2.13
392.983	2.12
393.428	2.13
393.874	2.13
394.319	2.14
394.765	2.14
395.21	2.13
395.655	2.13
396.101	2.13
396.546	2.13
396.991	2.13
397.436	2.11
397.881	2.11
398.326	2.12
398.771	2.11
399.216	2.12
399.661	2.12
400.106	2.13
400.551	2.11
400.995	2.11
401.44	2.1
401.885	2.11
402.329	2.11
402.774	2.1
403.218	2.08
403.663	2.07
404.107	2.06
404.551	2.05
404.995	2.04
405.44	2.04
405.884	2.04
406.328	2.03
406.772	2.02
407.216	2.01
407.66	2
408.104	1.99
408.547	2
408.991	1.99
409.435	1.99
409.879	1.99
410.322	1.98
410.766	1.98
411.209	1.98
411.653	1.96
412.096	1.95
412.54	1.94
412.983	1.95
413.426	1.93
413.869	1.94
414.312	1.92
414.756	1.93
415.199	1.92
415.642	1.92
416.085	1.93
416.527	1.95
416.97	1.97
417.413	1.97
417.856	1.96
418.298	1.94
418.741	1.93
419.184	1.93
419.626	1.91
420.069	1.9
420.511	1.9
420.953	1.88
421.396	1.86
421.838	1.85
422.28	1.85
422.722	1.85
423.164	1.87
423.606	1.86
424.048	1.85
424.49	1.87
424.932	1.87
425.374	1.87
425.816	1.88
426.258	1.88
426.699	1.87
427.141	1.86
427.582	1.86
428.024	1.85
428.465	1.85
428.907	1.86
429.348	1.84
429.789	1.84
430.231	1.82
430.672	1.81
431.113	1.79
431.554	1.78
431.995	1.79
432.436	1.78
432.877	1.77
433.318	1.75
433.759	1.73
434.2	1.72
434.64	1.7
435.081	1.69
435.522	1.68
435.962	1.69
436.403	1.69
436.843	1.68
437.284	1.67
437.724	1.69
438.164	1.7
438.604	1.7
439.045	1.69
439.485	1.7
439.925	1.69
440.365	1.68
440.805	1.67
441.245	1.64
441.685	1.65
442.125	1.65
442.564	1.63
443.004	1.62
443.444	1.61
443.883	1.61
444.323	1.58
444.762	1.58
445.202	1.61
445.641	1.6
446.081	1.61
446.52	1.59
446.959	1.56
447.398	1.58
447.837	1.6
448.276	1.59
448.716	1.6
449.154	1.62
449.593	1.62
450.032	1.59
450.471	1.6
450.91	1.6
451.349	1.62
451.787	1.62
452.226	1.6
452.664	1.58
453.103	1.59
453.541	1.6
453.98	1.6
454.418	1.59
454.856	1.59
455.295	1.58
455.733	1.6
456.171	1.61
456.609	1.62
457.047	1.63
457.485	1.63
457.923	1.63
458.361	1.61
458.798	1.61
459.236	1.62
459.674	1.63
460.111	1.63
460.549	1.6
460.987	1.6
461.424	1.59
461.862	1.58
462.299	1.57
462.736	1.57
463.173	1.58
463.611	1.57
464.048	1.56
464.485	1.54
464.922	1.55
465.359	1.56
465.796	1.53
466.233	1.54
466.67	1.55
467.106	1.53
467.543	1.53
467.98	1.52
468.416	1.52
468.853	1.52
469.29	1.53
469.726	1.51
470.162	1.5
470.599	1.52
471.035	1.52
471.471	1.52
471.907	1.51
472.344	1.52
472.78	1.54
473.216	1.55
473.652	1.56
474.088	1.58
474.523	1.59
474.959	1.6
475.395	1.6
475.831	1.6
476.266	1.61
476.702	1.61
477.138	1.62
477.573	1.62
478.008	1.62
478.444	1.61
478.879	1.6
479.314	1.6
479.75	1.6
480.185	1.62
480.62	1.62
481.055	1.63
481.49	1.64
481.925	1.65
482.36	1.64
482.795	1.63
483.229	1.64
483.664	1.64
484.099	1.64
484.534	1.64
484.968	1.64
485.403	1.63
485.837	1.63
486.271	1.62
486.706	1.62
487.14	1.62
487.574	1.63
488.009	1.63
488.443	1.64
488.877	1.64
489.311	1.64
489.745	1.64
490.179	1.64
490.613	1.65
491.046	1.66
491.48	1.65
491.914	1.65
492.348	1.64
492.781	1.64
493.215	1.64
493.648	1.64
494.082	1.65
494.515	1.65
494.948	1.65
495.382	1.64
495.815	1.65
496.248	1.65
496.681	1.65
497.114	1.64
497.547	1.63
497.98	1.63
498.413	1.63
498.846	1.61
499.279	1.61
499.711	1.61
500.144	1.6
500.577	1.59
501.009	1.58
501.442	1.59
501.874	1.59
502.306	1.58
502.739	1.57
503.171	1.58
503.603	1.59
504.036	1.58
504.468	1.58
504.9	1.58
505.332	1.58
505.764	1.59
506.196	1.6
506.627	1.59
507.059	1.59
507.491	1.6
507.923	1.61
508.354	1.61
508.786	1.6
509.217	1.59
509.649	1.59
510.08	1.6
510.512	1.59
510.943	1.58
511.374	1.58
511.805	1.57
512.237	1.57
512.668	1.55
513.099	1.55
513.53	1.55
513.961	1.56
514.391	1.55
514.822	1.53
515.253	1.53
515.684	1.53
516.114	1.54
516.545	1.55
516.975	1.55
517.406	1.54
517.836	1.54
518.267	1.55
518.697	1.55
519.127	1.56
519.558	1.57
519.988	1.58
520.418	1.57
520.848	1.57
521.278	1.57
521.708	1.52
522.138	1.54
522.567	1.53
522.997	1.52
523.427	1.52
523.857	1.52
524.286	1.51
524.716	1.51
525.145	1.53
525.575	1.52
526.004	1.51
526.433	1.56
526.863	1.55
527.292	1.56
527.721	1.57
528.15	1.55
528.579	1.55
529.008	1.56
529.437	1.56
529.866	1.55
530.295	1.56
530.724	1.58
531.152	1.59
531.581	1.58
532.01	1.58
532.438	1.58
532.867	1.57
533.295	1.58
533.723	1.58
534.152	1.58
534.58	1.57
535.008	1.56
535.436	1.55
535.865	1.54
536.293	1.55
536.721	1.55
537.149	1.55
537.576	1.56
538.004	1.56
538.432	1.55
538.86	1.55
539.287	1.56
539.715	1.57
540.143	1.56
540.57	1.55
540.998	1.55
541.425	1.55
541.852	1.55
542.28	1.55
542.707	1.55
543.134	1.55
543.561	1.54
543.988	1.54
544.415	1.53
544.842	1.53
545.269	1.55
545.696	1.55
546.123	1.53
546.549	1.54
546.976	1.53
547.403	1.54
547.829	1.54
548.256	1.55
548.682	1.55
549.108	1.55
549.535	1.54
549.961	1.54
550.387	1.54
550.813	1.53
551.24	1.53
551.666	1.53
552.092	1.53
552.518	1.54
552.943	1.54
553.369	1.54
553.795	1.54
554.221	1.55
554.646	1.55
555.072	1.56
555.498	1.57
555.923	1.57
556.349	1.56
556.774	1.57
557.199	1.57
557.625	1.57
558.05	1.57
558.475	1.57
558.9	1.56
559.325	1.55
559.75	1.54
560.175	1.53
560.6	1.54
561.025	1.55
561.449	1.55
561.874	1.55
562.299	1.54
562.723	1.55
563.148	1.55
563.572	1.56
563.997	1.56
564.421	1.57
564.846	1.56
565.27	1.54
565.694	1.54
566.118	1.54
566.542	1.54
566.966	1.55
567.39	1.55
567.814	1.55
568.238	1.55
568.662	1.55
569.086	1.56
569.509	1.57
569.933	1.57
570.357	1.56
570.78	1.57
571.204	1.56
571.627	1.55
572.05	1.54
572.474	1.54
572.897	1.54
573.32	1.53
573.743	1.53
574.166	1.52
574.589	1.53
575.012	1.54
575.435	1.53
575.858	1.53
576.281	1.53
576.704	1.53
577.126	1.52
577.549	1.53
577.972	1.53
578.394	1.53
578.817	1.52
579.239	1.52
579.661	1.52
580.084	1.52
580.506	1.52
580.928	1.52
581.35	1.53
581.772	1.53
582.194	1.52
582.616	1.52
583.038	1.52
583.46	1.52
583.882	1.52
584.303	1.52
584.725	1.53
585.147	1.5
585.568	1.49
585.99	1.49
586.411	1.49
586.833	1.49
587.254	1.51
587.675	1.51
588.096	1.5
588.518	1.5
588.939	1.5
589.36	1.49
589.781	1.52
590.202	1.53
590.623	1.53
591.043	1.52
591.464	1.51
591.885	1.5
592.305	1.51
592.726	1.5
593.147	1.51
593.567	1.51
593.987	1.52
594.408	1.51
594.828	1.52
595.248	1.52
595.669	1.53
596.089	1.53
596.509	1.53
596.929	1.52
597.349	1.53
597.769	1.52
598.189	1.52
598.608	1.52
599.028	1.52
599.448	1.53
599.867	1.52
600.287	1.51
600.706	1.52
601.126	1.52
601.545	1.53
601.965	1.53
602.384	1.53
602.803	1.52
603.222	1.51
603.641	1.51
604.061	1.5
604.48	1.51
604.898	1.51
605.317	1.51
605.736	1.51
606.155	1.5
606.574	1.51
606.992	1.51
607.411	1.53
607.829	1.5
608.248	1.5
608.666	1.5
609.085	1.51
609.503	1.51
609.921	1.5
610.339	1.52
610.758	1.52
611.176	1.51
611.594	1.52
612.012	1.5
612.43	1.55
612.847	1.56
613.265	1.55
613.683	1.54
614.101	1.54
614.518	1.54
614.936	1.53
615.353	1.52
615.771	1.52
616.188	1.51
616.606	1.52
617.023	1.51
617.44	1.5
617.857	1.5
618.274	1.5
618.691	1.5
619.108	1.5
619.525	1.51
619.942	1.51
620.359	1.52
620.776	1.52
621.192	1.52
621.609	1.52
622.026	1.52
622.442	1.51
622.859	1.52
623.275	1.52
623.691	1.52
624.108	1.53
624.524	1.52
624.94	1.52
625.356	1.52
625.772	1.52
626.188	1.52
626.604	1.51
627.02	1.51
627.436	1.51
627.852	1.51
628.268	1.51
628.683	1.5
629.099	1.49
629.514	1.5
629.93	1.5
630.345	1.49
630.761	1.49
631.176	1.5
631.591	1.5
632.007	1.48
632.422	1.48
632.837	1.47
633.252	1.48
633.667	1.47
634.082	1.47
634.497	1.46
634.911	1.45
635.326	1.44
635.741	1.44
636.155	1.43
636.57	1.44
636.984	1.43
637.399	1.42
637.813	1.41
638.228	1.41
638.642	1.41
639.056	1.41
639.47	1.4
639.884	1.4
640.298	1.4
640.712	1.4
641.126	1.39
641.54	1.38
641.954	1.41
642.368	1.42
642.781	1.43
643.195	1.43
643.609	1.44
644.022	1.45
644.436	1.45
644.849	1.45
645.262	1.47
645.676	1.47
646.089	1.47
646.502	1.45
646.915	1.45
647.328	1.45
647.741	1.45
648.154	1.44
648.567	1.44
648.98	1.44
649.393	1.45
649.805	1.42
650.218	1.42
650.631	1.43
651.043	1.43
651.456	1.44
651.868	1.43
652.28	1.45
652.693	1.45
653.105	1.44
653.517	1.44
653.929	1.45
654.341	1.45
654.753	1.44
655.165	1.44
655.577	1.44
655.989	1.43
656.401	1.43
656.813	1.41
657.224	1.41
657.636	1.42
658.047	1.42
658.459	1.4
658.87	1.41
659.282	1.43
659.693	1.43
660.104	1.43
660.515	1.43
660.926	1.44
661.338	1.45
661.749	1.44
662.159	1.43
662.57	1.43
662.981	1.42
663.392	1.4
663.803	1.39
664.213	1.39
664.624	1.4
665.035	1.39
665.445	1.38
665.855	1.39
666.266	1.38
666.676	1.39
667.086	1.4
667.497	1.39
667.907	1.4
668.317	1.39
668.727	1.39
669.137	1.37
669.547	1.38
669.956	1.37
670.366	1.37
670.776	1.38
671.186	1.37
671.595	1.37
672.005	1.39
672.414	1.39
672.824	1.4
673.233	1.4
673.642	1.4
674.052	1.4
674.461	1.39
674.87	1.4
675.279	1.4
675.688	1.39
676.097	1.4
676.506	1.38
676.915	1.37
677.323	1.37
677.732	1.36
678.141	1.36
678.549	1.37
678.958	1.37
679.366	1.35
679.775	1.35
680.183	1.35
680.592	1.35
681	1.35
681.408	1.36
681.816	1.35
682.224	1.35
682.632	1.36
683.04	1.35
683.448	1.35
683.856	1.36
684.264	1.35
684.671	1.35
685.079	1.36
685.487	1.37
685.894	1.37
686.302	1.38
686.709	1.38
687.116	1.38
687.524	1.37
687.931	1.36
688.338	1.37
688.745	1.37
689.152	1.37
689.559	1.34
689.966	1.32
690.373	1.33
690.78	1.33
691.187	1.33
691.593	1.32
692	1.33
692.407	1.35
692.813	1.35
693.22	1.36
693.626	1.36
694.032	1.38
694.439	1.4
694.845	1.39
695.251	1.39
695.657	1.39
696.063	1.41
696.469	1.41
696.875	1.39
697.281	1.38
697.687	1.38
698.093	1.39
698.498	1.39
698.904	1.39
699.31	1.39
699.715	1.39
700.12	1.39
700.526	1.38
700.931	1.38
701.337	1.39
701.742	1.38
702.147	1.36
702.552	1.36
702.957	1.36
703.362	1.36
703.767	1.35
704.172	1.35
704.577	1.35
704.981	1.35
705.386	1.35
705.791	1.35
706.195	1.37
706.6	1.37
707.004	1.36
707.408	1.36
707.813	1.35
708.217	1.35
708.621	1.37
709.025	1.38
709.43	1.38
709.834	1.41
710.237	1.39
710.641	1.38
711.045	1.37
711.449	1.38
711.853	1.38
712.256	1.39
712.66	1.38
713.064	1.37
713.467	1.36
713.87	1.36
714.274	1.34
714.677	1.35
715.08	1.34
715.484	1.35
715.887	1.36
716.29	1.35
716.693	1.33
717.096	1.34
717.499	1.33
717.901	1.33
718.304	1.33
718.707	1.33
719.109	1.34
719.512	1.34
719.915	1.34
720.317	1.34
720.719	1.34
721.122	1.36
721.524	1.36
721.926	1.35
722.328	1.33
722.731	1.34
723.133	1.33
723.535	1.34
723.937	1.33
724.338	1.34
724.74	1.33
725.142	1.27
725.544	1.27
725.945	1.24
726.347	1.25
726.748	1.25
727.15	1.25
727.551	1.24
727.952	1.23
728.354	1.23
728.755	1.23
729.156	1.24
729.557	1.29
729.958	1.29
730.359	1.32
730.76	1.31
731.161	1.32
731.562	1.34
731.962	1.33
732.363	1.32
732.763	1.33
733.164	1.33
733.564	1.32
733.965	1.35
734.365	1.35
734.766	1.33
735.166	1.34
735.566	1.34
735.966	1.32
736.366	1.32
736.766	1.32
737.166	1.3
737.566	1.31
737.966	1.32
738.365	1.31
738.765	1.3
739.165	1.31
739.564	1.32
739.964	1.31
740.363	1.33
740.763	1.34
741.162	1.34
741.561	1.35
741.96	1.34
742.36	1.32
742.759	1.31
743.158	1.31
743.557	1.3
743.955	1.29
744.354	1.29
744.753	1.29
745.152	1.29
745.55	1.29
745.949	1.3
746.348	1.31
746.746	1.31
747.144	1.32
747.543	1.34
747.941	1.35
748.339	1.35
748.737	1.34
749.136	1.34
749.534	1.33
749.932	1.32
750.33	1.32
750.727	1.33
751.125	1.34
751.523	1.34
751.921	1.35
752.318	1.33
752.716	1.33
753.113	1.36
753.511	1.37
753.908	1.38
754.305	1.38
754.703	1.38
755.1	1.36
755.497	1.37
755.894	1.36
756.291	1.35
756.688	1.36
757.085	1.36
757.482	1.35
757.878	1.34
758.275	1.33
758.672	1.33
759.068	1.33
759.465	1.34
759.861	1.32
760.258	1.29
760.654	1.3
761.05	1.32
761.447	1.32
761.843	1.32
762.239	1.32
762.635	1.31
763.031	1.32
763.427	1.32
763.822	1.32
764.218	1.34
764.614	1.35
765.01	1.33
765.405	1.32
765.801	1.33
766.196	1.34
766.592	1.35
766.987	1.37
767.382	1.35
767.778	1.35
768.173	1.33
768.568	1.31
768.963	1.32
769.358	1.32
769.753	1.33
770.148	1.32
770.542	1.29
770.937	1.29
771.332	1.27
771.726	1.26
772.121	1.25
772.515	1.27
772.91	1.25
773.304	1.25
773.699	1.26
774.093	1.24
774.487	1.23
774.881	1.24
775.275	1.22
775.669	1.23
776.063	1.24
776.457	1.24
776.851	1.22
777.245	1.24
777.638	1.22
778.032	1.22
778.425	1.21
778.819	1.21
779.212	1.22
779.606	1.22
779.999	1.22
780.392	1.22
780.786	1.23
781.179	1.24
781.572	1.24
781.965	1.23
782.358	1.22
782.751	1.24
783.143	1.23
783.536	1.21
783.929	1.22
784.322	1.24
784.714	1.25
785.107	1.24
785.499	1.24
785.891	1.23
786.284	1.25
786.676	1.26
787.068	1.26
787.46	1.25
787.852	1.27
788.245	1.24
788.636	1.22
789.028	1.2
789.42	1.2
789.812	1.2
790.204	1.22
790.595	1.19
790.987	1.18
791.378	1.18
791.77	1.2
792.161	1.2
792.553	1.21
792.944	1.22
793.335	1.22
793.726	1.22
794.117	1.23
794.508	1.24
794.899	1.26
795.29	1.27
795.681	1.26
796.072	1.26
796.463	1.24
796.853	1.24
797.244	1.23
