Data from c_3_dec_nc_4n_Splice17_04.txt Node
Date: Sat Feb 29 14:48:59 EST 2020
User: sa697716
Spectrometer: FLMS03696
Trigger mode: 0
Integration Time (sec): 3.180400E-1
Scans to average: 20
Electric dark correction enabled: true
Nonlinearity correction enabled: true
Boxcar width: 5
XAxis mode: Wavelengths
Number of Pixels in Spectrum: 2048
>>>>>Begin Spectral Data<<<<<
187.83	97.25
188.298	76.1
188.766	76.76
189.233	68.18
189.701	79.65
190.169	71.27
190.636	76.71
191.104	43.5
191.571	-58.73
192.039	122.27
192.506	213.93
192.974	8225.39
193.441	196.62
193.908	61.55
194.375	-22.46
194.842	131.05
195.31	66.3
195.777	91.48
196.244	29.15
196.711	34.57
197.177	35.49
197.644	35.77
198.111	36.46
198.578	37.55
199.045	38.07
199.511	39.55
199.978	39.94
200.445	39.5
200.911	39.68
201.378	40.29
201.844	40.97
202.31	42.09
202.777	42.91
203.243	43.68
203.709	44.38
204.176	44.12
204.642	43.56
205.108	43.36
205.574	43.75
206.04	43.8
206.506	43.2
206.972	43.06
207.438	42.17
207.903	41.7
208.369	40.72
208.835	40.15
209.301	40.22
209.766	39.85
210.232	39.16
210.697	38.79
211.163	38.39
211.628	37.9
212.094	37.27
212.559	36.85
213.024	36.24
213.49	35.89
213.955	35.2
214.42	34.51
214.885	33.97
215.35	33.27
215.815	32.03
216.28	30.89
216.745	29.68
217.21	28.33
217.675	27.12
218.14	25.92
218.604	24.65
219.069	23.84
219.534	22.92
219.998	22.12
220.463	21.48
220.927	21.03
221.392	20.57
221.856	20.22
222.32	19.94
222.785	19.66
223.249	19.43
223.713	19.26
224.177	19.03
224.642	18.91
225.106	18.77
225.57	18.61
226.034	18.48
226.497	18.31
226.961	18.11
227.425	17.88
227.889	17.74
228.353	17.55
228.816	17.4
229.28	17.22
229.744	17.05
230.207	16.88
230.671	16.73
231.134	16.56
231.597	16.39
232.061	16.27
232.524	16.14
232.987	15.99
233.45	15.84
233.914	15.72
234.377	15.6
234.84	15.48
235.303	15.36
235.766	15.24
236.229	15.11
236.691	15
237.154	14.88
237.617	14.78
238.08	14.67
238.542	14.57
239.005	14.44
239.468	14.31
239.93	14.19
240.393	14.08
240.855	13.96
241.317	13.87
241.78	13.78
242.242	13.68
242.704	13.58
243.166	13.49
243.629	13.41
244.091	13.3
244.553	13.23
245.015	13.14
245.477	13.07
245.939	12.99
246.4	12.9
246.862	12.82
247.324	12.77
247.786	12.7
248.247	12.65
248.709	12.57
249.17	12.54
249.632	12.46
250.093	12.39
250.555	12.34
251.016	12.29
251.477	12.22
251.939	12.17
252.4	12.1
252.861	12.05
253.322	11.99
253.783	11.97
254.244	11.9
254.705	11.87
255.166	11.85
255.627	11.81
256.088	11.77
256.549	11.75
257.009	11.71
257.47	11.68
257.931	11.64
258.391	11.59
258.852	11.54
259.312	11.52
259.773	11.49
260.233	11.44
260.694	11.4
261.154	11.36
261.614	11.33
262.074	11.3
262.534	11.27
262.994	11.25
263.455	11.22
263.915	11.19
264.374	11.16
264.834	11.14
265.294	11.12
265.754	11.09
266.214	11.07
266.673	11.06
267.133	11.03
267.593	11
268.052	10.98
268.512	10.97
268.971	10.96
269.431	10.95
269.89	10.93
270.349	10.92
270.809	10.91
271.268	10.9
271.727	10.89
272.186	10.88
272.645	10.87
273.104	10.85
273.563	10.83
274.022	10.81
274.481	10.79
274.94	10.78
275.399	10.76
275.857	10.74
276.316	10.72
276.775	10.69
277.233	10.67
277.692	10.65
278.15	10.63
278.609	10.6
279.067	10.58
279.525	10.56
279.984	10.54
280.442	10.53
280.9	10.51
281.358	10.49
281.816	10.47
282.274	10.45
282.732	10.44
283.19	10.42
283.648	10.41
284.106	10.39
284.564	10.38
285.021	10.36
285.479	10.34
285.937	10.33
286.394	10.32
286.852	10.31
287.309	10.31
287.767	10.3
288.224	10.29
288.682	10.29
289.139	10.28
289.596	10.26
290.053	10.25
290.511	10.22
290.968	10.21
291.425	10.19
291.882	10.17
292.339	10.15
292.796	10.13
293.252	10.1
293.709	10.08
294.166	10.05
294.623	10.03
295.079	10.01
295.536	9.99
295.992	9.97
296.449	9.95
296.905	9.93
297.362	9.91
297.818	9.89
298.274	9.87
298.731	9.86
299.187	9.85
299.643	9.83
300.099	9.83
300.555	9.81
301.011	9.79
301.467	9.78
301.923	9.77
302.379	9.75
302.835	9.74
303.291	9.72
303.746	9.7
304.202	9.68
304.658	9.67
305.113	9.65
305.569	9.63
306.024	9.61
306.479	9.6
306.935	9.58
307.39	9.57
307.845	9.55
308.301	9.55
308.756	9.55
309.211	9.54
309.666	9.54
310.121	9.52
310.576	9.52
311.031	9.51
311.486	9.52
311.94	9.52
312.395	9.51
312.85	9.5
313.305	9.49
313.759	9.49
314.214	9.48
314.668	9.47
315.123	9.48
315.577	9.47
316.032	9.46
316.486	9.45
316.94	9.44
317.394	9.43
317.849	9.42
318.303	9.42
318.757	9.4
319.211	9.38
319.665	9.37
320.119	9.35
320.572	9.34
321.026	9.32
321.48	9.3
321.934	9.29
322.387	9.27
322.841	9.25
323.295	9.23
323.748	9.22
324.202	9.19
324.655	9.17
325.108	9.14
325.562	9.1
326.015	9.08
326.468	9.06
326.921	9.04
327.374	9.02
327.827	9
328.28	8.98
328.733	8.97
329.186	8.96
329.639	8.95
330.092	8.94
330.545	8.94
330.997	8.93
331.45	8.91
331.903	8.91
332.355	8.9
332.808	8.89
333.26	8.89
333.713	8.89
334.165	8.89
334.617	8.89
335.069	8.9
335.522	8.92
335.974	8.92
336.426	8.92
336.878	8.93
337.33	8.94
337.782	8.94
338.234	8.95
338.686	8.95
339.137	8.97
339.589	8.96
340.041	8.95
340.493	8.92
340.944	8.92
341.396	8.9
341.847	8.89
342.299	8.86
342.75	8.84
343.201	8.81
343.653	8.78
344.104	8.75
344.555	8.74
345.006	8.72
345.457	8.71
345.908	8.7
346.359	8.7
346.81	8.68
347.261	8.67
347.712	8.66
348.163	8.65
348.613	8.63
349.064	8.62
349.515	8.6
349.965	8.59
350.416	8.57
350.866	8.55
351.317	8.53
351.767	8.53
352.217	8.51
352.668	8.51
353.118	8.51
353.568	8.52
354.018	8.53
354.468	8.51
354.918	8.52
355.368	8.53
355.818	8.53
356.268	8.54
356.718	8.54
357.168	8.54
357.617	8.54
358.067	8.54
358.517	8.55
358.966	8.55
359.416	8.57
359.865	8.58
360.315	8.57
360.764	8.58
361.213	8.59
361.663	8.6
362.112	8.62
362.561	8.64
363.01	8.66
363.459	8.67
363.908	8.67
364.357	8.68
364.806	8.7
365.255	8.73
365.703	8.74
366.152	8.76
366.601	8.77
367.05	8.78
367.498	8.8
367.947	8.81
368.395	8.83
368.844	8.87
369.292	8.89
369.74	8.9
370.189	8.92
370.637	8.95
371.085	8.98
371.533	9.01
371.981	9.03
372.429	9.04
372.877	9.07
373.325	9.1
373.773	9.12
374.221	9.15
374.669	9.19
375.116	9.21
375.564	9.23
376.012	9.26
376.459	9.29
376.907	9.32
377.354	9.35
377.801	9.39
378.249	9.43
378.696	9.47
379.143	9.51
379.591	9.54
380.038	9.58
380.485	9.63
380.932	9.68
381.379	9.72
381.826	9.75
382.273	9.8
382.72	9.84
383.166	9.88
383.613	9.91
384.06	9.94
384.506	9.98
384.953	9.98
385.4	10
385.846	10.03
386.292	10.05
386.739	10.07
387.185	10.11
387.631	10.15
388.078	10.19
388.524	10.21
388.97	10.23
389.416	10.23
389.862	10.26
390.308	10.29
390.754	10.31
391.2	10.35
391.645	10.38
392.091	10.4
392.537	10.4
392.983	10.43
393.428	10.46
393.874	10.51
394.319	10.55
394.765	10.56
395.21	10.57
395.655	10.58
396.101	10.61
396.546	10.62
396.991	10.63
397.436	10.63
397.881	10.64
398.326	10.66
398.771	10.67
399.216	10.68
399.661	10.72
400.106	10.75
400.551	10.76
400.995	10.74
401.44	10.72
401.885	10.71
402.329	10.7
402.774	10.67
403.218	10.65
403.663	10.64
404.107	10.63
404.551	10.62
404.995	10.6
405.44	10.58
405.884	10.58
406.328	10.59
406.772	10.57
407.216	10.58
407.66	10.59
408.104	10.59
408.547	10.58
408.991	10.56
409.435	10.54
409.879	10.52
410.322	10.52
410.766	10.5
411.209	10.5
411.653	10.48
412.096	10.45
412.54	10.45
412.983	10.43
413.426	10.43
413.869	10.43
414.312	10.46
414.756	10.47
415.199	10.47
415.642	10.5
416.085	10.51
416.527	10.56
416.97	10.6
417.413	10.58
417.856	10.58
418.298	10.56
418.741	10.54
419.184	10.51
419.626	10.51
420.069	10.49
420.511	10.46
420.953	10.44
421.396	10.41
421.838	10.39
422.28	10.41
422.722	10.44
423.164	10.44
423.606	10.46
424.048	10.47
424.49	10.47
424.932	10.49
425.374	10.5
425.816	10.49
426.258	10.46
426.699	10.41
427.141	10.34
427.582	10.3
428.024	10.28
428.465	10.27
428.907	10.27
429.348	10.25
429.789	10.23
430.231	10.19
430.672	10.17
431.113	10.19
431.554	10.21
431.995	10.23
432.436	10.23
432.877	10.21
433.318	10.19
433.759	10.15
434.2	10.13
434.64	10.12
435.081	10.12
435.522	10.11
435.962	10.1
436.403	10.13
436.843	10.14
437.284	10.16
437.724	10.19
438.164	10.19
438.604	10.21
439.045	10.21
439.485	10.21
439.925	10.22
440.365	10.22
440.805	10.22
441.245	10.21
441.685	10.2
442.125	10.2
442.564	10.2
443.004	10.23
443.444	10.24
443.883	10.25
444.323	10.25
444.762	10.29
445.202	10.34
445.641	10.37
446.081	10.4
446.52	10.41
446.959	10.42
447.398	10.45
447.837	10.47
448.276	10.49
448.716	10.5
449.154	10.52
449.593	10.54
450.032	10.53
450.471	10.54
450.91	10.55
451.349	10.57
451.787	10.56
452.226	10.55
452.664	10.53
453.103	10.51
453.541	10.53
453.98	10.51
454.418	10.46
454.856	10.43
455.295	10.4
455.733	10.38
456.171	10.34
456.609	10.32
457.047	10.29
457.485	10.29
457.923	10.29
458.361	10.25
458.798	10.24
459.236	10.23
459.674	10.22
460.111	10.22
460.549	10.19
460.987	10.2
461.424	10.19
461.862	10.18
462.299	10.15
462.736	10.13
463.173	10.12
463.611	10.11
464.048	10.12
464.485	10.1
464.922	10.08
465.359	10.08
465.796	10.04
466.233	10.03
466.67	10.04
467.106	10.04
467.543	10.04
467.98	10.04
468.416	10.06
468.853	10.06
469.29	10.08
469.726	10.1
470.162	10.12
470.599	10.15
471.035	10.17
471.471	10.16
471.907	10.15
472.344	10.15
472.78	10.14
473.216	10.13
473.652	10.12
474.088	10.13
474.523	10.13
474.959	10.1
475.395	10.1
475.831	10.07
476.266	10.09
476.702	10.1
477.138	10.1
477.573	10.1
478.008	10.11
478.444	10.1
478.879	10.09
479.314	10.08
479.75	10.09
480.185	10.07
480.62	10.09
481.055	10.09
481.49	10.08
481.925	10.07
482.36	10.06
482.795	10.04
483.229	10.04
483.664	10.04
484.099	10.04
484.534	10.04
484.968	10.05
485.403	10.05
485.837	10.05
486.271	10.04
486.706	10.05
487.14	10.07
487.574	10.08
488.009	10.1
488.443	10.1
488.877	10.12
489.311	10.14
489.745	10.15
490.179	10.17
490.613	10.19
491.046	10.24
491.48	10.28
491.914	10.31
492.348	10.35
492.781	10.38
493.215	10.43
493.648	10.47
494.082	10.52
494.515	10.58
494.948	10.63
495.382	10.67
495.815	10.72
496.248	10.78
496.681	10.83
497.114	10.89
497.547	10.97
497.98	11.04
498.413	11.12
498.846	11.19
499.279	11.28
499.711	11.36
500.144	11.46
500.577	11.57
501.009	11.67
501.442	11.79
501.874	11.9
502.306	12.02
502.739	12.15
503.171	12.27
503.603	12.42
504.036	12.57
504.468	12.72
504.9	12.87
505.332	13.03
505.764	13.19
506.196	13.37
506.627	13.55
507.059	13.72
507.491	13.9
507.923	14.09
508.354	14.29
508.786	14.5
509.217	14.69
509.649	14.92
510.08	15.14
510.512	15.37
510.943	15.6
511.374	15.84
511.805	16.09
512.237	16.36
512.668	16.62
513.099	16.88
513.53	17.12
513.961	17.4
514.391	17.65
514.822	17.91
515.253	18.18
515.684	18.41
516.114	18.7
516.545	18.97
516.975	19.23
517.406	19.5
517.836	19.76
518.267	20.03
518.697	20.31
519.127	20.58
519.558	20.83
519.988	21.09
520.418	21.36
520.848	21.59
521.278	21.86
521.708	21.97
522.138	22.2
522.567	22.43
522.997	22.67
523.427	22.89
523.857	23.11
524.286	23.33
524.716	23.54
525.145	23.77
525.575	23.97
526.004	24.14
526.433	24.47
526.863	24.66
527.292	24.85
527.721	25.04
528.15	25.2
528.579	25.38
529.008	25.53
529.437	25.67
529.866	25.79
530.295	25.94
530.724	26.1
531.152	26.22
531.581	26.33
532.01	26.44
532.438	26.53
532.867	26.64
533.295	26.73
533.723	26.83
534.152	26.93
534.58	27.01
535.008	27.06
535.436	27.1
535.865	27.14
536.293	27.22
536.721	27.28
537.149	27.33
537.576	27.37
538.004	27.4
538.432	27.41
538.86	27.43
539.287	27.46
539.715	27.5
540.143	27.54
540.57	27.57
540.998	27.59
541.425	27.62
541.852	27.65
542.28	27.67
542.707	27.74
543.134	27.79
543.561	27.81
543.988	27.84
544.415	27.87
544.842	27.9
545.269	27.93
545.696	27.95
546.123	27.98
546.549	27.99
546.976	28.04
547.403	28.03
547.829	28.04
548.256	28.09
548.682	28.1
549.108	28.13
549.535	28.15
549.961	28.16
550.387	28.18
550.813	28.18
551.24	28.19
551.666	28.2
552.092	28.2
552.518	28.2
552.943	28.18
553.369	28.19
553.795	28.17
554.221	28.16
554.646	28.15
555.072	28.13
555.498	28.09
555.923	28.06
556.349	28
556.774	27.97
557.199	27.91
557.625	27.86
558.05	27.79
558.475	27.73
558.9	27.67
559.325	27.61
559.75	27.52
560.175	27.45
560.6	27.36
561.025	27.29
561.449	27.19
561.874	27.11
562.299	27.02
562.723	26.9
563.148	26.78
563.572	26.67
563.997	26.54
564.421	26.42
564.846	26.29
565.27	26.16
565.694	26
566.118	25.86
566.542	25.72
566.966	25.58
567.39	25.43
567.814	25.27
568.238	25.11
568.662	24.97
569.086	24.82
569.509	24.67
569.933	24.52
570.357	24.37
570.78	24.21
571.204	24.05
571.627	23.88
572.05	23.75
572.474	23.61
572.897	23.49
573.32	23.34
573.743	23.2
574.166	23.07
574.589	22.95
575.012	22.83
575.435	22.72
575.858	22.63
576.281	22.53
576.704	22.43
577.126	22.35
577.549	22.25
577.972	22.17
578.394	22.09
578.817	22
579.239	21.94
579.661	21.87
580.084	21.8
580.506	21.72
580.928	21.63
581.35	21.57
581.772	21.51
582.194	21.44
582.616	21.37
583.038	21.29
583.46	21.22
583.882	21.15
584.303	21.08
584.725	21.01
585.147	20.94
585.568	20.87
585.99	20.81
586.411	20.77
586.833	20.7
587.254	20.63
587.675	20.57
588.096	20.53
588.518	20.46
588.939	20.41
589.36	20.36
589.781	20.32
590.202	20.27
590.623	20.22
591.043	20.15
591.464	20.12
591.885	20.09
592.305	20.06
592.726	20.02
593.147	20
593.567	19.96
593.987	19.95
594.408	19.93
594.828	19.89
595.248	19.87
595.669	19.84
596.089	19.81
596.509	19.77
596.929	19.73
597.349	19.69
597.769	19.64
598.189	19.61
598.608	19.57
599.028	19.51
599.448	19.5
599.867	19.45
600.287	19.41
600.706	19.37
601.126	19.31
601.545	19.27
601.965	19.24
602.384	19.2
602.803	19.13
603.222	19.07
603.641	19.03
604.061	18.96
604.48	18.89
604.898	18.83
605.317	18.76
605.736	18.71
606.155	18.65
606.574	18.58
606.992	18.5
607.411	18.46
607.829	18.36
608.248	18.29
608.666	18.23
609.085	18.18
609.503	18.1
609.921	18.04
610.339	17.99
610.758	17.93
611.176	17.86
611.594	17.8
612.012	17.73
612.43	17.71
612.847	17.66
613.265	17.6
613.683	17.53
614.101	17.47
614.518	17.42
614.936	17.33
615.353	17.26
615.771	17.19
616.188	17.14
616.606	17.08
617.023	17.02
617.44	16.96
617.857	16.91
618.274	16.87
618.691	16.83
619.108	16.79
619.525	16.76
619.942	16.73
620.359	16.71
620.776	16.69
621.192	16.67
621.609	16.65
622.026	16.61
622.442	16.58
622.859	16.57
623.275	16.57
623.691	16.55
624.108	16.54
624.524	16.52
624.94	16.49
625.356	16.47
625.772	16.46
626.188	16.46
626.604	16.44
627.02	16.44
627.436	16.42
627.852	16.4
628.268	16.38
628.683	16.36
629.099	16.34
629.514	16.33
629.93	16.31
630.345	16.27
630.761	16.22
631.176	16.18
631.591	16.13
632.007	16.07
632.422	16.01
632.837	15.96
633.252	15.87
633.667	15.79
634.082	15.7
634.497	15.59
634.911	15.5
635.326	15.4
635.741	15.3
636.155	15.19
636.57	15.08
636.984	14.94
637.399	14.8
637.813	14.67
638.228	14.55
638.642	14.43
639.056	14.31
639.47	14.16
639.884	14.03
640.298	13.9
640.712	13.75
641.126	13.61
641.54	13.48
641.954	13.36
642.368	13.26
642.781	13.12
643.195	12.98
643.609	12.86
644.022	12.76
644.436	12.64
644.849	12.52
645.262	12.42
645.676	12.33
646.089	12.25
646.502	12.15
646.915	12.08
647.328	12.01
647.741	11.96
648.154	11.9
648.567	11.87
648.98	11.83
649.393	11.81
649.805	11.77
650.218	11.74
650.631	11.71
651.043	11.7
651.456	11.68
651.868	11.65
652.28	11.64
652.693	11.6
653.105	11.56
653.517	11.53
653.929	11.5
654.341	11.47
654.753	11.45
655.165	11.4
655.577	11.36
655.989	11.3
656.401	11.24
656.813	11.16
657.224	11.13
657.636	11.08
658.047	11.02
658.459	10.95
658.87	10.89
659.282	10.83
659.693	10.77
660.104	10.71
660.515	10.66
660.926	10.62
661.338	10.57
661.749	10.5
662.159	10.44
662.57	10.39
662.981	10.34
663.392	10.28
663.803	10.22
664.213	10.18
664.624	10.14
665.035	10.08
665.445	10.04
665.855	10.01
666.266	9.99
666.676	9.94
667.086	9.91
667.497	9.88
667.907	9.85
668.317	9.83
668.727	9.82
669.137	9.8
669.547	9.81
669.956	9.78
670.366	9.78
670.776	9.77
671.186	9.77
671.595	9.79
672.005	9.81
672.414	9.82
672.824	9.84
673.233	9.85
673.642	9.86
674.052	9.88
674.461	9.92
674.87	9.95
675.279	9.98
675.688	10.01
676.097	10.04
676.506	10.06
676.915	10.1
677.323	10.14
677.732	10.18
678.141	10.23
678.549	10.28
678.958	10.34
679.366	10.39
679.775	10.47
680.183	10.54
680.592	10.63
681	10.73
681.408	10.83
681.816	10.95
682.224	11.08
682.632	11.22
683.04	11.37
683.448	11.54
683.856	11.73
684.264	11.93
684.671	12.16
685.079	12.39
685.487	12.67
685.894	12.97
686.302	13.28
686.709	13.6
687.116	13.95
687.524	14.35
687.931	14.74
688.338	15.16
688.745	15.6
689.152	16.07
689.559	16.56
689.966	17.05
690.373	17.57
690.78	18.12
691.187	18.67
691.593	19.25
692	19.82
692.407	20.42
692.813	21.01
693.22	21.6
693.626	22.21
694.032	22.82
694.439	23.44
694.845	24.05
695.251	24.64
695.657	25.22
696.063	25.81
696.469	26.38
696.875	26.95
697.281	27.52
697.687	28.1
698.093	28.67
698.498	29.22
698.904	29.76
699.31	30.28
699.715	30.82
700.12	31.35
700.526	31.84
700.931	32.33
701.337	32.81
701.742	33.27
702.147	33.73
702.552	34.18
702.957	34.62
703.362	35.07
703.767	35.48
704.172	35.87
704.577	36.26
704.981	36.67
705.386	37.07
705.791	37.47
706.195	37.84
706.6	38.19
707.004	38.54
707.408	38.9
707.813	39.22
708.217	39.56
708.621	39.93
709.025	40.27
709.43	40.57
709.834	40.9
710.237	41.21
710.641	41.55
711.045	41.84
711.449	42.14
711.853	42.44
712.256	42.73
712.66	43.02
713.064	43.24
713.467	43.5
713.87	43.8
714.274	44.07
714.677	44.33
715.08	44.52
715.484	44.8
715.887	45.05
716.29	45.28
716.693	45.53
717.096	45.74
717.499	46
717.901	46.2
718.304	46.4
718.707	46.6
719.109	46.8
719.512	47.06
719.915	47.26
720.317	47.47
720.719	47.62
721.122	47.79
721.524	47.99
721.926	48.14
722.328	48.32
722.731	48.49
723.133	48.66
723.535	48.83
723.937	48.95
724.338	49.06
724.74	49.19
725.142	49.3
725.544	49.44
725.945	49.52
726.347	49.68
726.748	49.81
727.15	49.92
727.551	50.02
727.952	50.12
728.354	50.27
728.755	50.38
729.156	50.5
729.557	50.64
729.958	50.74
730.359	50.86
730.76	50.88
731.161	50.96
731.562	51.04
731.962	51.11
732.363	51.17
732.763	51.2
733.164	51.27
733.564	51.31
733.965	51.34
734.365	51.38
734.766	51.45
735.166	51.5
735.566	51.51
735.966	51.55
736.366	51.56
736.766	51.61
737.166	51.66
737.566	51.69
737.966	51.72
738.365	51.78
738.765	51.85
739.165	51.85
739.564	51.93
739.964	51.97
740.363	52.01
740.763	52.04
741.162	52.06
741.561	52.09
741.96	52.13
742.36	52.15
742.759	52.15
743.158	52.16
743.557	52.18
743.955	52.22
744.354	52.29
744.753	52.33
745.152	52.35
745.55	52.37
745.949	52.39
746.348	52.42
746.746	52.45
747.144	52.52
747.543	52.56
747.941	52.59
748.339	52.62
748.737	52.62
749.136	52.67
749.534	52.69
749.932	52.73
750.33	52.75
750.727	52.77
751.125	52.78
751.523	52.74
751.921	52.76
752.318	52.78
752.716	52.72
753.113	52.7
753.511	52.65
753.908	52.63
754.305	52.62
754.703	52.57
755.1	52.52
755.497	52.49
755.894	52.48
756.291	52.42
756.688	52.39
757.085	52.39
757.482	52.36
757.878	52.33
758.275	52.34
758.672	52.34
759.068	52.37
759.465	52.37
759.861	52.36
760.258	52.32
760.654	52.29
761.05	52.26
761.447	52.26
761.843	52.23
762.239	52.22
762.635	52.2
763.031	52.15
763.427	52.09
763.822	52.06
764.218	52.06
764.614	52.08
765.01	52.12
765.405	52.12
765.801	52.1
766.196	52.14
766.592	52.17
766.987	52.15
767.382	52.19
767.778	52.2
768.173	52.22
768.568	52.19
768.963	52.18
