Data from c_3_dec_nc_4n_Splice17_18.txt Node
Date: Sat Feb 29 14:49:28 EST 2020
User: sa697716
Spectrometer: FLMS03696
Trigger mode: 0
Integration Time (sec): 3.180400E-1
Scans to average: 20
Electric dark correction enabled: true
Nonlinearity correction enabled: true
Boxcar width: 5
XAxis mode: Wavelengths
Number of Pixels in Spectrum: 2048
>>>>>Begin Spectral Data<<<<<
187.83	106.74
188.298	92.76
188.766	90.95
189.233	93.07
189.701	107.22
190.169	100.3
190.636	105.83
191.104	94.68
191.571	238.26
192.039	170.36
192.506	41.03
192.974	4701.48
193.441	-17.24
193.908	71.11
194.375	161.79
194.842	192.16
195.31	101.55
195.777	155.01
196.244	47.99
196.711	40.16
197.177	38.75
197.644	39.73
198.111	39.42
198.578	39.51
199.045	40.65
199.511	41.1
199.978	42.21
200.445	41.98
200.911	41.68
201.378	42.14
201.844	43.23
202.31	43.95
202.777	44.1
203.243	45.12
203.709	45.61
204.176	45.29
204.642	45.04
205.108	44.79
205.574	45.56
206.04	45.88
206.506	45.42
206.972	44.99
207.438	43.95
207.903	44.15
208.369	42.99
208.835	42.46
209.301	42.29
209.766	41.56
210.232	41.04
210.697	39.9
211.163	39.15
211.628	38.59
212.094	38.05
212.559	37.59
213.024	36.71
213.49	36.02
213.955	35.44
214.42	34.51
214.885	33.76
215.35	32.73
215.815	31.58
216.28	30.25
216.745	28.99
217.21	27.47
217.675	26.01
218.14	24.61
218.604	23.41
219.069	22.36
219.534	21.43
219.998	20.58
220.463	19.93
220.927	19.39
221.392	18.87
221.856	18.43
222.32	18.02
222.785	17.72
223.249	17.42
223.713	17.16
224.177	16.89
224.642	16.69
225.106	16.49
225.57	16.29
226.034	16.11
226.497	15.92
226.961	15.71
227.425	15.51
227.889	15.3
228.353	15.12
228.816	14.96
229.28	14.75
229.744	14.6
230.207	14.45
230.671	14.29
231.134	14.12
231.597	13.96
232.061	13.81
232.524	13.69
232.987	13.56
233.45	13.43
233.914	13.27
234.377	13.16
234.84	13.02
235.303	12.9
235.766	12.77
236.229	12.65
236.691	12.57
237.154	12.46
237.617	12.34
238.08	12.25
238.542	12.15
239.005	12.07
239.468	11.96
239.93	11.86
240.393	11.77
240.855	11.68
241.317	11.59
241.78	11.5
242.242	11.41
242.704	11.33
243.166	11.24
243.629	11.14
244.091	11.07
244.553	11.02
245.015	10.94
245.477	10.87
245.939	10.79
246.4	10.71
246.862	10.64
247.324	10.59
247.786	10.52
248.247	10.45
248.709	10.38
249.17	10.32
249.632	10.25
250.093	10.2
250.555	10.14
251.016	10.1
251.477	10.04
251.939	10.01
252.4	9.96
252.861	9.91
253.322	9.88
253.783	9.85
254.244	9.81
254.705	9.79
255.166	9.76
255.627	9.74
256.088	9.69
256.549	9.67
257.009	9.62
257.47	9.59
257.931	9.55
258.391	9.51
258.852	9.47
259.312	9.44
259.773	9.4
260.233	9.36
260.694	9.32
261.154	9.28
261.614	9.24
262.074	9.22
262.534	9.17
262.994	9.15
263.455	9.12
263.915	9.09
264.374	9.06
264.834	9.03
265.294	9
265.754	8.97
266.214	8.95
266.673	8.93
267.133	8.91
267.593	8.9
268.052	8.88
268.512	8.86
268.971	8.85
269.431	8.83
269.89	8.81
270.349	8.8
270.809	8.79
271.268	8.77
271.727	8.76
272.186	8.74
272.645	8.73
273.104	8.71
273.563	8.7
274.022	8.69
274.481	8.67
274.94	8.66
275.399	8.64
275.857	8.63
276.316	8.62
276.775	8.59
277.233	8.57
277.692	8.55
278.15	8.53
278.609	8.5
279.067	8.47
279.525	8.45
279.984	8.42
280.442	8.41
280.9	8.39
281.358	8.38
281.816	8.36
282.274	8.34
282.732	8.33
283.19	8.31
283.648	8.3
284.106	8.28
284.564	8.28
285.021	8.27
285.479	8.25
285.937	8.23
286.394	8.22
286.852	8.22
287.309	8.21
287.767	8.2
288.224	8.19
288.682	8.18
289.139	8.17
289.596	8.15
290.053	8.13
290.511	8.11
290.968	8.1
291.425	8.08
291.882	8.06
292.339	8.04
292.796	8.02
293.252	7.99
293.709	7.97
294.166	7.95
294.623	7.93
295.079	7.91
295.536	7.89
295.992	7.87
296.449	7.86
296.905	7.83
297.362	7.81
297.818	7.8
298.274	7.78
298.731	7.76
299.187	7.74
299.643	7.72
300.099	7.71
300.555	7.69
301.011	7.68
301.467	7.66
301.923	7.65
302.379	7.64
302.835	7.62
303.291	7.6
303.746	7.59
304.202	7.58
304.658	7.56
305.113	7.54
305.569	7.53
306.024	7.52
306.479	7.51
306.935	7.51
307.39	7.5
307.845	7.5
308.301	7.5
308.756	7.5
309.211	7.5
309.666	7.5
310.121	7.5
310.576	7.49
311.031	7.49
311.486	7.48
311.94	7.47
312.395	7.47
312.85	7.45
313.305	7.44
313.759	7.44
314.214	7.43
314.668	7.43
315.123	7.44
315.577	7.43
316.032	7.43
316.486	7.42
316.94	7.41
317.394	7.4
317.849	7.38
318.303	7.37
318.757	7.35
319.211	7.34
319.665	7.31
320.119	7.29
320.572	7.28
321.026	7.25
321.48	7.24
321.934	7.23
322.387	7.21
322.841	7.21
323.295	7.2
323.748	7.18
324.202	7.17
324.655	7.16
325.108	7.15
325.562	7.13
326.015	7.13
326.468	7.11
326.921	7.09
327.374	7.08
327.827	7.07
328.28	7.05
328.733	7.04
329.186	7.03
329.639	7.01
330.092	7.01
330.545	7
330.997	6.99
331.45	6.99
331.903	6.98
332.355	6.98
332.808	6.97
333.26	6.97
333.713	6.97
334.165	6.96
334.617	6.97
335.069	6.96
335.522	6.95
335.974	6.95
336.426	6.94
336.878	6.94
337.33	6.94
337.782	6.93
338.234	6.94
338.686	6.93
339.137	6.94
339.589	6.93
340.041	6.93
340.493	6.92
340.944	6.91
341.396	6.9
341.847	6.89
342.299	6.86
342.75	6.84
343.201	6.81
343.653	6.8
344.104	6.77
344.555	6.75
345.006	6.73
345.457	6.72
345.908	6.71
346.359	6.69
346.81	6.68
347.261	6.67
347.712	6.66
348.163	6.65
348.613	6.63
349.064	6.61
349.515	6.61
349.965	6.59
350.416	6.58
350.866	6.57
351.317	6.56
351.767	6.56
352.217	6.55
352.668	6.56
353.118	6.57
353.568	6.58
354.018	6.58
354.468	6.58
354.918	6.59
355.368	6.61
355.818	6.61
356.268	6.63
356.718	6.64
357.168	6.65
357.617	6.64
358.067	6.64
358.517	6.64
358.966	6.65
359.416	6.65
359.865	6.65
360.315	6.66
360.764	6.67
361.213	6.66
361.663	6.66
362.112	6.68
362.561	6.69
363.01	6.71
363.459	6.72
363.908	6.72
364.357	6.73
364.806	6.75
365.255	6.77
365.703	6.77
366.152	6.79
366.601	6.8
367.05	6.82
367.498	6.83
367.947	6.84
368.395	6.86
368.844	6.88
369.292	6.9
369.74	6.91
370.189	6.92
370.637	6.95
371.085	6.97
371.533	7
371.981	7.02
372.429	7.04
372.877	7.07
373.325	7.09
373.773	7.11
374.221	7.13
374.669	7.16
375.116	7.19
375.564	7.21
376.012	7.23
376.459	7.27
376.907	7.29
377.354	7.32
377.801	7.36
378.249	7.4
378.696	7.44
379.143	7.48
379.591	7.51
380.038	7.56
380.485	7.6
380.932	7.63
381.379	7.63
381.826	7.67
382.273	7.71
382.72	7.72
383.166	7.75
383.613	7.78
384.06	7.81
384.506	7.84
384.953	7.86
385.4	7.89
385.846	7.92
386.292	7.97
386.739	7.99
387.185	8.04
387.631	8.07
388.078	8.11
388.524	8.12
388.97	8.14
389.416	8.15
389.862	8.17
390.308	8.2
390.754	8.22
391.2	8.25
391.645	8.28
392.091	8.28
392.537	8.31
392.983	8.34
393.428	8.38
393.874	8.42
394.319	8.45
394.765	8.48
395.21	8.47
395.655	8.49
396.101	8.49
396.546	8.5
396.991	8.51
397.436	8.51
397.881	8.51
398.326	8.51
398.771	8.52
399.216	8.55
399.661	8.57
400.106	8.59
400.551	8.59
400.995	8.59
401.44	8.58
401.885	8.57
402.329	8.56
402.774	8.54
403.218	8.54
403.663	8.52
404.107	8.51
404.551	8.5
404.995	8.5
405.44	8.5
405.884	8.49
406.328	8.49
406.772	8.49
407.216	8.49
407.66	8.49
408.104	8.49
408.547	8.49
408.991	8.48
409.435	8.47
409.879	8.44
410.322	8.44
410.766	8.45
411.209	8.45
411.653	8.44
412.096	8.43
412.54	8.42
412.983	8.41
413.426	8.42
413.869	8.42
414.312	8.43
414.756	8.45
415.199	8.46
415.642	8.46
416.085	8.48
416.527	8.51
416.97	8.54
417.413	8.52
417.856	8.51
418.298	8.49
418.741	8.49
419.184	8.47
419.626	8.46
420.069	8.46
420.511	8.45
420.953	8.43
421.396	8.42
421.838	8.42
422.28	8.45
422.722	8.48
423.164	8.47
423.606	8.47
424.048	8.46
424.49	8.46
424.932	8.46
425.374	8.46
425.816	8.45
426.258	8.43
426.699	8.38
427.141	8.33
427.582	8.3
428.024	8.29
428.465	8.29
428.907	8.29
429.348	8.27
429.789	8.25
430.231	8.23
430.672	8.21
431.113	8.2
431.554	8.22
431.995	8.23
432.436	8.23
432.877	8.21
433.318	8.2
433.759	8.18
434.2	8.18
434.64	8.18
435.081	8.17
435.522	8.18
435.962	8.2
436.403	8.24
436.843	8.25
437.284	8.27
437.724	8.3
438.164	8.3
438.604	8.32
439.045	8.3
439.485	8.31
439.925	8.31
440.365	8.3
440.805	8.29
441.245	8.25
441.685	8.24
442.125	8.24
442.564	8.22
443.004	8.22
443.444	8.23
443.883	8.25
444.323	8.25
444.762	8.3
445.202	8.33
445.641	8.34
446.081	8.38
446.52	8.37
446.959	8.38
447.398	8.44
447.837	8.49
448.276	8.5
448.716	8.51
449.154	8.54
449.593	8.53
450.032	8.53
450.471	8.57
450.91	8.56
451.349	8.57
451.787	8.57
452.226	8.55
452.664	8.5
453.103	8.48
453.541	8.5
453.98	8.49
454.418	8.48
454.856	8.45
455.295	8.41
455.733	8.4
456.171	8.38
456.609	8.37
457.047	8.36
457.485	8.36
457.923	8.34
458.361	8.32
458.798	8.32
459.236	8.3
459.674	8.31
460.111	8.31
460.549	8.29
460.987	8.28
461.424	8.25
461.862	8.24
462.299	8.23
462.736	8.23
463.173	8.21
463.611	8.2
464.048	8.19
464.485	8.17
464.922	8.17
465.359	8.17
465.796	8.15
466.233	8.17
466.67	8.17
467.106	8.16
467.543	8.17
467.98	8.17
468.416	8.18
468.853	8.2
469.29	8.21
469.726	8.21
470.162	8.21
470.599	8.22
471.035	8.23
471.471	8.21
471.907	8.22
472.344	8.22
472.78	8.22
473.216	8.22
473.652	8.19
474.088	8.2
474.523	8.19
474.959	8.2
475.395	8.19
475.831	8.21
476.266	8.21
476.702	8.21
477.138	8.2
477.573	8.19
478.008	8.17
478.444	8.18
478.879	8.17
479.314	8.17
479.75	8.17
480.185	8.16
480.62	8.15
481.055	8.15
481.49	8.14
481.925	8.13
482.36	8.13
482.795	8.14
483.229	8.12
483.664	8.11
484.099	8.11
484.534	8.11
484.968	8.12
485.403	8.12
485.837	8.12
486.271	8.12
486.706	8.12
487.14	8.15
487.574	8.15
488.009	8.17
488.443	8.18
488.877	8.21
489.311	8.23
489.745	8.26
490.179	8.28
490.613	8.3
491.046	8.33
491.48	8.37
491.914	8.39
492.348	8.44
492.781	8.48
493.215	8.52
493.648	8.56
494.082	8.62
494.515	8.67
494.948	8.72
495.382	8.79
495.815	8.85
496.248	8.92
496.681	8.98
497.114	9.05
497.547	9.12
497.98	9.2
498.413	9.27
498.846	9.34
499.279	9.42
499.711	9.51
500.144	9.61
500.577	9.72
501.009	9.83
501.442	9.95
501.874	10.06
502.306	10.19
502.739	10.32
503.171	10.47
503.603	10.62
504.036	10.78
504.468	10.94
504.9	11.11
505.332	11.28
505.764	11.46
506.196	11.64
506.627	11.84
507.059	12.05
507.491	12.27
507.923	12.48
508.354	12.7
508.786	12.92
509.217	13.14
509.649	13.38
510.08	13.64
510.512	13.89
510.943	14.16
511.374	14.42
511.805	14.68
512.237	14.94
512.668	15.21
513.099	15.5
513.53	15.8
513.961	16.09
514.391	16.38
514.822	16.66
515.253	16.96
515.684	17.25
516.114	17.54
516.545	17.84
516.975	18.16
517.406	18.47
517.836	18.79
518.267	19.09
518.697	19.41
519.127	19.72
519.558	20.03
519.988	20.33
520.418	20.62
520.848	20.93
521.278	21.24
521.708	21.38
522.138	21.65
522.567	21.91
522.997	22.18
523.427	22.43
523.857	22.69
524.286	22.95
524.716	23.19
525.145	23.45
525.575	23.68
526.004	23.91
526.433	24.28
526.863	24.51
527.292	24.72
527.721	24.91
528.15	25.09
528.579	25.28
529.008	25.47
529.437	25.65
529.866	25.8
530.295	25.96
530.724	26.11
531.152	26.27
531.581	26.41
532.01	26.53
532.438	26.67
532.867	26.8
533.295	26.91
533.723	27.02
534.152	27.1
534.58	27.18
535.008	27.24
535.436	27.31
535.865	27.35
536.293	27.42
536.721	27.47
537.149	27.53
537.576	27.58
538.004	27.61
538.432	27.65
538.86	27.69
539.287	27.72
539.715	27.76
540.143	27.77
540.57	27.82
540.998	27.83
541.425	27.87
541.852	27.87
542.28	27.89
542.707	27.94
543.134	27.96
543.561	27.99
543.988	28.03
544.415	28.03
544.842	28.07
545.269	28.08
545.696	28.12
546.123	28.16
546.549	28.22
546.976	28.25
547.403	28.25
547.829	28.29
548.256	28.31
548.682	28.33
549.108	28.38
549.535	28.41
549.961	28.43
550.387	28.43
550.813	28.41
551.24	28.42
551.666	28.44
552.092	28.45
552.518	28.44
552.943	28.43
553.369	28.42
553.795	28.41
554.221	28.38
554.646	28.36
555.072	28.33
555.498	28.29
555.923	28.21
556.349	28.14
556.774	28.07
557.199	28.03
557.625	27.98
558.05	27.91
558.475	27.82
558.9	27.75
559.325	27.66
559.75	27.56
560.175	27.48
560.6	27.41
561.025	27.31
561.449	27.19
561.874	27.06
562.299	26.91
562.723	26.78
563.148	26.65
563.572	26.52
563.997	26.39
564.421	26.25
564.846	26.11
565.27	25.95
565.694	25.77
566.118	25.62
566.542	25.47
566.966	25.32
567.39	25.15
567.814	24.96
568.238	24.76
568.662	24.58
569.086	24.4
569.509	24.22
569.933	24.03
570.357	23.85
570.78	23.66
571.204	23.48
571.627	23.32
572.05	23.15
572.474	23
572.897	22.86
573.32	22.71
573.743	22.56
574.166	22.42
574.589	22.28
575.012	22.15
575.435	22.03
575.858	21.91
576.281	21.79
576.704	21.67
577.126	21.56
577.549	21.47
577.972	21.37
578.394	21.26
578.817	21.16
579.239	21.09
579.661	20.99
580.084	20.91
580.506	20.82
580.928	20.74
581.35	20.66
581.772	20.59
582.194	20.5
582.616	20.42
583.038	20.35
583.46	20.27
583.882	20.2
584.303	20.13
584.725	20.04
585.147	19.94
585.568	19.86
585.99	19.78
586.411	19.7
586.833	19.63
587.254	19.57
587.675	19.5
588.096	19.44
588.518	19.37
588.939	19.3
589.36	19.26
589.781	19.22
590.202	19.17
590.623	19.11
591.043	19.05
591.464	18.99
591.885	18.93
592.305	18.9
592.726	18.84
593.147	18.81
593.567	18.78
593.987	18.75
594.408	18.7
594.828	18.66
595.248	18.63
595.669	18.6
596.089	18.55
596.509	18.5
596.929	18.46
597.349	18.42
597.769	18.37
598.189	18.32
598.608	18.27
599.028	18.23
599.448	18.18
599.867	18.12
600.287	18.08
600.706	18.03
601.126	17.98
601.545	17.93
601.965	17.88
602.384	17.83
602.803	17.78
603.222	17.71
603.641	17.66
604.061	17.59
604.48	17.52
604.898	17.45
605.317	17.4
605.736	17.33
606.155	17.24
606.574	17.17
606.992	17.09
607.411	17.01
607.829	16.9
608.248	16.83
608.666	16.75
609.085	16.68
609.503	16.6
609.921	16.52
610.339	16.45
610.758	16.4
611.176	16.33
611.594	16.25
612.012	16.16
612.43	16.15
612.847	16.07
613.265	16.01
613.683	15.94
614.101	15.86
614.518	15.78
614.936	15.71
615.353	15.64
615.771	15.57
616.188	15.52
616.606	15.46
617.023	15.4
617.44	15.34
617.857	15.28
618.274	15.22
618.691	15.19
619.108	15.15
619.525	15.11
619.942	15.07
620.359	15.04
620.776	15
621.192	14.95
621.609	14.91
622.026	14.88
622.442	14.86
622.859	14.83
623.275	14.8
623.691	14.79
624.108	14.79
624.524	14.76
624.94	14.73
625.356	14.73
625.772	14.72
626.188	14.73
626.604	14.71
627.02	14.7
627.436	14.69
627.852	14.67
628.268	14.63
628.683	14.59
629.099	14.58
629.514	14.55
629.93	14.51
630.345	14.47
630.761	14.41
631.176	14.37
631.591	14.31
632.007	14.24
632.422	14.18
632.837	14.13
633.252	14.08
633.667	13.97
634.082	13.89
634.497	13.8
634.911	13.7
635.326	13.59
635.741	13.47
636.155	13.36
636.57	13.25
636.984	13.1
637.399	12.95
637.813	12.79
638.228	12.65
638.642	12.51
639.056	12.37
639.47	12.23
639.884	12.1
640.298	11.95
640.712	11.79
641.126	11.65
641.54	11.52
641.954	11.41
642.368	11.28
642.781	11.14
643.195	11.02
643.609	10.88
644.022	10.77
644.436	10.66
644.849	10.55
645.262	10.48
645.676	10.38
646.089	10.29
646.502	10.2
646.915	10.11
647.328	10.05
647.741	9.98
648.154	9.95
648.567	9.89
648.98	9.84
649.393	9.79
649.805	9.74
650.218	9.72
650.631	9.68
651.043	9.66
651.456	9.63
651.868	9.6
652.28	9.57
652.693	9.53
653.105	9.49
653.517	9.46
653.929	9.43
654.341	9.4
654.753	9.36
655.165	9.32
655.577	9.26
655.989	9.22
656.401	9.18
656.813	9.12
657.224	9.06
657.636	9.01
658.047	8.97
658.459	8.89
658.87	8.83
659.282	8.77
659.693	8.71
660.104	8.66
660.515	8.59
660.926	8.54
661.338	8.48
661.749	8.41
662.159	8.35
662.57	8.28
662.981	8.24
663.392	8.18
663.803	8.12
664.213	8.07
664.624	8.03
665.035	7.98
665.445	7.92
665.855	7.9
666.266	7.88
666.676	7.86
667.086	7.84
667.497	7.81
667.907	7.79
668.317	7.77
668.727	7.76
669.137	7.75
669.547	7.76
669.956	7.75
670.366	7.75
670.776	7.74
671.186	7.75
671.595	7.76
672.005	7.78
672.414	7.8
672.824	7.83
673.233	7.86
673.642	7.87
674.052	7.9
674.461	7.92
674.87	7.95
675.279	7.99
675.688	8.02
676.097	8.07
676.506	8.1
676.915	8.15
677.323	8.2
677.732	8.26
678.141	8.32
678.549	8.39
678.958	8.46
679.366	8.51
679.775	8.59
680.183	8.67
680.592	8.75
681	8.83
681.408	8.93
681.816	9.05
682.224	9.16
682.632	9.29
683.04	9.42
683.448	9.58
683.856	9.76
684.264	9.95
684.671	10.18
685.079	10.43
685.487	10.71
685.894	11.01
686.302	11.33
686.709	11.67
687.116	12.04
687.524	12.45
687.931	12.88
688.338	13.35
688.745	13.84
689.152	14.35
689.559	14.86
689.966	15.41
690.373	15.98
690.78	16.57
691.187	17.2
691.593	17.82
692	18.46
692.407	19.12
692.813	19.78
693.22	20.43
693.626	21.09
694.032	21.78
694.439	22.48
694.845	23.16
695.251	23.85
695.657	24.52
696.063	25.2
696.469	25.89
696.875	26.54
697.281	27.19
697.687	27.86
698.093	28.5
698.498	29.15
698.904	29.8
699.31	30.41
699.715	31
700.12	31.59
700.526	32.19
700.931	32.75
701.337	33.33
701.742	33.89
702.147	34.45
702.552	34.99
702.957	35.52
703.362	36.01
703.767	36.52
704.172	37.04
704.577	37.53
704.981	38.02
705.386	38.49
705.791	38.96
706.195	39.42
706.6	39.89
707.004	40.34
707.408	40.77
707.813	41.22
708.217	41.64
708.621	42.04
709.025	42.45
709.43	42.83
709.834	43.24
710.237	43.61
710.641	44.01
711.045	44.34
711.449	44.69
711.853	45.06
712.256	45.4
712.66	45.75
713.064	46.06
713.467	46.39
713.87	46.71
714.274	47.04
714.677	47.35
715.08	47.6
715.484	47.91
715.887	48.19
716.29	48.44
716.693	48.73
717.096	49.01
717.499	49.26
717.901	49.52
718.304	49.77
718.707	49.98
719.109	50.23
719.512	50.53
719.915	50.76
720.317	50.99
720.719	51.23
721.122	51.45
721.524	51.68
721.926	51.93
722.328	52.14
722.731	52.36
723.133	52.57
723.535	52.79
723.937	52.97
724.338	53.14
724.74	53.32
725.142	53.46
725.544	53.61
725.945	53.72
726.347	53.87
726.748	54.02
727.15	54.14
727.551	54.29
727.952	54.39
728.354	54.54
728.755	54.69
729.156	54.82
729.557	54.98
729.958	55.1
730.359	55.23
730.76	55.32
731.161	55.44
731.562	55.58
731.962	55.68
732.363	55.79
732.763	55.88
733.164	55.95
733.564	56.03
733.965	56.07
734.365	56.13
734.766	56.21
735.166	56.25
735.566	56.27
735.966	56.28
736.366	56.29
736.766	56.33
737.166	56.37
737.566	56.39
737.966	56.44
738.365	56.5
738.765	56.55
739.165	56.55
739.564	56.6
739.964	56.65
740.363	56.74
740.763	56.78
741.162	56.81
741.561	56.81
741.96	56.86
742.36	56.87
742.759	56.88
743.158	56.89
743.557	56.96
743.955	57.05
744.354	57.11
744.753	57.12
745.152	57.16
745.55	57.16
745.949	57.19
746.348	57.22
746.746	57.24
747.144	57.33
747.543	57.36
747.941	57.41
748.339	57.4
748.737	57.42
749.136	57.44
749.534	57.47
749.932	57.53
750.33	57.56
750.727	57.57
751.125	57.58
751.523	57.53
751.921	57.57
752.318	57.56
752.716	57.51
753.113	57.48
753.511	57.42
753.908	57.41
754.305	57.37
754.703	57.34
755.1	57.33
755.497	57.3
755.894	57.29
756.291	57.21
756.688	57.13
757.085	57.14
757.482	57.14
757.878	57.16
758.275	57.13
758.672	57.12
759.068	57.12
759.465	57.13
759.861	57.15
760.258	57.13
760.654	57.13
761.05	57.15
761.447	57.12
761.843	57.08
762.239	57.06
762.635	57.05
763.031	57.06
763.427	57.04
763.822	56.98
764.218	56.96
764.614	56.98
765.01	56.99
765.405	56.95
765.801	56.97
766.196	56.93
766.592	56.94
766.987	56.94
767.382	56.93
767.778	56.96
768.173	56.96
768.568	56.91
768.963	56.86
769.358	56.86
769.753	56.92
770.148	56.9
770.542	56.9
770.937	56.86
771.332	56.82
771.726	56.8
772.121	56.72
772.515	56.68
772.91	56.72
773.304	56.73
773.699	56.69
774.093	56.63
774.487	56.64
774.881	56.66
775.275	56.68
775.669	56.7
776.063	56.69
776.457	56.73
776.851	56.73
777.245	56.74
777.638	56.75
778.032	56.74
778.425	56.74
778.819	56.72
779.212	56.7
