Data from C_3_div_oh_2n_Splice17_17.txt Node
Date: Sat Feb 29 14:39:11 EST 2020
User: sa697716
Spectrometer: FLMS03696
Trigger mode: 0
Integration Time (sec): 3.180400E-1
Scans to average: 20
Electric dark correction enabled: true
Nonlinearity correction enabled: true
Boxcar width: 5
XAxis mode: Wavelengths
Number of Pixels in Spectrum: 2048
>>>>>Begin Spectral Data<<<<<
187.83	71.28
188.298	77.83
188.766	79.05
189.233	68.87
189.701	72.62
190.169	72.64
190.636	70.62
191.104	69.16
191.571	271.96
192.039	238.16
192.506	67.07
192.974	11115.48
193.441	-1221.37
193.908	178.45
194.375	194.2
194.842	210.55
195.31	126.1
195.777	132.83
196.244	3.42
196.711	-13.24
197.177	-17.98
197.644	-18.31
198.111	-20.53
198.578	-20.92
199.045	-20.79
199.511	-19.68
199.978	-18.77
200.445	-18.65
200.911	-18.63
201.378	-18.25
201.844	-18.03
202.31	-17.46
202.777	-17.13
203.243	-16.54
203.709	-15.64
204.176	-15.24
204.642	-15.5
205.108	-15.79
205.574	-15.46
206.04	-15.39
206.506	-15.14
206.972	-14.68
207.438	-14.66
207.903	-13.76
208.369	-13.7
208.835	-13.27
209.301	-12.48
209.766	-11.03
210.232	-10.25
210.697	-9.85
211.163	-9.1
211.628	-8.94
212.094	-8.58
212.559	-8.25
213.024	-8.39
213.49	-7.55
213.955	-6.98
214.42	-6.43
214.885	-6.51
215.35	-5.85
215.815	-4.98
216.28	-4.17
216.745	-2.76
217.21	-1.53
217.675	-0.3
218.14	0.53
218.604	1.24
219.069	1.83
219.534	2.29
219.998	2.76
220.463	3.09
220.927	3.37
221.392	3.6
221.856	3.71
222.32	3.83
222.785	3.94
223.249	4.04
223.713	4.12
224.177	4.13
224.642	4.2
225.106	4.27
225.57	4.31
226.034	4.36
226.497	4.38
226.961	4.43
227.425	4.41
227.889	4.39
228.353	4.39
228.816	4.4
229.28	4.38
229.744	4.37
230.207	4.35
230.671	4.33
231.134	4.3
231.597	4.27
232.061	4.22
232.524	4.21
232.987	4.19
233.45	4.16
233.914	4.14
234.377	4.15
234.84	4.1
235.303	4.06
235.766	4.04
236.229	4.01
236.691	3.99
237.154	3.97
237.617	3.93
238.08	3.9
238.542	3.86
239.005	3.83
239.468	3.78
239.93	3.76
240.393	3.75
240.855	3.71
241.317	3.7
241.78	3.68
242.242	3.66
242.704	3.63
243.166	3.63
243.629	3.61
244.091	3.59
244.553	3.59
245.015	3.59
245.477	3.55
245.939	3.54
246.4	3.51
246.862	3.51
247.324	3.5
247.786	3.5
248.247	3.49
248.709	3.48
249.17	3.47
249.632	3.45
250.093	3.43
250.555	3.43
251.016	3.43
251.477	3.41
251.939	3.39
252.4	3.38
252.861	3.38
253.322	3.35
253.783	3.35
254.244	3.34
254.705	3.34
255.166	3.33
255.627	3.32
256.088	3.3
256.549	3.31
257.009	3.32
257.47	3.31
257.931	3.3
258.391	3.29
258.852	3.28
259.312	3.28
259.773	3.27
260.233	3.25
260.694	3.25
261.154	3.25
261.614	3.23
262.074	3.22
262.534	3.21
262.994	3.21
263.455	3.21
263.915	3.21
264.374	3.21
264.834	3.21
265.294	3.21
265.754	3.19
266.214	3.19
266.673	3.19
267.133	3.19
267.593	3.19
268.052	3.19
268.512	3.18
268.971	3.17
269.431	3.16
269.89	3.15
270.349	3.14
270.809	3.15
271.268	3.14
271.727	3.13
272.186	3.13
272.645	3.12
273.104	3.11
273.563	3.11
274.022	3.12
274.481	3.12
274.94	3.12
275.399	3.12
275.857	3.12
276.316	3.11
276.775	3.1
277.233	3.1
277.692	3.09
278.15	3.08
278.609	3.06
279.067	3.05
279.525	3.03
279.984	3.02
280.442	3.01
280.9	3
281.358	2.99
281.816	2.98
282.274	2.97
282.732	2.97
283.19	2.97
283.648	2.96
284.106	2.95
284.564	2.96
285.021	2.95
285.479	2.96
285.937	2.95
286.394	2.95
286.852	2.95
287.309	2.95
287.767	2.95
288.224	2.95
288.682	2.96
289.139	2.97
289.596	2.96
290.053	2.96
290.511	2.95
290.968	2.96
291.425	2.96
291.882	2.96
292.339	2.96
292.796	2.96
293.252	2.96
293.709	2.95
294.166	2.93
294.623	2.93
295.079	2.93
295.536	2.93
295.992	2.92
296.449	2.92
296.905	2.91
297.362	2.9
297.818	2.89
298.274	2.88
298.731	2.88
299.187	2.88
299.643	2.87
300.099	2.87
300.555	2.85
301.011	2.85
301.467	2.83
301.923	2.83
302.379	2.83
302.835	2.82
303.291	2.81
303.746	2.81
304.202	2.79
304.658	2.78
305.113	2.77
305.569	2.76
306.024	2.75
306.479	2.74
306.935	2.73
307.39	2.71
307.845	2.71
308.301	2.7
308.756	2.7
309.211	2.7
309.666	2.7
310.121	2.69
310.576	2.68
311.031	2.68
311.486	2.67
311.94	2.67
312.395	2.67
312.85	2.66
313.305	2.65
313.759	2.64
314.214	2.63
314.668	2.63
315.123	2.63
315.577	2.62
316.032	2.62
316.486	2.61
316.94	2.61
317.394	2.59
317.849	2.6
318.303	2.59
318.757	2.58
319.211	2.57
319.665	2.57
320.119	2.56
320.572	2.57
321.026	2.57
321.48	2.57
321.934	2.56
322.387	2.56
322.841	2.56
323.295	2.55
323.748	2.55
324.202	2.55
324.655	2.54
325.108	2.53
325.562	2.51
326.015	2.5
326.468	2.49
326.921	2.48
327.374	2.48
327.827	2.47
328.28	2.46
328.733	2.45
329.186	2.44
329.639	2.43
330.092	2.43
330.545	2.43
330.997	2.43
331.45	2.42
331.903	2.42
332.355	2.4
332.808	2.4
333.26	2.4
333.713	2.39
334.165	2.39
334.617	2.39
335.069	2.39
335.522	2.38
335.974	2.37
336.426	2.37
336.878	2.37
337.33	2.37
337.782	2.37
338.234	2.37
338.686	2.37
339.137	2.37
339.589	2.37
340.041	2.37
340.493	2.37
340.944	2.37
341.396	2.38
341.847	2.38
342.299	2.37
342.75	2.36
343.201	2.35
343.653	2.36
344.104	2.35
344.555	2.34
345.006	2.34
345.457	2.35
345.908	2.35
346.359	2.35
346.81	2.35
347.261	2.35
347.712	2.35
348.163	2.35
348.613	2.35
349.064	2.34
349.515	2.34
349.965	2.33
350.416	2.32
350.866	2.32
351.317	2.31
351.767	2.31
352.217	2.31
352.668	2.31
353.118	2.31
353.568	2.31
354.018	2.32
354.468	2.31
354.918	2.32
355.368	2.33
355.818	2.32
356.268	2.32
356.718	2.32
357.168	2.32
357.617	2.31
358.067	2.31
358.517	2.3
358.966	2.3
359.416	2.31
359.865	2.31
360.315	2.31
360.764	2.32
361.213	2.31
361.663	2.31
362.112	2.31
362.561	2.31
363.01	2.32
363.459	2.33
363.908	2.32
364.357	2.32
364.806	2.32
365.255	2.31
365.703	2.3
366.152	2.3
366.601	2.3
367.05	2.3
367.498	2.32
367.947	2.31
368.395	2.31
368.844	2.31
369.292	2.3
369.74	2.3
370.189	2.3
370.637	2.3
371.085	2.3
371.533	2.3
371.981	2.29
372.429	2.27
372.877	2.26
373.325	2.26
373.773	2.25
374.221	2.25
374.669	2.24
375.116	2.24
375.564	2.24
376.012	2.23
376.459	2.22
376.907	2.23
377.354	2.22
377.801	2.22
378.249	2.23
378.696	2.23
379.143	2.22
379.591	2.21
380.038	2.22
380.485	2.21
380.932	2.22
381.379	2.22
381.826	2.2
382.273	2.2
382.72	2.2
383.166	2.2
383.613	2.21
384.06	2.21
384.506	2.21
384.953	2.21
385.4	2.2
385.846	2.19
386.292	2.2
386.739	2.2
387.185	2.21
387.631	2.22
388.078	2.21
388.524	2.19
388.97	2.18
389.416	2.19
389.862	2.19
390.308	2.19
390.754	2.19
391.2	2.2
391.645	2.2
392.091	2.19
392.537	2.18
392.983	2.18
393.428	2.19
393.874	2.2
394.319	2.2
394.765	2.19
395.21	2.18
395.655	2.18
396.101	2.17
396.546	2.15
396.991	2.15
397.436	2.13
397.881	2.13
398.326	2.13
398.771	2.13
399.216	2.13
399.661	2.12
400.106	2.13
400.551	2.12
400.995	2.12
401.44	2.12
401.885	2.13
402.329	2.15
402.774	2.13
403.218	2.11
403.663	2.09
404.107	2.09
404.551	2.09
404.995	2.08
405.44	2.06
405.884	2.06
406.328	2.05
406.772	2.05
407.216	2.03
407.66	2.04
408.104	2.04
408.547	2.05
408.991	2.03
409.435	2.01
409.879	2.01
410.322	2.01
410.766	2
411.209	2
411.653	1.98
412.096	1.97
412.54	1.96
412.983	1.95
413.426	1.94
413.869	1.93
414.312	1.94
414.756	1.94
415.199	1.93
415.642	1.95
416.085	1.94
416.527	1.95
416.97	1.95
417.413	1.95
417.856	1.96
418.298	1.96
418.741	1.97
419.184	1.97
419.626	1.96
420.069	1.96
420.511	1.93
420.953	1.92
421.396	1.93
421.838	1.94
422.28	1.95
422.722	1.94
423.164	1.92
423.606	1.91
424.048	1.9
424.49	1.91
424.932	1.89
425.374	1.9
425.816	1.91
426.258	1.91
426.699	1.89
427.141	1.86
427.582	1.87
428.024	1.88
428.465	1.88
428.907	1.88
429.348	1.87
429.789	1.88
430.231	1.87
430.672	1.85
431.113	1.84
431.554	1.82
431.995	1.82
432.436	1.8
432.877	1.78
433.318	1.76
433.759	1.75
434.2	1.75
434.64	1.73
435.081	1.71
435.522	1.71
435.962	1.72
436.403	1.73
436.843	1.74
437.284	1.75
437.724	1.76
438.164	1.78
438.604	1.79
439.045	1.78
439.485	1.77
439.925	1.76
440.365	1.73
440.805	1.72
441.245	1.69
441.685	1.68
442.125	1.66
442.564	1.65
443.004	1.64
443.444	1.63
443.883	1.63
444.323	1.62
444.762	1.64
445.202	1.66
445.641	1.66
446.081	1.69
446.52	1.67
446.959	1.66
447.398	1.64
447.837	1.67
448.276	1.66
448.716	1.67
449.154	1.68
449.593	1.66
450.032	1.67
450.471	1.67
450.91	1.65
451.349	1.65
451.787	1.68
452.226	1.67
452.664	1.64
453.103	1.64
453.541	1.63
453.98	1.63
454.418	1.63
454.856	1.6
455.295	1.59
455.733	1.61
456.171	1.62
456.609	1.62
457.047	1.63
457.485	1.63
457.923	1.64
458.361	1.65
458.798	1.65
459.236	1.65
459.674	1.65
460.111	1.67
460.549	1.65
460.987	1.66
461.424	1.64
461.862	1.64
462.299	1.64
462.736	1.63
463.173	1.61
463.611	1.6
464.048	1.59
464.485	1.6
464.922	1.58
465.359	1.58
465.796	1.56
466.233	1.57
466.67	1.57
467.106	1.56
467.543	1.56
467.98	1.57
468.416	1.58
468.853	1.58
469.29	1.58
469.726	1.6
470.162	1.59
470.599	1.6
471.035	1.59
471.471	1.59
471.907	1.59
472.344	1.59
472.78	1.59
473.216	1.58
473.652	1.59
474.088	1.61
474.523	1.61
474.959	1.62
475.395	1.62
475.831	1.64
476.266	1.64
476.702	1.65
477.138	1.65
477.573	1.65
478.008	1.66
478.444	1.66
478.879	1.65
479.314	1.65
479.75	1.66
480.185	1.67
480.62	1.67
481.055	1.67
481.49	1.67
481.925	1.67
482.36	1.67
482.795	1.67
483.229	1.68
483.664	1.68
484.099	1.67
484.534	1.66
484.968	1.66
485.403	1.66
485.837	1.66
486.271	1.65
486.706	1.66
487.14	1.66
487.574	1.66
488.009	1.66
488.443	1.66
488.877	1.66
489.311	1.66
489.745	1.67
490.179	1.67
490.613	1.67
491.046	1.68
491.48	1.69
491.914	1.68
492.348	1.68
492.781	1.68
493.215	1.67
493.648	1.68
494.082	1.69
494.515	1.68
494.948	1.67
495.382	1.66
495.815	1.65
496.248	1.64
496.681	1.64
497.114	1.64
497.547	1.63
497.98	1.63
498.413	1.63
498.846	1.62
499.279	1.62
499.711	1.62
500.144	1.63
500.577	1.63
501.009	1.63
501.442	1.62
501.874	1.62
502.306	1.62
502.739	1.6
503.171	1.6
503.603	1.6
504.036	1.6
504.468	1.6
504.9	1.61
505.332	1.61
505.764	1.61
506.196	1.62
506.627	1.61
507.059	1.61
507.491	1.62
507.923	1.62
508.354	1.62
508.786	1.62
509.217	1.61
509.649	1.6
510.08	1.61
510.512	1.6
510.943	1.61
511.374	1.61
511.805	1.61
512.237	1.61
512.668	1.61
513.099	1.61
513.53	1.61
513.961	1.62
514.391	1.61
514.822	1.59
515.253	1.6
515.684	1.58
516.114	1.59
516.545	1.59
516.975	1.59
517.406	1.59
517.836	1.59
518.267	1.58
518.697	1.58
519.127	1.6
519.558	1.61
519.988	1.62
520.418	1.62
520.848	1.62
521.278	1.63
521.708	1.57
522.138	1.58
522.567	1.57
522.997	1.57
523.427	1.57
523.857	1.55
524.286	1.54
524.716	1.54
525.145	1.54
525.575	1.55
526.004	1.54
526.433	1.59
526.863	1.59
527.292	1.6
527.721	1.6
528.15	1.6
528.579	1.6
529.008	1.6
529.437	1.6
529.866	1.6
530.295	1.6
530.724	1.6
531.152	1.61
531.581	1.61
532.01	1.61
532.438	1.62
532.867	1.62
533.295	1.62
533.723	1.63
534.152	1.64
534.58	1.64
535.008	1.64
535.436	1.64
535.865	1.63
536.293	1.64
536.721	1.64
537.149	1.63
537.576	1.64
538.004	1.64
538.432	1.63
538.86	1.62
539.287	1.62
539.715	1.61
540.143	1.61
540.57	1.6
540.998	1.6
541.425	1.6
541.852	1.6
542.28	1.58
542.707	1.59
543.134	1.59
543.561	1.58
543.988	1.59
544.415	1.6
544.842	1.61
545.269	1.62
545.696	1.61
546.123	1.61
546.549	1.62
546.976	1.63
547.403	1.63
547.829	1.62
548.256	1.63
548.682	1.62
549.108	1.61
549.535	1.6
549.961	1.59
550.387	1.59
550.813	1.58
551.24	1.58
551.666	1.6
552.092	1.6
552.518	1.6
552.943	1.59
553.369	1.59
553.795	1.59
554.221	1.58
554.646	1.59
555.072	1.58
555.498	1.6
555.923	1.6
556.349	1.58
556.774	1.58
557.199	1.58
557.625	1.59
558.05	1.59
558.475	1.59
558.9	1.6
559.325	1.59
559.75	1.59
560.175	1.58
560.6	1.59
561.025	1.59
561.449	1.58
561.874	1.58
562.299	1.58
562.723	1.58
563.148	1.58
563.572	1.58
563.997	1.59
564.421	1.59
564.846	1.6
565.27	1.58
565.694	1.57
566.118	1.58
566.542	1.58
566.966	1.59
567.39	1.59
567.814	1.6
568.238	1.6
568.662	1.6
569.086	1.6
569.509	1.6
569.933	1.6
570.357	1.6
570.78	1.6
571.204	1.6
571.627	1.6
572.05	1.59
572.474	1.58
572.897	1.57
573.32	1.56
573.743	1.57
574.166	1.56
574.589	1.56
575.012	1.56
575.435	1.55
575.858	1.55
576.281	1.56
576.704	1.56
577.126	1.57
577.549	1.58
577.972	1.58
578.394	1.56
578.817	1.56
579.239	1.56
579.661	1.56
580.084	1.56
580.506	1.56
580.928	1.55
581.35	1.54
581.772	1.54
582.194	1.53
582.616	1.54
583.038	1.55
583.46	1.56
583.882	1.57
584.303	1.57
584.725	1.58
585.147	1.54
585.568	1.54
585.99	1.54
586.411	1.54
586.833	1.53
587.254	1.53
587.675	1.53
588.096	1.53
588.518	1.52
588.939	1.53
589.36	1.52
589.781	1.54
590.202	1.54
590.623	1.54
591.043	1.54
591.464	1.53
591.885	1.53
592.305	1.54
592.726	1.53
593.147	1.54
593.567	1.53
593.987	1.54
594.408	1.55
594.828	1.54
595.248	1.54
595.669	1.54
596.089	1.55
596.509	1.54
596.929	1.54
597.349	1.54
597.769	1.54
598.189	1.54
598.608	1.55
599.028	1.55
599.448	1.56
599.867	1.57
600.287	1.56
600.706	1.57
601.126	1.57
601.545	1.56
601.965	1.57
602.384	1.57
602.803	1.56
603.222	1.56
603.641	1.56
604.061	1.55
604.48	1.55
604.898	1.56
605.317	1.56
605.736	1.55
606.155	1.56
606.574	1.56
606.992	1.56
607.411	1.57
607.829	1.53
608.248	1.53
608.666	1.53
609.085	1.53
609.503	1.52
609.921	1.51
610.339	1.53
610.758	1.52
611.176	1.52
611.594	1.52
612.012	1.51
612.43	1.57
612.847	1.57
613.265	1.56
613.683	1.56
614.101	1.57
614.518	1.56
614.936	1.56
615.353	1.56
615.771	1.56
616.188	1.56
616.606	1.57
617.023	1.56
617.44	1.56
617.857	1.56
618.274	1.56
618.691	1.56
619.108	1.57
619.525	1.56
619.942	1.56
620.359	1.56
620.776	1.56
621.192	1.57
621.609	1.57
622.026	1.57
622.442	1.55
622.859	1.55
623.275	1.56
623.691	1.56
624.108	1.56
624.524	1.56
624.94	1.55
625.356	1.55
625.772	1.54
626.188	1.55
626.604	1.53
627.02	1.53
627.436	1.53
627.852	1.52
628.268	1.51
628.683	1.51
629.099	1.51
629.514	1.51
629.93	1.5
630.345	1.49
630.761	1.48
631.176	1.5
631.591	1.51
632.007	1.51
632.422	1.52
632.837	1.51
633.252	1.52
633.667	1.51
634.082	1.52
634.497	1.52
634.911	1.52
635.326	1.51
635.741	1.5
636.155	1.5
636.57	1.49
636.984	1.48
637.399	1.48
637.813	1.46
638.228	1.46
638.642	1.46
639.056	1.46
639.47	1.46
639.884	1.47
640.298	1.47
640.712	1.47
641.126	1.47
641.54	1.47
641.954	1.49
642.368	1.5
642.781	1.5
643.195	1.49
643.609	1.49
644.022	1.5
644.436	1.5
644.849	1.5
645.262	1.51
645.676	1.5
646.089	1.49
646.502	1.47
646.915	1.46
647.328	1.47
647.741	1.47
648.154	1.47
648.567	1.47
648.98	1.47
649.393	1.47
649.805	1.45
650.218	1.46
650.631	1.48
651.043	1.48
651.456	1.49
651.868	1.48
652.28	1.49
652.693	1.47
653.105	1.47
653.517	1.47
653.929	1.48
654.341	1.49
654.753	1.49
655.165	1.49
655.577	1.49
655.989	1.47
656.401	1.47
656.813	1.46
657.224	1.46
657.636	1.46
658.047	1.45
658.459	1.43
658.87	1.43
659.282	1.43
659.693	1.42
660.104	1.41
660.515	1.42
660.926	1.42
661.338	1.43
661.749	1.43
662.159	1.42
662.57	1.43
662.981	1.44
663.392	1.42
663.803	1.42
664.213	1.42
664.624	1.42
665.035	1.41
665.445	1.41
665.855	1.41
666.266	1.42
666.676	1.42
667.086	1.41
667.497	1.39
667.907	1.39
668.317	1.37
668.727	1.38
669.137	1.38
669.547	1.39
669.956	1.38
670.366	1.38
670.776	1.37
671.186	1.37
671.595	1.38
672.005	1.38
672.414	1.39
672.824	1.4
673.233	1.4
673.642	1.4
674.052	1.39
674.461	1.38
674.87	1.38
675.279	1.38
675.688	1.38
676.097	1.38
676.506	1.38
676.915	1.39
677.323	1.39
677.732	1.39
678.141	1.39
678.549	1.41
678.958	1.42
679.366	1.41
679.775	1.4
680.183	1.41
680.592	1.41
681	1.4
681.408	1.39
681.816	1.39
682.224	1.39
682.632	1.39
683.04	1.38
683.448	1.38
683.856	1.39
684.264	1.4
684.671	1.4
685.079	1.4
685.487	1.41
685.894	1.4
686.302	1.39
686.709	1.39
687.116	1.39
687.524	1.39
687.931	1.38
688.338	1.39
688.745	1.39
689.152	1.39
689.559	1.38
689.966	1.38
690.373	1.38
690.78	1.39
691.187	1.38
691.593	1.39
692	1.38
692.407	1.4
692.813	1.39
693.22	1.39
693.626	1.39
694.032	1.38
694.439	1.4
694.845	1.41
695.251	1.41
695.657	1.42
696.063	1.41
696.469	1.42
696.875	1.42
697.281	1.42
697.687	1.44
698.093	1.45
698.498	1.46
698.904	1.45
699.31	1.44
699.715	1.45
700.12	1.44
700.526	1.45
700.931	1.45
701.337	1.44
701.742	1.44
702.147	1.42
702.552	1.43
702.957	1.42
703.362	1.42
703.767	1.43
704.172	1.43
704.577	1.43
704.981	1.44
705.386	1.44
705.791	1.46
706.195	1.46
706.6	1.47
707.004	1.46
707.408	1.47
707.813	1.45
708.217	1.45
708.621	1.46
709.025	1.46
709.43	1.44
709.834	1.45
710.237	1.43
710.641	1.43
711.045	1.41
711.449	1.4
711.853	1.38
712.256	1.39
712.66	1.4
713.064	1.39
713.467	1.4
713.87	1.42
714.274	1.4
714.677	1.41
715.08	1.4
715.484	1.41
715.887	1.41
716.29	1.42
716.693	1.42
717.096	1.42
717.499	1.41
717.901	1.41
718.304	1.41
718.707	1.42
719.109	1.42
719.512	1.43
719.915	1.42
720.317	1.43
720.719	1.42
721.122	1.43
721.524	1.42
721.926	1.43
722.328	1.42
722.731	1.42
723.133	1.41
723.535	1.41
723.937	1.41
724.338	1.42
724.74	1.4
725.142	1.33
725.544	1.32
725.945	1.3
726.347	1.29
726.748	1.29
727.15	1.28
727.551	1.27
727.952	1.28
728.354	1.28
728.755	1.28
729.156	1.3
729.557	1.38
729.958	1.38
730.359	1.41
730.76	1.41
731.161	1.41
731.562	1.43
731.962	1.45
732.363	1.43
732.763	1.44
733.164	1.44
733.564	1.42
733.965	1.43
734.365	1.44
734.766	1.43
735.166	1.44
735.566	1.44
735.966	1.42
736.366	1.41
736.766	1.4
737.166	1.39
737.566	1.4
737.966	1.41
738.365	1.4
738.765	1.39
739.165	1.39
739.564	1.39
739.964	1.38
740.363	1.41
740.763	1.42
741.162	1.44
741.561	1.43
741.96	1.42
742.36	1.42
742.759	1.41
743.158	1.41
743.557	1.4
743.955	1.41
744.354	1.42
744.753	1.41
745.152	1.4
745.55	1.38
745.949	1.39
746.348	1.4
746.746	1.39
747.144	1.39
747.543	1.39
747.941	1.4
748.339	1.39
748.737	1.38
749.136	1.37
749.534	1.38
749.932	1.38
750.33	1.37
750.727	1.39
751.125	1.4
751.523	1.42
751.921	1.43
752.318	1.42
752.716	1.43
753.113	1.44
753.511	1.44
753.908	1.43
754.305	1.42
754.703	1.42
755.1	1.42
755.497	1.42
755.894	1.41
756.291	1.41
756.688	1.41
757.085	1.4
757.482	1.41
757.878	1.43
758.275	1.42
758.672	1.43
759.068	1.44
759.465	1.45
759.861	1.43
760.258	1.43
760.654	1.42
761.05	1.43
761.447	1.45
761.843	1.44
762.239	1.42
762.635	1.41
763.031	1.43
763.427	1.43
763.822	1.42
764.218	1.43
764.614	1.43
765.01	1.43
765.405	1.42
765.801	1.4
766.196	1.4
766.592	1.42
766.987	1.42
767.382	1.41
767.778	1.41
768.173	1.4
768.568	1.39
768.963	1.41
769.358	1.4
769.753	1.42
770.148	1.41
770.542	1.41
770.937	1.41
771.332	1.41
771.726	1.4
772.121	1.4
772.515	1.42
772.91	1.43
773.304	1.43
773.699	1.44
774.093	1.42
774.487	1.43
774.881	1.44
775.275	1.44
775.669	1.44
776.063	1.43
776.457	1.44
776.851	1.4
777.245	1.4
777.638	1.37
778.032	1.38
778.425	1.36
778.819	1.36
779.212	1.35
779.606	1.33
779.999	1.34
780.392	1.35
780.786	1.34
781.179	1.35
781.572	1.35
781.965	1.33
782.358	1.33
782.751	1.34
783.143	1.33
783.536	1.32
783.929	1.33
784.322	1.35
784.714	1.34
785.107	1.34
785.499	1.33
785.891	1.32
786.284	1.34
786.676	1.35
787.068	1.37
787.46	1.38
787.852	1.39
788.245	1.37
788.636	1.35
789.028	1.33
789.42	1.32
789.812	1.33
790.204	1.35
790.595	1.34
790.987	1.31
791.378	1.29
791.77	1.3
792.161	1.31
792.553	1.31
792.944	1.31
793.335	1.33
793.726	1.34
794.117	1.34
794.508	1.34
794.899	1.35
795.29	1.37
795.681	1.36
796.072	1.35
796.463	1.32
796.853	1.31
797.244	1.32
797.634	1.31
