Data from C_3_div_oh_2n_Splice17_19.txt Node
Date: Sat Feb 29 14:39:14 EST 2020
User: sa697716
Spectrometer: FLMS03696
Trigger mode: 0
Integration Time (sec): 3.180400E-1
Scans to average: 20
Electric dark correction enabled: true
Nonlinearity correction enabled: true
Boxcar width: 5
XAxis mode: Wavelengths
Number of Pixels in Spectrum: 2048
>>>>>Begin Spectral Data<<<<<
187.83	69.25
188.298	69.78
188.766	70.74
189.233	48.49
189.701	52.09
190.169	59.31
190.636	56.99
191.104	33.58
191.571	31.36
192.039	88.3
192.506	312.61
192.974	8565.91
193.441	-939.5
193.908	137.61
194.375	56.76
194.842	18.29
195.31	5.07
195.777	27.46
196.244	-31.96
196.711	-18.25
197.177	-20.52
197.644	-20.27
198.111	-21.27
198.578	-21.25
199.045	-20.31
199.511	-19.9
199.978	-19.03
200.445	-18.53
200.911	-18.3
201.378	-17.72
201.844	-17.92
202.31	-17.47
202.777	-16.81
203.243	-15.79
203.709	-14.89
204.176	-14.89
204.642	-14.24
205.108	-14.3
205.574	-13.87
206.04	-14.15
206.506	-14.06
206.972	-13.44
207.438	-13.38
207.903	-12.79
208.369	-12.55
208.835	-12.62
209.301	-12.07
209.766	-11.16
210.232	-10.17
210.697	-9.41
211.163	-8.46
211.628	-7.93
212.094	-7.58
212.559	-7.12
213.024	-7.02
213.49	-7.01
213.955	-6.33
214.42	-5.68
214.885	-5.55
215.35	-5.08
215.815	-4.44
216.28	-3.58
216.745	-2.41
217.21	-1.27
217.675	-0.13
218.14	0.7
218.604	1.43
219.069	2.02
219.534	2.46
219.998	2.84
220.463	3.21
220.927	3.43
221.392	3.67
221.856	3.79
222.32	3.89
222.785	3.93
223.249	4.06
223.713	4.14
224.177	4.15
224.642	4.18
225.106	4.23
225.57	4.26
226.034	4.34
226.497	4.34
226.961	4.33
227.425	4.31
227.889	4.34
228.353	4.29
228.816	4.31
229.28	4.29
229.744	4.3
230.207	4.29
230.671	4.25
231.134	4.22
231.597	4.19
232.061	4.18
232.524	4.18
232.987	4.15
233.45	4.12
233.914	4.11
234.377	4.1
234.84	4.07
235.303	4.05
235.766	4.03
236.229	4
236.691	3.96
237.154	3.94
237.617	3.89
238.08	3.85
238.542	3.83
239.005	3.79
239.468	3.73
239.93	3.7
240.393	3.66
240.855	3.63
241.317	3.61
241.78	3.6
242.242	3.58
242.704	3.58
243.166	3.56
243.629	3.54
244.091	3.52
244.553	3.52
245.015	3.51
245.477	3.49
245.939	3.48
246.4	3.46
246.862	3.45
247.324	3.45
247.786	3.44
248.247	3.43
248.709	3.42
249.17	3.42
249.632	3.4
250.093	3.38
250.555	3.38
251.016	3.37
251.477	3.37
251.939	3.36
252.4	3.33
252.861	3.32
253.322	3.31
253.783	3.3
254.244	3.3
254.705	3.29
255.166	3.31
255.627	3.3
256.088	3.29
256.549	3.28
257.009	3.28
257.47	3.28
257.931	3.28
258.391	3.27
258.852	3.27
259.312	3.26
259.773	3.25
260.233	3.24
260.694	3.22
261.154	3.22
261.614	3.22
262.074	3.21
262.534	3.19
262.994	3.19
263.455	3.19
263.915	3.19
264.374	3.18
264.834	3.17
265.294	3.17
265.754	3.17
266.214	3.16
266.673	3.16
267.133	3.15
267.593	3.15
268.052	3.14
268.512	3.13
268.971	3.12
269.431	3.12
269.89	3.11
270.349	3.1
270.809	3.1
271.268	3.09
271.727	3.08
272.186	3.07
272.645	3.07
273.104	3.08
273.563	3.08
274.022	3.09
274.481	3.09
274.94	3.08
275.399	3.09
275.857	3.09
276.316	3.08
276.775	3.07
277.233	3.07
277.692	3.06
278.15	3.05
278.609	3.03
279.067	3.01
279.525	2.99
279.984	2.98
280.442	2.98
280.9	2.97
281.358	2.95
281.816	2.95
282.274	2.94
282.732	2.94
283.19	2.93
283.648	2.93
284.106	2.92
284.564	2.94
285.021	2.94
285.479	2.93
285.937	2.93
286.394	2.92
286.852	2.93
287.309	2.94
287.767	2.94
288.224	2.94
288.682	2.94
289.139	2.94
289.596	2.93
290.053	2.93
290.511	2.92
290.968	2.92
291.425	2.92
291.882	2.92
292.339	2.92
292.796	2.91
293.252	2.91
293.709	2.91
294.166	2.9
294.623	2.9
295.079	2.9
295.536	2.9
295.992	2.89
296.449	2.89
296.905	2.87
297.362	2.86
297.818	2.86
298.274	2.86
298.731	2.86
299.187	2.86
299.643	2.85
300.099	2.84
300.555	2.84
301.011	2.84
301.467	2.83
301.923	2.83
302.379	2.82
302.835	2.81
303.291	2.8
303.746	2.78
304.202	2.77
304.658	2.76
305.113	2.75
305.569	2.75
306.024	2.73
306.479	2.72
306.935	2.71
307.39	2.7
307.845	2.7
308.301	2.69
308.756	2.68
309.211	2.68
309.666	2.67
310.121	2.66
310.576	2.65
311.031	2.64
311.486	2.64
311.94	2.64
312.395	2.64
312.85	2.63
313.305	2.62
313.759	2.62
314.214	2.62
314.668	2.61
315.123	2.6
315.577	2.6
316.032	2.59
316.486	2.59
316.94	2.58
317.394	2.57
317.849	2.57
318.303	2.57
318.757	2.56
319.211	2.55
319.665	2.55
320.119	2.54
320.572	2.55
321.026	2.55
321.48	2.55
321.934	2.54
322.387	2.54
322.841	2.53
323.295	2.53
323.748	2.52
324.202	2.52
324.655	2.52
325.108	2.51
325.562	2.49
326.015	2.48
326.468	2.47
326.921	2.46
327.374	2.46
327.827	2.44
328.28	2.44
328.733	2.43
329.186	2.42
329.639	2.41
330.092	2.41
330.545	2.41
330.997	2.41
331.45	2.4
331.903	2.39
332.355	2.39
332.808	2.39
333.26	2.37
333.713	2.38
334.165	2.38
334.617	2.38
335.069	2.38
335.522	2.38
335.974	2.38
336.426	2.38
336.878	2.38
337.33	2.36
337.782	2.37
338.234	2.37
338.686	2.36
339.137	2.36
339.589	2.37
340.041	2.36
340.493	2.35
340.944	2.35
341.396	2.35
341.847	2.34
342.299	2.34
342.75	2.34
343.201	2.34
343.653	2.34
344.104	2.34
344.555	2.33
345.006	2.33
345.457	2.33
345.908	2.34
346.359	2.34
346.81	2.35
347.261	2.35
347.712	2.35
348.163	2.35
348.613	2.34
349.064	2.33
349.515	2.33
349.965	2.33
350.416	2.32
350.866	2.32
351.317	2.31
351.767	2.3
352.217	2.3
352.668	2.3
353.118	2.3
353.568	2.31
354.018	2.32
354.468	2.31
354.918	2.31
355.368	2.31
355.818	2.31
356.268	2.31
356.718	2.31
357.168	2.3
357.617	2.3
358.067	2.3
358.517	2.3
358.966	2.3
359.416	2.31
359.865	2.31
360.315	2.3
360.764	2.3
361.213	2.29
361.663	2.29
362.112	2.3
362.561	2.3
363.01	2.31
363.459	2.3
363.908	2.29
364.357	2.29
364.806	2.29
365.255	2.3
365.703	2.3
366.152	2.29
366.601	2.3
367.05	2.3
367.498	2.29
367.947	2.27
368.395	2.28
368.844	2.27
369.292	2.27
369.74	2.26
370.189	2.25
370.637	2.25
371.085	2.26
371.533	2.25
371.981	2.26
372.429	2.26
372.877	2.26
373.325	2.25
373.773	2.25
374.221	2.23
374.669	2.23
375.116	2.23
375.564	2.22
376.012	2.22
376.459	2.21
376.907	2.21
377.354	2.2
377.801	2.2
378.249	2.21
378.696	2.21
379.143	2.23
379.591	2.23
380.038	2.23
380.485	2.23
380.932	2.22
381.379	2.22
381.826	2.22
382.273	2.21
382.72	2.21
383.166	2.21
383.613	2.21
384.06	2.2
384.506	2.19
384.953	2.2
385.4	2.19
385.846	2.19
386.292	2.19
386.739	2.18
387.185	2.19
387.631	2.19
388.078	2.19
388.524	2.17
388.97	2.18
389.416	2.18
389.862	2.17
390.308	2.17
390.754	2.16
391.2	2.17
391.645	2.18
392.091	2.15
392.537	2.15
392.983	2.14
393.428	2.14
393.874	2.14
394.319	2.14
394.765	2.14
395.21	2.13
395.655	2.14
396.101	2.13
396.546	2.12
396.991	2.13
397.436	2.11
397.881	2.11
398.326	2.12
398.771	2.11
399.216	2.11
399.661	2.1
400.106	2.11
400.551	2.1
400.995	2.09
401.44	2.08
401.885	2.09
402.329	2.09
402.774	2.09
403.218	2.07
403.663	2.05
404.107	2.05
404.551	2.06
404.995	2.04
405.44	2.04
405.884	2.05
406.328	2.05
406.772	2.04
407.216	2.03
407.66	2.04
408.104	2.04
408.547	2.04
408.991	2.03
409.435	2.03
409.879	2.03
410.322	2.03
410.766	2.02
411.209	2.02
411.653	2
412.096	1.99
412.54	1.98
412.983	1.97
413.426	1.97
413.869	1.96
414.312	1.96
414.756	1.94
415.199	1.94
415.642	1.94
416.085	1.93
416.527	1.95
416.97	1.96
417.413	1.95
417.856	1.96
418.298	1.94
418.741	1.95
419.184	1.94
419.626	1.93
420.069	1.92
420.511	1.92
420.953	1.92
421.396	1.91
421.838	1.91
422.28	1.92
422.722	1.92
423.164	1.91
423.606	1.92
424.048	1.92
424.49	1.93
424.932	1.92
425.374	1.93
425.816	1.93
426.258	1.92
426.699	1.9
427.141	1.88
427.582	1.89
428.024	1.89
428.465	1.88
428.907	1.88
429.348	1.88
429.789	1.87
430.231	1.85
430.672	1.85
431.113	1.85
431.554	1.84
431.995	1.84
432.436	1.82
432.877	1.82
433.318	1.81
433.759	1.79
434.2	1.76
434.64	1.77
435.081	1.77
435.522	1.75
435.962	1.77
436.403	1.77
436.843	1.75
437.284	1.76
437.724	1.77
438.164	1.77
438.604	1.77
439.045	1.76
439.485	1.73
439.925	1.7
440.365	1.68
440.805	1.64
441.245	1.63
441.685	1.65
442.125	1.62
442.564	1.61
443.004	1.6
443.444	1.59
443.883	1.59
444.323	1.6
444.762	1.62
445.202	1.66
445.641	1.66
446.081	1.68
446.52	1.65
446.959	1.64
447.398	1.65
447.837	1.64
448.276	1.64
448.716	1.64
449.154	1.64
449.593	1.62
450.032	1.61
450.471	1.63
450.91	1.62
451.349	1.63
451.787	1.63
452.226	1.61
452.664	1.62
453.103	1.63
453.541	1.64
453.98	1.64
454.418	1.63
454.856	1.62
455.295	1.61
455.733	1.61
456.171	1.63
456.609	1.64
457.047	1.65
457.485	1.64
457.923	1.64
458.361	1.62
458.798	1.62
459.236	1.64
459.674	1.63
460.111	1.63
460.549	1.62
460.987	1.61
461.424	1.61
461.862	1.6
462.299	1.6
462.736	1.6
463.173	1.6
463.611	1.59
464.048	1.59
464.485	1.59
464.922	1.57
465.359	1.58
465.796	1.56
466.233	1.55
466.67	1.55
467.106	1.54
467.543	1.54
467.98	1.54
468.416	1.55
468.853	1.54
469.29	1.54
469.726	1.56
470.162	1.55
470.599	1.57
471.035	1.58
471.471	1.57
471.907	1.59
472.344	1.59
472.78	1.6
473.216	1.6
473.652	1.6
474.088	1.61
474.523	1.62
474.959	1.63
475.395	1.62
475.831	1.63
476.266	1.64
476.702	1.64
477.138	1.64
477.573	1.64
478.008	1.65
478.444	1.65
478.879	1.65
479.314	1.66
479.75	1.65
480.185	1.66
480.62	1.66
481.055	1.66
481.49	1.67
481.925	1.68
482.36	1.67
482.795	1.67
483.229	1.67
483.664	1.67
484.099	1.66
484.534	1.66
484.968	1.66
485.403	1.66
485.837	1.66
486.271	1.65
486.706	1.64
487.14	1.65
487.574	1.66
488.009	1.65
488.443	1.65
488.877	1.65
489.311	1.66
489.745	1.66
490.179	1.66
490.613	1.66
491.046	1.66
491.48	1.67
491.914	1.66
492.348	1.66
492.781	1.66
493.215	1.66
493.648	1.66
494.082	1.66
494.515	1.65
494.948	1.64
495.382	1.63
495.815	1.64
496.248	1.63
496.681	1.64
497.114	1.63
497.547	1.63
497.98	1.63
498.413	1.63
498.846	1.63
499.279	1.63
499.711	1.63
500.144	1.63
500.577	1.62
501.009	1.61
501.442	1.61
501.874	1.6
502.306	1.6
502.739	1.59
503.171	1.59
503.603	1.59
504.036	1.6
504.468	1.6
504.9	1.6
505.332	1.61
505.764	1.62
506.196	1.63
506.627	1.63
507.059	1.62
507.491	1.63
507.923	1.63
508.354	1.62
508.786	1.62
509.217	1.61
509.649	1.61
510.08	1.62
510.512	1.6
510.943	1.61
511.374	1.61
511.805	1.61
512.237	1.61
512.668	1.61
513.099	1.61
513.53	1.61
513.961	1.62
514.391	1.61
514.822	1.6
515.253	1.61
515.684	1.59
516.114	1.59
516.545	1.59
516.975	1.59
517.406	1.59
517.836	1.59
518.267	1.58
518.697	1.58
519.127	1.59
519.558	1.59
519.988	1.59
520.418	1.59
520.848	1.59
521.278	1.6
521.708	1.55
522.138	1.55
522.567	1.54
522.997	1.53
523.427	1.54
523.857	1.53
524.286	1.54
524.716	1.53
525.145	1.54
525.575	1.54
526.004	1.53
526.433	1.59
526.863	1.6
527.292	1.61
527.721	1.61
528.15	1.6
528.579	1.61
529.008	1.61
529.437	1.62
529.866	1.62
530.295	1.63
530.724	1.64
531.152	1.65
531.581	1.64
532.01	1.64
532.438	1.65
532.867	1.65
533.295	1.65
533.723	1.66
534.152	1.66
534.58	1.66
535.008	1.65
535.436	1.63
535.865	1.63
536.293	1.65
536.721	1.64
537.149	1.64
537.576	1.64
538.004	1.65
538.432	1.62
538.86	1.62
539.287	1.63
539.715	1.63
540.143	1.64
540.57	1.63
540.998	1.64
541.425	1.64
541.852	1.64
542.28	1.63
542.707	1.64
543.134	1.65
543.561	1.64
543.988	1.64
544.415	1.64
544.842	1.65
545.269	1.66
545.696	1.65
546.123	1.65
546.549	1.64
546.976	1.65
547.403	1.64
547.829	1.65
548.256	1.66
548.682	1.65
549.108	1.65
549.535	1.63
549.961	1.63
550.387	1.61
550.813	1.6
551.24	1.61
551.666	1.61
552.092	1.62
552.518	1.62
552.943	1.6
553.369	1.6
553.795	1.61
554.221	1.61
554.646	1.6
555.072	1.6
555.498	1.63
555.923	1.64
556.349	1.63
556.774	1.63
557.199	1.64
557.625	1.65
558.05	1.64
558.475	1.62
558.9	1.63
559.325	1.64
559.75	1.63
560.175	1.62
560.6	1.61
561.025	1.6
561.449	1.59
561.874	1.59
562.299	1.58
562.723	1.59
563.148	1.59
563.572	1.59
563.997	1.58
564.421	1.59
564.846	1.6
565.27	1.6
565.694	1.6
566.118	1.61
566.542	1.61
566.966	1.62
567.39	1.62
567.814	1.63
568.238	1.63
568.662	1.63
569.086	1.64
569.509	1.64
569.933	1.63
570.357	1.62
570.78	1.63
571.204	1.62
571.627	1.61
572.05	1.61
572.474	1.61
572.897	1.59
573.32	1.59
573.743	1.57
574.166	1.57
574.589	1.57
575.012	1.57
575.435	1.55
575.858	1.55
576.281	1.55
576.704	1.56
577.126	1.56
577.549	1.57
577.972	1.56
578.394	1.56
578.817	1.56
579.239	1.56
579.661	1.57
580.084	1.55
580.506	1.56
580.928	1.56
581.35	1.55
581.772	1.54
582.194	1.54
582.616	1.55
583.038	1.55
583.46	1.55
583.882	1.56
584.303	1.55
584.725	1.56
585.147	1.53
585.568	1.53
585.99	1.54
586.411	1.54
586.833	1.55
587.254	1.55
587.675	1.54
588.096	1.54
588.518	1.53
588.939	1.54
589.36	1.54
589.781	1.56
590.202	1.55
590.623	1.55
591.043	1.54
591.464	1.53
591.885	1.52
592.305	1.54
592.726	1.54
593.147	1.54
593.567	1.54
593.987	1.54
594.408	1.53
594.828	1.54
595.248	1.54
595.669	1.54
596.089	1.54
596.509	1.54
596.929	1.53
597.349	1.54
597.769	1.54
598.189	1.55
598.608	1.54
599.028	1.55
599.448	1.57
599.867	1.56
600.287	1.56
600.706	1.57
601.126	1.58
601.545	1.57
601.965	1.57
602.384	1.57
602.803	1.56
603.222	1.56
603.641	1.56
604.061	1.55
604.48	1.56
604.898	1.56
605.317	1.55
605.736	1.55
606.155	1.55
606.574	1.55
606.992	1.55
607.411	1.56
607.829	1.51
608.248	1.52
608.666	1.52
609.085	1.53
609.503	1.52
609.921	1.52
610.339	1.53
610.758	1.53
611.176	1.54
611.594	1.53
612.012	1.52
612.43	1.58
612.847	1.59
613.265	1.58
613.683	1.57
614.101	1.57
614.518	1.57
614.936	1.57
615.353	1.57
615.771	1.57
616.188	1.58
616.606	1.58
617.023	1.57
617.44	1.56
617.857	1.56
618.274	1.56
618.691	1.56
619.108	1.57
619.525	1.57
619.942	1.56
620.359	1.56
620.776	1.55
621.192	1.56
621.609	1.55
622.026	1.55
622.442	1.54
622.859	1.55
623.275	1.56
623.691	1.55
624.108	1.55
624.524	1.55
624.94	1.55
625.356	1.55
625.772	1.56
626.188	1.57
626.604	1.55
627.02	1.55
627.436	1.55
627.852	1.55
628.268	1.54
628.683	1.53
629.099	1.54
629.514	1.54
629.93	1.53
630.345	1.51
630.761	1.5
631.176	1.51
631.591	1.51
632.007	1.5
632.422	1.51
632.837	1.52
633.252	1.53
633.667	1.51
634.082	1.51
634.497	1.5
634.911	1.5
635.326	1.49
635.741	1.49
636.155	1.49
636.57	1.49
636.984	1.48
637.399	1.47
637.813	1.46
638.228	1.47
638.642	1.48
639.056	1.49
639.47	1.48
639.884	1.48
640.298	1.48
640.712	1.48
641.126	1.48
641.54	1.48
641.954	1.5
642.368	1.49
642.781	1.49
643.195	1.47
643.609	1.47
644.022	1.48
644.436	1.48
644.849	1.48
645.262	1.49
645.676	1.49
646.089	1.48
646.502	1.47
646.915	1.47
647.328	1.48
647.741	1.47
648.154	1.47
648.567	1.47
648.98	1.47
649.393	1.46
649.805	1.44
650.218	1.45
650.631	1.45
651.043	1.45
651.456	1.45
651.868	1.44
652.28	1.46
652.693	1.45
653.105	1.45
653.517	1.45
653.929	1.46
654.341	1.46
654.753	1.45
655.165	1.46
655.577	1.46
655.989	1.44
656.401	1.44
656.813	1.43
657.224	1.44
657.636	1.45
658.047	1.45
658.459	1.45
658.87	1.45
659.282	1.46
659.693	1.46
660.104	1.45
660.515	1.46
660.926	1.46
661.338	1.47
661.749	1.45
662.159	1.45
662.57	1.45
662.981	1.44
663.392	1.43
663.803	1.42
664.213	1.42
664.624	1.42
665.035	1.41
665.445	1.42
665.855	1.42
666.266	1.44
666.676	1.42
667.086	1.42
667.497	1.42
667.907	1.4
668.317	1.41
668.727	1.41
669.137	1.4
669.547	1.41
669.956	1.4
670.366	1.4
670.776	1.39
671.186	1.39
671.595	1.4
672.005	1.41
672.414	1.41
672.824	1.42
673.233	1.41
673.642	1.4
674.052	1.4
674.461	1.39
674.87	1.39
675.279	1.4
675.688	1.4
676.097	1.39
676.506	1.39
676.915	1.4
677.323	1.39
677.732	1.39
678.141	1.4
678.549	1.42
678.958	1.42
679.366	1.41
679.775	1.4
680.183	1.4
680.592	1.4
681	1.39
681.408	1.39
681.816	1.38
682.224	1.38
682.632	1.38
683.04	1.37
683.448	1.37
683.856	1.37
684.264	1.38
684.671	1.38
685.079	1.38
685.487	1.39
685.894	1.39
686.302	1.39
686.709	1.38
687.116	1.38
687.524	1.38
687.931	1.38
688.338	1.39
688.745	1.39
689.152	1.38
689.559	1.39
689.966	1.38
690.373	1.38
690.78	1.38
691.187	1.39
691.593	1.38
692	1.38
692.407	1.39
692.813	1.38
693.22	1.39
693.626	1.4
694.032	1.4
694.439	1.41
694.845	1.41
695.251	1.43
695.657	1.43
696.063	1.45
696.469	1.47
696.875	1.47
697.281	1.46
697.687	1.47
698.093	1.47
698.498	1.48
698.904	1.48
699.31	1.48
699.715	1.49
700.12	1.48
700.526	1.48
700.931	1.49
701.337	1.49
701.742	1.5
702.147	1.49
702.552	1.49
702.957	1.48
703.362	1.48
703.767	1.48
704.172	1.47
704.577	1.48
704.981	1.47
705.386	1.47
705.791	1.46
706.195	1.48
706.6	1.49
707.004	1.48
707.408	1.48
707.813	1.47
708.217	1.47
708.621	1.48
709.025	1.48
709.43	1.47
709.834	1.49
710.237	1.49
710.641	1.48
711.045	1.46
711.449	1.48
711.853	1.46
712.256	1.49
712.66	1.48
713.064	1.48
713.467	1.47
713.87	1.47
714.274	1.46
714.677	1.47
715.08	1.45
715.484	1.46
715.887	1.46
716.29	1.46
716.693	1.45
717.096	1.45
717.499	1.45
717.901	1.45
718.304	1.46
718.707	1.46
719.109	1.47
719.512	1.48
719.915	1.46
720.317	1.46
720.719	1.46
721.122	1.47
721.524	1.47
721.926	1.48
722.328	1.48
722.731	1.46
723.133	1.46
723.535	1.45
723.937	1.45
724.338	1.46
724.74	1.45
725.142	1.4
725.544	1.39
725.945	1.36
726.347	1.36
726.748	1.35
727.15	1.36
727.551	1.35
727.952	1.36
728.354	1.38
728.755	1.38
729.156	1.38
729.557	1.45
729.958	1.45
730.359	1.47
730.76	1.46
731.161	1.46
731.562	1.46
731.962	1.45
732.363	1.46
732.763	1.44
733.164	1.45
733.564	1.45
733.965	1.47
734.365	1.47
734.766	1.47
735.166	1.48
735.566	1.49
735.966	1.48
736.366	1.48
736.766	1.46
737.166	1.45
737.566	1.45
737.966	1.45
738.365	1.43
738.765	1.43
739.165	1.43
739.564	1.43
739.964	1.41
740.363	1.43
740.763	1.44
741.162	1.46
741.561	1.47
741.96	1.47
742.36	1.46
742.759	1.46
743.158	1.45
743.557	1.45
743.955	1.47
744.354	1.48
744.753	1.46
745.152	1.46
745.55	1.45
745.949	1.45
746.348	1.46
746.746	1.46
747.144	1.46
747.543	1.48
747.941	1.47
748.339	1.46
748.737	1.45
749.136	1.45
749.534	1.45
749.932	1.44
750.33	1.44
750.727	1.45
751.125	1.44
751.523	1.46
751.921	1.46
752.318	1.46
752.716	1.46
753.113	1.48
753.511	1.49
753.908	1.5
754.305	1.5
754.703	1.48
755.1	1.46
755.497	1.47
755.894	1.45
756.291	1.46
756.688	1.47
757.085	1.46
757.482	1.47
757.878	1.49
758.275	1.48
758.672	1.5
759.068	1.51
759.465	1.53
759.861	1.51
760.258	1.5
760.654	1.49
761.05	1.5
761.447	1.51
761.843	1.5
762.239	1.49
762.635	1.47
763.031	1.47
763.427	1.47
763.822	1.46
764.218	1.48
764.614	1.49
765.01	1.47
765.405	1.45
765.801	1.44
766.196	1.42
766.592	1.42
766.987	1.44
767.382	1.45
767.778	1.44
768.173	1.43
768.568	1.41
768.963	1.43
769.358	1.44
769.753	1.44
770.148	1.43
770.542	1.45
770.937	1.45
771.332	1.43
771.726	1.41
772.121	1.4
772.515	1.41
772.91	1.41
773.304	1.39
773.699	1.39
774.093	1.38
774.487	1.39
774.881	1.38
775.275	1.38
775.669	1.39
776.063	1.39
776.457	1.4
776.851	1.37
777.245	1.37
777.638	1.37
778.032	1.37
778.425	1.36
778.819	1.37
779.212	1.37
779.606	1.36
779.999	1.36
780.392	1.36
780.786	1.37
781.179	1.39
781.572	1.39
781.965	1.37
782.358	1.37
782.751	1.39
783.143	1.39
783.536	1.37
783.929	1.37
784.322	1.39
784.714	1.4
785.107	1.38
785.499	1.36
785.891	1.35
786.284	1.38
786.676	1.39
787.068	1.38
787.46	1.36
787.852	1.38
788.245	1.36
788.636	1.35
789.028	1.34
789.42	1.35
789.812	1.38
790.204	1.38
790.595	1.36
790.987	1.33
791.378	1.33
791.77	1.35
792.161	1.35
792.553	1.35
792.944	1.35
793.335	1.37
793.726	1.36
794.117	1.36
794.508	1.37
794.899	1.38
795.29	1.41
795.681	1.4
796.072	1.4
796.463	1.38
796.853	1.38
