Data from C_3_div_oh_2n_Splice17_03.txt Node
Date: Sat Feb 29 14:38:41 EST 2020
User: sa697716
Spectrometer: FLMS03696
Trigger mode: 0
Integration Time (sec): 3.180400E-1
Scans to average: 20
Electric dark correction enabled: true
Nonlinearity correction enabled: true
Boxcar width: 5
XAxis mode: Wavelengths
Number of Pixels in Spectrum: 2048
>>>>>Begin Spectral Data<<<<<
187.83	32.35
188.298	28.15
188.766	29.87
189.233	14.03
189.701	10.24
190.169	16.73
190.636	8.02
191.104	-21.47
191.571	-60.6
192.039	79.33
192.506	214.61
192.974	10388.57
193.441	-843.66
193.908	111.11
194.375	51.8
194.842	-14.71
195.31	31.44
195.777	5.31
196.244	-25.6
196.711	-19.78
197.177	-24.4
197.644	-23.86
198.111	-25.67
198.578	-24.73
199.045	-24.4
199.511	-24.06
199.978	-23.83
200.445	-23.9
200.911	-23.41
201.378	-23.29
201.844	-22.98
202.31	-22.07
202.777	-22.05
203.243	-21.29
203.709	-21.01
204.176	-20.83
204.642	-20.25
205.108	-20.09
205.574	-19.33
206.04	-18.99
206.506	-18.64
206.972	-18.26
207.438	-18.13
207.903	-17.13
208.369	-16.56
208.835	-16.02
209.301	-15.3
209.766	-14.5
210.232	-13.44
210.697	-13.14
211.163	-12.35
211.628	-11.89
212.094	-11.51
212.559	-11.04
213.024	-11.1
213.49	-10.75
213.955	-10.22
214.42	-9.73
214.885	-9.35
215.35	-8.54
215.815	-7.34
216.28	-6.31
216.745	-4.62
217.21	-3.12
217.675	-1.75
218.14	-0.63
218.604	0.42
219.069	1.26
219.534	1.9
219.998	2.39
220.463	2.82
220.927	3.1
221.392	3.36
221.856	3.49
222.32	3.66
222.785	3.8
223.249	3.96
223.713	4.07
224.177	4.13
224.642	4.23
225.106	4.35
225.57	4.37
226.034	4.44
226.497	4.47
226.961	4.5
227.425	4.5
227.889	4.51
228.353	4.51
228.816	4.49
229.28	4.47
229.744	4.48
230.207	4.46
230.671	4.45
231.134	4.45
231.597	4.44
232.061	4.42
232.524	4.42
232.987	4.41
233.45	4.37
233.914	4.35
234.377	4.33
234.84	4.28
235.303	4.25
235.766	4.23
236.229	4.2
236.691	4.18
237.154	4.15
237.617	4.1
238.08	4.06
238.542	4.02
239.005	3.99
239.468	3.93
239.93	3.9
240.393	3.86
240.855	3.81
241.317	3.77
241.78	3.75
242.242	3.72
242.704	3.7
243.166	3.68
243.629	3.66
244.091	3.65
244.553	3.66
245.015	3.65
245.477	3.64
245.939	3.63
246.4	3.61
246.862	3.6
247.324	3.6
247.786	3.59
248.247	3.58
248.709	3.57
249.17	3.56
249.632	3.53
250.093	3.49
250.555	3.49
251.016	3.49
251.477	3.48
251.939	3.47
252.4	3.45
252.861	3.45
253.322	3.44
253.783	3.45
254.244	3.44
254.705	3.44
255.166	3.47
255.627	3.46
256.088	3.45
256.549	3.45
257.009	3.44
257.47	3.44
257.931	3.44
258.391	3.43
258.852	3.4
259.312	3.4
259.773	3.39
260.233	3.37
260.694	3.36
261.154	3.35
261.614	3.34
262.074	3.34
262.534	3.32
262.994	3.32
263.455	3.32
263.915	3.32
264.374	3.32
264.834	3.32
265.294	3.32
265.754	3.31
266.214	3.32
266.673	3.32
267.133	3.31
267.593	3.31
268.052	3.3
268.512	3.3
268.971	3.29
269.431	3.28
269.89	3.27
270.349	3.26
270.809	3.27
271.268	3.27
271.727	3.26
272.186	3.25
272.645	3.24
273.104	3.24
273.563	3.24
274.022	3.24
274.481	3.24
274.94	3.24
275.399	3.24
275.857	3.23
276.316	3.22
276.775	3.21
277.233	3.2
277.692	3.19
278.15	3.18
278.609	3.17
279.067	3.15
279.525	3.14
279.984	3.13
280.442	3.12
280.9	3.12
281.358	3.1
281.816	3.09
282.274	3.09
282.732	3.09
283.19	3.08
283.648	3.08
284.106	3.07
284.564	3.07
285.021	3.06
285.479	3.05
285.937	3.04
286.394	3.04
286.852	3.04
287.309	3.04
287.767	3.03
288.224	3.03
288.682	3.03
289.139	3.04
289.596	3.03
290.053	3.03
290.511	3.03
290.968	3.04
291.425	3.04
291.882	3.04
292.339	3.03
292.796	3.03
293.252	3.02
293.709	3.02
294.166	3.01
294.623	3
295.079	3.01
295.536	3.01
295.992	3
296.449	3
296.905	2.99
297.362	2.98
297.818	2.98
298.274	2.97
298.731	2.97
299.187	2.97
299.643	2.96
300.099	2.96
300.555	2.95
301.011	2.94
301.467	2.93
301.923	2.93
302.379	2.93
302.835	2.92
303.291	2.91
303.746	2.9
304.202	2.88
304.658	2.86
305.113	2.84
305.569	2.84
306.024	2.82
306.479	2.81
306.935	2.8
307.39	2.78
307.845	2.77
308.301	2.76
308.756	2.77
309.211	2.76
309.666	2.76
310.121	2.75
310.576	2.75
311.031	2.74
311.486	2.73
311.94	2.71
312.395	2.71
312.85	2.71
313.305	2.7
313.759	2.68
314.214	2.67
314.668	2.66
315.123	2.66
315.577	2.65
316.032	2.65
316.486	2.65
316.94	2.65
317.394	2.64
317.849	2.64
318.303	2.64
318.757	2.64
319.211	2.63
319.665	2.62
320.119	2.63
320.572	2.63
321.026	2.62
321.48	2.62
321.934	2.62
322.387	2.61
322.841	2.6
323.295	2.59
323.748	2.59
324.202	2.59
324.655	2.59
325.108	2.57
325.562	2.56
326.015	2.55
326.468	2.54
326.921	2.53
327.374	2.53
327.827	2.52
328.28	2.51
328.733	2.5
329.186	2.49
329.639	2.48
330.092	2.48
330.545	2.47
330.997	2.46
331.45	2.46
331.903	2.45
332.355	2.44
332.808	2.44
333.26	2.43
333.713	2.44
334.165	2.44
334.617	2.44
335.069	2.44
335.522	2.44
335.974	2.44
336.426	2.44
336.878	2.44
337.33	2.44
337.782	2.43
338.234	2.44
338.686	2.42
339.137	2.42
339.589	2.42
340.041	2.41
340.493	2.39
340.944	2.39
341.396	2.38
341.847	2.38
342.299	2.38
342.75	2.37
343.201	2.37
343.653	2.37
344.104	2.38
344.555	2.38
345.006	2.38
345.457	2.39
345.908	2.4
346.359	2.4
346.81	2.41
347.261	2.41
347.712	2.42
348.163	2.42
348.613	2.41
349.064	2.41
349.515	2.4
349.965	2.39
350.416	2.39
350.866	2.38
351.317	2.38
351.767	2.37
352.217	2.37
352.668	2.36
353.118	2.36
353.568	2.36
354.018	2.36
354.468	2.36
354.918	2.36
355.368	2.36
355.818	2.36
356.268	2.36
356.718	2.36
357.168	2.35
357.617	2.34
358.067	2.33
358.517	2.32
358.966	2.32
359.416	2.32
359.865	2.32
360.315	2.31
360.764	2.32
361.213	2.31
361.663	2.32
362.112	2.32
362.561	2.32
363.01	2.33
363.459	2.33
363.908	2.33
364.357	2.33
364.806	2.33
365.255	2.34
365.703	2.34
366.152	2.34
366.601	2.33
367.05	2.33
367.498	2.33
367.947	2.32
368.395	2.32
368.844	2.32
369.292	2.31
369.74	2.3
370.189	2.29
370.637	2.29
371.085	2.3
371.533	2.31
371.981	2.31
372.429	2.3
372.877	2.3
373.325	2.29
373.773	2.29
374.221	2.29
374.669	2.29
375.116	2.28
375.564	2.28
376.012	2.27
376.459	2.26
376.907	2.25
377.354	2.25
377.801	2.25
378.249	2.25
378.696	2.26
379.143	2.25
379.591	2.25
380.038	2.25
380.485	2.25
380.932	2.25
381.379	2.24
381.826	2.24
382.273	2.24
382.72	2.24
383.166	2.24
383.613	2.25
384.06	2.24
384.506	2.23
384.953	2.23
385.4	2.23
385.846	2.22
386.292	2.22
386.739	2.22
387.185	2.23
387.631	2.22
388.078	2.22
388.524	2.2
388.97	2.21
389.416	2.21
389.862	2.21
390.308	2.19
390.754	2.2
391.2	2.21
391.645	2.21
392.091	2.2
392.537	2.19
392.983	2.18
393.428	2.17
393.874	2.18
394.319	2.17
394.765	2.17
395.21	2.16
395.655	2.16
396.101	2.15
396.546	2.14
396.991	2.14
397.436	2.12
397.881	2.11
398.326	2.13
398.771	2.11
399.216	2.12
399.661	2.12
400.106	2.13
400.551	2.11
400.995	2.1
401.44	2.11
401.885	2.11
402.329	2.11
402.774	2.11
403.218	2.09
403.663	2.07
404.107	2.07
404.551	2.07
404.995	2.06
405.44	2.07
405.884	2.07
406.328	2.06
406.772	2.05
407.216	2.05
407.66	2.05
408.104	2.05
408.547	2.06
408.991	2.05
409.435	2.05
409.879	2.04
410.322	2.03
410.766	2.03
411.209	2.03
411.653	2.02
412.096	2.01
412.54	2
412.983	1.99
413.426	1.98
413.869	1.97
414.312	1.96
414.756	1.95
415.199	1.96
415.642	1.96
416.085	1.95
416.527	1.96
416.97	1.97
417.413	1.98
417.856	1.98
418.298	1.97
418.741	1.97
419.184	1.97
419.626	1.97
420.069	1.97
420.511	1.96
420.953	1.95
421.396	1.93
421.838	1.94
422.28	1.93
422.722	1.92
423.164	1.91
423.606	1.91
424.048	1.89
424.49	1.9
424.932	1.9
425.374	1.9
425.816	1.9
426.258	1.91
426.699	1.89
427.141	1.87
427.582	1.87
428.024	1.87
428.465	1.86
428.907	1.89
429.348	1.88
429.789	1.88
430.231	1.85
430.672	1.86
431.113	1.85
431.554	1.85
431.995	1.86
432.436	1.86
432.877	1.83
433.318	1.83
433.759	1.78
434.2	1.76
434.64	1.74
435.081	1.72
435.522	1.71
435.962	1.7
436.403	1.67
436.843	1.66
437.284	1.66
437.724	1.7
438.164	1.7
438.604	1.72
439.045	1.71
439.485	1.71
439.925	1.72
440.365	1.7
440.805	1.7
441.245	1.7
441.685	1.71
442.125	1.69
442.564	1.67
443.004	1.64
443.444	1.62
443.883	1.63
444.323	1.6
444.762	1.62
445.202	1.63
445.641	1.62
446.081	1.63
446.52	1.6
446.959	1.6
447.398	1.61
447.837	1.62
448.276	1.62
448.716	1.62
449.154	1.64
449.593	1.62
450.032	1.62
450.471	1.63
450.91	1.61
451.349	1.63
451.787	1.62
452.226	1.61
452.664	1.6
453.103	1.61
453.541	1.62
453.98	1.62
454.418	1.63
454.856	1.62
455.295	1.61
455.733	1.61
456.171	1.62
456.609	1.61
457.047	1.62
457.485	1.63
457.923	1.63
458.361	1.63
458.798	1.62
459.236	1.62
459.674	1.61
460.111	1.62
460.549	1.62
460.987	1.63
461.424	1.65
461.862	1.63
462.299	1.63
462.736	1.64
463.173	1.63
463.611	1.62
464.048	1.62
464.485	1.63
464.922	1.61
465.359	1.61
465.796	1.58
466.233	1.57
466.67	1.59
467.106	1.58
467.543	1.57
467.98	1.58
468.416	1.59
468.853	1.59
469.29	1.6
469.726	1.6
470.162	1.59
470.599	1.6
471.035	1.61
471.471	1.6
471.907	1.6
472.344	1.59
472.78	1.58
473.216	1.58
473.652	1.58
474.088	1.58
474.523	1.58
474.959	1.58
475.395	1.59
475.831	1.6
476.266	1.6
476.702	1.61
477.138	1.61
477.573	1.61
478.008	1.62
478.444	1.63
478.879	1.63
479.314	1.63
479.75	1.65
480.185	1.66
480.62	1.67
481.055	1.68
481.49	1.68
481.925	1.69
482.36	1.69
482.795	1.69
483.229	1.69
483.664	1.68
484.099	1.68
484.534	1.67
484.968	1.67
485.403	1.67
485.837	1.66
486.271	1.67
486.706	1.66
487.14	1.66
487.574	1.65
488.009	1.66
488.443	1.66
488.877	1.66
489.311	1.67
489.745	1.67
490.179	1.67
490.613	1.67
491.046	1.66
491.48	1.66
491.914	1.67
492.348	1.67
492.781	1.67
493.215	1.66
493.648	1.67
494.082	1.66
494.515	1.65
494.948	1.65
495.382	1.65
495.815	1.66
496.248	1.66
496.681	1.65
497.114	1.64
497.547	1.64
497.98	1.64
498.413	1.62
498.846	1.62
499.279	1.63
499.711	1.63
500.144	1.62
500.577	1.61
501.009	1.6
501.442	1.6
501.874	1.59
502.306	1.59
502.739	1.58
503.171	1.59
503.603	1.59
504.036	1.59
504.468	1.6
504.9	1.61
505.332	1.62
505.764	1.61
506.196	1.62
506.627	1.62
507.059	1.62
507.491	1.63
507.923	1.62
508.354	1.62
508.786	1.6
509.217	1.59
509.649	1.59
510.08	1.59
510.512	1.58
510.943	1.58
511.374	1.59
511.805	1.58
512.237	1.57
512.668	1.57
513.099	1.57
513.53	1.58
513.961	1.59
514.391	1.58
514.822	1.58
515.253	1.58
515.684	1.57
516.114	1.56
516.545	1.57
516.975	1.57
517.406	1.56
517.836	1.55
518.267	1.56
518.697	1.56
519.127	1.56
519.558	1.56
519.988	1.57
520.418	1.56
520.848	1.57
521.278	1.56
521.708	1.51
522.138	1.51
522.567	1.51
522.997	1.5
523.427	1.5
523.857	1.5
524.286	1.5
524.716	1.5
525.145	1.51
525.575	1.51
526.004	1.51
526.433	1.56
526.863	1.57
527.292	1.58
527.721	1.58
528.15	1.58
528.579	1.59
529.008	1.59
529.437	1.59
529.866	1.58
530.295	1.59
530.724	1.59
531.152	1.6
531.581	1.58
532.01	1.58
532.438	1.58
532.867	1.58
533.295	1.57
533.723	1.57
534.152	1.57
534.58	1.58
535.008	1.57
535.436	1.57
535.865	1.56
536.293	1.57
536.721	1.56
537.149	1.56
537.576	1.57
538.004	1.58
538.432	1.57
538.86	1.57
539.287	1.57
539.715	1.57
540.143	1.57
540.57	1.57
540.998	1.58
541.425	1.57
541.852	1.57
542.28	1.56
542.707	1.56
543.134	1.57
543.561	1.56
543.988	1.56
544.415	1.56
544.842	1.56
545.269	1.56
545.696	1.55
546.123	1.55
546.549	1.54
546.976	1.55
547.403	1.55
547.829	1.53
548.256	1.54
548.682	1.54
549.108	1.53
549.535	1.53
549.961	1.52
550.387	1.51
550.813	1.5
551.24	1.51
551.666	1.52
552.092	1.52
552.518	1.54
552.943	1.53
553.369	1.53
553.795	1.54
554.221	1.54
554.646	1.55
555.072	1.56
555.498	1.57
555.923	1.58
556.349	1.57
556.774	1.56
557.199	1.57
557.625	1.57
558.05	1.57
558.475	1.56
558.9	1.56
559.325	1.57
559.75	1.56
560.175	1.55
560.6	1.56
561.025	1.56
561.449	1.55
561.874	1.55
562.299	1.55
562.723	1.55
563.148	1.55
563.572	1.55
563.997	1.54
564.421	1.53
564.846	1.54
565.27	1.52
565.694	1.52
566.118	1.53
566.542	1.54
566.966	1.55
567.39	1.55
567.814	1.55
568.238	1.55
568.662	1.56
569.086	1.57
569.509	1.57
569.933	1.57
570.357	1.56
570.78	1.57
571.204	1.56
571.627	1.55
572.05	1.54
572.474	1.55
572.897	1.55
573.32	1.54
573.743	1.53
574.166	1.52
574.589	1.52
575.012	1.52
575.435	1.52
575.858	1.52
576.281	1.52
576.704	1.52
577.126	1.52
577.549	1.54
577.972	1.53
578.394	1.54
578.817	1.55
579.239	1.53
579.661	1.53
580.084	1.51
580.506	1.5
580.928	1.51
581.35	1.51
581.772	1.5
582.194	1.49
582.616	1.49
583.038	1.49
583.46	1.5
583.882	1.51
584.303	1.51
584.725	1.52
585.147	1.5
585.568	1.49
585.99	1.49
586.411	1.49
586.833	1.49
587.254	1.5
587.675	1.51
588.096	1.5
588.518	1.5
588.939	1.5
589.36	1.5
589.781	1.52
590.202	1.53
590.623	1.52
591.043	1.52
591.464	1.51
591.885	1.5
592.305	1.51
592.726	1.5
593.147	1.5
593.567	1.5
593.987	1.51
594.408	1.52
594.828	1.52
595.248	1.52
595.669	1.54
596.089	1.55
596.509	1.54
596.929	1.54
597.349	1.53
597.769	1.53
598.189	1.53
598.608	1.52
599.028	1.52
599.448	1.53
599.867	1.54
600.287	1.52
600.706	1.53
601.126	1.52
601.545	1.52
601.965	1.52
602.384	1.53
602.803	1.53
603.222	1.53
603.641	1.52
604.061	1.51
604.48	1.52
604.898	1.52
605.317	1.52
605.736	1.53
606.155	1.52
606.574	1.54
606.992	1.54
607.411	1.55
607.829	1.51
608.248	1.52
608.666	1.51
609.085	1.5
609.503	1.5
609.921	1.49
610.339	1.48
610.758	1.5
611.176	1.5
611.594	1.49
612.012	1.48
612.43	1.52
612.847	1.52
613.265	1.53
613.683	1.53
614.101	1.53
614.518	1.54
614.936	1.54
615.353	1.53
615.771	1.53
616.188	1.53
616.606	1.54
617.023	1.53
617.44	1.53
617.857	1.53
618.274	1.53
618.691	1.53
619.108	1.53
619.525	1.53
619.942	1.52
620.359	1.53
620.776	1.52
621.192	1.52
621.609	1.52
622.026	1.52
622.442	1.51
622.859	1.51
623.275	1.52
623.691	1.52
624.108	1.52
624.524	1.52
624.94	1.51
625.356	1.51
625.772	1.51
626.188	1.51
626.604	1.51
627.02	1.52
627.436	1.52
627.852	1.51
628.268	1.51
628.683	1.49
629.099	1.5
629.514	1.5
629.93	1.5
630.345	1.49
630.761	1.49
631.176	1.49
631.591	1.49
632.007	1.48
632.422	1.48
632.837	1.48
633.252	1.49
633.667	1.48
634.082	1.49
634.497	1.48
634.911	1.48
635.326	1.48
635.741	1.48
636.155	1.48
636.57	1.49
636.984	1.47
637.399	1.46
637.813	1.44
638.228	1.44
638.642	1.44
639.056	1.43
639.47	1.44
639.884	1.42
640.298	1.42
640.712	1.41
641.126	1.41
641.54	1.41
641.954	1.43
642.368	1.45
642.781	1.45
643.195	1.44
643.609	1.45
644.022	1.45
644.436	1.46
644.849	1.47
645.262	1.48
645.676	1.48
646.089	1.47
646.502	1.47
646.915	1.46
647.328	1.46
647.741	1.46
648.154	1.47
648.567	1.47
648.98	1.47
649.393	1.47
649.805	1.46
650.218	1.46
650.631	1.47
651.043	1.47
651.456	1.47
651.868	1.47
652.28	1.47
652.693	1.47
653.105	1.46
653.517	1.45
653.929	1.45
654.341	1.46
654.753	1.45
655.165	1.45
655.577	1.44
655.989	1.43
656.401	1.43
656.813	1.43
657.224	1.43
657.636	1.44
658.047	1.43
658.459	1.42
658.87	1.41
659.282	1.42
659.693	1.41
660.104	1.41
660.515	1.4
660.926	1.4
661.338	1.4
661.749	1.38
662.159	1.38
662.57	1.39
662.981	1.39
663.392	1.39
663.803	1.39
664.213	1.39
664.624	1.4
665.035	1.4
665.445	1.4
665.855	1.41
666.266	1.42
666.676	1.41
667.086	1.41
667.497	1.39
667.907	1.39
668.317	1.38
668.727	1.38
669.137	1.39
669.547	1.4
669.956	1.4
670.366	1.39
670.776	1.39
671.186	1.4
671.595	1.41
672.005	1.43
672.414	1.44
672.824	1.44
673.233	1.44
673.642	1.42
674.052	1.41
674.461	1.41
674.87	1.41
675.279	1.41
675.688	1.39
676.097	1.4
676.506	1.38
676.915	1.38
677.323	1.38
677.732	1.38
678.141	1.39
678.549	1.4
678.958	1.4
679.366	1.39
679.775	1.41
680.183	1.41
680.592	1.41
681	1.4
681.408	1.41
681.816	1.4
682.224	1.41
682.632	1.4
683.04	1.4
683.448	1.4
683.856	1.39
684.264	1.38
684.671	1.38
685.079	1.38
685.487	1.4
685.894	1.38
686.302	1.38
686.709	1.36
687.116	1.36
687.524	1.36
687.931	1.36
688.338	1.36
688.745	1.36
689.152	1.35
689.559	1.35
689.966	1.33
690.373	1.35
690.78	1.34
691.187	1.35
691.593	1.34
692	1.35
692.407	1.35
692.813	1.34
693.22	1.34
693.626	1.35
694.032	1.36
694.439	1.38
694.845	1.38
695.251	1.37
695.657	1.37
696.063	1.37
696.469	1.35
696.875	1.35
697.281	1.36
697.687	1.36
698.093	1.37
698.498	1.37
698.904	1.36
699.31	1.36
699.715	1.36
700.12	1.35
700.526	1.37
700.931	1.38
701.337	1.38
701.742	1.37
702.147	1.37
702.552	1.37
702.957	1.37
703.362	1.37
703.767	1.36
704.172	1.36
704.577	1.37
704.981	1.36
705.386	1.37
705.791	1.37
706.195	1.39
706.6	1.38
707.004	1.38
707.408	1.39
707.813	1.36
708.217	1.36
708.621	1.38
709.025	1.37
709.43	1.36
709.834	1.36
710.237	1.34
710.641	1.34
711.045	1.34
711.449	1.32
711.853	1.32
712.256	1.33
712.66	1.33
713.064	1.31
713.467	1.31
713.87	1.31
714.274	1.3
714.677	1.31
715.08	1.3
715.484	1.3
715.887	1.29
716.29	1.27
716.693	1.27
717.096	1.28
717.499	1.29
717.901	1.3
718.304	1.31
718.707	1.32
719.109	1.33
719.512	1.33
719.915	1.33
720.317	1.35
720.719	1.36
721.122	1.36
721.524	1.35
721.926	1.34
722.328	1.33
722.731	1.31
723.133	1.3
723.535	1.29
723.937	1.29
724.338	1.3
724.74	1.29
725.142	1.21
725.544	1.2
725.945	1.17
726.347	1.17
726.748	1.17
727.15	1.17
727.551	1.16
727.952	1.16
728.354	1.16
728.755	1.18
729.156	1.18
729.557	1.27
729.958	1.28
730.359	1.31
730.76	1.31
731.161	1.32
731.562	1.33
731.962	1.33
732.363	1.32
732.763	1.34
733.164	1.32
733.564	1.32
733.965	1.33
734.365	1.34
734.766	1.33
735.166	1.34
735.566	1.34
735.966	1.33
736.366	1.32
736.766	1.33
737.166	1.31
737.566	1.34
737.966	1.33
738.365	1.32
738.765	1.3
739.165	1.29
739.564	1.29
739.964	1.3
740.363	1.32
740.763	1.33
741.162	1.32
741.561	1.31
741.96	1.31
742.36	1.31
742.759	1.3
743.158	1.29
743.557	1.29
743.955	1.3
744.354	1.29
744.753	1.28
745.152	1.28
745.55	1.28
745.949	1.29
746.348	1.29
746.746	1.3
747.144	1.3
747.543	1.32
747.941	1.34
748.339	1.32
748.737	1.3
749.136	1.29
749.534	1.29
749.932	1.29
750.33	1.29
750.727	1.29
751.125	1.29
751.523	1.3
751.921	1.3
752.318	1.28
752.716	1.3
753.113	1.33
753.511	1.33
753.908	1.34
754.305	1.33
754.703	1.32
755.1	1.29
755.497	1.3
755.894	1.29
756.291	1.3
756.688	1.3
757.085	1.29
757.482	1.28
757.878	1.3
758.275	1.29
758.672	1.29
759.068	1.3
759.465	1.32
759.861	1.29
760.258	1.29
760.654	1.29
761.05	1.29
761.447	1.29
761.843	1.28
762.239	1.26
762.635	1.26
763.031	1.28
763.427	1.28
763.822	1.29
764.218	1.31
764.614	1.31
765.01	1.3
765.405	1.3
765.801	1.29
766.196	1.29
766.592	1.3
766.987	1.31
767.382	1.31
767.778	1.31
768.173	1.3
768.568	1.27
768.963	1.27
769.358	1.28
769.753	1.28
770.148	1.29
770.542	1.28
770.937	1.28
771.332	1.26
771.726	1.25
772.121	1.23
772.515	1.24
772.91	1.26
773.304	1.26
773.699	1.26
774.093	1.25
774.487	1.24
774.881	1.25
775.275	1.24
775.669	1.25
776.063	1.24
776.457	1.26
776.851	1.22
777.245	1.21
777.638	1.2
778.032	1.19
778.425	1.18
778.819	1.19
779.212	1.18
779.606	1.18
779.999	1.18
780.392	1.19
780.786	1.17
781.179	1.19
781.572	1.17
781.965	1.17
782.358	1.16
782.751	1.17
783.143	1.15
783.536	1.16
783.929	1.16
784.322	1.17
784.714	1.16
785.107	1.15
785.499	1.14
785.891	1.15
786.284	1.16
786.676	1.18
787.068	1.19
787.46	1.21
787.852	1.19
788.245	1.16
788.636	1.15
789.028	1.16
789.42	1.17
789.812	1.17
790.204	1.17
790.595	1.16
790.987	1.13
791.378	1.14
791.77	1.15
792.161	1.16
792.553	1.17
792.944	1.17
793.335	1.18
793.726	1.18
794.117	1.22
794.508	1.25
794.899	1.26
795.29	1.27
795.681	1.25
796.072	1.25
796.463	1.21
796.853	1.23
797.244	1.21
