Data from c_3_dec_ct_2n_Splice17_14.txt Node
Date: Sat Feb 29 14:45:53 EST 2020
User: sa697716
Spectrometer: FLMS03696
Trigger mode: 0
Integration Time (sec): 3.180400E-1
Scans to average: 20
Electric dark correction enabled: true
Nonlinearity correction enabled: true
Boxcar width: 5
XAxis mode: Wavelengths
Number of Pixels in Spectrum: 2048
>>>>>Begin Spectral Data<<<<<
187.83	63.35
188.298	61.69
188.766	57.95
189.233	39.75
189.701	43.91
190.169	51.48
190.636	64.11
191.104	52.11
191.571	142.63
192.039	149.04
192.506	336.99
192.974	11519.44
193.441	-1074.29
193.908	175.09
194.375	97.48
194.842	61.41
195.31	16.9
195.777	79.1
196.244	19.5
196.711	16.03
197.177	11.7
197.644	11.54
198.111	11.46
198.578	11.51
199.045	11.56
199.511	12.49
199.978	13.5
200.445	13.85
200.911	13.76
201.378	13.9
201.844	14.14
202.31	14.96
202.777	15.18
203.243	15.7
203.709	16.3
204.176	16.24
204.642	16.38
205.108	16.27
205.574	16.88
206.04	16.6
206.506	16.89
206.972	16.88
207.438	16.92
207.903	17.37
208.369	17.24
208.835	17.18
209.301	17.56
209.766	17.61
210.232	17.69
210.697	17.67
211.163	18.31
211.628	18.03
212.094	17.89
212.559	17.69
213.024	17.32
213.49	17.2
213.955	17.24
214.42	16.89
214.885	16.61
215.35	16.28
215.815	15.62
216.28	15.01
216.745	14.67
217.21	14.48
217.675	14.18
218.14	13.66
218.604	13.32
219.069	12.98
219.534	12.78
219.998	12.55
220.463	12.43
220.927	12.27
221.392	12.13
221.856	12.02
222.32	11.87
222.785	11.75
223.249	11.7
223.713	11.6
224.177	11.47
224.642	11.4
225.106	11.3
225.57	11.13
226.034	11.01
226.497	10.89
226.961	10.75
227.425	10.62
227.889	10.48
228.353	10.35
228.816	10.21
229.28	10.07
229.744	9.95
230.207	9.85
230.671	9.78
231.134	9.67
231.597	9.55
232.061	9.45
232.524	9.34
232.987	9.24
233.45	9.13
233.914	9.04
234.377	8.95
234.84	8.83
235.303	8.74
235.766	8.63
236.229	8.55
236.691	8.49
237.154	8.4
237.617	8.31
238.08	8.23
238.542	8.15
239.005	8.07
239.468	7.97
239.93	7.9
240.393	7.81
240.855	7.72
241.317	7.64
241.78	7.57
242.242	7.49
242.704	7.42
243.166	7.35
243.629	7.29
244.091	7.21
244.553	7.16
245.015	7.09
245.477	7.03
245.939	6.98
246.4	6.91
246.862	6.84
247.324	6.79
247.786	6.73
248.247	6.68
248.709	6.62
249.17	6.58
249.632	6.53
250.093	6.47
250.555	6.42
251.016	6.37
251.477	6.34
251.939	6.3
252.4	6.25
252.861	6.2
253.322	6.14
253.783	6.11
254.244	6.06
254.705	6.02
255.166	6
255.627	5.96
256.088	5.92
256.549	5.88
257.009	5.85
257.47	5.83
257.931	5.8
258.391	5.77
258.852	5.73
259.312	5.71
259.773	5.68
260.233	5.65
260.694	5.62
261.154	5.59
261.614	5.56
262.074	5.53
262.534	5.49
262.994	5.47
263.455	5.46
263.915	5.44
264.374	5.41
264.834	5.39
265.294	5.36
265.754	5.34
266.214	5.32
266.673	5.3
267.133	5.29
267.593	5.28
268.052	5.25
268.512	5.23
268.971	5.21
269.431	5.2
269.89	5.19
270.349	5.17
270.809	5.15
271.268	5.14
271.727	5.13
272.186	5.11
272.645	5.09
273.104	5.08
273.563	5.06
274.022	5.04
274.481	5.02
274.94	5
275.399	4.99
275.857	4.97
276.316	4.95
276.775	4.92
277.233	4.91
277.692	4.89
278.15	4.86
278.609	4.84
279.067	4.82
279.525	4.8
279.984	4.79
280.442	4.77
280.9	4.75
281.358	4.74
281.816	4.72
282.274	4.7
282.732	4.7
283.19	4.69
283.648	4.67
284.106	4.66
284.564	4.65
285.021	4.64
285.479	4.63
285.937	4.61
286.394	4.59
286.852	4.58
287.309	4.58
287.767	4.55
288.224	4.54
288.682	4.54
289.139	4.53
289.596	4.51
290.053	4.49
290.511	4.46
290.968	4.45
291.425	4.43
291.882	4.42
292.339	4.39
292.796	4.37
293.252	4.35
293.709	4.34
294.166	4.32
294.623	4.31
295.079	4.3
295.536	4.29
295.992	4.27
296.449	4.27
296.905	4.24
297.362	4.23
297.818	4.22
298.274	4.2
298.731	4.19
299.187	4.18
299.643	4.16
300.099	4.15
300.555	4.14
301.011	4.13
301.467	4.11
301.923	4.1
302.379	4.09
302.835	4.09
303.291	4.08
303.746	4.07
304.202	4.06
304.658	4.04
305.113	4.03
305.569	4.03
306.024	4.01
306.479	4.01
306.935	4
307.39	3.99
307.845	3.98
308.301	3.98
308.756	3.98
309.211	3.98
309.666	3.98
310.121	3.96
310.576	3.96
311.031	3.96
311.486	3.96
311.94	3.95
312.395	3.96
312.85	3.95
313.305	3.94
313.759	3.94
314.214	3.93
314.668	3.93
315.123	3.93
315.577	3.93
316.032	3.92
316.486	3.92
316.94	3.92
317.394	3.9
317.849	3.9
318.303	3.89
318.757	3.88
319.211	3.86
319.665	3.85
320.119	3.84
320.572	3.84
321.026	3.83
321.48	3.82
321.934	3.81
322.387	3.8
322.841	3.8
323.295	3.78
323.748	3.78
324.202	3.78
324.655	3.77
325.108	3.76
325.562	3.74
326.015	3.74
326.468	3.72
326.921	3.71
327.374	3.71
327.827	3.7
328.28	3.69
328.733	3.68
329.186	3.67
329.639	3.66
330.092	3.65
330.545	3.65
330.997	3.65
331.45	3.64
331.903	3.64
332.355	3.64
332.808	3.64
333.26	3.63
333.713	3.63
334.165	3.62
334.617	3.63
335.069	3.62
335.522	3.62
335.974	3.62
336.426	3.62
336.878	3.61
337.33	3.61
337.782	3.61
338.234	3.61
338.686	3.62
339.137	3.62
339.589	3.61
340.041	3.61
340.493	3.59
340.944	3.58
341.396	3.57
341.847	3.56
342.299	3.55
342.75	3.55
343.201	3.54
343.653	3.53
344.104	3.51
344.555	3.51
345.006	3.51
345.457	3.5
345.908	3.49
346.359	3.49
346.81	3.5
347.261	3.5
347.712	3.49
348.163	3.49
348.613	3.48
349.064	3.47
349.515	3.47
349.965	3.45
350.416	3.45
350.866	3.44
351.317	3.44
351.767	3.43
352.217	3.41
352.668	3.41
353.118	3.41
353.568	3.41
354.018	3.43
354.468	3.42
354.918	3.42
355.368	3.42
355.818	3.42
356.268	3.42
356.718	3.42
357.168	3.41
357.617	3.41
358.067	3.4
358.517	3.39
358.966	3.39
359.416	3.4
359.865	3.39
360.315	3.4
360.764	3.4
361.213	3.4
361.663	3.39
362.112	3.4
362.561	3.4
363.01	3.4
363.459	3.4
363.908	3.4
364.357	3.39
364.806	3.38
365.255	3.38
365.703	3.37
366.152	3.37
366.601	3.37
367.05	3.38
367.498	3.37
367.947	3.37
368.395	3.38
368.844	3.38
369.292	3.38
369.74	3.39
370.189	3.39
370.637	3.4
371.085	3.4
371.533	3.39
371.981	3.38
372.429	3.38
372.877	3.37
373.325	3.36
373.773	3.36
374.221	3.36
374.669	3.35
375.116	3.34
375.564	3.34
376.012	3.34
376.459	3.35
376.907	3.35
377.354	3.34
377.801	3.35
378.249	3.36
378.696	3.37
379.143	3.37
379.591	3.36
380.038	3.38
380.485	3.38
380.932	3.37
381.379	3.37
381.826	3.37
382.273	3.37
382.72	3.38
383.166	3.38
383.613	3.38
384.06	3.39
384.506	3.39
384.953	3.39
385.4	3.39
385.846	3.4
386.292	3.4
386.739	3.4
387.185	3.4
387.631	3.41
388.078	3.41
388.524	3.39
388.97	3.38
389.416	3.38
389.862	3.38
390.308	3.38
390.754	3.39
391.2	3.4
391.645	3.41
392.091	3.4
392.537	3.4
392.983	3.41
393.428	3.42
393.874	3.43
394.319	3.45
394.765	3.45
395.21	3.45
395.655	3.46
396.101	3.46
396.546	3.48
396.991	3.49
397.436	3.48
397.881	3.49
398.326	3.51
398.771	3.53
399.216	3.55
399.661	3.57
400.106	3.6
400.551	3.61
400.995	3.61
401.44	3.61
401.885	3.62
402.329	3.64
402.774	3.64
403.218	3.65
403.663	3.65
404.107	3.66
404.551	3.67
404.995	3.66
405.44	3.68
405.884	3.69
406.328	3.69
406.772	3.71
407.216	3.72
407.66	3.74
408.104	3.75
408.547	3.75
408.991	3.76
409.435	3.75
409.879	3.77
410.322	3.77
410.766	3.79
411.209	3.81
411.653	3.81
412.096	3.81
412.54	3.82
412.983	3.82
413.426	3.84
413.869	3.84
414.312	3.86
414.756	3.88
415.199	3.9
415.642	3.92
416.085	3.94
416.527	3.97
416.97	3.99
417.413	3.99
417.856	4
418.298	4
418.741	4.01
419.184	4.02
419.626	4
420.069	4
420.511	3.99
420.953	3.98
421.396	3.98
421.838	4
422.28	4.03
422.722	4.05
423.164	4.06
423.606	4.08
424.048	4.07
424.49	4.1
424.932	4.1
425.374	4.11
425.816	4.1
426.258	4.1
426.699	4.08
427.141	4.07
427.582	4.06
428.024	4.06
428.465	4.05
428.907	4.06
429.348	4.06
429.789	4.06
430.231	4.05
430.672	4.07
431.113	4.09
431.554	4.09
431.995	4.11
432.436	4.11
432.877	4.11
433.318	4.12
433.759	4.11
434.2	4.11
434.64	4.1
435.081	4.1
435.522	4.11
435.962	4.11
436.403	4.12
436.843	4.13
437.284	4.14
437.724	4.17
438.164	4.18
438.604	4.2
439.045	4.22
439.485	4.23
439.925	4.22
440.365	4.2
440.805	4.2
441.245	4.17
441.685	4.18
442.125	4.18
442.564	4.15
443.004	4.16
443.444	4.16
443.883	4.18
444.323	4.16
444.762	4.18
445.202	4.21
445.641	4.23
446.081	4.26
446.52	4.25
446.959	4.26
447.398	4.29
447.837	4.31
448.276	4.3
448.716	4.3
449.154	4.33
449.593	4.34
450.032	4.34
450.471	4.34
450.91	4.33
451.349	4.33
451.787	4.32
452.226	4.31
452.664	4.3
453.103	4.29
453.541	4.3
453.98	4.3
454.418	4.28
454.856	4.25
455.295	4.24
455.733	4.23
456.171	4.23
456.609	4.23
457.047	4.22
457.485	4.22
457.923	4.23
458.361	4.21
458.798	4.22
459.236	4.23
459.674	4.24
460.111	4.25
460.549	4.23
460.987	4.24
461.424	4.24
461.862	4.24
462.299	4.24
462.736	4.24
463.173	4.24
463.611	4.23
464.048	4.23
464.485	4.22
464.922	4.2
465.359	4.21
465.796	4.19
466.233	4.19
466.67	4.2
467.106	4.19
467.543	4.16
467.98	4.16
468.416	4.17
468.853	4.15
469.29	4.15
469.726	4.17
470.162	4.16
470.599	4.17
471.035	4.18
471.471	4.17
471.907	4.17
472.344	4.18
472.78	4.18
473.216	4.18
473.652	4.17
474.088	4.18
474.523	4.17
474.959	4.19
475.395	4.18
475.831	4.17
476.266	4.18
476.702	4.16
477.138	4.16
477.573	4.14
478.008	4.14
478.444	4.14
478.879	4.13
479.314	4.13
479.75	4.13
480.185	4.12
480.62	4.11
481.055	4.11
481.49	4.11
481.925	4.11
482.36	4.1
482.795	4.09
483.229	4.09
483.664	4.08
484.099	4.07
484.534	4.06
484.968	4.07
485.403	4.06
485.837	4.06
486.271	4.05
486.706	4.04
487.14	4.04
487.574	4.04
488.009	4.03
488.443	4.02
488.877	4.02
489.311	4.03
489.745	4.02
490.179	4.02
490.613	4.01
491.046	4.02
491.48	4.03
491.914	4.04
492.348	4.04
492.781	4.04
493.215	4.04
493.648	4.06
494.082	4.07
494.515	4.08
494.948	4.08
495.382	4.1
495.815	4.11
496.248	4.12
496.681	4.13
497.114	4.15
497.547	4.17
497.98	4.19
498.413	4.2
498.846	4.21
499.279	4.22
499.711	4.25
500.144	4.27
500.577	4.29
501.009	4.3
501.442	4.33
501.874	4.35
502.306	4.37
502.739	4.39
503.171	4.42
503.603	4.46
504.036	4.5
504.468	4.54
504.9	4.58
505.332	4.63
505.764	4.68
506.196	4.73
506.627	4.78
507.059	4.83
507.491	4.9
507.923	4.97
508.354	5.03
508.786	5.08
509.217	5.12
509.649	5.19
510.08	5.28
510.512	5.35
510.943	5.42
511.374	5.5
511.805	5.58
512.237	5.67
512.668	5.75
513.099	5.85
513.53	5.96
513.961	6.08
514.391	6.18
514.822	6.27
515.253	6.38
515.684	6.48
516.114	6.61
516.545	6.73
516.975	6.84
517.406	6.94
517.836	7.05
518.267	7.16
518.697	7.29
519.127	7.43
519.558	7.56
519.988	7.69
520.418	7.81
520.848	7.93
521.278	8.07
521.708	8.16
522.138	8.28
522.567	8.4
522.997	8.53
523.427	8.63
523.857	8.74
524.286	8.87
524.716	8.98
525.145	9.1
525.575	9.21
526.004	9.31
526.433	9.44
526.863	9.55
527.292	9.65
527.721	9.76
528.15	9.84
528.579	9.94
529.008	10.01
529.437	10.09
529.866	10.17
530.295	10.24
530.724	10.33
531.152	10.41
531.581	10.48
532.01	10.54
532.438	10.6
532.867	10.66
533.295	10.71
533.723	10.77
534.152	10.82
534.58	10.87
535.008	10.9
535.436	10.93
535.865	10.95
536.293	10.99
536.721	11.05
537.149	11.07
537.576	11.1
538.004	11.11
538.432	11.13
538.86	11.15
539.287	11.17
539.715	11.2
540.143	11.21
540.57	11.24
540.998	11.25
541.425	11.25
541.852	11.26
542.28	11.27
542.707	11.29
543.134	11.32
543.561	11.33
543.988	11.34
544.415	11.36
544.842	11.39
545.269	11.4
545.696	11.43
546.123	11.45
546.549	11.49
546.976	11.53
547.403	11.54
547.829	11.55
548.256	11.57
548.682	11.58
549.108	11.58
549.535	11.58
549.961	11.59
550.387	11.57
550.813	11.56
551.24	11.55
551.666	11.53
552.092	11.54
552.518	11.54
552.943	11.52
553.369	11.52
553.795	11.51
554.221	11.5
554.646	11.48
555.072	11.45
555.498	11.43
555.923	11.4
556.349	11.36
556.774	11.31
557.199	11.26
557.625	11.22
558.05	11.16
558.475	11.1
558.9	11.04
559.325	10.99
559.75	10.94
560.175	10.88
560.6	10.81
561.025	10.74
561.449	10.67
561.874	10.61
562.299	10.52
562.723	10.46
563.148	10.39
563.572	10.3
563.997	10.22
564.421	10.13
564.846	10.05
565.27	9.96
565.694	9.88
566.118	9.78
566.542	9.69
566.966	9.61
567.39	9.51
567.814	9.41
568.238	9.31
568.662	9.21
569.086	9.12
569.509	9.03
569.933	8.92
570.357	8.82
570.78	8.73
571.204	8.63
571.627	8.55
572.05	8.47
572.474	8.4
572.897	8.32
573.32	8.25
573.743	8.18
574.166	8.11
574.589	8.06
575.012	8
575.435	7.93
575.858	7.87
576.281	7.82
576.704	7.78
577.126	7.72
577.549	7.68
577.972	7.63
578.394	7.58
578.817	7.52
579.239	7.47
579.661	7.44
580.084	7.39
580.506	7.37
580.928	7.31
581.35	7.26
581.772	7.23
582.194	7.2
582.616	7.15
583.038	7.11
583.46	7.1
583.882	7.08
584.303	7.04
584.725	7.01
585.147	6.96
585.568	6.93
585.99	6.92
586.411	6.89
586.833	6.87
587.254	6.86
587.675	6.84
588.096	6.81
588.518	6.77
588.939	6.75
589.36	6.74
589.781	6.74
590.202	6.73
590.623	6.69
591.043	6.67
591.464	6.65
591.885	6.61
592.305	6.59
592.726	6.58
593.147	6.58
593.567	6.56
593.987	6.55
594.408	6.53
594.828	6.5
595.248	6.5
595.669	6.49
596.089	6.48
596.509	6.45
596.929	6.43
597.349	6.42
597.769	6.4
598.189	6.38
598.608	6.35
599.028	6.33
599.448	6.32
599.867	6.28
600.287	6.25
600.706	6.22
601.126	6.2
601.545	6.18
601.965	6.16
602.384	6.13
602.803	6.1
603.222	6.08
603.641	6.05
604.061	6.02
604.48	6
604.898	5.96
605.317	5.94
605.736	5.91
606.155	5.88
606.574	5.84
606.992	5.8
607.411	5.78
607.829	5.7
608.248	5.67
608.666	5.65
609.085	5.62
609.503	5.58
609.921	5.54
610.339	5.52
610.758	5.5
611.176	5.47
611.594	5.45
612.012	5.41
612.43	5.43
612.847	5.41
613.265	5.38
613.683	5.35
614.101	5.33
614.518	5.31
614.936	5.29
615.353	5.26
615.771	5.24
616.188	5.23
616.606	5.2
617.023	5.18
617.44	5.17
617.857	5.15
618.274	5.13
618.691	5.12
619.108	5.1
619.525	5.09
619.942	5.07
620.359	5.06
620.776	5.05
621.192	5.04
621.609	5.02
622.026	5
622.442	4.98
622.859	4.97
623.275	4.97
623.691	4.95
624.108	4.94
624.524	4.92
624.94	4.9
625.356	4.89
625.772	4.89
626.188	4.89
626.604	4.88
627.02	4.88
627.436	4.88
627.852	4.86
628.268	4.87
628.683	4.86
629.099	4.85
629.514	4.86
629.93	4.84
630.345	4.83
630.761	4.82
631.176	4.81
631.591	4.79
632.007	4.78
632.422	4.78
632.837	4.76
633.252	4.76
633.667	4.75
634.082	4.73
634.497	4.72
634.911	4.7
635.326	4.69
635.741	4.67
636.155	4.65
636.57	4.64
636.984	4.6
637.399	4.57
637.813	4.53
638.228	4.49
638.642	4.48
639.056	4.44
639.47	4.41
639.884	4.36
640.298	4.33
640.712	4.29
641.126	4.26
641.54	4.23
641.954	4.21
642.368	4.19
642.781	4.16
643.195	4.13
643.609	4.1
644.022	4.08
644.436	4.06
644.849	4.03
645.262	4.02
645.676	4
646.089	3.98
646.502	3.95
646.915	3.93
647.328	3.91
647.741	3.89
648.154	3.88
648.567	3.87
648.98	3.86
649.393	3.84
649.805	3.82
650.218	3.82
650.631	3.81
651.043	3.81
651.456	3.8
651.868	3.79
652.28	3.8
652.693	3.79
653.105	3.77
653.517	3.75
653.929	3.74
654.341	3.74
654.753	3.71
655.165	3.7
655.577	3.68
655.989	3.66
656.401	3.64
656.813	3.62
657.224	3.6
657.636	3.6
658.047	3.6
658.459	3.59
658.87	3.56
659.282	3.57
659.693	3.55
660.104	3.53
660.515	3.53
660.926	3.53
661.338	3.51
661.749	3.49
662.159	3.48
662.57	3.46
662.981	3.44
663.392	3.43
663.803	3.42
664.213	3.41
664.624	3.4
665.035	3.4
665.445	3.39
665.855	3.39
666.266	3.39
666.676	3.38
667.086	3.38
667.497	3.37
667.907	3.37
668.317	3.36
668.727	3.36
669.137	3.37
669.547	3.37
669.956	3.37
670.366	3.38
670.776	3.39
671.186	3.39
671.595	3.4
672.005	3.42
672.414	3.43
672.824	3.45
673.233	3.46
673.642	3.46
674.052	3.46
674.461	3.48
674.87	3.47
675.279	3.48
675.688	3.49
676.097	3.49
676.506	3.5
676.915	3.51
677.323	3.51
677.732	3.51
678.141	3.53
678.549	3.56
678.958	3.56
679.366	3.58
679.775	3.6
680.183	3.63
680.592	3.65
681	3.66
681.408	3.69
681.816	3.7
682.224	3.74
682.632	3.77
683.04	3.78
683.448	3.8
683.856	3.83
684.264	3.87
684.671	3.9
685.079	3.94
685.487	4
685.894	4.05
686.302	4.11
686.709	4.16
687.116	4.22
687.524	4.3
687.931	4.39
688.338	4.49
688.745	4.58
689.152	4.7
689.559	4.81
689.966	4.93
690.373	5.08
690.78	5.24
691.187	5.41
691.593	5.61
692	5.8
692.407	6
692.813	6.23
693.22	6.46
693.626	6.7
694.032	6.98
694.439	7.26
694.845	7.54
695.251	7.81
695.657	8.09
696.063	8.39
696.469	8.71
696.875	9.01
697.281	9.32
697.687	9.66
698.093	10.01
698.498	10.35
698.904	10.7
699.31	11.05
699.715	11.43
700.12	11.81
700.526	12.17
700.931	12.53
701.337	12.91
701.742	13.28
702.147	13.66
702.552	14.03
702.957	14.39
703.362	14.8
703.767	15.17
704.172	15.54
704.577	15.92
704.981	16.31
705.386	16.7
705.791	17.1
706.195	17.47
706.6	17.86
707.004	18.24
707.408	18.62
707.813	18.95
708.217	19.32
708.621	19.72
709.025	20.11
709.43	20.46
709.834	20.86
710.237	21.23
710.641	21.62
711.045	21.97
711.449	22.35
711.853	22.7
712.256	23.1
712.66	23.48
713.064	23.83
713.467	24.18
713.87	24.56
714.274	24.92
714.677	25.28
715.08	25.63
715.484	26
715.887	26.36
716.29	26.72
716.693	27.04
717.096	27.39
717.499	27.73
717.901	28.08
718.304	28.42
718.707	28.7
719.109	29.04
719.512	29.36
719.915	29.64
720.317	29.98
720.719	30.29
721.122	30.61
721.524	30.93
721.926	31.21
722.328	31.49
722.731	31.77
723.133	32.08
723.535	32.37
723.937	32.65
724.338	32.92
724.74	33.16
725.142	33.35
725.544	33.59
725.945	33.8
726.347	34.02
726.748	34.24
727.15	34.44
727.551	34.66
727.952	34.84
728.354	35.05
728.755	35.25
729.156	35.45
729.557	35.7
729.958	35.9
730.359	36.09
730.76	36.26
731.161	36.46
731.562	36.66
731.962	36.76
732.363	36.92
732.763	37.08
733.164	37.24
733.564	37.35
733.965	37.49
734.365	37.63
734.766	37.74
735.166	37.86
735.566	37.95
735.966	38.01
736.366	38.13
736.766	38.23
737.166	38.31
737.566	38.41
737.966	38.51
738.365	38.58
738.765	38.66
739.165	38.73
739.564	38.82
739.964	38.9
740.363	38.99
740.763	39.08
741.162	39.16
741.561	39.25
741.96	39.29
742.36	39.37
742.759	39.4
743.158	39.46
743.557	39.54
743.955	39.61
744.354	39.68
744.753	39.74
745.152	39.82
745.55	39.87
745.949	39.9
746.348	39.98
746.746	40.02
747.144	40.09
747.543	40.15
747.941	40.21
748.339	40.29
748.737	40.34
749.136	40.41
749.534	40.47
749.932	40.5
750.33	40.53
750.727	40.54
751.125	40.56
751.523	40.58
751.921	40.6
752.318	40.6
752.716	40.59
753.113	40.57
753.511	40.55
753.908	40.51
754.305	40.51
754.703	40.54
755.1	40.55
755.497	40.57
755.894	40.57
756.291	40.55
756.688	40.54
757.085	40.53
757.482	40.55
757.878	40.57
758.275	40.58
758.672	40.59
759.068	40.59
759.465	40.58
759.861	40.57
760.258	40.54
760.654	40.55
761.05	40.56
761.447	40.56
761.843	40.57
762.239	40.57
762.635	40.56
763.031	40.59
763.427	40.57
763.822	40.57
764.218	40.58
764.614	40.61
765.01	40.62
765.405	40.62
765.801	40.62
766.196	40.61
766.592	40.61
766.987	40.61
767.382	40.59
767.778	40.6
768.173	40.61
768.568	40.6
768.963	40.62
769.358	40.65
769.753	40.65
770.148	40.63
770.542	40.63
770.937	40.62
771.332	40.64
771.726	40.63
772.121	40.59
772.515	40.59
772.91	40.59
773.304	40.59
773.699	40.56
774.093	40.54
774.487	40.57
774.881	40.6
775.275	40.63
775.669	40.61
776.063	40.61
776.457	40.62
776.851	40.6
777.245	40.6
777.638	40.59
778.032	40.59
778.425	40.6
778.819	40.6
779.212	40.57
779.606	40.56
779.999	40.55
780.392	40.57
780.786	40.57
781.179	40.6
781.572	40.58
781.965	40.59
782.358	40.57
782.751	40.6
783.143	40.59
783.536	40.63
783.929	40.64
784.322	40.64
784.714	40.63
785.107	40.62
785.499	40.61
785.891	40.64
786.284	40.64
786.676	40.69
787.068	40.68
787.46	40.68
787.852	40.67
788.245	40.65
788.636	40.68
789.028	40.68
789.42	40.68
789.812	40.69
