Data from C_3_hir_il_4n_Splice17_05.txt Node
Date: Sat Feb 29 15:11:14 EST 2020
User: sa697716
Spectrometer: FLMS03696
Trigger mode: 0
Integration Time (sec): 3.180400E-1
Scans to average: 20
Electric dark correction enabled: true
Nonlinearity correction enabled: true
Boxcar width: 5
XAxis mode: Wavelengths
Number of Pixels in Spectrum: 2048
>>>>>Begin Spectral Data<<<<<
187.83	138.2
188.298	140.57
188.766	122.59
189.233	122.67
189.701	132.21
190.169	123.26
190.636	115.78
191.104	101.84
191.571	190.27
192.039	240.36
192.506	-4.37
192.974	329.91
193.441	414.03
193.908	18.27
194.375	58.98
194.842	156.78
195.31	87.44
195.777	70.11
196.244	68.46
196.711	80.11
197.177	80.63
197.644	82.16
198.111	83.65
198.578	83.76
199.045	83.91
199.511	83.59
199.978	83.96
200.445	83.87
200.911	83.94
201.378	84.22
201.844	84.92
202.31	85.92
202.777	85.82
203.243	86.25
203.709	86.17
204.176	86.02
204.642	85.47
205.108	85.48
205.574	85.55
206.04	85.25
206.506	84.61
206.972	83.88
207.438	83.14
207.903	82.73
208.369	80.87
208.835	79.96
209.301	78.84
209.766	77.44
210.232	75.87
210.697	74.26
211.163	72.65
211.628	71.32
212.094	69.88
212.559	68.47
213.024	66.71
213.49	65.39
213.955	64.24
214.42	62.32
214.885	60.58
215.35	58.38
215.815	55.56
216.28	52.5
216.745	48.94
217.21	45.39
217.675	41.76
218.14	38.53
218.604	35.52
219.069	32.94
219.534	30.9
219.998	29.13
220.463	27.75
220.927	26.49
221.392	25.34
221.856	24.45
222.32	23.59
222.785	22.94
223.249	22.33
223.713	21.85
224.177	21.34
224.642	20.91
225.106	20.48
225.57	20.02
226.034	19.66
226.497	19.31
226.961	18.94
227.425	18.63
227.889	18.28
228.353	17.98
228.816	17.69
229.28	17.39
229.744	17.12
230.207	16.89
230.671	16.61
231.134	16.34
231.597	16.12
232.061	15.91
232.524	15.69
232.987	15.48
233.45	15.28
233.914	15.1
234.377	14.96
234.84	14.79
235.303	14.59
235.766	14.44
236.229	14.31
236.691	14.17
237.154	14.02
237.617	13.89
238.08	13.76
238.542	13.63
239.005	13.5
239.468	13.36
239.93	13.24
240.393	13.15
240.855	13.03
241.317	12.92
241.78	12.8
242.242	12.68
242.704	12.57
243.166	12.46
243.629	12.37
244.091	12.27
244.553	12.16
245.015	12.05
245.477	11.94
245.939	11.85
246.4	11.74
246.862	11.65
247.324	11.57
247.786	11.48
248.247	11.4
248.709	11.31
249.17	11.22
249.632	11.13
250.093	11.04
250.555	10.96
251.016	10.89
251.477	10.82
251.939	10.74
252.4	10.66
252.861	10.58
253.322	10.5
253.783	10.44
254.244	10.36
254.705	10.31
255.166	10.27
255.627	10.22
256.088	10.14
256.549	10.08
257.009	10.02
257.47	9.95
257.931	9.89
258.391	9.81
258.852	9.74
259.312	9.68
259.773	9.6
260.233	9.52
260.694	9.45
261.154	9.4
261.614	9.33
262.074	9.27
262.534	9.2
262.994	9.15
263.455	9.1
263.915	9.04
264.374	8.99
264.834	8.94
265.294	8.89
265.754	8.84
266.214	8.78
266.673	8.75
267.133	8.7
267.593	8.67
268.052	8.62
268.512	8.59
268.971	8.56
269.431	8.52
269.89	8.49
270.349	8.46
270.809	8.44
271.268	8.42
271.727	8.39
272.186	8.36
272.645	8.33
273.104	8.3
273.563	8.28
274.022	8.25
274.481	8.22
274.94	8.2
275.399	8.17
275.857	8.15
276.316	8.11
276.775	8.07
277.233	8.04
277.692	8.02
278.15	7.99
278.609	7.97
279.067	7.94
279.525	7.92
279.984	7.9
280.442	7.88
280.9	7.86
281.358	7.84
281.816	7.82
282.274	7.8
282.732	7.78
283.19	7.77
283.648	7.75
284.106	7.74
284.564	7.73
285.021	7.72
285.479	7.71
285.937	7.69
286.394	7.68
286.852	7.67
287.309	7.66
287.767	7.65
288.224	7.63
288.682	7.6
289.139	7.58
289.596	7.55
290.053	7.51
290.511	7.47
290.968	7.45
291.425	7.42
291.882	7.39
292.339	7.36
292.796	7.33
293.252	7.3
293.709	7.27
294.166	7.24
294.623	7.21
295.079	7.19
295.536	7.18
295.992	7.14
296.449	7.13
296.905	7.1
297.362	7.08
297.818	7.07
298.274	7.04
298.731	7.02
299.187	7.01
299.643	6.98
300.099	6.98
300.555	6.95
301.011	6.94
301.467	6.92
301.923	6.91
302.379	6.9
302.835	6.9
303.291	6.88
303.746	6.87
304.202	6.86
304.658	6.85
305.113	6.84
305.569	6.83
306.024	6.83
306.479	6.82
306.935	6.82
307.39	6.81
307.845	6.8
308.301	6.81
308.756	6.82
309.211	6.82
309.666	6.81
310.121	6.81
310.576	6.81
311.031	6.81
311.486	6.81
311.94	6.8
312.395	6.79
312.85	6.79
313.305	6.78
313.759	6.78
314.214	6.78
314.668	6.77
315.123	6.77
315.577	6.76
316.032	6.75
316.486	6.74
316.94	6.73
317.394	6.72
317.849	6.71
318.303	6.69
318.757	6.67
319.211	6.64
319.665	6.62
320.119	6.59
320.572	6.57
321.026	6.55
321.48	6.54
321.934	6.53
322.387	6.52
322.841	6.51
323.295	6.5
323.748	6.49
324.202	6.48
324.655	6.48
325.108	6.47
325.562	6.46
326.015	6.46
326.468	6.44
326.921	6.42
327.374	6.42
327.827	6.4
328.28	6.39
328.733	6.37
329.186	6.37
329.639	6.36
330.092	6.36
330.545	6.35
330.997	6.35
331.45	6.35
331.903	6.35
332.355	6.34
332.808	6.35
333.26	6.36
333.713	6.37
334.165	6.37
334.617	6.37
335.069	6.37
335.522	6.38
335.974	6.38
336.426	6.39
336.878	6.39
337.33	6.39
337.782	6.37
338.234	6.36
338.686	6.35
339.137	6.35
339.589	6.35
340.041	6.32
340.493	6.29
340.944	6.29
341.396	6.27
341.847	6.25
342.299	6.22
342.75	6.2
343.201	6.18
343.653	6.15
344.104	6.13
344.555	6.1
345.006	6.08
345.457	6.07
345.908	6.04
346.359	6.03
346.81	6.02
347.261	6
347.712	5.99
348.163	5.99
348.613	5.97
349.064	5.95
349.515	5.95
349.965	5.94
350.416	5.94
350.866	5.94
351.317	5.93
351.767	5.93
352.217	5.92
352.668	5.92
353.118	5.91
353.568	5.92
354.018	5.93
354.468	5.92
354.918	5.93
355.368	5.92
355.818	5.92
356.268	5.91
356.718	5.91
357.168	5.91
357.617	5.91
358.067	5.91
358.517	5.89
358.966	5.9
359.416	5.9
359.865	5.89
360.315	5.9
360.764	5.9
361.213	5.9
361.663	5.91
362.112	5.91
362.561	5.9
363.01	5.92
363.459	5.92
363.908	5.91
364.357	5.9
364.806	5.89
365.255	5.89
365.703	5.89
366.152	5.88
366.601	5.88
367.05	5.88
367.498	5.88
367.947	5.87
368.395	5.88
368.844	5.88
369.292	5.87
369.74	5.88
370.189	5.87
370.637	5.88
371.085	5.88
371.533	5.87
371.981	5.87
372.429	5.87
372.877	5.86
373.325	5.85
373.773	5.86
374.221	5.87
374.669	5.86
375.116	5.84
375.564	5.83
376.012	5.83
376.459	5.84
376.907	5.84
377.354	5.85
377.801	5.86
378.249	5.86
378.696	5.87
379.143	5.87
379.591	5.89
380.038	5.9
380.485	5.92
380.932	5.91
381.379	5.9
381.826	5.9
382.273	5.89
382.72	5.89
383.166	5.89
383.613	5.89
384.06	5.89
384.506	5.88
384.953	5.88
385.4	5.88
385.846	5.89
386.292	5.92
386.739	5.93
387.185	5.94
387.631	5.96
388.078	5.96
388.524	5.96
388.97	5.96
389.416	5.97
389.862	5.97
390.308	5.98
390.754	5.99
391.2	6.01
391.645	6.02
392.091	6.03
392.537	6.05
392.983	6.07
393.428	6.11
393.874	6.15
394.319	6.16
394.765	6.17
395.21	6.19
395.655	6.21
396.101	6.22
396.546	6.23
396.991	6.25
397.436	6.24
397.881	6.27
398.326	6.3
398.771	6.34
399.216	6.38
399.661	6.41
400.106	6.45
400.551	6.46
400.995	6.46
401.44	6.48
401.885	6.5
402.329	6.53
402.774	6.53
403.218	6.54
403.663	6.53
404.107	6.55
404.551	6.57
404.995	6.57
405.44	6.58
405.884	6.61
406.328	6.64
406.772	6.67
407.216	6.69
407.66	6.72
408.104	6.75
408.547	6.77
408.991	6.78
409.435	6.8
409.879	6.83
410.322	6.86
410.766	6.89
411.209	6.92
411.653	6.94
412.096	6.96
412.54	6.99
412.983	7.01
413.426	7.06
413.869	7.08
414.312	7.12
414.756	7.15
415.199	7.19
415.642	7.22
416.085	7.25
416.527	7.28
416.97	7.31
417.413	7.31
417.856	7.32
418.298	7.3
418.741	7.3
419.184	7.3
419.626	7.31
420.069	7.3
420.511	7.31
420.953	7.3
421.396	7.32
421.838	7.34
422.28	7.38
422.722	7.42
423.164	7.45
423.606	7.49
424.048	7.5
424.49	7.54
424.932	7.56
425.374	7.56
425.816	7.56
426.258	7.57
426.699	7.54
427.141	7.51
427.582	7.5
428.024	7.51
428.465	7.52
428.907	7.54
429.348	7.53
429.789	7.55
430.231	7.55
430.672	7.57
431.113	7.59
431.554	7.64
431.995	7.68
432.436	7.71
432.877	7.72
433.318	7.73
433.759	7.74
434.2	7.75
434.64	7.75
435.081	7.77
435.522	7.79
435.962	7.8
436.403	7.84
436.843	7.86
437.284	7.85
437.724	7.88
438.164	7.89
438.604	7.91
439.045	7.94
439.485	7.96
439.925	7.98
440.365	7.99
440.805	8
441.245	7.97
441.685	7.98
442.125	7.99
442.564	8
443.004	7.99
443.444	8.01
443.883	8.01
444.323	8.02
444.762	8.04
445.202	8.08
445.641	8.1
446.081	8.15
446.52	8.13
446.959	8.15
447.398	8.18
447.837	8.23
448.276	8.23
448.716	8.25
449.154	8.27
449.593	8.29
450.032	8.29
450.471	8.3
450.91	8.29
451.349	8.32
451.787	8.32
452.226	8.3
452.664	8.25
453.103	8.23
453.541	8.2
453.98	8.19
454.418	8.16
454.856	8.13
455.295	8.09
455.733	8.08
456.171	8.04
456.609	7.99
457.047	7.95
457.485	7.94
457.923	7.93
458.361	7.92
458.798	7.9
459.236	7.88
459.674	7.87
460.111	7.88
460.549	7.84
460.987	7.84
461.424	7.85
461.862	7.85
462.299	7.86
462.736	7.85
463.173	7.85
463.611	7.86
464.048	7.87
464.485	7.87
464.922	7.86
465.359	7.86
465.796	7.86
466.233	7.86
466.67	7.87
467.106	7.87
467.543	7.88
467.98	7.88
468.416	7.88
468.853	7.88
469.29	7.88
469.726	7.88
470.162	7.88
470.599	7.87
471.035	7.88
471.471	7.87
471.907	7.86
472.344	7.85
472.78	7.84
473.216	7.82
473.652	7.82
474.088	7.81
474.523	7.79
474.959	7.78
475.395	7.77
475.831	7.76
476.266	7.75
476.702	7.72
477.138	7.7
477.573	7.68
478.008	7.66
478.444	7.64
478.879	7.63
479.314	7.62
479.75	7.62
480.185	7.59
480.62	7.57
481.055	7.57
481.49	7.54
481.925	7.52
482.36	7.5
482.795	7.47
483.229	7.44
483.664	7.42
484.099	7.4
484.534	7.38
484.968	7.37
485.403	7.36
485.837	7.34
486.271	7.33
486.706	7.32
487.14	7.32
487.574	7.31
488.009	7.31
488.443	7.32
488.877	7.32
489.311	7.31
489.745	7.31
490.179	7.31
490.613	7.32
491.046	7.33
491.48	7.34
491.914	7.36
492.348	7.38
492.781	7.39
493.215	7.39
493.648	7.4
494.082	7.43
494.515	7.45
494.948	7.47
495.382	7.48
495.815	7.5
496.248	7.52
496.681	7.52
497.114	7.54
497.547	7.56
497.98	7.6
498.413	7.63
498.846	7.65
499.279	7.69
499.711	7.72
500.144	7.76
500.577	7.8
501.009	7.85
501.442	7.9
501.874	7.94
502.306	8
502.739	8.05
503.171	8.12
503.603	8.2
504.036	8.26
504.468	8.35
504.9	8.44
505.332	8.53
505.764	8.62
506.196	8.72
506.627	8.82
507.059	8.93
507.491	9.04
507.923	9.14
508.354	9.26
508.786	9.39
509.217	9.5
509.649	9.65
510.08	9.8
510.512	9.95
510.943	10.12
511.374	10.29
511.805	10.46
512.237	10.63
512.668	10.81
513.099	11
513.53	11.2
513.961	11.43
514.391	11.62
514.822	11.82
515.253	12.04
515.684	12.25
516.114	12.47
516.545	12.69
516.975	12.95
517.406	13.19
517.836	13.42
518.267	13.68
518.697	13.91
519.127	14.17
519.558	14.42
519.988	14.67
520.418	14.94
520.848	15.19
521.278	15.45
521.708	15.57
522.138	15.81
522.567	16.06
522.997	16.31
523.427	16.57
523.857	16.78
524.286	17.04
524.716	17.26
525.145	17.48
525.575	17.69
526.004	17.9
526.433	18.23
526.863	18.44
527.292	18.65
527.721	18.82
528.15	18.99
528.579	19.18
529.008	19.34
529.437	19.48
529.866	19.62
530.295	19.78
530.724	19.94
531.152	20.08
531.581	20.21
532.01	20.32
532.438	20.44
532.867	20.55
533.295	20.65
533.723	20.74
534.152	20.86
534.58	20.94
535.008	20.99
535.436	21.06
535.865	21.12
536.293	21.19
536.721	21.24
537.149	21.3
537.576	21.34
538.004	21.38
538.432	21.41
538.86	21.45
539.287	21.49
539.715	21.54
540.143	21.58
540.57	21.61
540.998	21.63
541.425	21.66
541.852	21.7
542.28	21.72
542.707	21.75
543.134	21.8
543.561	21.82
543.988	21.87
544.415	21.89
544.842	21.91
545.269	21.96
545.696	21.98
546.123	22.01
546.549	22.04
546.976	22.09
547.403	22.13
547.829	22.13
548.256	22.17
548.682	22.18
549.108	22.22
549.535	22.24
549.961	22.24
550.387	22.27
550.813	22.27
551.24	22.29
551.666	22.29
552.092	22.28
552.518	22.3
552.943	22.3
553.369	22.29
553.795	22.28
554.221	22.25
554.646	22.22
555.072	22.19
555.498	22.14
555.923	22.08
556.349	22.03
556.774	21.96
557.199	21.91
557.625	21.85
558.05	21.75
558.475	21.67
558.9	21.59
559.325	21.49
559.75	21.38
560.175	21.3
560.6	21.18
561.025	21.07
561.449	20.96
561.874	20.83
562.299	20.69
562.723	20.56
563.148	20.42
563.572	20.29
563.997	20.15
564.421	20
564.846	19.83
565.27	19.69
565.694	19.51
566.118	19.35
566.542	19.18
566.966	19.02
567.39	18.84
567.814	18.68
568.238	18.48
568.662	18.32
569.086	18.15
569.509	18
569.933	17.82
570.357	17.65
570.78	17.49
571.204	17.32
571.627	17.16
572.05	17.01
572.474	16.86
572.897	16.72
573.32	16.59
573.743	16.45
574.166	16.32
574.589	16.19
575.012	16.07
575.435	15.95
575.858	15.85
576.281	15.75
576.704	15.65
577.126	15.56
577.549	15.47
577.972	15.37
578.394	15.28
578.817	15.2
579.239	15.13
579.661	15.06
580.084	14.98
580.506	14.91
580.928	14.83
581.35	14.76
581.772	14.7
582.194	14.62
582.616	14.57
583.038	14.51
583.46	14.45
583.882	14.39
584.303	14.33
584.725	14.27
585.147	14.2
585.568	14.13
585.99	14.08
586.411	14.03
586.833	13.98
587.254	13.93
587.675	13.88
588.096	13.82
588.518	13.77
588.939	13.72
589.36	13.68
589.781	13.63
590.202	13.6
590.623	13.54
591.043	13.51
591.464	13.47
591.885	13.43
592.305	13.39
592.726	13.36
593.147	13.34
593.567	13.31
593.987	13.28
594.408	13.25
594.828	13.22
595.248	13.21
595.669	13.18
596.089	13.14
596.509	13.09
596.929	13.06
597.349	13.02
597.769	12.96
598.189	12.93
598.608	12.89
599.028	12.87
599.448	12.84
599.867	12.8
600.287	12.75
600.706	12.73
601.126	12.69
601.545	12.65
601.965	12.6
602.384	12.57
602.803	12.52
603.222	12.47
603.641	12.41
604.061	12.34
604.48	12.29
604.898	12.22
605.317	12.15
605.736	12.09
606.155	12.04
606.574	11.98
606.992	11.92
607.411	11.87
607.829	11.77
608.248	11.71
608.666	11.66
609.085	11.59
609.503	11.53
609.921	11.48
610.339	11.42
610.758	11.36
611.176	11.3
611.594	11.25
612.012	11.17
612.43	11.15
612.847	11.11
613.265	11.05
613.683	10.99
614.101	10.92
614.518	10.87
614.936	10.83
615.353	10.78
615.771	10.73
616.188	10.68
616.606	10.64
617.023	10.6
617.44	10.55
617.857	10.5
618.274	10.46
618.691	10.46
619.108	10.42
619.525	10.39
619.942	10.36
620.359	10.34
620.776	10.31
621.192	10.29
621.609	10.25
622.026	10.23
622.442	10.22
622.859	10.21
623.275	10.19
623.691	10.17
624.108	10.16
624.524	10.15
624.94	10.13
625.356	10.13
625.772	10.12
626.188	10.13
626.604	10.09
627.02	10.08
627.436	10.07
627.852	10.06
628.268	10.05
628.683	10.02
629.099	10
629.514	9.98
629.93	9.96
630.345	9.93
630.761	9.91
631.176	9.91
631.591	9.87
632.007	9.83
632.422	9.8
632.837	9.76
633.252	9.73
633.667	9.69
634.082	9.66
634.497	9.6
634.911	9.54
635.326	9.49
635.741	9.43
636.155	9.38
636.57	9.33
636.984	9.25
637.399	9.17
637.813	9.1
638.228	9.03
638.642	8.98
639.056	8.92
639.47	8.86
639.884	8.79
640.298	8.72
640.712	8.65
641.126	8.59
641.54	8.53
641.954	8.48
642.368	8.43
642.781	8.37
643.195	8.3
643.609	8.24
644.022	8.19
644.436	8.14
644.849	8.1
645.262	8.05
645.676	8.01
646.089	7.97
646.502	7.92
646.915	7.89
647.328	7.86
647.741	7.82
648.154	7.81
648.567	7.8
648.98	7.77
649.393	7.76
649.805	7.73
650.218	7.71
650.631	7.69
651.043	7.67
651.456	7.65
651.868	7.61
652.28	7.6
652.693	7.56
653.105	7.52
653.517	7.51
653.929	7.48
654.341	7.47
654.753	7.44
655.165	7.43
655.577	7.41
655.989	7.37
656.401	7.35
656.813	7.32
657.224	7.3
657.636	7.28
658.047	7.24
658.459	7.21
658.87	7.18
659.282	7.17
659.693	7.14
660.104	7.1
660.515	7.08
660.926	7.07
661.338	7.04
661.749	7.02
662.159	7
662.57	6.99
662.981	6.98
663.392	6.96
663.803	6.94
664.213	6.93
664.624	6.93
665.035	6.92
665.445	6.93
665.855	6.93
666.266	6.93
666.676	6.93
667.086	6.92
667.497	6.91
667.907	6.91
668.317	6.9
668.727	6.91
669.137	6.92
669.547	6.93
669.956	6.93
670.366	6.94
670.776	6.95
671.186	6.97
671.595	6.98
672.005	7
672.414	7.02
672.824	7.04
673.233	7.06
673.642	7.07
674.052	7.08
674.461	7.1
674.87	7.11
675.279	7.14
675.688	7.15
676.097	7.17
676.506	7.2
676.915	7.24
677.323	7.28
677.732	7.32
678.141	7.36
678.549	7.4
678.958	7.45
679.366	7.47
679.775	7.51
680.183	7.56
680.592	7.62
681	7.65
681.408	7.67
681.816	7.7
682.224	7.73
682.632	7.79
683.04	7.83
683.448	7.87
683.856	7.95
684.264	8.01
684.671	8.07
685.079	8.14
685.487	8.24
685.894	8.37
686.302	8.49
686.709	8.63
687.116	8.79
687.524	8.95
687.931	9.13
688.338	9.35
688.745	9.58
689.152	9.84
689.559	10.12
689.966	10.41
690.373	10.74
690.78	11.08
691.187	11.43
691.593	11.8
692	12.21
692.407	12.65
692.813	13.1
693.22	13.57
693.626	14.04
694.032	14.53
694.439	15.07
694.845	15.59
695.251	16.15
695.657	16.72
696.063	17.29
696.469	17.87
696.875	18.45
697.281	19.03
697.687	19.62
698.093	20.23
698.498	20.86
698.904	21.46
699.31	22.07
699.715	22.7
700.12	23.29
700.526	23.91
700.931	24.52
701.337	25.15
701.742	25.75
702.147	26.39
702.552	27.01
702.957	27.61
703.362	28.19
703.767	28.79
704.172	29.37
704.577	29.99
704.981	30.59
705.386	31.19
705.791	31.74
706.195	32.33
706.6	32.86
707.004	33.4
707.408	33.96
707.813	34.52
708.217	35.07
708.621	35.62
709.025	36.17
709.43	36.69
709.834	37.26
710.237	37.8
710.641	38.34
711.045	38.85
711.449	39.4
711.853	39.94
712.256	40.47
712.66	40.99
713.064	41.49
713.467	41.96
713.87	42.46
714.274	42.93
714.677	43.4
715.08	43.87
715.484	44.38
715.887	44.88
716.29	45.32
716.693	45.78
717.096	46.24
717.499	46.72
717.901	47.17
718.304	47.63
718.707	48.07
719.109	48.56
719.512	49.01
719.915	49.43
720.317	49.83
720.719	50.24
721.122	50.63
721.524	51.04
721.926	51.43
722.328	51.82
722.731	52.17
723.133	52.53
723.535	52.88
723.937	53.21
724.338	53.54
724.74	53.87
725.142	54.15
725.544	54.47
725.945	54.75
726.347	55.05
726.748	55.3
727.15	55.59
727.551	55.85
727.952	56.09
728.354	56.36
728.755	56.63
729.156	56.88
729.557	57.15
729.958	57.39
730.359	57.6
730.76	57.8
731.161	58.04
731.562	58.21
731.962	58.41
732.363	58.58
732.763	58.74
733.164	58.89
733.564	59
733.965	59.16
734.365	59.26
734.766	59.42
735.166	59.52
735.566	59.62
735.966	59.74
736.366	59.85
736.766	59.98
737.166	60.09
737.566	60.2
737.966	60.3
738.365	60.4
738.765	60.52
739.165	60.59
739.564	60.7
739.964	60.78
740.363	60.87
740.763	60.94
741.162	61
741.561	61.1
741.96	61.17
742.36	61.29
742.759	61.33
743.158	61.4
743.557	61.48
743.955	61.57
744.354	61.71
744.753	61.8
745.152	61.87
745.55	61.96
745.949	62.01
746.348	62.08
746.746	62.13
747.144	62.22
747.543	62.29
747.941	62.35
748.339	62.39
748.737	62.45
749.136	62.47
749.534	62.54
749.932	62.54
750.33	62.59
750.727	62.61
751.125	62.62
751.523	62.6
751.921	62.62
752.318	62.62
752.716	62.6
753.113	62.59
753.511	62.57
753.908	62.53
754.305	62.51
754.703	62.46
755.1	62.47
755.497	62.46
755.894	62.51
756.291	62.47
756.688	62.46
757.085	62.46
757.482	62.42
757.878	62.47
758.275	62.45
758.672	62.48
759.068	62.52
759.465	62.53
759.861	62.5
760.258	62.47
760.654	62.5
761.05	62.5
761.447	62.48
761.843	62.49
762.239	62.45
762.635	62.49
763.031	62.49
763.427	62.47
763.822	62.41
764.218	62.41
764.614	62.41
765.01	62.41
765.405	62.41
765.801	62.41
766.196	62.42
766.592	62.43
766.987	62.43
767.382	62.43
767.778	62.45
768.173	62.48
768.568	62.5
768.963	62.52
769.358	62.48
769.753	62.52
770.148	62.53
770.542	62.56
770.937	62.54
771.332	62.55
771.726	62.53
772.121	62.51
772.515	62.52
772.91	62.51
773.304	62.51
773.699	62.53
774.093	62.45
774.487	62.46
774.881	62.46
775.275	62.49
775.669	62.51
776.063	62.52
776.457	62.51
776.851	62.47
777.245	62.53
777.638	62.55
778.032	62.56
778.425	62.61
778.819	62.63
779.212	62.6
779.606	62.59
779.999	62.56
780.392	62.57
780.786	62.58
781.179	62.64
781.572	62.56
