Data from c_3_dec_nc_4n_Splice17_20.txt Node
Date: Sat Feb 29 14:49:31 EST 2020
User: sa697716
Spectrometer: FLMS03696
Trigger mode: 0
Integration Time (sec): 3.180400E-1
Scans to average: 20
Electric dark correction enabled: true
Nonlinearity correction enabled: true
Boxcar width: 5
XAxis mode: Wavelengths
Number of Pixels in Spectrum: 2048
>>>>>Begin Spectral Data<<<<<
187.83	102.08
188.298	83.63
188.766	77.03
189.233	71.79
189.701	81.43
190.169	82.31
190.636	93.38
191.104	79.33
191.571	135.26
192.039	26.89
192.506	301.69
192.974	15586.91
193.441	-690.89
193.908	90.06
194.375	-21.42
194.842	120.16
195.31	90.09
195.777	73.01
196.244	28.79
196.711	37.71
197.177	36.68
197.644	37.92
198.111	36.67
198.578	38.14
199.045	39.84
199.511	41.16
199.978	41.17
200.445	40.77
200.911	41.4
201.378	41.78
201.844	41.92
202.31	42.49
202.777	42.92
203.243	43.65
203.709	44
204.176	43.32
204.642	43.21
205.108	43.33
205.574	43.82
206.04	43.46
206.506	43.15
206.972	42.96
207.438	42.31
207.903	42.07
208.369	41.4
208.835	41.1
209.301	41.16
209.766	40.52
210.232	39.88
210.697	39.41
211.163	38.88
211.628	38.47
212.094	37.94
212.559	37.44
213.024	36.83
213.49	36.35
213.955	35.5
214.42	34.5
214.885	33.44
215.35	32.38
215.815	30.96
216.28	29.57
216.745	28.19
217.21	26.73
217.675	25.33
218.14	23.93
218.604	22.6
219.069	21.61
219.534	20.73
219.998	20
220.463	19.34
220.927	18.8
221.392	18.29
221.856	17.84
222.32	17.4
222.785	17.02
223.249	16.77
223.713	16.54
224.177	16.25
224.642	15.99
225.106	15.76
225.57	15.53
226.034	15.32
226.497	15.09
226.961	14.86
227.425	14.66
227.889	14.49
228.353	14.26
228.816	14.08
229.28	13.88
229.744	13.75
230.207	13.61
230.671	13.45
231.134	13.31
231.597	13.16
232.061	13.02
232.524	12.91
232.987	12.76
233.45	12.63
233.914	12.5
234.377	12.39
234.84	12.26
235.303	12.13
235.766	12.02
236.229	11.91
236.691	11.81
237.154	11.7
237.617	11.6
238.08	11.48
238.542	11.39
239.005	11.29
239.468	11.19
239.93	11.1
240.393	11
240.855	10.9
241.317	10.81
241.78	10.73
242.242	10.66
242.704	10.57
243.166	10.51
243.629	10.43
244.091	10.35
244.553	10.28
245.015	10.21
245.477	10.15
245.939	10.08
246.4	9.99
246.862	9.94
247.324	9.9
247.786	9.84
248.247	9.79
248.709	9.74
249.17	9.7
249.632	9.64
250.093	9.57
250.555	9.52
251.016	9.49
251.477	9.45
251.939	9.41
252.4	9.37
252.861	9.32
253.322	9.27
253.783	9.24
254.244	9.19
254.705	9.16
255.166	9.14
255.627	9.11
256.088	9.06
256.549	9.03
257.009	9
257.47	8.96
257.931	8.91
258.391	8.87
258.852	8.83
259.312	8.8
259.773	8.76
260.233	8.72
260.694	8.68
261.154	8.65
261.614	8.61
262.074	8.58
262.534	8.53
262.994	8.5
263.455	8.47
263.915	8.44
264.374	8.41
264.834	8.39
265.294	8.36
265.754	8.34
266.214	8.32
266.673	8.31
267.133	8.28
267.593	8.27
268.052	8.25
268.512	8.24
268.971	8.22
269.431	8.2
269.89	8.19
270.349	8.18
270.809	8.16
271.268	8.14
271.727	8.12
272.186	8.1
272.645	8.08
273.104	8.07
273.563	8.06
274.022	8.04
274.481	8.02
274.94	8
275.399	7.99
275.857	7.97
276.316	7.95
276.775	7.93
277.233	7.91
277.692	7.9
278.15	7.88
278.609	7.86
279.067	7.83
279.525	7.81
279.984	7.78
280.442	7.77
280.9	7.76
281.358	7.74
281.816	7.73
282.274	7.7
282.732	7.68
283.19	7.66
283.648	7.65
284.106	7.64
284.564	7.64
285.021	7.62
285.479	7.61
285.937	7.6
286.394	7.57
286.852	7.57
287.309	7.56
287.767	7.55
288.224	7.53
288.682	7.52
289.139	7.51
289.596	7.49
290.053	7.48
290.511	7.45
290.968	7.44
291.425	7.42
291.882	7.4
292.339	7.39
292.796	7.37
293.252	7.35
293.709	7.33
294.166	7.31
294.623	7.3
295.079	7.28
295.536	7.27
295.992	7.25
296.449	7.23
296.905	7.21
297.362	7.2
297.818	7.18
298.274	7.17
298.731	7.15
299.187	7.14
299.643	7.12
300.099	7.11
300.555	7.09
301.011	7.07
301.467	7.06
301.923	7.06
302.379	7.05
302.835	7.04
303.291	7.02
303.746	7.01
304.202	6.98
304.658	6.97
305.113	6.95
305.569	6.94
306.024	6.93
306.479	6.91
306.935	6.9
307.39	6.89
307.845	6.88
308.301	6.88
308.756	6.89
309.211	6.88
309.666	6.88
310.121	6.88
310.576	6.87
311.031	6.86
311.486	6.86
311.94	6.85
312.395	6.85
312.85	6.84
313.305	6.84
313.759	6.83
314.214	6.83
314.668	6.82
315.123	6.82
315.577	6.83
316.032	6.82
316.486	6.81
316.94	6.8
317.394	6.78
317.849	6.77
318.303	6.76
318.757	6.74
319.211	6.72
319.665	6.71
320.119	6.7
320.572	6.68
321.026	6.67
321.48	6.66
321.934	6.66
322.387	6.65
322.841	6.64
323.295	6.62
323.748	6.61
324.202	6.6
324.655	6.59
325.108	6.57
325.562	6.55
326.015	6.53
326.468	6.51
326.921	6.49
327.374	6.49
327.827	6.48
328.28	6.46
328.733	6.45
329.186	6.43
329.639	6.42
330.092	6.41
330.545	6.41
330.997	6.42
331.45	6.41
331.903	6.4
332.355	6.4
332.808	6.38
333.26	6.38
333.713	6.38
334.165	6.38
334.617	6.39
335.069	6.39
335.522	6.39
335.974	6.39
336.426	6.39
336.878	6.4
337.33	6.39
337.782	6.4
338.234	6.4
338.686	6.4
339.137	6.4
339.589	6.38
340.041	6.37
340.493	6.34
340.944	6.33
341.396	6.32
341.847	6.3
342.299	6.27
342.75	6.25
343.201	6.23
343.653	6.21
344.104	6.2
344.555	6.19
345.006	6.17
345.457	6.16
345.908	6.16
346.359	6.15
346.81	6.15
347.261	6.14
347.712	6.14
348.163	6.14
348.613	6.12
349.064	6.1
349.515	6.09
349.965	6.07
350.416	6.06
350.866	6.04
351.317	6.04
351.767	6.03
352.217	6.02
352.668	6.02
353.118	6.02
353.568	6.03
354.018	6.04
354.468	6.04
354.918	6.06
355.368	6.07
355.818	6.08
356.268	6.08
356.718	6.09
357.168	6.08
357.617	6.08
358.067	6.08
358.517	6.07
358.966	6.08
359.416	6.1
359.865	6.1
360.315	6.09
360.764	6.1
361.213	6.09
361.663	6.09
362.112	6.11
362.561	6.12
363.01	6.14
363.459	6.16
363.908	6.17
364.357	6.18
364.806	6.19
365.255	6.22
365.703	6.22
366.152	6.25
366.601	6.28
367.05	6.28
367.498	6.3
367.947	6.29
368.395	6.32
368.844	6.33
369.292	6.34
369.74	6.36
370.189	6.38
370.637	6.41
371.085	6.44
371.533	6.46
371.981	6.48
372.429	6.5
372.877	6.53
373.325	6.55
373.773	6.58
374.221	6.61
374.669	6.64
375.116	6.66
375.564	6.67
376.012	6.69
376.459	6.72
376.907	6.76
377.354	6.78
377.801	6.81
378.249	6.85
378.696	6.88
379.143	6.91
379.591	6.94
380.038	6.99
380.485	7.01
380.932	7.04
381.379	7.07
381.826	7.1
382.273	7.14
382.72	7.18
383.166	7.22
383.613	7.25
384.06	7.28
384.506	7.3
384.953	7.32
385.4	7.35
385.846	7.37
386.292	7.41
386.739	7.43
387.185	7.46
387.631	7.49
388.078	7.52
388.524	7.54
388.97	7.56
389.416	7.58
389.862	7.6
390.308	7.62
390.754	7.64
391.2	7.66
391.645	7.69
392.091	7.71
392.537	7.73
392.983	7.75
393.428	7.78
393.874	7.81
394.319	7.84
394.765	7.87
395.21	7.88
395.655	7.89
396.101	7.89
396.546	7.91
396.991	7.92
397.436	7.9
397.881	7.92
398.326	7.92
398.771	7.93
399.216	7.94
399.661	7.95
400.106	7.97
400.551	7.98
400.995	7.99
401.44	7.97
401.885	7.96
402.329	7.97
402.774	7.94
403.218	7.93
403.663	7.92
404.107	7.92
404.551	7.91
404.995	7.89
405.44	7.87
405.884	7.86
406.328	7.86
406.772	7.86
407.216	7.86
407.66	7.86
408.104	7.87
408.547	7.87
408.991	7.85
409.435	7.83
409.879	7.83
410.322	7.84
410.766	7.83
411.209	7.82
411.653	7.81
412.096	7.79
412.54	7.79
412.983	7.77
413.426	7.78
413.869	7.78
414.312	7.8
414.756	7.81
415.199	7.81
415.642	7.84
416.085	7.85
416.527	7.87
416.97	7.89
417.413	7.89
417.856	7.89
418.298	7.86
418.741	7.85
419.184	7.85
419.626	7.84
420.069	7.81
420.511	7.78
420.953	7.77
421.396	7.76
421.838	7.75
422.28	7.76
422.722	7.78
423.164	7.77
423.606	7.76
424.048	7.75
424.49	7.76
424.932	7.77
425.374	7.77
425.816	7.76
426.258	7.74
426.699	7.71
427.141	7.66
427.582	7.64
428.024	7.62
428.465	7.63
428.907	7.64
429.348	7.62
429.789	7.6
430.231	7.56
430.672	7.55
431.113	7.56
431.554	7.58
431.995	7.61
432.436	7.6
432.877	7.59
433.318	7.54
433.759	7.52
434.2	7.51
434.64	7.52
435.081	7.52
435.522	7.53
435.962	7.53
436.403	7.54
436.843	7.53
437.284	7.53
437.724	7.55
438.164	7.6
438.604	7.61
439.045	7.61
439.485	7.61
439.925	7.64
440.365	7.65
440.805	7.62
441.245	7.62
441.685	7.64
442.125	7.66
442.564	7.67
443.004	7.67
443.444	7.68
443.883	7.7
444.323	7.69
444.762	7.7
445.202	7.73
445.641	7.75
446.081	7.78
446.52	7.78
446.959	7.81
447.398	7.84
447.837	7.86
448.276	7.87
448.716	7.89
449.154	7.91
449.593	7.92
450.032	7.93
450.471	7.95
450.91	7.92
451.349	7.94
451.787	7.93
452.226	7.89
452.664	7.89
453.103	7.88
453.541	7.89
453.98	7.87
454.418	7.85
454.856	7.82
455.295	7.81
455.733	7.8
456.171	7.79
456.609	7.77
457.047	7.77
457.485	7.75
457.923	7.75
458.361	7.72
458.798	7.72
459.236	7.7
459.674	7.69
460.111	7.68
460.549	7.68
460.987	7.66
461.424	7.66
461.862	7.64
462.299	7.63
462.736	7.62
463.173	7.6
463.611	7.59
464.048	7.59
464.485	7.58
464.922	7.56
465.359	7.55
465.796	7.54
466.233	7.55
466.67	7.56
467.106	7.55
467.543	7.55
467.98	7.55
468.416	7.56
468.853	7.56
469.29	7.58
469.726	7.58
470.162	7.58
470.599	7.6
471.035	7.6
471.471	7.57
471.907	7.6
472.344	7.61
472.78	7.61
473.216	7.61
473.652	7.61
474.088	7.61
474.523	7.61
474.959	7.62
475.395	7.62
475.831	7.61
476.266	7.63
476.702	7.62
477.138	7.61
477.573	7.59
478.008	7.57
478.444	7.55
478.879	7.54
479.314	7.53
479.75	7.53
480.185	7.51
480.62	7.51
481.055	7.52
481.49	7.51
481.925	7.5
482.36	7.5
482.795	7.5
483.229	7.51
483.664	7.51
484.099	7.51
484.534	7.51
484.968	7.52
485.403	7.52
485.837	7.51
486.271	7.51
486.706	7.52
487.14	7.54
487.574	7.56
488.009	7.57
488.443	7.59
488.877	7.6
489.311	7.62
489.745	7.64
490.179	7.67
490.613	7.71
491.046	7.75
491.48	7.79
491.914	7.82
492.348	7.85
492.781	7.9
493.215	7.94
493.648	8
494.082	8.04
494.515	8.1
494.948	8.15
495.382	8.21
495.815	8.26
496.248	8.33
496.681	8.41
497.114	8.48
497.547	8.57
497.98	8.64
498.413	8.72
498.846	8.81
499.279	8.91
499.711	8.99
500.144	9.08
500.577	9.18
501.009	9.27
501.442	9.39
501.874	9.51
502.306	9.62
502.739	9.75
503.171	9.9
503.603	10.05
504.036	10.2
504.468	10.36
504.9	10.53
505.332	10.71
505.764	10.89
506.196	11.08
506.627	11.27
507.059	11.47
507.491	11.69
507.923	11.9
508.354	12.13
508.786	12.35
509.217	12.57
509.649	12.82
510.08	13.08
510.512	13.33
510.943	13.59
511.374	13.85
511.805	14.11
512.237	14.38
512.668	14.64
513.099	14.92
513.53	15.21
513.961	15.52
514.391	15.81
514.822	16.1
515.253	16.39
515.684	16.69
516.114	17
516.545	17.32
516.975	17.62
517.406	17.93
517.836	18.24
518.267	18.57
518.697	18.88
519.127	19.19
519.558	19.5
519.988	19.8
520.418	20.11
520.848	20.4
521.278	20.7
521.708	20.85
522.138	21.12
522.567	21.4
522.997	21.66
523.427	21.93
523.857	22.18
524.286	22.42
524.716	22.68
525.145	22.91
525.575	23.13
526.004	23.36
526.433	23.72
526.863	23.97
527.292	24.16
527.721	24.35
528.15	24.53
528.579	24.72
529.008	24.9
529.437	25.05
529.866	25.2
530.295	25.37
530.724	25.52
531.152	25.67
531.581	25.81
532.01	25.94
532.438	26.05
532.867	26.17
533.295	26.28
533.723	26.38
534.152	26.48
534.58	26.58
535.008	26.61
535.436	26.66
535.865	26.71
536.293	26.77
536.721	26.82
537.149	26.87
537.576	26.91
538.004	26.94
538.432	26.98
538.86	27.01
539.287	27.06
539.715	27.12
540.143	27.17
540.57	27.2
540.998	27.24
541.425	27.26
541.852	27.32
542.28	27.34
542.707	27.39
543.134	27.42
543.561	27.42
543.988	27.45
544.415	27.49
544.842	27.52
545.269	27.55
545.696	27.56
546.123	27.61
546.549	27.62
546.976	27.66
547.403	27.68
547.829	27.73
548.256	27.78
548.682	27.78
549.108	27.8
549.535	27.81
549.961	27.84
550.387	27.85
550.813	27.83
551.24	27.85
551.666	27.86
552.092	27.86
552.518	27.85
552.943	27.84
553.369	27.84
553.795	27.81
554.221	27.78
554.646	27.74
555.072	27.72
555.498	27.69
555.923	27.64
556.349	27.57
556.774	27.52
557.199	27.46
557.625	27.41
558.05	27.34
558.475	27.27
558.9	27.18
559.325	27.1
559.75	27
560.175	26.89
560.6	26.79
561.025	26.69
561.449	26.55
561.874	26.41
562.299	26.28
562.723	26.16
563.148	26.03
563.572	25.91
563.997	25.77
564.421	25.62
564.846	25.47
565.27	25.32
565.694	25.15
566.118	25.01
566.542	24.87
566.966	24.69
567.39	24.5
567.814	24.33
568.238	24.15
568.662	23.98
569.086	23.8
569.509	23.62
569.933	23.44
570.357	23.26
570.78	23.08
571.204	22.89
571.627	22.73
572.05	22.59
572.474	22.44
572.897	22.28
573.32	22.12
573.743	21.98
574.166	21.85
574.589	21.73
575.012	21.6
575.435	21.47
575.858	21.35
576.281	21.25
576.704	21.14
577.126	21.03
577.549	20.93
577.972	20.84
578.394	20.74
578.817	20.64
579.239	20.54
579.661	20.45
580.084	20.36
580.506	20.27
580.928	20.17
581.35	20.06
581.772	19.98
582.194	19.9
582.616	19.82
583.038	19.73
583.46	19.66
583.882	19.58
584.303	19.52
584.725	19.43
585.147	19.36
585.568	19.29
585.99	19.22
586.411	19.14
586.833	19.06
587.254	18.99
587.675	18.93
588.096	18.86
588.518	18.79
588.939	18.72
589.36	18.68
589.781	18.62
590.202	18.58
590.623	18.52
591.043	18.47
591.464	18.42
591.885	18.37
592.305	18.32
592.726	18.27
593.147	18.25
593.567	18.21
593.987	18.18
594.408	18.13
594.828	18.09
595.248	18.07
595.669	18.04
596.089	18.01
596.509	17.95
596.929	17.93
597.349	17.88
597.769	17.84
598.189	17.8
598.608	17.75
599.028	17.69
599.448	17.65
599.867	17.59
600.287	17.53
600.706	17.48
601.126	17.44
601.545	17.4
601.965	17.35
602.384	17.29
602.803	17.23
603.222	17.16
603.641	17.12
604.061	17.05
604.48	16.99
604.898	16.92
605.317	16.86
605.736	16.8
606.155	16.7
606.574	16.63
606.992	16.56
607.411	16.49
607.829	16.39
608.248	16.33
608.666	16.25
609.085	16.17
609.503	16.1
609.921	16.01
610.339	15.95
610.758	15.89
611.176	15.82
611.594	15.75
612.012	15.67
612.43	15.64
612.847	15.58
613.265	15.51
613.683	15.44
614.101	15.36
614.518	15.3
614.936	15.21
615.353	15.14
615.771	15.08
616.188	15.01
616.606	14.95
617.023	14.87
617.44	14.8
617.857	14.73
618.274	14.68
618.691	14.63
619.108	14.57
619.525	14.54
619.942	14.49
620.359	14.45
620.776	14.43
621.192	14.4
621.609	14.37
622.026	14.34
622.442	14.32
622.859	14.3
623.275	14.3
623.691	14.3
624.108	14.28
624.524	14.26
624.94	14.24
625.356	14.22
625.772	14.21
626.188	14.2
626.604	14.17
627.02	14.16
627.436	14.14
627.852	14.11
628.268	14.07
628.683	14.03
629.099	14.02
629.514	13.98
629.93	13.94
630.345	13.91
630.761	13.86
631.176	13.82
631.591	13.77
632.007	13.7
632.422	13.65
632.837	13.58
633.252	13.52
633.667	13.43
634.082	13.35
634.497	13.24
634.911	13.14
635.326	13.03
635.741	12.92
636.155	12.8
636.57	12.68
636.984	12.54
637.399	12.4
637.813	12.27
638.228	12.13
638.642	12
639.056	11.87
639.47	11.71
639.884	11.55
640.298	11.41
640.712	11.27
641.126	11.13
641.54	11
641.954	10.89
642.368	10.75
642.781	10.6
643.195	10.46
643.609	10.35
644.022	10.25
644.436	10.16
644.849	10.05
645.262	9.96
645.676	9.85
646.089	9.75
646.502	9.65
646.915	9.58
647.328	9.53
647.741	9.48
648.154	9.42
648.567	9.36
648.98	9.32
649.393	9.28
649.805	9.24
650.218	9.22
650.631	9.19
651.043	9.16
651.456	9.12
651.868	9.08
652.28	9.04
652.693	8.99
653.105	8.97
653.517	8.93
653.929	8.9
654.341	8.87
654.753	8.82
655.165	8.79
655.577	8.73
655.989	8.69
656.401	8.64
656.813	8.59
657.224	8.55
657.636	8.49
658.047	8.43
658.459	8.35
658.87	8.29
659.282	8.22
659.693	8.15
660.104	8.1
660.515	8.02
660.926	7.96
661.338	7.91
661.749	7.84
662.159	7.78
662.57	7.72
662.981	7.67
663.392	7.61
663.803	7.57
664.213	7.53
664.624	7.51
665.035	7.46
665.445	7.44
665.855	7.4
666.266	7.36
666.676	7.34
667.086	7.31
667.497	7.29
667.907	7.26
668.317	7.24
668.727	7.23
669.137	7.21
669.547	7.23
669.956	7.23
670.366	7.24
670.776	7.24
671.186	7.24
671.595	7.26
672.005	7.29
672.414	7.31
672.824	7.33
673.233	7.35
673.642	7.36
674.052	7.38
674.461	7.4
674.87	7.44
675.279	7.48
675.688	7.51
676.097	7.55
676.506	7.58
676.915	7.62
677.323	7.68
677.732	7.73
678.141	7.79
678.549	7.85
678.958	7.91
679.366	7.97
679.775	8.04
680.183	8.14
680.592	8.24
681	8.32
681.408	8.43
681.816	8.53
682.224	8.65
682.632	8.79
683.04	8.95
683.448	9.11
683.856	9.29
684.264	9.5
684.671	9.71
685.079	9.94
685.487	10.22
685.894	10.51
686.302	10.83
686.709	11.15
687.116	11.52
687.524	11.91
687.931	12.32
688.338	12.78
688.745	13.24
689.152	13.74
689.559	14.27
689.966	14.82
690.373	15.41
690.78	15.99
691.187	16.6
691.593	17.22
692	17.86
692.407	18.52
692.813	19.16
693.22	19.82
693.626	20.49
694.032	21.17
694.439	21.87
694.845	22.53
695.251	23.22
695.657	23.9
696.063	24.57
696.469	25.24
696.875	25.89
697.281	26.55
697.687	27.22
698.093	27.86
698.498	28.49
698.904	29.07
699.31	29.69
699.715	30.3
700.12	30.88
700.526	31.49
700.931	32.06
701.337	32.65
701.742	33.19
702.147	33.71
702.552	34.23
702.957	34.73
703.362	35.26
703.767	35.77
704.172	36.24
704.577	36.73
704.981	37.21
705.386	37.67
705.791	38.12
706.195	38.57
706.6	38.99
707.004	39.43
707.408	39.84
707.813	40.25
708.217	40.61
708.621	41
709.025	41.4
709.43	41.74
709.834	42.11
710.237	42.46
710.641	42.85
711.045	43.23
711.449	43.57
711.853	43.92
712.256	44.27
712.66	44.63
713.064	44.97
713.467	45.26
713.87	45.59
714.274	45.88
714.677	46.17
715.08	46.42
715.484	46.72
715.887	47.03
716.29	47.32
716.693	47.59
717.096	47.85
717.499	48.11
717.901	48.38
718.304	48.62
718.707	48.89
719.109	49.15
719.512	49.46
719.915	49.69
720.317	49.92
720.719	50.13
721.122	50.36
721.524	50.59
721.926	50.79
722.328	51.02
722.731	51.24
723.133	51.47
723.535	51.65
723.937	51.83
724.338	52
724.74	52.15
725.142	52.27
725.544	52.4
725.945	52.55
726.347	52.72
726.748	52.84
727.15	52.99
727.551	53.08
727.952	53.19
728.354	53.33
728.755	53.46
729.156	53.59
729.557	53.79
729.958	53.94
730.359	54.06
730.76	54.15
731.161	54.26
731.562	54.37
731.962	54.48
732.363	54.6
732.763	54.69
733.164	54.76
733.564	54.82
733.965	54.87
734.365	54.89
734.766	54.96
735.166	54.99
735.566	55.01
735.966	55.03
736.366	55.06
736.766	55.11
737.166	55.15
737.566	55.19
737.966	55.25
738.365	55.3
738.765	55.37
739.165	55.37
739.564	55.43
739.964	55.47
740.363	55.56
740.763	55.58
741.162	55.59
741.561	55.64
741.96	55.7
742.36	55.73
742.759	55.75
743.158	55.74
743.557	55.82
743.955	55.85
744.354	55.91
744.753	55.92
745.152	55.96
745.55	56.01
745.949	56.01
746.348	56.03
746.746	56.1
747.144	56.16
747.543	56.23
747.941	56.28
748.339	56.31
748.737	56.34
749.136	56.34
749.534	56.38
749.932	56.39
750.33	56.42
750.727	56.43
751.125	56.42
751.523	56.39
751.921	56.43
752.318	56.38
752.716	56.39
753.113	56.35
753.511	56.34
753.908	56.28
754.305	56.24
754.703	56.22
755.1	56.18
755.497	56.14
755.894	56.08
756.291	55.97
756.688	55.92
757.085	55.86
757.482	55.84
757.878	55.82
758.275	55.78
758.672	55.78
759.068	55.73
759.465	55.68
759.861	55.67
760.258	55.65
760.654	55.63
761.05	55.62
761.447	55.6
761.843	55.57
762.239	55.56
762.635	55.6
763.031	55.59
763.427	55.56
763.822	55.55
764.218	55.56
764.614	55.57
765.01	55.64
765.405	55.61
765.801	55.63
766.196	55.66
766.592	55.69
766.987	55.69
767.382	55.7
767.778	55.73
768.173	55.76
768.568	55.72
768.963	55.71
769.358	55.66
769.753	55.73
770.148	55.74
770.542	55.73
770.937	55.69
771.332	55.69
771.726	55.64
772.121	55.61
772.515	55.58
772.91	55.58
773.304	55.58
773.699	55.58
774.093	55.55
774.487	55.53
774.881	55.53
775.275	55.53
775.669	55.53
776.063	55.54
776.457	55.53
776.851	55.51
777.245	55.52
777.638	55.53
778.032	55.54
778.425	55.52
778.819	55.53
779.212	55.49
779.606	55.5
779.999	55.46
780.392	55.48
