Data from c_3_div_wi_4n_Splice17_20.txt Node
Date: Sat Feb 29 14:42:49 EST 2020
User: sa697716
Spectrometer: FLMS03696
Trigger mode: 0
Integration Time (sec): 3.180400E-1
Scans to average: 20
Electric dark correction enabled: true
Nonlinearity correction enabled: true
Boxcar width: 5
XAxis mode: Wavelengths
Number of Pixels in Spectrum: 2048
>>>>>Begin Spectral Data<<<<<
187.83	94.84
188.298	103.07
188.766	95.85
189.233	89.26
189.701	104.4
190.169	106.16
190.636	122.94
191.104	150.3
191.571	433.01
192.039	198.91
192.506	-174.59
192.974	-1321.6
193.441	406.11
193.908	9.07
194.375	-17.21
194.842	167.09
195.31	92
195.777	65.57
196.244	36.97
196.711	25.56
197.177	23.19
197.644	22.99
198.111	23
198.578	23.6
199.045	23.84
199.511	23.9
199.978	23.91
200.445	24.03
200.911	24.28
201.378	24.37
201.844	24.81
202.31	25.53
202.777	26.11
203.243	26.96
203.709	27.33
204.176	27.36
204.642	27.42
205.108	27.15
205.574	27.81
206.04	28.24
206.506	28.23
206.972	28.2
207.438	27.9
207.903	27.64
208.369	26.87
208.835	26.96
209.301	27.27
209.766	27.22
210.232	27.5
210.697	27.5
211.163	27.39
211.628	27.42
212.094	27.09
212.559	26.83
213.024	26.58
213.49	26.43
213.955	26.26
214.42	25.84
214.885	25.35
215.35	25.03
215.815	24.27
216.28	23.77
216.745	23.39
217.21	22.94
217.675	22.42
218.14	21.85
218.604	21.33
219.069	20.86
219.534	20.37
219.998	20.02
220.463	19.62
220.927	19.3
221.392	18.98
221.856	18.62
222.32	18.34
222.785	18.07
223.249	17.89
223.713	17.68
224.177	17.42
224.642	17.25
225.106	17.03
225.57	16.86
226.034	16.67
226.497	16.48
226.961	16.32
227.425	16.13
227.889	15.95
228.353	15.76
228.816	15.59
229.28	15.41
229.744	15.24
230.207	15.08
230.671	14.91
231.134	14.72
231.597	14.55
232.061	14.38
232.524	14.24
232.987	14.11
233.45	13.96
233.914	13.8
234.377	13.66
234.84	13.52
235.303	13.38
235.766	13.25
236.229	13.13
236.691	13.03
237.154	12.91
237.617	12.79
238.08	12.66
238.542	12.53
239.005	12.42
239.468	12.3
239.93	12.18
240.393	12.08
240.855	11.97
241.317	11.87
241.78	11.76
242.242	11.65
242.704	11.55
243.166	11.46
243.629	11.37
244.091	11.29
244.553	11.21
245.015	11.14
245.477	11.05
245.939	10.97
246.4	10.89
246.862	10.83
247.324	10.77
247.786	10.69
248.247	10.62
248.709	10.55
249.17	10.49
249.632	10.41
250.093	10.33
250.555	10.27
251.016	10.23
251.477	10.17
251.939	10.11
252.4	10.05
252.861	10.01
253.322	9.96
253.783	9.94
254.244	9.9
254.705	9.86
255.166	9.85
255.627	9.82
256.088	9.77
256.549	9.74
257.009	9.7
257.47	9.68
257.931	9.63
258.391	9.59
258.852	9.54
259.312	9.49
259.773	9.45
260.233	9.39
260.694	9.34
261.154	9.29
261.614	9.23
262.074	9.19
262.534	9.12
262.994	9.08
263.455	9.03
263.915	8.98
264.374	8.93
264.834	8.88
265.294	8.84
265.754	8.79
266.214	8.75
266.673	8.71
267.133	8.66
267.593	8.62
268.052	8.58
268.512	8.54
268.971	8.5
269.431	8.45
269.89	8.42
270.349	8.39
270.809	8.35
271.268	8.31
271.727	8.29
272.186	8.25
272.645	8.21
273.104	8.18
273.563	8.15
274.022	8.12
274.481	8.08
274.94	8.04
275.399	8.01
275.857	7.98
276.316	7.94
276.775	7.89
277.233	7.86
277.692	7.83
278.15	7.79
278.609	7.76
279.067	7.72
279.525	7.7
279.984	7.66
280.442	7.63
280.9	7.6
281.358	7.57
281.816	7.55
282.274	7.52
282.732	7.5
283.19	7.48
283.648	7.45
284.106	7.43
284.564	7.4
285.021	7.39
285.479	7.37
285.937	7.35
286.394	7.34
286.852	7.32
287.309	7.31
287.767	7.3
288.224	7.28
288.682	7.26
289.139	7.25
289.596	7.23
290.053	7.2
290.511	7.17
290.968	7.15
291.425	7.12
291.882	7.09
292.339	7.06
292.796	7.02
293.252	7
293.709	6.98
294.166	6.95
294.623	6.93
295.079	6.91
295.536	6.9
295.992	6.88
296.449	6.86
296.905	6.84
297.362	6.83
297.818	6.82
298.274	6.8
298.731	6.79
299.187	6.77
299.643	6.75
300.099	6.74
300.555	6.72
301.011	6.7
301.467	6.7
301.923	6.69
302.379	6.67
302.835	6.65
303.291	6.63
303.746	6.6
304.202	6.57
304.658	6.56
305.113	6.54
305.569	6.53
306.024	6.51
306.479	6.49
306.935	6.48
307.39	6.46
307.845	6.45
308.301	6.44
308.756	6.44
309.211	6.45
309.666	6.45
310.121	6.45
310.576	6.45
311.031	6.44
311.486	6.43
311.94	6.42
312.395	6.42
312.85	6.42
313.305	6.41
313.759	6.41
314.214	6.39
314.668	6.37
315.123	6.37
315.577	6.36
316.032	6.35
316.486	6.35
316.94	6.34
317.394	6.32
317.849	6.31
318.303	6.3
318.757	6.28
319.211	6.26
319.665	6.25
320.119	6.23
320.572	6.23
321.026	6.21
321.48	6.2
321.934	6.2
322.387	6.19
322.841	6.18
323.295	6.16
323.748	6.15
324.202	6.15
324.655	6.14
325.108	6.12
325.562	6.1
326.015	6.08
326.468	6.06
326.921	6.04
327.374	6.02
327.827	6.01
328.28	6
328.733	5.99
329.186	5.98
329.639	5.96
330.092	5.95
330.545	5.95
330.997	5.94
331.45	5.94
331.903	5.92
332.355	5.92
332.808	5.91
333.26	5.91
333.713	5.91
334.165	5.9
334.617	5.91
335.069	5.9
335.522	5.89
335.974	5.89
336.426	5.9
336.878	5.91
337.33	5.91
337.782	5.91
338.234	5.91
338.686	5.91
339.137	5.91
339.589	5.91
340.041	5.91
340.493	5.9
340.944	5.89
341.396	5.9
341.847	5.89
342.299	5.87
342.75	5.86
343.201	5.84
343.653	5.83
344.104	5.81
344.555	5.81
345.006	5.81
345.457	5.8
345.908	5.8
346.359	5.8
346.81	5.8
347.261	5.81
347.712	5.81
348.163	5.83
348.613	5.84
349.064	5.84
349.515	5.84
349.965	5.84
350.416	5.87
350.866	5.89
351.317	5.89
351.767	5.9
352.217	5.91
352.668	5.92
353.118	5.94
353.568	5.95
354.018	5.99
354.468	6.01
354.918	6.04
355.368	6.07
355.818	6.07
356.268	6.11
356.718	6.14
357.168	6.17
357.617	6.2
358.067	6.25
358.517	6.28
358.966	6.33
359.416	6.38
359.865	6.41
360.315	6.46
360.764	6.51
361.213	6.55
361.663	6.6
362.112	6.66
362.561	6.72
363.01	6.77
363.459	6.83
363.908	6.88
364.357	6.93
364.806	6.99
365.255	7.05
365.703	7.11
366.152	7.16
366.601	7.22
367.05	7.27
367.498	7.32
367.947	7.38
368.395	7.44
368.844	7.5
369.292	7.55
369.74	7.59
370.189	7.63
370.637	7.69
371.085	7.74
371.533	7.78
371.981	7.82
372.429	7.86
372.877	7.9
373.325	7.93
373.773	7.97
374.221	8.02
374.669	8.07
375.116	8.1
375.564	8.13
376.012	8.16
376.459	8.2
376.907	8.24
377.354	8.27
377.801	8.31
378.249	8.35
378.696	8.38
379.143	8.4
379.591	8.42
380.038	8.46
380.485	8.49
380.932	8.52
381.379	8.54
381.826	8.58
382.273	8.58
382.72	8.61
383.166	8.62
383.613	8.64
384.06	8.66
384.506	8.68
384.953	8.67
385.4	8.68
385.846	8.69
386.292	8.71
386.739	8.71
387.185	8.74
387.631	8.75
388.078	8.77
388.524	8.76
388.97	8.75
389.416	8.75
389.862	8.77
390.308	8.78
390.754	8.78
391.2	8.79
391.645	8.81
392.091	8.81
392.537	8.8
392.983	8.81
393.428	8.84
393.874	8.87
394.319	8.87
394.765	8.87
395.21	8.85
395.655	8.85
396.101	8.83
396.546	8.82
396.991	8.8
397.436	8.79
397.881	8.78
398.326	8.77
398.771	8.76
399.216	8.77
399.661	8.76
400.106	8.77
400.551	8.77
400.995	8.76
401.44	8.73
401.885	8.72
402.329	8.7
402.774	8.66
403.218	8.63
403.663	8.6
404.107	8.57
404.551	8.55
404.995	8.52
405.44	8.49
405.884	8.46
406.328	8.45
406.772	8.43
407.216	8.43
407.66	8.43
408.104	8.42
408.547	8.4
408.991	8.37
409.435	8.35
409.879	8.32
410.322	8.3
410.766	8.3
411.209	8.28
411.653	8.26
412.096	8.24
412.54	8.21
412.983	8.2
413.426	8.2
413.869	8.21
414.312	8.21
414.756	8.24
415.199	8.24
415.642	8.24
416.085	8.25
416.527	8.27
416.97	8.29
417.413	8.29
417.856	8.26
418.298	8.24
418.741	8.23
419.184	8.21
419.626	8.19
420.069	8.18
420.511	8.16
420.953	8.15
421.396	8.13
421.838	8.12
422.28	8.15
422.722	8.17
423.164	8.18
423.606	8.19
424.048	8.17
424.49	8.18
424.932	8.17
425.374	8.19
425.816	8.16
426.258	8.13
426.699	8.09
427.141	8.03
427.582	8
428.024	7.97
428.465	7.97
428.907	7.98
429.348	7.96
429.789	7.95
430.231	7.92
430.672	7.91
431.113	7.92
431.554	7.94
431.995	7.97
432.436	7.97
432.877	7.96
433.318	7.93
433.759	7.93
434.2	7.94
434.64	7.95
435.081	7.93
435.522	7.95
435.962	7.96
436.403	7.97
436.843	7.99
437.284	8.01
437.724	8.02
438.164	8.03
438.604	8.05
439.045	8.05
439.485	8.06
439.925	8.06
440.365	8.06
440.805	8.05
441.245	8.03
441.685	8.04
442.125	8.04
442.564	8.08
443.004	8.11
443.444	8.13
443.883	8.13
444.323	8.14
444.762	8.2
445.202	8.25
445.641	8.27
446.081	8.33
446.52	8.32
446.959	8.33
447.398	8.36
447.837	8.4
448.276	8.41
448.716	8.46
449.154	8.52
449.593	8.53
450.032	8.55
450.471	8.59
450.91	8.61
451.349	8.65
451.787	8.66
452.226	8.64
452.664	8.64
453.103	8.65
453.541	8.66
453.98	8.64
454.418	8.63
454.856	8.62
455.295	8.6
455.733	8.59
456.171	8.58
456.609	8.59
457.047	8.58
457.485	8.58
457.923	8.56
458.361	8.54
458.798	8.52
459.236	8.52
459.674	8.49
460.111	8.5
460.549	8.49
460.987	8.47
461.424	8.45
461.862	8.45
462.299	8.43
462.736	8.42
463.173	8.42
463.611	8.41
464.048	8.4
464.485	8.41
464.922	8.37
465.359	8.38
465.796	8.37
466.233	8.37
466.67	8.36
467.106	8.34
467.543	8.35
467.98	8.36
468.416	8.38
468.853	8.39
469.29	8.39
469.726	8.41
470.162	8.4
470.599	8.41
471.035	8.42
471.471	8.42
471.907	8.43
472.344	8.44
472.78	8.44
473.216	8.42
473.652	8.42
474.088	8.43
474.523	8.44
474.959	8.44
475.395	8.44
475.831	8.44
476.266	8.45
476.702	8.46
477.138	8.44
477.573	8.44
478.008	8.44
478.444	8.44
478.879	8.44
479.314	8.44
479.75	8.44
480.185	8.45
480.62	8.44
481.055	8.45
481.49	8.44
481.925	8.43
482.36	8.42
482.795	8.42
483.229	8.43
483.664	8.42
484.099	8.42
484.534	8.43
484.968	8.43
485.403	8.42
485.837	8.43
486.271	8.45
486.706	8.46
487.14	8.49
487.574	8.51
488.009	8.53
488.443	8.55
488.877	8.56
489.311	8.59
489.745	8.63
490.179	8.68
490.613	8.72
491.046	8.76
491.48	8.81
491.914	8.85
492.348	8.9
492.781	8.94
493.215	9
493.648	9.08
494.082	9.15
494.515	9.21
494.948	9.28
495.382	9.35
495.815	9.43
496.248	9.52
496.681	9.62
497.114	9.71
497.547	9.82
497.98	9.93
498.413	10.02
498.846	10.14
499.279	10.26
499.711	10.38
500.144	10.51
500.577	10.64
501.009	10.79
501.442	10.95
501.874	11.11
502.306	11.27
502.739	11.43
503.171	11.62
503.603	11.8
504.036	12
504.468	12.2
504.9	12.41
505.332	12.63
505.764	12.85
506.196	13.08
506.627	13.32
507.059	13.57
507.491	13.83
507.923	14.1
508.354	14.39
508.786	14.67
509.217	14.94
509.649	15.24
510.08	15.53
510.512	15.82
510.943	16.13
511.374	16.44
511.805	16.76
512.237	17.1
512.668	17.43
513.099	17.75
513.53	18.1
513.961	18.46
514.391	18.8
514.822	19.16
515.253	19.51
515.684	19.86
516.114	20.23
516.545	20.58
516.975	20.94
517.406	21.29
517.836	21.65
518.267	21.99
518.697	22.36
519.127	22.74
519.558	23.1
519.988	23.47
520.418	23.81
520.848	24.15
521.278	24.51
521.708	24.82
522.138	25.13
522.567	25.45
522.997	25.77
523.427	26.07
523.857	26.34
524.286	26.63
524.716	26.91
525.145	27.18
525.575	27.41
526.004	27.65
526.433	27.91
526.863	28.16
527.292	28.39
527.721	28.59
528.15	28.78
528.579	28.99
529.008	29.16
529.437	29.34
529.866	29.51
530.295	29.69
530.724	29.87
531.152	30.03
531.581	30.18
532.01	30.3
532.438	30.43
532.867	30.55
533.295	30.66
533.723	30.77
534.152	30.89
534.58	30.98
535.008	31.05
535.436	31.09
535.865	31.15
536.293	31.22
536.721	31.29
537.149	31.36
537.576	31.42
538.004	31.46
538.432	31.51
538.86	31.52
539.287	31.56
539.715	31.61
540.143	31.63
540.57	31.66
540.998	31.69
541.425	31.72
541.852	31.75
542.28	31.76
542.707	31.8
543.134	31.82
543.561	31.85
543.988	31.87
544.415	31.9
544.842	31.94
545.269	31.96
545.696	31.98
546.123	32.01
546.549	32.03
546.976	32.08
547.403	32.11
547.829	32.14
548.256	32.17
548.682	32.18
549.108	32.19
549.535	32.22
549.961	32.23
550.387	32.23
550.813	32.22
551.24	32.23
551.666	32.23
552.092	32.21
552.518	32.19
552.943	32.17
553.369	32.18
553.795	32.17
554.221	32.13
554.646	32.11
555.072	32.08
555.498	32.03
555.923	31.97
556.349	31.9
556.774	31.82
557.199	31.77
557.625	31.68
558.05	31.58
558.475	31.48
558.9	31.41
559.325	31.29
559.75	31.16
560.175	31.05
560.6	30.94
561.025	30.81
561.449	30.66
561.874	30.51
562.299	30.37
562.723	30.24
563.148	30.08
563.572	29.92
563.997	29.77
564.421	29.6
564.846	29.45
565.27	29.28
565.694	29.1
566.118	28.93
566.542	28.74
566.966	28.54
567.39	28.31
567.814	28.11
568.238	27.88
568.662	27.65
569.086	27.47
569.509	27.24
569.933	27.02
570.357	26.8
570.78	26.6
571.204	26.39
571.627	26.2
572.05	26.02
572.474	25.83
572.897	25.65
573.32	25.48
573.743	25.28
574.166	25.12
574.589	24.96
575.012	24.81
575.435	24.66
575.858	24.53
576.281	24.39
576.704	24.25
577.126	24.13
577.549	24.02
577.972	23.92
578.394	23.8
578.817	23.68
579.239	23.56
579.661	23.47
580.084	23.36
580.506	23.27
580.928	23.17
581.35	23.08
581.772	23
582.194	22.87
582.616	22.78
583.038	22.7
583.46	22.63
583.882	22.56
584.303	22.45
584.725	22.37
585.147	22.26
585.568	22.15
585.99	22.07
586.411	21.99
586.833	21.91
587.254	21.82
587.675	21.74
588.096	21.67
588.518	21.59
588.939	21.54
589.36	21.47
589.781	21.43
590.202	21.37
590.623	21.31
591.043	21.25
591.464	21.2
591.885	21.16
592.305	21.11
592.726	21.05
593.147	21.01
593.567	20.96
593.987	20.94
594.408	20.88
594.828	20.86
595.248	20.81
595.669	20.77
596.089	20.73
596.509	20.69
596.929	20.65
597.349	20.59
597.769	20.54
598.189	20.5
598.608	20.43
599.028	20.37
599.448	20.32
599.867	20.27
600.287	20.23
600.706	20.16
601.126	20.09
601.545	20.04
601.965	19.99
602.384	19.93
602.803	19.85
603.222	19.78
603.641	19.71
604.061	19.64
604.48	19.56
604.898	19.47
605.317	19.39
605.736	19.32
606.155	19.23
606.574	19.14
606.992	19.03
607.411	18.96
607.829	18.83
608.248	18.75
608.666	18.64
609.085	18.56
609.503	18.46
609.921	18.36
610.339	18.27
610.758	18.18
611.176	18.09
611.594	18.02
612.012	17.92
612.43	17.86
612.847	17.77
613.265	17.7
613.683	17.6
614.101	17.51
614.518	17.44
614.936	17.35
615.353	17.26
615.771	17.17
616.188	17.09
616.606	17.01
617.023	16.94
617.44	16.86
617.857	16.78
618.274	16.71
618.691	16.65
619.108	16.59
619.525	16.53
619.942	16.49
620.359	16.46
620.776	16.41
621.192	16.36
621.609	16.34
622.026	16.31
622.442	16.28
622.859	16.25
623.275	16.24
623.691	16.22
624.108	16.2
624.524	16.17
624.94	16.13
625.356	16.12
625.772	16.12
626.188	16.11
626.604	16.08
627.02	16.06
627.436	16.05
627.852	16.02
628.268	16
628.683	15.97
629.099	15.96
629.514	15.94
629.93	15.89
630.345	15.84
630.761	15.78
631.176	15.76
631.591	15.72
632.007	15.64
632.422	15.6
632.837	15.54
633.252	15.47
633.667	15.39
634.082	15.3
634.497	15.21
634.911	15.1
635.326	14.99
635.741	14.86
636.155	14.74
636.57	14.63
636.984	14.49
637.399	14.33
637.813	14.19
638.228	14.06
638.642	13.91
639.056	13.77
639.47	13.63
639.884	13.49
640.298	13.34
640.712	13.18
641.126	13.02
641.54	12.86
641.954	12.74
642.368	12.6
642.781	12.44
643.195	12.29
643.609	12.15
644.022	12.03
644.436	11.9
644.849	11.78
645.262	11.67
645.676	11.55
646.089	11.45
646.502	11.33
646.915	11.24
647.328	11.16
647.741	11.09
648.154	11.03
648.567	10.97
648.98	10.9
649.393	10.86
649.805	10.79
650.218	10.75
650.631	10.71
651.043	10.69
651.456	10.64
651.868	10.59
652.28	10.55
652.693	10.48
653.105	10.43
653.517	10.37
653.929	10.33
654.341	10.29
654.753	10.23
655.165	10.17
655.577	10.09
655.989	9.99
656.401	9.92
656.813	9.83
657.224	9.76
657.636	9.68
658.047	9.6
658.459	9.49
658.87	9.4
659.282	9.32
659.693	9.23
660.104	9.15
660.515	9.08
660.926	9.01
661.338	8.94
661.749	8.86
662.159	8.78
662.57	8.71
662.981	8.65
663.392	8.57
663.803	8.5
664.213	8.43
664.624	8.38
665.035	8.33
665.445	8.29
665.855	8.25
666.266	8.2
666.676	8.16
667.086	8.12
667.497	8.09
667.907	8.07
668.317	8.05
668.727	8.04
669.137	8.04
669.547	8.04
669.956	8.03
670.366	8.03
670.776	8.05
671.186	8.06
671.595	8.09
672.005	8.11
672.414	8.13
672.824	8.15
673.233	8.17
673.642	8.18
674.052	8.2
674.461	8.23
674.87	8.25
675.279	8.28
675.688	8.29
676.097	8.31
676.506	8.35
676.915	8.41
677.323	8.47
677.732	8.54
678.141	8.61
678.549	8.68
678.958	8.75
679.366	8.82
679.775	8.91
680.183	9.02
680.592	9.13
681	9.22
681.408	9.32
681.816	9.42
682.224	9.56
682.632	9.69
683.04	9.84
683.448	10.02
683.856	10.21
684.264	10.42
684.671	10.65
685.079	10.91
685.487	11.21
685.894	11.52
686.302	11.86
686.709	12.21
687.116	12.61
687.524	13.04
687.931	13.48
688.338	13.98
688.745	14.49
689.152	15.02
689.559	15.59
689.966	16.16
690.373	16.81
690.78	17.46
691.187	18.14
691.593	18.81
692	19.53
692.407	20.25
692.813	20.97
693.22	21.69
693.626	22.43
694.032	23.18
694.439	23.97
694.845	24.72
695.251	25.47
695.657	26.23
696.063	27
696.469	27.74
696.875	28.49
697.281	29.23
697.687	30
698.093	30.74
698.498	31.44
698.904	32.14
699.31	32.83
699.715	33.52
700.12	34.19
700.526	34.88
700.931	35.53
701.337	36.19
701.742	36.82
702.147	37.43
702.552	38.05
702.957	38.67
703.362	39.27
703.767	39.86
704.172	40.42
704.577	41
704.981	41.54
705.386	42.09
705.791	42.62
706.195	43.17
706.6	43.7
707.004	44.19
707.408	44.71
707.813	45.21
708.217	45.71
708.621	46.22
709.025	46.72
709.43	47.15
709.834	47.62
710.237	48.05
710.641	48.48
711.045	48.9
711.449	49.34
711.853	49.74
712.256	50.17
712.66	50.57
713.064	50.94
713.467	51.27
713.87	51.68
714.274	52.06
714.677	52.43
715.08	52.76
715.484	53.11
715.887	53.47
716.29	53.83
716.693	54.1
717.096	54.42
717.499	54.75
717.901	55.05
718.304	55.34
718.707	55.62
719.109	55.92
719.512	56.25
719.915	56.55
720.317	56.84
720.719	57.07
721.122	57.36
721.524	57.61
721.926	57.88
722.328	58.17
722.731	58.42
723.133	58.68
723.535	58.93
723.937	59.16
724.338	59.35
724.74	59.54
725.142	59.7
725.544	59.89
725.945	60.08
726.347	60.25
726.748	60.36
727.15	60.49
727.551	60.64
727.952	60.77
728.354	60.93
728.755	61.11
729.156	61.27
729.557	61.47
729.958	61.6
730.359	61.71
730.76	61.84
731.161	62.02
731.562	62.19
731.962	62.32
732.363	62.42
732.763	62.52
733.164	62.6
733.564	62.66
733.965	62.76
734.365	62.83
734.766	62.94
735.166	62.99
735.566	63
735.966	63
736.366	63.03
736.766	63.09
737.166	63.15
737.566	63.19
737.966	63.26
738.365	63.31
738.765	63.39
739.165	63.39
739.564	63.44
739.964	63.52
740.363	63.61
740.763	63.65
741.162	63.7
741.561	63.71
741.96	63.76
742.36	63.82
742.759	63.83
743.158	63.83
743.557	63.91
743.955	63.96
744.354	64.01
744.753	64.06
745.152	64.12
745.55	64.14
745.949	64.2
746.348	64.22
746.746	64.21
747.144	64.26
747.543	64.33
747.941	64.35
748.339	64.4
748.737	64.45
749.136	64.45
749.534	64.49
749.932	64.51
750.33	64.5
750.727	64.51
751.125	64.55
751.523	64.55
751.921	64.58
752.318	64.59
752.716	64.55
753.113	64.54
753.511	64.51
753.908	64.52
754.305	64.52
754.703	64.49
755.1	64.48
755.497	64.49
755.894	64.48
756.291	64.45
756.688	64.41
757.085	64.41
757.482	64.38
757.878	64.43
758.275	64.4
758.672	64.41
759.068	64.41
759.465	64.47
759.861	64.42
760.258	64.4
760.654	64.35
761.05	64.34
761.447	64.34
761.843	64.35
762.239	64.29
762.635	64.29
763.031	64.26
763.427	64.25
763.822	64.21
764.218	64.2
764.614	64.21
765.01	64.26
765.405	64.26
765.801	64.22
766.196	64.17
766.592	64.19
766.987	64.15
767.382	64.15
767.778	64.15
768.173	64.08
768.568	64.05
768.963	64.03
769.358	64
769.753	64
770.148	64.02
770.542	64.01
770.937	63.98
771.332	63.98
771.726	63.95
772.121	63.89
772.515	63.92
772.91	63.98
773.304	63.97
773.699	63.97
774.093	63.92
774.487	63.94
774.881	63.94
775.275	63.95
775.669	63.96
776.063	63.95
776.457	63.98
776.851	63.97
777.245	63.93
777.638	63.93
778.032	63.92
778.425	63.95
778.819	63.93
