Data from c_3_dec_ct_2n_Splice17_17.txt Node
Date: Sat Feb 29 14:46:00 EST 2020
User: sa697716
Spectrometer: FLMS03696
Trigger mode: 0
Integration Time (sec): 3.180400E-1
Scans to average: 20
Electric dark correction enabled: true
Nonlinearity correction enabled: true
Boxcar width: 5
XAxis mode: Wavelengths
Number of Pixels in Spectrum: 2048
>>>>>Begin Spectral Data<<<<<
187.83	89.26
188.298	97.87
188.766	86.24
189.233	83.5
189.701	77.5
190.169	76.42
190.636	68.69
191.104	60.83
191.571	55.21
192.039	150.6
192.506	8.61
192.974	-1908.89
193.441	74.66
193.908	21.94
194.375	-0.27
194.842	4.61
195.31	37.79
195.777	-14.13
196.244	6.87
196.711	12.84
197.177	13.01
197.644	14.36
198.111	14.43
198.578	14.4
199.045	14.72
199.511	14.51
199.978	14.95
200.445	14.92
200.911	15.5
201.378	15.72
201.844	16.11
202.31	16.96
202.777	17.16
203.243	18.04
203.709	18.58
204.176	18.7
204.642	19.13
205.108	18.94
205.574	19.31
206.04	19.45
206.506	19.4
206.972	19.64
207.438	19.12
207.903	19.26
208.369	18.78
208.835	18.61
209.301	18.59
209.766	18.71
210.232	18.76
210.697	18.88
211.163	18.56
211.628	18.73
212.094	18.55
212.559	18.45
213.024	17.95
213.49	17.63
213.955	17.62
214.42	17.28
214.885	16.84
215.35	16.73
215.815	16.04
216.28	15.86
216.745	15.42
217.21	15.04
217.675	14.72
218.14	14.35
218.604	14.04
219.069	13.67
219.534	13.41
219.998	13.09
220.463	12.87
220.927	12.76
221.392	12.58
221.856	12.38
222.32	12.18
222.785	12.01
223.249	11.89
223.713	11.75
224.177	11.58
224.642	11.49
225.106	11.41
225.57	11.24
226.034	11.08
226.497	10.95
226.961	10.81
227.425	10.7
227.889	10.58
228.353	10.43
228.816	10.32
229.28	10.19
229.744	10.06
230.207	9.94
230.671	9.85
231.134	9.73
231.597	9.61
232.061	9.5
232.524	9.39
232.987	9.29
233.45	9.18
233.914	9.08
234.377	9.01
234.84	8.91
235.303	8.81
235.766	8.71
236.229	8.62
236.691	8.53
237.154	8.45
237.617	8.36
238.08	8.27
238.542	8.19
239.005	8.1
239.468	7.98
239.93	7.89
240.393	7.81
240.855	7.7
241.317	7.61
241.78	7.53
242.242	7.45
242.704	7.38
243.166	7.31
243.629	7.24
244.091	7.17
244.553	7.12
245.015	7.06
245.477	6.98
245.939	6.94
246.4	6.87
246.862	6.81
247.324	6.77
247.786	6.71
248.247	6.66
248.709	6.6
249.17	6.56
249.632	6.5
250.093	6.43
250.555	6.38
251.016	6.34
251.477	6.3
251.939	6.26
252.4	6.2
252.861	6.16
253.322	6.12
253.783	6.1
254.244	6.06
254.705	6.03
255.166	6.01
255.627	5.98
256.088	5.94
256.549	5.91
257.009	5.87
257.47	5.85
257.931	5.81
258.391	5.77
258.852	5.72
259.312	5.7
259.773	5.66
260.233	5.63
260.694	5.6
261.154	5.58
261.614	5.55
262.074	5.52
262.534	5.49
262.994	5.47
263.455	5.46
263.915	5.44
264.374	5.41
264.834	5.39
265.294	5.35
265.754	5.33
266.214	5.31
266.673	5.29
267.133	5.27
267.593	5.25
268.052	5.23
268.512	5.21
268.971	5.19
269.431	5.17
269.89	5.16
270.349	5.15
270.809	5.14
271.268	5.13
271.727	5.11
272.186	5.1
272.645	5.08
273.104	5.08
273.563	5.06
274.022	5.05
274.481	5.03
274.94	5.01
275.399	4.99
275.857	4.98
276.316	4.95
276.775	4.92
277.233	4.9
277.692	4.88
278.15	4.86
278.609	4.83
279.067	4.8
279.525	4.77
279.984	4.75
280.442	4.73
280.9	4.71
281.358	4.7
281.816	4.69
282.274	4.67
282.732	4.65
283.19	4.64
283.648	4.63
284.106	4.62
284.564	4.62
285.021	4.61
285.479	4.6
285.937	4.58
286.394	4.56
286.852	4.55
287.309	4.54
287.767	4.54
288.224	4.53
288.682	4.52
289.139	4.51
289.596	4.5
290.053	4.48
290.511	4.46
290.968	4.46
291.425	4.44
291.882	4.42
292.339	4.4
292.796	4.37
293.252	4.35
293.709	4.34
294.166	4.32
294.623	4.3
295.079	4.29
295.536	4.27
295.992	4.25
296.449	4.24
296.905	4.22
297.362	4.2
297.818	4.19
298.274	4.18
298.731	4.17
299.187	4.16
299.643	4.14
300.099	4.13
300.555	4.12
301.011	4.11
301.467	4.1
301.923	4.1
302.379	4.09
302.835	4.08
303.291	4.06
303.746	4.05
304.202	4.04
304.658	4.03
305.113	4.02
305.569	4.01
306.024	4.01
306.479	4
306.935	3.99
307.39	3.98
307.845	3.98
308.301	3.98
308.756	3.98
309.211	3.97
309.666	3.97
310.121	3.97
310.576	3.97
311.031	3.96
311.486	3.96
311.94	3.96
312.395	3.96
312.85	3.95
313.305	3.94
313.759	3.93
314.214	3.93
314.668	3.92
315.123	3.93
315.577	3.92
316.032	3.91
316.486	3.9
316.94	3.9
317.394	3.88
317.849	3.88
318.303	3.87
318.757	3.87
319.211	3.86
319.665	3.85
320.119	3.84
320.572	3.83
321.026	3.83
321.48	3.83
321.934	3.82
322.387	3.83
322.841	3.82
323.295	3.81
323.748	3.79
324.202	3.78
324.655	3.77
325.108	3.76
325.562	3.75
326.015	3.74
326.468	3.72
326.921	3.7
327.374	3.69
327.827	3.69
328.28	3.68
328.733	3.67
329.186	3.67
329.639	3.67
330.092	3.66
330.545	3.65
330.997	3.65
331.45	3.65
331.903	3.65
332.355	3.64
332.808	3.63
333.26	3.63
333.713	3.64
334.165	3.64
334.617	3.64
335.069	3.63
335.522	3.64
335.974	3.63
336.426	3.63
336.878	3.63
337.33	3.63
337.782	3.64
338.234	3.64
338.686	3.62
339.137	3.62
339.589	3.62
340.041	3.62
340.493	3.6
340.944	3.6
341.396	3.59
341.847	3.58
342.299	3.57
342.75	3.55
343.201	3.54
343.653	3.53
344.104	3.52
344.555	3.52
345.006	3.51
345.457	3.5
345.908	3.5
346.359	3.49
346.81	3.49
347.261	3.48
347.712	3.48
348.163	3.47
348.613	3.46
349.064	3.44
349.515	3.43
349.965	3.43
350.416	3.43
350.866	3.42
351.317	3.4
351.767	3.39
352.217	3.39
352.668	3.38
353.118	3.38
353.568	3.4
354.018	3.41
354.468	3.4
354.918	3.4
355.368	3.41
355.818	3.41
356.268	3.41
356.718	3.41
357.168	3.41
357.617	3.41
358.067	3.4
358.517	3.39
358.966	3.39
359.416	3.4
359.865	3.4
360.315	3.4
360.764	3.4
361.213	3.4
361.663	3.41
362.112	3.42
362.561	3.43
363.01	3.44
363.459	3.43
363.908	3.43
364.357	3.42
364.806	3.42
365.255	3.42
365.703	3.41
366.152	3.41
366.601	3.41
367.05	3.4
367.498	3.39
367.947	3.38
368.395	3.39
368.844	3.39
369.292	3.38
369.74	3.38
370.189	3.37
370.637	3.37
371.085	3.38
371.533	3.38
371.981	3.38
372.429	3.37
372.877	3.36
373.325	3.35
373.773	3.36
374.221	3.36
374.669	3.35
375.116	3.34
375.564	3.34
376.012	3.34
376.459	3.34
376.907	3.34
377.354	3.34
377.801	3.35
378.249	3.36
378.696	3.35
379.143	3.35
379.591	3.36
380.038	3.37
380.485	3.38
380.932	3.37
381.379	3.37
381.826	3.37
382.273	3.37
382.72	3.37
383.166	3.37
383.613	3.38
384.06	3.39
384.506	3.39
384.953	3.37
385.4	3.37
385.846	3.36
386.292	3.37
386.739	3.36
387.185	3.37
387.631	3.38
388.078	3.39
388.524	3.37
388.97	3.36
389.416	3.36
389.862	3.37
390.308	3.36
390.754	3.38
391.2	3.39
391.645	3.4
392.091	3.4
392.537	3.4
392.983	3.4
393.428	3.43
393.874	3.44
394.319	3.45
394.765	3.46
395.21	3.47
395.655	3.48
396.101	3.48
396.546	3.47
396.991	3.48
397.436	3.47
397.881	3.49
398.326	3.5
398.771	3.52
399.216	3.54
399.661	3.55
400.106	3.58
400.551	3.57
400.995	3.59
401.44	3.61
401.885	3.61
402.329	3.63
402.774	3.62
403.218	3.62
403.663	3.61
404.107	3.62
404.551	3.64
404.995	3.63
405.44	3.64
405.884	3.65
406.328	3.65
406.772	3.67
407.216	3.68
407.66	3.7
408.104	3.71
408.547	3.72
408.991	3.73
409.435	3.73
409.879	3.74
410.322	3.77
410.766	3.78
411.209	3.8
411.653	3.81
412.096	3.81
412.54	3.82
412.983	3.84
413.426	3.85
413.869	3.86
414.312	3.87
414.756	3.9
415.199	3.92
415.642	3.94
416.085	3.95
416.527	3.97
416.97	4.01
417.413	4.01
417.856	4.01
418.298	4.02
418.741	4.01
419.184	4.01
419.626	4
420.069	3.99
420.511	3.99
420.953	4
421.396	4
421.838	4
422.28	4.04
422.722	4.05
423.164	4.07
423.606	4.1
424.048	4.11
424.49	4.14
424.932	4.16
425.374	4.16
425.816	4.14
426.258	4.12
426.699	4.09
427.141	4.07
427.582	4.07
428.024	4.05
428.465	4.04
428.907	4.05
429.348	4.04
429.789	4.05
430.231	4.05
430.672	4.06
431.113	4.1
431.554	4.13
431.995	4.15
432.436	4.14
432.877	4.14
433.318	4.15
433.759	4.15
434.2	4.14
434.64	4.15
435.081	4.15
435.522	4.17
435.962	4.17
436.403	4.17
436.843	4.16
437.284	4.16
437.724	4.19
438.164	4.18
438.604	4.19
439.045	4.2
439.485	4.19
439.925	4.18
440.365	4.16
440.805	4.16
441.245	4.14
441.685	4.15
442.125	4.16
442.564	4.17
443.004	4.18
443.444	4.21
443.883	4.22
444.323	4.21
444.762	4.24
445.202	4.28
445.641	4.28
446.081	4.32
446.52	4.31
446.959	4.31
447.398	4.34
447.837	4.36
448.276	4.35
448.716	4.35
449.154	4.37
449.593	4.38
450.032	4.38
450.471	4.39
450.91	4.39
451.349	4.41
451.787	4.4
452.226	4.38
452.664	4.35
453.103	4.34
453.541	4.33
453.98	4.31
454.418	4.29
454.856	4.25
455.295	4.25
455.733	4.24
456.171	4.24
456.609	4.25
457.047	4.23
457.485	4.23
457.923	4.24
458.361	4.23
458.798	4.24
459.236	4.25
459.674	4.26
460.111	4.26
460.549	4.24
460.987	4.25
461.424	4.24
461.862	4.24
462.299	4.25
462.736	4.25
463.173	4.25
463.611	4.24
464.048	4.25
464.485	4.24
464.922	4.22
465.359	4.24
465.796	4.21
466.233	4.21
466.67	4.23
467.106	4.21
467.543	4.21
467.98	4.21
468.416	4.22
468.853	4.21
469.29	4.21
469.726	4.22
470.162	4.2
470.599	4.23
471.035	4.24
471.471	4.22
471.907	4.24
472.344	4.23
472.78	4.24
473.216	4.23
473.652	4.23
474.088	4.23
474.523	4.22
474.959	4.22
475.395	4.2
475.831	4.2
476.266	4.19
476.702	4.18
477.138	4.18
477.573	4.15
478.008	4.15
478.444	4.13
478.879	4.13
479.314	4.14
479.75	4.15
480.185	4.15
480.62	4.15
481.055	4.14
481.49	4.14
481.925	4.14
482.36	4.15
482.795	4.15
483.229	4.16
483.664	4.15
484.099	4.13
484.534	4.11
484.968	4.11
485.403	4.1
485.837	4.09
486.271	4.09
486.706	4.07
487.14	4.07
487.574	4.06
488.009	4.05
488.443	4.05
488.877	4.05
489.311	4.05
489.745	4.05
490.179	4.04
490.613	4.04
491.046	4.05
491.48	4.05
491.914	4.05
492.348	4.05
492.781	4.06
493.215	4.05
493.648	4.06
494.082	4.07
494.515	4.08
494.948	4.09
495.382	4.1
495.815	4.12
496.248	4.14
496.681	4.14
497.114	4.16
497.547	4.17
497.98	4.2
498.413	4.22
498.846	4.22
499.279	4.25
499.711	4.26
500.144	4.28
500.577	4.29
501.009	4.3
501.442	4.34
501.874	4.36
502.306	4.39
502.739	4.4
503.171	4.44
503.603	4.48
504.036	4.51
504.468	4.56
504.9	4.61
505.332	4.65
505.764	4.71
506.196	4.75
506.627	4.8
507.059	4.85
507.491	4.91
507.923	4.96
508.354	5.03
508.786	5.09
509.217	5.14
509.649	5.2
510.08	5.28
510.512	5.34
510.943	5.42
511.374	5.5
511.805	5.58
512.237	5.67
512.668	5.76
513.099	5.85
513.53	5.95
513.961	6.06
514.391	6.14
514.822	6.24
515.253	6.35
515.684	6.46
516.114	6.58
516.545	6.71
516.975	6.83
517.406	6.95
517.836	7.06
518.267	7.17
518.697	7.31
519.127	7.45
519.558	7.58
519.988	7.72
520.418	7.85
520.848	7.97
521.278	8.1
521.708	8.19
522.138	8.3
522.567	8.42
522.997	8.54
523.427	8.66
523.857	8.77
524.286	8.9
524.716	9
525.145	9.12
525.575	9.23
526.004	9.34
526.433	9.48
526.863	9.6
527.292	9.72
527.721	9.82
528.15	9.9
528.579	9.99
529.008	10.07
529.437	10.16
529.866	10.24
530.295	10.32
530.724	10.41
531.152	10.51
531.581	10.57
532.01	10.62
532.438	10.68
532.867	10.76
533.295	10.82
533.723	10.88
534.152	10.93
534.58	10.96
535.008	10.99
535.436	11.01
535.865	11.03
536.293	11.06
536.721	11.1
537.149	11.12
537.576	11.13
538.004	11.16
538.432	11.17
538.86	11.18
539.287	11.22
539.715	11.24
540.143	11.25
540.57	11.27
540.998	11.3
541.425	11.31
541.852	11.34
542.28	11.35
542.707	11.36
543.134	11.37
543.561	11.39
543.988	11.39
544.415	11.41
544.842	11.43
545.269	11.46
545.696	11.46
546.123	11.47
546.549	11.48
546.976	11.51
547.403	11.55
547.829	11.57
548.256	11.6
548.682	11.63
549.108	11.64
549.535	11.65
549.961	11.64
550.387	11.65
550.813	11.65
551.24	11.66
551.666	11.66
552.092	11.63
552.518	11.62
552.943	11.61
553.369	11.59
553.795	11.58
554.221	11.55
554.646	11.53
555.072	11.51
555.498	11.47
555.923	11.44
556.349	11.38
556.774	11.35
557.199	11.31
557.625	11.26
558.05	11.2
558.475	11.15
558.9	11.11
559.325	11.04
559.75	10.97
560.175	10.92
560.6	10.84
561.025	10.78
561.449	10.7
561.874	10.62
562.299	10.54
562.723	10.45
563.148	10.37
563.572	10.28
563.997	10.22
564.421	10.14
564.846	10.06
565.27	9.97
565.694	9.89
566.118	9.8
566.542	9.71
566.966	9.63
567.39	9.53
567.814	9.44
568.238	9.33
568.662	9.24
569.086	9.13
569.509	9.03
569.933	8.94
570.357	8.84
570.78	8.75
571.204	8.66
571.627	8.58
572.05	8.5
572.474	8.43
572.897	8.35
573.32	8.26
573.743	8.19
574.166	8.12
574.589	8.05
575.012	8.01
575.435	7.95
575.858	7.88
576.281	7.83
576.704	7.79
577.126	7.74
577.549	7.71
577.972	7.66
578.394	7.61
578.817	7.57
579.239	7.54
579.661	7.48
580.084	7.43
580.506	7.4
580.928	7.35
581.35	7.3
581.772	7.27
582.194	7.22
582.616	7.19
583.038	7.15
583.46	7.11
583.882	7.08
584.303	7.05
584.725	7.03
585.147	6.99
585.568	6.97
585.99	6.94
586.411	6.91
586.833	6.87
587.254	6.87
587.675	6.86
588.096	6.84
588.518	6.81
588.939	6.8
589.36	6.77
589.781	6.76
590.202	6.74
590.623	6.72
591.043	6.69
591.464	6.67
591.885	6.64
592.305	6.62
592.726	6.61
593.147	6.6
593.567	6.56
593.987	6.56
594.408	6.55
594.828	6.54
595.248	6.53
595.669	6.52
596.089	6.51
596.509	6.5
596.929	6.47
597.349	6.45
597.769	6.43
598.189	6.42
598.608	6.4
599.028	6.36
599.448	6.34
599.867	6.31
600.287	6.29
600.706	6.27
601.126	6.25
601.545	6.22
601.965	6.19
602.384	6.17
602.803	6.14
603.222	6.1
603.641	6.09
604.061	6.05
604.48	6.03
604.898	5.99
605.317	5.96
605.736	5.94
606.155	5.91
606.574	5.89
606.992	5.83
607.411	5.82
607.829	5.75
608.248	5.71
608.666	5.68
609.085	5.65
609.503	5.61
609.921	5.58
610.339	5.55
610.758	5.53
611.176	5.5
611.594	5.48
612.012	5.44
612.43	5.46
612.847	5.44
613.265	5.41
613.683	5.38
614.101	5.36
614.518	5.34
614.936	5.32
615.353	5.28
615.771	5.24
616.188	5.23
616.606	5.2
617.023	5.17
617.44	5.14
617.857	5.12
618.274	5.11
618.691	5.09
619.108	5.07
619.525	5.06
619.942	5.05
620.359	5.05
620.776	5.04
621.192	5.03
621.609	5.01
622.026	5.01
622.442	4.99
622.859	4.98
623.275	4.97
623.691	4.96
624.108	4.95
624.524	4.94
624.94	4.92
625.356	4.92
625.772	4.92
626.188	4.92
626.604	4.9
627.02	4.91
627.436	4.9
627.852	4.9
628.268	4.89
628.683	4.88
629.099	4.88
629.514	4.87
629.93	4.87
630.345	4.85
630.761	4.84
631.176	4.84
631.591	4.83
632.007	4.81
632.422	4.82
632.837	4.81
633.252	4.81
633.667	4.78
634.082	4.77
634.497	4.74
634.911	4.72
635.326	4.69
635.741	4.66
636.155	4.65
636.57	4.62
636.984	4.58
637.399	4.54
637.813	4.5
638.228	4.47
638.642	4.43
639.056	4.39
639.47	4.38
639.884	4.35
640.298	4.32
640.712	4.28
641.126	4.25
641.54	4.23
641.954	4.23
642.368	4.2
642.781	4.17
643.195	4.15
643.609	4.13
644.022	4.1
644.436	4.08
644.849	4.07
645.262	4.05
645.676	4.02
646.089	3.99
646.502	3.96
646.915	3.94
647.328	3.92
647.741	3.89
648.154	3.89
648.567	3.88
648.98	3.86
649.393	3.85
649.805	3.83
650.218	3.83
650.631	3.82
651.043	3.81
651.456	3.81
651.868	3.8
652.28	3.8
652.693	3.77
653.105	3.76
653.517	3.75
653.929	3.75
654.341	3.74
654.753	3.73
655.165	3.73
655.577	3.72
655.989	3.69
656.401	3.67
656.813	3.65
657.224	3.64
657.636	3.63
658.047	3.62
658.459	3.59
658.87	3.58
659.282	3.58
659.693	3.55
660.104	3.54
660.515	3.55
660.926	3.54
661.338	3.54
661.749	3.52
662.159	3.51
662.57	3.51
662.981	3.5
663.392	3.49
663.803	3.47
664.213	3.46
664.624	3.45
665.035	3.43
665.445	3.42
665.855	3.42
666.266	3.42
666.676	3.42
667.086	3.39
667.497	3.38
667.907	3.37
668.317	3.37
668.727	3.37
669.137	3.37
669.547	3.39
669.956	3.39
670.366	3.39
670.776	3.4
671.186	3.4
671.595	3.41
672.005	3.43
672.414	3.43
672.824	3.44
673.233	3.46
673.642	3.45
674.052	3.45
674.461	3.46
674.87	3.47
675.279	3.47
675.688	3.47
676.097	3.49
676.506	3.5
676.915	3.52
677.323	3.54
677.732	3.54
678.141	3.56
678.549	3.58
678.958	3.59
679.366	3.59
679.775	3.62
680.183	3.63
680.592	3.64
681	3.65
681.408	3.66
681.816	3.67
682.224	3.7
682.632	3.73
683.04	3.76
683.448	3.8
683.856	3.83
684.264	3.87
684.671	3.91
685.079	3.95
685.487	4.01
685.894	4.06
686.302	4.12
686.709	4.18
687.116	4.25
687.524	4.31
687.931	4.39
688.338	4.49
688.745	4.59
689.152	4.71
689.559	4.83
689.966	4.95
690.373	5.1
690.78	5.26
691.187	5.44
691.593	5.62
692	5.81
692.407	6.02
692.813	6.25
693.22	6.48
693.626	6.72
694.032	6.98
694.439	7.28
694.845	7.55
695.251	7.82
695.657	8.12
696.063	8.42
696.469	8.74
696.875	9.04
697.281	9.36
697.687	9.7
698.093	10.04
698.498	10.38
698.904	10.74
699.31	11.1
699.715	11.47
700.12	11.84
700.526	12.25
700.931	12.62
701.337	13.01
701.742	13.37
702.147	13.75
702.552	14.12
702.957	14.5
703.362	14.86
703.767	15.25
704.172	15.64
704.577	16.03
704.981	16.4
705.386	16.78
705.791	17.17
706.195	17.57
706.6	17.96
707.004	18.34
707.408	18.71
707.813	19.1
708.217	19.46
708.621	19.82
709.025	20.2
709.43	20.55
709.834	20.93
710.237	21.28
710.641	21.67
711.045	22.02
711.449	22.4
711.853	22.78
712.256	23.15
712.66	23.53
713.064	23.91
713.467	24.28
713.87	24.65
714.274	25.02
714.677	25.37
715.08	25.73
715.484	26.1
715.887	26.45
716.29	26.81
716.693	27.12
717.096	27.47
717.499	27.8
717.901	28.12
718.304	28.47
718.707	28.81
719.109	29.15
719.512	29.5
719.915	29.8
720.317	30.12
720.719	30.42
721.122	30.73
721.524	31.05
721.926	31.35
722.328	31.64
722.731	31.92
723.133	32.18
723.535	32.49
723.937	32.74
724.338	32.99
724.74	33.25
725.142	33.45
725.544	33.69
725.945	33.93
726.347	34.17
726.748	34.38
727.15	34.61
727.551	34.82
727.952	35
728.354	35.22
728.755	35.44
729.156	35.62
729.557	35.87
729.958	36.06
730.359	36.23
730.76	36.4
731.161	36.57
731.562	36.74
731.962	36.91
732.363	37.06
732.763	37.2
733.164	37.33
733.564	37.5
733.965	37.65
734.365	37.77
734.766	37.89
735.166	38
735.566	38.11
735.966	38.19
736.366	38.25
736.766	38.35
737.166	38.43
737.566	38.51
737.966	38.58
738.365	38.66
738.765	38.72
739.165	38.81
739.564	38.9
739.964	38.96
740.363	39.07
740.763	39.17
741.162	39.23
741.561	39.3
741.96	39.38
742.36	39.46
742.759	39.5
743.158	39.57
743.557	39.62
743.955	39.67
744.354	39.76
744.753	39.86
745.152	39.91
745.55	40
745.949	40.05
746.348	40.14
746.746	40.19
747.144	40.27
747.543	40.32
747.941	40.4
748.339	40.48
748.737	40.53
749.136	40.53
749.534	40.6
749.932	40.61
750.33	40.65
750.727	40.66
751.125	40.68
751.523	40.66
751.921	40.7
752.318	40.69
752.716	40.68
753.113	40.66
753.511	40.64
753.908	40.62
754.305	40.63
754.703	40.61
755.1	40.61
755.497	40.63
755.894	40.67
756.291	40.66
756.688	40.69
757.085	40.7
757.482	40.74
757.878	40.76
758.275	40.78
758.672	40.8
759.068	40.84
759.465	40.86
759.861	40.83
760.258	40.79
760.654	40.81
761.05	40.78
761.447	40.76
761.843	40.71
762.239	40.7
762.635	40.68
763.031	40.68
763.427	40.64
763.822	40.61
764.218	40.64
764.614	40.66
765.01	40.64
765.405	40.64
765.801	40.65
766.196	40.64
766.592	40.65
766.987	40.69
767.382	40.66
767.778	40.69
768.173	40.68
768.568	40.67
768.963	40.65
769.358	40.66
769.753	40.7
770.148	40.7
770.542	40.69
770.937	40.69
771.332	40.68
771.726	40.69
772.121	40.65
772.515	40.67
772.91	40.68
773.304	40.68
773.699	40.66
774.093	40.63
774.487	40.65
774.881	40.67
775.275	40.67
775.669	40.68
776.063	40.65
776.457	40.63
776.851	40.6
777.245	40.6
777.638	40.58
778.032	40.6
778.425	40.63
778.819	40.64
779.212	40.66
779.606	40.65
779.999	40.63
780.392	40.67
780.786	40.7
781.179	40.75
781.572	40.74
781.965	40.76
782.358	40.73
782.751	40.74
783.143	40.75
783.536	40.79
783.929	40.82
784.322	40.85
784.714	40.82
785.107	40.86
785.499	40.84
785.891	40.84
786.284	40.85
786.676	40.9
787.068	40.89
787.46	40.87
787.852	40.84
788.245	40.79
788.636	40.81
789.028	40.82
789.42	40.79
