Data from C_3_div_oh_2n_Splice17_01.txt Node
Date: Sat Feb 29 14:38:38 EST 2020
User: sa697716
Spectrometer: FLMS03696
Trigger mode: 0
Integration Time (sec): 3.180400E-1
Scans to average: 20
Electric dark correction enabled: true
Nonlinearity correction enabled: true
Boxcar width: 5
XAxis mode: Wavelengths
Number of Pixels in Spectrum: 2048
>>>>>Begin Spectral Data<<<<<
187.83	73.23
188.298	57.45
188.766	60.49
189.233	57.36
189.701	64.47
190.169	72.23
190.636	80.59
191.104	67.92
191.571	278.12
192.039	312.77
192.506	-132.04
192.974	1619.7
193.441	493.13
193.908	59.27
194.375	54.51
194.842	118.73
195.31	87.55
195.777	45.35
196.244	-15.1
196.711	-12.91
197.177	-18.92
197.644	-19.01
198.111	-19.76
198.578	-19.69
199.045	-20.2
199.511	-19.7
199.978	-19.34
200.445	-19
200.911	-18.36
201.378	-18.15
201.844	-18.16
202.31	-17.46
202.777	-17.3
203.243	-16.41
203.709	-15.5
204.176	-15.32
204.642	-14.97
205.108	-14.92
205.574	-14.31
206.04	-13.96
206.506	-13.9
206.972	-13.8
207.438	-13.9
207.903	-13.13
208.369	-12.86
208.835	-13.15
209.301	-12.5
209.766	-11.7
210.232	-10.92
210.697	-10.7
211.163	-10.06
211.628	-9.59
212.094	-9.03
212.559	-8.53
213.024	-8.39
213.49	-8.03
213.955	-7.39
214.42	-7.09
214.885	-7.09
215.35	-6.44
215.815	-6.06
216.28	-5.4
216.745	-4.28
217.21	-3.23
217.675	-2.2
218.14	-1.55
218.604	-0.97
219.069	-0.27
219.534	0.19
219.998	0.53
220.463	0.86
220.927	1.22
221.392	1.46
221.856	1.6
222.32	1.7
222.785	1.8
223.249	1.96
223.713	2.07
224.177	2.08
224.642	2.15
225.106	2.21
225.57	2.24
226.034	2.29
226.497	2.31
226.961	2.33
227.425	2.33
227.889	2.34
228.353	2.33
228.816	2.35
229.28	2.32
229.744	2.33
230.207	2.37
230.671	2.37
231.134	2.34
231.597	2.34
232.061	2.32
232.524	2.35
232.987	2.35
233.45	2.33
233.914	2.32
234.377	2.36
234.84	2.34
235.303	2.33
235.766	2.32
236.229	2.32
236.691	2.31
237.154	2.29
237.617	2.26
238.08	2.24
238.542	2.22
239.005	2.2
239.468	2.16
239.93	2.14
240.393	2.11
240.855	2.08
241.317	2.07
241.78	2.07
242.242	2.06
242.704	2.04
243.166	2.04
243.629	2.04
244.091	2.04
244.553	2.04
245.015	2.04
245.477	2.05
245.939	2.04
246.4	2.02
246.862	2.02
247.324	2.03
247.786	2.04
248.247	2.03
248.709	2.02
249.17	2.02
249.632	2.01
250.093	1.99
250.555	1.98
251.016	1.99
251.477	1.99
251.939	1.98
252.4	1.97
252.861	1.96
253.322	1.95
253.783	1.95
254.244	1.95
254.705	1.95
255.166	1.97
255.627	1.96
256.088	1.95
256.549	1.95
257.009	1.96
257.47	1.96
257.931	1.96
258.391	1.96
258.852	1.96
259.312	1.96
259.773	1.95
260.233	1.94
260.694	1.94
261.154	1.94
261.614	1.93
262.074	1.94
262.534	1.92
262.994	1.92
263.455	1.92
263.915	1.92
264.374	1.92
264.834	1.92
265.294	1.93
265.754	1.92
266.214	1.92
266.673	1.92
267.133	1.92
267.593	1.92
268.052	1.91
268.512	1.91
268.971	1.91
269.431	1.9
269.89	1.9
270.349	1.89
270.809	1.89
271.268	1.89
271.727	1.89
272.186	1.88
272.645	1.88
273.104	1.88
273.563	1.88
274.022	1.88
274.481	1.88
274.94	1.88
275.399	1.88
275.857	1.88
276.316	1.87
276.775	1.87
277.233	1.86
277.692	1.86
278.15	1.85
278.609	1.84
279.067	1.83
279.525	1.82
279.984	1.82
280.442	1.82
280.9	1.81
281.358	1.8
281.816	1.8
282.274	1.78
282.732	1.78
283.19	1.78
283.648	1.78
284.106	1.77
284.564	1.77
285.021	1.76
285.479	1.76
285.937	1.75
286.394	1.75
286.852	1.75
287.309	1.75
287.767	1.75
288.224	1.75
288.682	1.75
289.139	1.75
289.596	1.75
290.053	1.75
290.511	1.75
290.968	1.76
291.425	1.76
291.882	1.77
292.339	1.77
292.796	1.76
293.252	1.76
293.709	1.76
294.166	1.76
294.623	1.76
295.079	1.76
295.536	1.76
295.992	1.75
296.449	1.75
296.905	1.74
297.362	1.74
297.818	1.73
298.274	1.73
298.731	1.72
299.187	1.72
299.643	1.72
300.099	1.72
300.555	1.71
301.011	1.7
301.467	1.69
301.923	1.7
302.379	1.69
302.835	1.69
303.291	1.69
303.746	1.68
304.202	1.67
304.658	1.66
305.113	1.65
305.569	1.65
306.024	1.64
306.479	1.63
306.935	1.62
307.39	1.62
307.845	1.61
308.301	1.61
308.756	1.61
309.211	1.61
309.666	1.61
310.121	1.6
310.576	1.6
311.031	1.59
311.486	1.59
311.94	1.58
312.395	1.57
312.85	1.57
313.305	1.56
313.759	1.55
314.214	1.55
314.668	1.55
315.123	1.55
315.577	1.54
316.032	1.54
316.486	1.53
316.94	1.54
317.394	1.53
317.849	1.53
318.303	1.53
318.757	1.53
319.211	1.53
319.665	1.53
320.119	1.53
320.572	1.54
321.026	1.54
321.48	1.54
321.934	1.54
322.387	1.53
322.841	1.53
323.295	1.52
323.748	1.52
324.202	1.51
324.655	1.51
325.108	1.49
325.562	1.48
326.015	1.48
326.468	1.48
326.921	1.47
327.374	1.47
327.827	1.46
328.28	1.46
328.733	1.46
329.186	1.46
329.639	1.45
330.092	1.46
330.545	1.45
330.997	1.45
331.45	1.44
331.903	1.44
332.355	1.44
332.808	1.44
333.26	1.43
333.713	1.44
334.165	1.44
334.617	1.43
335.069	1.42
335.522	1.42
335.974	1.42
336.426	1.42
336.878	1.41
337.33	1.41
337.782	1.41
338.234	1.41
338.686	1.4
339.137	1.4
339.589	1.4
340.041	1.41
340.493	1.41
340.944	1.4
341.396	1.41
341.847	1.41
342.299	1.41
342.75	1.4
343.201	1.39
343.653	1.4
344.104	1.4
344.555	1.41
345.006	1.41
345.457	1.41
345.908	1.41
346.359	1.42
346.81	1.43
347.261	1.42
347.712	1.43
348.163	1.43
348.613	1.43
349.064	1.42
349.515	1.42
349.965	1.41
350.416	1.4
350.866	1.4
351.317	1.39
351.767	1.38
352.217	1.38
352.668	1.38
353.118	1.39
353.568	1.39
354.018	1.39
354.468	1.39
354.918	1.39
355.368	1.4
355.818	1.4
356.268	1.4
356.718	1.39
357.168	1.39
357.617	1.38
358.067	1.38
358.517	1.38
358.966	1.38
359.416	1.39
359.865	1.38
360.315	1.38
360.764	1.38
361.213	1.37
361.663	1.37
362.112	1.38
362.561	1.38
363.01	1.38
363.459	1.37
363.908	1.37
364.357	1.37
364.806	1.37
365.255	1.38
365.703	1.38
366.152	1.38
366.601	1.38
367.05	1.37
367.498	1.38
367.947	1.37
368.395	1.38
368.844	1.38
369.292	1.38
369.74	1.39
370.189	1.37
370.637	1.38
371.085	1.4
371.533	1.4
371.981	1.42
372.429	1.41
372.877	1.41
373.325	1.41
373.773	1.41
374.221	1.41
374.669	1.4
375.116	1.41
375.564	1.4
376.012	1.4
376.459	1.4
376.907	1.39
377.354	1.4
377.801	1.4
378.249	1.41
378.696	1.42
379.143	1.42
379.591	1.43
380.038	1.44
380.485	1.45
380.932	1.46
381.379	1.45
381.826	1.46
382.273	1.46
382.72	1.46
383.166	1.47
383.613	1.47
384.06	1.48
384.506	1.48
384.953	1.48
385.4	1.49
385.846	1.48
386.292	1.49
386.739	1.49
387.185	1.52
387.631	1.53
388.078	1.55
388.524	1.55
388.97	1.56
389.416	1.57
389.862	1.58
390.308	1.6
390.754	1.63
391.2	1.66
391.645	1.69
392.091	1.69
392.537	1.7
392.983	1.72
393.428	1.77
393.874	1.81
394.319	1.87
394.765	1.93
395.21	1.98
395.655	2.04
396.101	2.1
396.546	2.16
396.991	2.25
397.436	2.32
397.881	2.4
398.326	2.47
398.771	2.55
399.216	2.63
399.661	2.7
400.106	2.77
400.551	2.82
400.995	2.86
401.44	2.9
401.885	2.94
402.329	2.99
402.774	3.02
403.218	3.06
403.663	3.09
404.107	3.14
404.551	3.19
404.995	3.22
405.44	3.27
405.884	3.31
406.328	3.37
406.772	3.42
407.216	3.49
407.66	3.56
408.104	3.61
408.547	3.68
408.991	3.71
409.435	3.75
409.879	3.79
410.322	3.85
410.766	3.91
411.209	3.96
411.653	4.01
412.096	4.04
412.54	4.07
412.983	4.11
413.426	4.14
413.869	4.18
414.312	4.23
414.756	4.28
415.199	4.31
415.642	4.37
416.085	4.39
416.527	4.41
416.97	4.43
417.413	4.43
417.856	4.42
418.298	4.41
418.741	4.41
419.184	4.39
419.626	4.39
420.069	4.41
420.511	4.39
420.953	4.4
421.396	4.41
421.838	4.44
422.28	4.48
422.722	4.52
423.164	4.54
423.606	4.56
424.048	4.59
424.49	4.59
424.932	4.56
425.374	4.52
425.816	4.46
426.258	4.38
426.699	4.31
427.141	4.25
427.582	4.27
428.024	4.31
428.465	4.35
428.907	4.4
429.348	4.44
429.789	4.49
430.231	4.58
430.672	4.71
431.113	4.85
431.554	5.01
431.995	5.14
432.436	5.21
432.877	5.25
433.318	5.27
433.759	5.29
434.2	5.34
434.64	5.41
435.081	5.47
435.522	5.54
435.962	5.59
436.403	5.62
436.843	5.66
437.284	5.7
437.724	5.77
438.164	5.83
438.604	5.91
439.045	5.98
439.485	6.02
439.925	6.06
440.365	6.07
440.805	6.1
441.245	6.1
441.685	6.12
442.125	6.14
442.564	6.15
443.004	6.2
443.444	6.23
443.883	6.29
444.323	6.34
444.762	6.4
445.202	6.48
445.641	6.54
446.081	6.65
446.52	6.72
446.959	6.79
447.398	6.88
447.837	6.92
448.276	6.92
448.716	6.92
449.154	6.94
449.593	6.94
450.032	6.94
450.471	6.94
450.91	6.91
451.349	6.87
451.787	6.84
452.226	6.81
452.664	6.78
453.103	6.78
453.541	6.79
453.98	6.76
454.418	6.73
454.856	6.66
455.295	6.63
455.733	6.61
456.171	6.6
456.609	6.58
457.047	6.56
457.485	6.54
457.923	6.54
458.361	6.52
458.798	6.54
459.236	6.55
459.674	6.58
460.111	6.6
460.549	6.59
460.987	6.61
461.424	6.62
461.862	6.63
462.299	6.65
462.736	6.67
463.173	6.69
463.611	6.69
464.048	6.73
464.485	6.77
464.922	6.82
465.359	6.88
465.796	6.89
466.233	6.94
466.67	6.99
467.106	7.04
467.543	7.11
467.98	7.18
468.416	7.27
468.853	7.32
469.29	7.39
469.726	7.44
470.162	7.49
470.599	7.57
471.035	7.63
471.471	7.65
471.907	7.68
472.344	7.7
472.78	7.7
473.216	7.71
473.652	7.72
474.088	7.75
474.523	7.75
474.959	7.76
475.395	7.75
475.831	7.77
476.266	7.78
476.702	7.79
477.138	7.78
477.573	7.77
478.008	7.75
478.444	7.73
478.879	7.69
479.314	7.65
479.75	7.6
480.185	7.55
480.62	7.48
481.055	7.38
481.49	7.24
481.925	7.09
482.36	6.96
482.795	6.84
483.229	6.74
483.664	6.66
484.099	6.59
484.534	6.53
484.968	6.48
485.403	6.45
485.837	6.47
486.271	6.51
486.706	6.56
487.14	6.59
487.574	6.6
488.009	6.61
488.443	6.6
488.877	6.59
489.311	6.6
489.745	6.6
490.179	6.61
490.613	6.6
491.046	6.6
491.48	6.6
491.914	6.62
492.348	6.64
492.781	6.67
493.215	6.68
493.648	6.7
494.082	6.7
494.515	6.7
494.948	6.69
495.382	6.69
495.815	6.69
496.248	6.67
496.681	6.66
497.114	6.65
497.547	6.63
497.98	6.62
498.413	6.62
498.846	6.64
499.279	6.65
499.711	6.65
500.144	6.66
500.577	6.68
501.009	6.72
501.442	6.77
501.874	6.82
502.306	6.88
502.739	6.92
503.171	6.96
503.603	7.01
504.036	7.05
504.468	7.1
504.9	7.16
505.332	7.2
505.764	7.24
506.196	7.27
506.627	7.31
507.059	7.35
507.491	7.41
507.923	7.46
508.354	7.51
508.786	7.55
509.217	7.57
509.649	7.6
510.08	7.63
510.512	7.67
510.943	7.73
511.374	7.75
511.805	7.75
512.237	7.73
512.668	7.7
513.099	7.68
513.53	7.66
513.961	7.67
514.391	7.67
514.822	7.68
515.253	7.71
515.684	7.73
516.114	7.77
516.545	7.83
516.975	7.92
517.406	8.02
517.836	8.12
518.267	8.21
518.697	8.3
519.127	8.4
519.558	8.49
519.988	8.55
520.418	8.62
520.848	8.69
521.278	8.75
521.708	8.73
522.138	8.73
522.567	8.73
522.997	8.74
523.427	8.76
523.857	8.78
524.286	8.8
524.716	8.83
525.145	8.86
525.575	8.87
526.004	8.9
526.433	8.99
526.863	9.07
527.292	9.14
527.721	9.18
528.15	9.2
528.579	9.21
529.008	9.2
529.437	9.18
529.866	9.17
530.295	9.17
530.724	9.17
531.152	9.18
531.581	9.16
532.01	9.15
532.438	9.15
532.867	9.15
533.295	9.15
533.723	9.17
534.152	9.18
534.58	9.17
535.008	9.15
535.436	9.11
535.865	9.05
536.293	9.03
536.721	9
537.149	8.97
537.576	8.97
538.004	8.96
538.432	8.94
538.86	8.94
539.287	8.94
539.715	8.96
540.143	8.98
540.57	9.02
540.998	9.05
541.425	9.08
541.852	9.11
542.28	9.13
542.707	9.15
543.134	9.16
543.561	9.16
543.988	9.19
544.415	9.2
544.842	9.23
545.269	9.25
545.696	9.27
546.123	9.28
546.549	9.29
546.976	9.3
547.403	9.32
547.829	9.34
548.256	9.36
548.682	9.36
549.108	9.37
549.535	9.37
549.961	9.36
550.387	9.35
550.813	9.37
551.24	9.37
551.666	9.38
552.092	9.37
552.518	9.35
552.943	9.34
553.369	9.33
553.795	9.3
554.221	9.27
554.646	9.23
555.072	9.19
555.498	9.16
555.923	9.13
556.349	9.07
556.774	9.06
557.199	9.04
557.625	9.03
558.05	8.99
558.475	8.98
558.9	8.96
559.325	8.95
559.75	8.93
560.175	8.9
560.6	8.88
561.025	8.85
561.449	8.8
561.874	8.75
562.299	8.69
562.723	8.66
563.148	8.61
563.572	8.57
563.997	8.51
564.421	8.47
564.846	8.42
565.27	8.36
565.694	8.31
566.118	8.27
566.542	8.23
566.966	8.18
567.39	8.13
567.814	8.09
568.238	8.04
568.662	8.01
569.086	7.98
569.509	7.96
569.933	7.93
570.357	7.9
570.78	7.87
571.204	7.85
571.627	7.83
572.05	7.8
572.474	7.78
572.897	7.75
573.32	7.72
573.743	7.68
574.166	7.62
574.589	7.59
575.012	7.57
575.435	7.54
575.858	7.53
576.281	7.52
576.704	7.52
577.126	7.52
577.549	7.53
577.972	7.53
578.394	7.53
578.817	7.55
579.239	7.55
579.661	7.57
580.084	7.58
580.506	7.57
580.928	7.57
581.35	7.56
581.772	7.54
582.194	7.52
582.616	7.52
583.038	7.52
583.46	7.51
583.882	7.48
584.303	7.44
584.725	7.39
585.147	7.31
585.568	7.24
585.99	7.21
586.411	7.18
586.833	7.14
587.254	7.12
587.675	7.09
588.096	7.07
588.518	7.06
588.939	7.07
589.36	7.08
589.781	7.13
590.202	7.16
590.623	7.15
591.043	7.15
591.464	7.16
591.885	7.15
592.305	7.16
592.726	7.14
593.147	7.14
593.567	7.12
593.987	7.12
594.408	7.11
594.828	7.09
595.248	7.09
595.669	7.1
596.089	7.07
596.509	7.04
596.929	7.01
597.349	6.98
597.769	6.95
598.189	6.93
598.608	6.91
599.028	6.9
599.448	6.91
599.867	6.89
600.287	6.87
600.706	6.87
601.126	6.86
601.545	6.85
601.965	6.85
602.384	6.84
602.803	6.82
603.222	6.8
603.641	6.77
604.061	6.74
604.48	6.73
604.898	6.71
605.317	6.68
605.736	6.65
606.155	6.63
606.574	6.6
606.992	6.57
607.411	6.56
607.829	6.5
608.248	6.48
608.666	6.45
609.085	6.42
609.503	6.37
609.921	6.34
610.339	6.33
610.758	6.3
611.176	6.29
611.594	6.25
612.012	6.21
612.43	6.21
612.847	6.18
613.265	6.16
613.683	6.13
614.101	6.12
614.518	6.11
614.936	6.08
615.353	6.06
615.771	6.05
616.188	6.05
616.606	6.05
617.023	6.04
617.44	6.03
617.857	6.02
618.274	6
618.691	5.99
619.108	5.96
619.525	5.94
619.942	5.91
620.359	5.88
620.776	5.84
621.192	5.82
621.609	5.81
622.026	5.78
622.442	5.75
622.859	5.73
623.275	5.71
623.691	5.69
624.108	5.67
624.524	5.66
624.94	5.63
625.356	5.61
625.772	5.6
626.188	5.58
626.604	5.54
627.02	5.53
627.436	5.52
627.852	5.51
628.268	5.51
628.683	5.5
629.099	5.5
629.514	5.49
629.93	5.5
630.345	5.48
630.761	5.46
631.176	5.47
631.591	5.47
632.007	5.46
632.422	5.45
632.837	5.45
633.252	5.45
633.667	5.43
634.082	5.43
634.497	5.41
634.911	5.4
635.326	5.39
635.741	5.38
636.155	5.37
636.57	5.35
636.984	5.32
637.399	5.29
637.813	5.25
638.228	5.23
638.642	5.21
639.056	5.19
639.47	5.18
639.884	5.16
640.298	5.13
640.712	5.1
641.126	5.08
641.54	5.07
641.954	5.07
642.368	5.07
642.781	5.05
643.195	5.01
643.609	4.99
644.022	4.97
644.436	4.95
644.849	4.93
645.262	4.92
645.676	4.89
646.089	4.86
646.502	4.82
646.915	4.81
647.328	4.79
647.741	4.77
648.154	4.75
648.567	4.75
648.98	4.75
649.393	4.74
649.805	4.72
650.218	4.73
650.631	4.72
651.043	4.71
651.456	4.67
651.868	4.61
652.28	4.58
652.693	4.53
653.105	4.48
653.517	4.43
653.929	4.42
654.341	4.41
654.753	4.38
655.165	4.36
655.577	4.34
655.989	4.34
656.401	4.37
656.813	4.38
657.224	4.4
657.636	4.41
658.047	4.41
658.459	4.39
658.87	4.38
659.282	4.38
659.693	4.36
660.104	4.35
660.515	4.34
660.926	4.32
661.338	4.31
661.749	4.28
662.159	4.26
662.57	4.24
662.981	4.23
663.392	4.2
663.803	4.17
664.213	4.16
664.624	4.15
665.035	4.12
665.445	4.12
665.855	4.11
666.266	4.09
666.676	4.07
667.086	4.05
667.497	4.03
667.907	4.01
668.317	3.99
668.727	3.96
669.137	3.94
669.547	3.95
669.956	3.92
670.366	3.89
670.776	3.87
671.186	3.86
671.595	3.86
672.005	3.86
672.414	3.86
672.824	3.86
673.233	3.87
673.642	3.85
674.052	3.84
674.461	3.82
674.87	3.83
675.279	3.82
675.688	3.81
676.097	3.8
676.506	3.78
676.915	3.77
677.323	3.77
677.732	3.77
678.141	3.78
678.549	3.78
678.958	3.79
679.366	3.79
679.775	3.8
680.183	3.81
680.592	3.82
681	3.83
681.408	3.85
681.816	3.85
682.224	3.84
682.632	3.82
683.04	3.77
683.448	3.74
683.856	3.72
684.264	3.69
684.671	3.67
685.079	3.65
685.487	3.65
685.894	3.64
686.302	3.64
686.709	3.66
687.116	3.72
687.524	3.79
687.931	3.87
688.338	3.93
688.745	4.02
689.152	4.1
689.559	4.18
689.966	4.24
690.373	4.32
690.78	4.39
691.187	4.47
691.593	4.53
692	4.58
692.407	4.65
692.813	4.72
693.22	4.77
693.626	4.82
694.032	4.88
694.439	4.95
694.845	4.99
695.251	5.04
695.657	5.08
696.063	5.11
696.469	5.15
696.875	5.18
697.281	5.22
697.687	5.25
698.093	5.26
698.498	5.29
698.904	5.31
699.31	5.34
699.715	5.37
700.12	5.41
700.526	5.47
700.931	5.48
701.337	5.52
701.742	5.54
702.147	5.56
702.552	5.62
702.957	5.65
703.362	5.68
703.767	5.7
704.172	5.72
704.577	5.74
704.981	5.76
705.386	5.79
705.791	5.81
706.195	5.83
706.6	5.86
707.004	5.86
707.408	5.88
707.813	5.89
708.217	5.92
708.621	5.95
709.025	5.95
709.43	5.96
709.834	5.99
710.237	6
710.641	6
711.045	6.01
711.449	6
711.853	5.98
712.256	5.98
712.66	5.96
713.064	5.94
713.467	5.91
713.87	5.88
714.274	5.83
714.677	5.8
715.08	5.74
715.484	5.7
715.887	5.66
716.29	5.64
716.693	5.62
717.096	5.62
717.499	5.63
717.901	5.66
718.304	5.69
718.707	5.73
719.109	5.77
719.512	5.81
719.915	5.83
720.317	5.87
720.719	5.89
721.122	5.91
721.524	5.92
721.926	5.91
722.328	5.9
722.731	5.88
723.133	5.88
723.535	5.89
723.937	5.89
724.338	5.9
724.74	5.89
725.142	5.84
725.544	5.82
725.945	5.81
726.347	5.82
726.748	5.82
727.15	5.83
727.551	5.81
727.952	5.83
728.354	5.85
728.755	5.87
729.156	5.9
729.557	5.99
729.958	6.03
730.359	6.07
730.76	6.08
731.161	6.11
731.562	6.12
731.962	6.15
732.363	6.14
732.763	6.16
733.164	6.16
733.564	6.17
733.965	6.17
734.365	6.18
734.766	6.15
735.166	6.16
735.566	6.16
735.966	6.15
736.366	6.14
736.766	6.14
737.166	6.12
737.566	6.12
737.966	6.1
738.365	6.08
738.765	6.06
739.165	6.07
739.564	6.06
739.964	6.03
740.363	6.04
740.763	6.04
741.162	6.04
741.561	6.05
741.96	6.04
742.36	6.05
742.759	6.05
743.158	6.05
743.557	6.05
743.955	6.07
744.354	6.08
744.753	6.07
745.152	6.07
745.55	6.06
745.949	6.07
746.348	6.08
746.746	6.06
747.144	6.06
747.543	6.07
747.941	6.07
748.339	6.06
748.737	6.05
749.136	6.04
749.534	6.03
749.932	6.02
750.33	6.01
750.727	6
751.125	6
751.523	5.98
751.921	5.97
752.318	5.96
752.716	5.95
753.113	5.95
753.511	5.96
753.908	5.94
754.305	5.91
754.703	5.88
755.1	5.79
755.497	5.67
755.894	5.52
756.291	5.32
756.688	5.12
757.085	4.9
757.482	4.71
757.878	4.55
758.275	4.38
758.672	4.22
759.068	4.07
759.465	3.98
759.861	3.92
760.258	3.9
760.654	3.93
761.05	4.01
761.447	4.1
761.843	4.17
762.239	4.23
762.635	4.32
763.031	4.43
763.427	4.54
763.822	4.67
764.218	4.81
764.614	4.93
765.01	5.04
765.405	5.13
765.801	5.22
766.196	5.29
766.592	5.37
766.987	5.43
767.382	5.48
767.778	5.52
768.173	5.52
768.568	5.53
768.963	5.56
769.358	5.58
769.753	5.59
770.148	5.59
770.542	5.59
770.937	5.59
771.332	5.58
771.726	5.57
772.121	5.55
772.515	5.56
772.91	5.54
773.304	5.53
773.699	5.52
774.093	5.49
774.487	5.48
774.881	5.49
775.275	5.5
775.669	5.5
776.063	5.49
776.457	5.48
776.851	5.47
777.245	5.46
777.638	5.43
778.032	5.43
778.425	5.42
778.819	5.41
779.212	5.38
779.606	5.35
779.999	5.35
780.392	5.34
780.786	5.32
781.179	5.31
781.572	5.3
781.965	5.31
782.358	5.28
782.751	5.27
783.143	5.27
783.536	5.26
783.929	5.25
784.322	5.25
784.714	5.22
785.107	5.21
785.499	5.2
785.891	5.17
786.284	5.16
786.676	5.16
787.068	5.14
787.46	5.1
787.852	5.09
788.245	5.04
788.636	5.01
789.028	4.99
789.42	4.98
789.812	4.96
790.204	4.96
790.595	4.95
790.987	4.91
791.378	4.91
791.77	4.93
792.161	4.93
792.553	4.93
792.944	4.94
793.335	4.95
793.726	4.93
794.117	4.91
794.508	4.93
794.899	4.92
795.29	4.91
795.681	4.88
796.072	4.86
796.463	4.82
796.853	4.81
797.244	4.78
