Data from c_3_dec_va_2n_Splice17_09.txt Node
Date: Sat Feb 29 15:01:24 EST 2020
User: sa697716
Spectrometer: FLMS03696
Trigger mode: 0
Integration Time (sec): 3.180400E-1
Scans to average: 20
Electric dark correction enabled: true
Nonlinearity correction enabled: true
Boxcar width: 5
XAxis mode: Wavelengths
Number of Pixels in Spectrum: 2048
>>>>>Begin Spectral Data<<<<<
187.83	137.18
188.298	142.3
188.766	135.36
189.233	136.64
189.701	139.62
190.169	132.14
190.636	137.54
191.104	128.47
191.571	252.94
192.039	299.13
192.506	-90.3
192.974	7347.34
193.441	-474.15
193.908	134.55
194.375	190.81
194.842	282.29
195.31	168.16
195.777	136.66
196.244	68.67
196.711	64.38
197.177	63.07
197.644	62.34
198.111	61.23
198.578	61.27
199.045	62.1
199.511	62.3
199.978	62.1
200.445	61.71
200.911	61.97
201.378	62.16
201.844	62.26
202.31	62.72
202.777	62.44
203.243	63.09
203.709	63.29
204.176	62.7
204.642	62.45
205.108	62.71
205.574	62.68
206.04	62.67
206.506	62.03
206.972	61.7
207.438	60.99
207.903	60.79
208.369	59.51
208.835	59.15
209.301	58.48
209.766	57.62
210.232	56.53
210.697	55.66
211.163	54.62
211.628	53.71
212.094	52.75
212.559	51.8
213.024	51
213.49	50.09
213.955	48.92
214.42	48.02
214.885	46.79
215.35	45.14
215.815	43.14
216.28	41.2
216.745	38.82
217.21	36.19
217.675	33.91
218.14	31.56
218.604	29.5
219.069	27.78
219.534	26.24
219.998	25.06
220.463	24.04
220.927	23.16
221.392	22.31
221.856	21.66
222.32	21.13
222.785	20.58
223.249	20.17
223.713	19.85
224.177	19.47
224.642	19.15
225.106	18.76
225.57	18.41
226.034	18.13
226.497	17.81
226.961	17.49
227.425	17.17
227.889	16.9
228.353	16.61
228.816	16.31
229.28	16.02
229.744	15.76
230.207	15.54
230.671	15.32
231.134	15.08
231.597	14.87
232.061	14.67
232.524	14.5
232.987	14.3
233.45	14.09
233.914	13.9
234.377	13.76
234.84	13.6
235.303	13.44
235.766	13.28
236.229	13.13
236.691	13
237.154	12.88
237.617	12.73
238.08	12.61
238.542	12.5
239.005	12.39
239.468	12.25
239.93	12.15
240.393	12.03
240.855	11.92
241.317	11.81
241.78	11.71
242.242	11.6
242.704	11.51
243.166	11.4
243.629	11.31
244.091	11.21
244.553	11.12
245.015	11.03
245.477	10.94
245.939	10.85
246.4	10.76
246.862	10.68
247.324	10.58
247.786	10.5
248.247	10.42
248.709	10.33
249.17	10.24
249.632	10.16
250.093	10.06
250.555	9.98
251.016	9.93
251.477	9.86
251.939	9.78
252.4	9.71
252.861	9.64
253.322	9.58
253.783	9.53
254.244	9.48
254.705	9.42
255.166	9.39
255.627	9.33
256.088	9.27
256.549	9.22
257.009	9.17
257.47	9.13
257.931	9.07
258.391	9.01
258.852	8.95
259.312	8.9
259.773	8.85
260.233	8.78
260.694	8.73
261.154	8.68
261.614	8.63
262.074	8.59
262.534	8.54
262.994	8.5
263.455	8.46
263.915	8.41
264.374	8.37
264.834	8.33
265.294	8.3
265.754	8.26
266.214	8.23
266.673	8.2
267.133	8.17
267.593	8.14
268.052	8.11
268.512	8.08
268.971	8.05
269.431	8.03
269.89	8.01
270.349	7.99
270.809	7.97
271.268	7.96
271.727	7.94
272.186	7.91
272.645	7.89
273.104	7.87
273.563	7.86
274.022	7.85
274.481	7.83
274.94	7.8
275.399	7.79
275.857	7.77
276.316	7.74
276.775	7.71
277.233	7.69
277.692	7.67
278.15	7.65
278.609	7.62
279.067	7.59
279.525	7.56
279.984	7.54
280.442	7.52
280.9	7.5
281.358	7.49
281.816	7.47
282.274	7.47
282.732	7.45
283.19	7.44
283.648	7.43
284.106	7.42
284.564	7.42
285.021	7.42
285.479	7.41
285.937	7.4
286.394	7.4
286.852	7.4
287.309	7.39
287.767	7.39
288.224	7.38
288.682	7.38
289.139	7.37
289.596	7.33
290.053	7.3
290.511	7.28
290.968	7.27
291.425	7.24
291.882	7.21
292.339	7.18
292.796	7.16
293.252	7.13
293.709	7.1
294.166	7.07
294.623	7.06
295.079	7.05
295.536	7.04
295.992	7.01
296.449	7
296.905	6.99
297.362	6.97
297.818	6.96
298.274	6.94
298.731	6.93
299.187	6.93
299.643	6.93
300.099	6.92
300.555	6.89
301.011	6.88
301.467	6.86
301.923	6.85
302.379	6.84
302.835	6.83
303.291	6.82
303.746	6.82
304.202	6.8
304.658	6.78
305.113	6.77
305.569	6.78
306.024	6.77
306.479	6.76
306.935	6.75
307.39	6.75
307.845	6.74
308.301	6.74
308.756	6.75
309.211	6.74
309.666	6.75
310.121	6.74
310.576	6.74
311.031	6.75
311.486	6.76
311.94	6.77
312.395	6.77
312.85	6.77
313.305	6.78
313.759	6.77
314.214	6.77
314.668	6.77
315.123	6.77
315.577	6.77
316.032	6.77
316.486	6.75
316.94	6.74
317.394	6.73
317.849	6.72
318.303	6.71
318.757	6.7
319.211	6.68
319.665	6.67
320.119	6.66
320.572	6.65
321.026	6.64
321.48	6.64
321.934	6.63
322.387	6.62
322.841	6.6
323.295	6.59
323.748	6.58
324.202	6.57
324.655	6.55
325.108	6.53
325.562	6.51
326.015	6.5
326.468	6.49
326.921	6.48
327.374	6.47
327.827	6.46
328.28	6.45
328.733	6.44
329.186	6.44
329.639	6.43
330.092	6.43
330.545	6.44
330.997	6.44
331.45	6.44
331.903	6.43
332.355	6.42
332.808	6.43
333.26	6.43
333.713	6.44
334.165	6.43
334.617	6.46
335.069	6.47
335.522	6.48
335.974	6.48
336.426	6.48
336.878	6.49
337.33	6.5
337.782	6.52
338.234	6.53
338.686	6.53
339.137	6.53
339.589	6.51
340.041	6.5
340.493	6.49
340.944	6.48
341.396	6.47
341.847	6.44
342.299	6.41
342.75	6.37
343.201	6.34
343.653	6.32
344.104	6.3
344.555	6.29
345.006	6.27
345.457	6.25
345.908	6.24
346.359	6.23
346.81	6.22
347.261	6.21
347.712	6.21
348.163	6.21
348.613	6.2
349.064	6.18
349.515	6.16
349.965	6.17
350.416	6.16
350.866	6.15
351.317	6.15
351.767	6.14
352.217	6.14
352.668	6.13
353.118	6.14
353.568	6.14
354.018	6.15
354.468	6.16
354.918	6.16
355.368	6.15
355.818	6.15
356.268	6.15
356.718	6.15
357.168	6.14
357.617	6.14
358.067	6.14
358.517	6.14
358.966	6.14
359.416	6.15
359.865	6.15
360.315	6.16
360.764	6.18
361.213	6.17
361.663	6.18
362.112	6.19
362.561	6.2
363.01	6.2
363.459	6.2
363.908	6.2
364.357	6.2
364.806	6.2
365.255	6.2
365.703	6.19
366.152	6.21
366.601	6.2
367.05	6.22
367.498	6.23
367.947	6.24
368.395	6.27
368.844	6.27
369.292	6.28
369.74	6.29
370.189	6.31
370.637	6.35
371.085	6.37
371.533	6.41
371.981	6.44
372.429	6.46
372.877	6.5
373.325	6.53
373.773	6.57
374.221	6.63
374.669	6.69
375.116	6.73
375.564	6.78
376.012	6.84
376.459	6.91
376.907	6.98
377.354	7.06
377.801	7.15
378.249	7.23
378.696	7.33
379.143	7.43
379.591	7.53
380.038	7.65
380.485	7.77
380.932	7.88
381.379	7.98
381.826	8.11
382.273	8.23
382.72	8.35
383.166	8.47
383.613	8.6
384.06	8.72
384.506	8.84
384.953	8.95
385.4	9.07
385.846	9.19
386.292	9.33
386.739	9.44
387.185	9.56
387.631	9.68
388.078	9.81
388.524	9.91
388.97	10.01
389.416	10.12
389.862	10.23
390.308	10.33
390.754	10.44
391.2	10.55
391.645	10.66
392.091	10.76
392.537	10.87
392.983	10.99
393.428	11.12
393.874	11.25
394.319	11.35
394.765	11.44
395.21	11.51
395.655	11.59
396.101	11.66
396.546	11.74
396.991	11.81
397.436	11.85
397.881	11.9
398.326	11.95
398.771	12.03
399.216	12.12
399.661	12.21
400.106	12.28
400.551	12.33
400.995	12.35
401.44	12.37
401.885	12.39
402.329	12.43
402.774	12.45
403.218	12.49
403.663	12.49
404.107	12.51
404.551	12.52
404.995	12.54
405.44	12.55
405.884	12.58
406.328	12.6
406.772	12.64
407.216	12.67
407.66	12.7
408.104	12.71
408.547	12.71
408.991	12.71
409.435	12.7
409.879	12.72
410.322	12.73
410.766	12.77
411.209	12.78
411.653	12.78
412.096	12.77
412.54	12.76
412.983	12.76
413.426	12.77
413.869	12.8
414.312	12.85
414.756	12.89
415.199	12.91
415.642	12.92
416.085	12.95
416.527	12.98
416.97	13
417.413	13
417.856	12.99
418.298	12.97
418.741	12.95
419.184	12.92
419.626	12.88
420.069	12.85
420.511	12.83
420.953	12.8
421.396	12.78
421.838	12.78
422.28	12.81
422.722	12.82
423.164	12.84
423.606	12.84
424.048	12.82
424.49	12.83
424.932	12.86
425.374	12.85
425.816	12.83
426.258	12.8
426.699	12.73
427.141	12.66
427.582	12.63
428.024	12.6
428.465	12.61
428.907	12.65
429.348	12.66
429.789	12.64
430.231	12.64
430.672	12.66
431.113	12.7
431.554	12.77
431.995	12.83
432.436	12.87
432.877	12.91
433.318	12.93
433.759	12.94
434.2	12.95
434.64	13.01
435.081	13.03
435.522	13.07
435.962	13.12
436.403	13.18
436.843	13.25
437.284	13.29
437.724	13.32
438.164	13.36
438.604	13.4
439.045	13.43
439.485	13.47
439.925	13.52
440.365	13.55
440.805	13.59
441.245	13.61
441.685	13.64
442.125	13.69
442.564	13.75
443.004	13.8
443.444	13.86
443.883	13.91
444.323	13.97
444.762	14.05
445.202	14.14
445.641	14.2
446.081	14.29
446.52	14.33
446.959	14.39
447.398	14.5
447.837	14.58
448.276	14.6
448.716	14.67
449.154	14.75
449.593	14.81
450.032	14.87
450.471	14.94
450.91	14.98
451.349	15.08
451.787	15.12
452.226	15.12
452.664	15.14
453.103	15.2
453.541	15.22
453.98	15.21
454.418	15.22
454.856	15.22
455.295	15.25
455.733	15.26
456.171	15.24
456.609	15.24
457.047	15.25
457.485	15.29
457.923	15.3
458.361	15.34
458.798	15.4
459.236	15.44
459.674	15.48
460.111	15.48
460.549	15.51
460.987	15.54
461.424	15.58
461.862	15.6
462.299	15.61
462.736	15.64
463.173	15.66
463.611	15.65
464.048	15.68
464.485	15.68
464.922	15.71
465.359	15.71
465.796	15.72
466.233	15.76
466.67	15.8
467.106	15.81
467.543	15.83
467.98	15.84
468.416	15.87
468.853	15.86
469.29	15.89
469.726	15.89
470.162	15.91
470.599	15.94
471.035	15.95
471.471	15.93
471.907	15.95
472.344	15.96
472.78	15.96
473.216	15.96
473.652	15.96
474.088	15.96
474.523	15.96
474.959	15.96
475.395	15.95
475.831	15.95
476.266	15.97
476.702	15.98
477.138	15.97
477.573	15.99
478.008	15.99
478.444	15.99
478.879	16.01
479.314	16.04
479.75	16.07
480.185	16.08
480.62	16.11
481.055	16.12
481.49	16.12
481.925	16.15
482.36	16.17
482.795	16.19
483.229	16.22
483.664	16.26
484.099	16.29
484.534	16.33
484.968	16.37
485.403	16.43
485.837	16.49
486.271	16.56
486.706	16.64
487.14	16.74
487.574	16.84
488.009	16.96
488.443	17.07
488.877	17.19
489.311	17.31
489.745	17.45
490.179	17.59
490.613	17.74
491.046	17.92
491.48	18.09
491.914	18.26
492.348	18.45
492.781	18.63
493.215	18.84
493.648	19.06
494.082	19.28
494.515	19.49
494.948	19.72
495.382	19.95
495.815	20.18
496.248	20.43
496.681	20.68
497.114	20.93
497.547	21.2
497.98	21.45
498.413	21.7
498.846	21.96
499.279	22.25
499.711	22.54
500.144	22.83
500.577	23.13
501.009	23.42
501.442	23.72
501.874	24.04
502.306	24.36
502.739	24.68
503.171	25.03
503.603	25.38
504.036	25.71
504.468	26.07
504.9	26.44
505.332	26.78
505.764	27.13
506.196	27.51
506.627	27.89
507.059	28.25
507.491	28.63
507.923	29
508.354	29.38
508.786	29.77
509.217	30.13
509.649	30.51
510.08	30.92
510.512	31.32
510.943	31.69
511.374	32.06
511.805	32.44
512.237	32.83
512.668	33.2
513.099	33.59
513.53	33.97
513.961	34.34
514.391	34.7
514.822	35.06
515.253	35.4
515.684	35.72
516.114	36.06
516.545	36.37
516.975	36.7
517.406	37.03
517.836	37.31
518.267	37.6
518.697	37.9
519.127	38.22
519.558	38.48
519.988	38.78
520.418	39.07
520.848	39.36
521.278	39.64
521.708	39.89
522.138	40.13
522.567	40.38
522.997	40.6
523.427	40.84
523.857	41.01
524.286	41.22
524.716	41.42
525.145	41.63
525.575	41.8
526.004	41.99
526.433	42.14
526.863	42.31
527.292	42.46
527.721	42.64
528.15	42.81
528.579	42.99
529.008	43.14
529.437	43.27
529.866	43.37
530.295	43.5
530.724	43.64
531.152	43.77
531.581	43.91
532.01	44.05
532.438	44.16
532.867	44.25
533.295	44.37
533.723	44.5
534.152	44.58
534.58	44.68
535.008	44.76
535.436	44.82
535.865	44.88
536.293	44.97
536.721	45.06
537.149	45.14
537.576	45.23
538.004	45.26
538.432	45.31
538.86	45.38
539.287	45.44
539.715	45.52
540.143	45.58
540.57	45.62
540.998	45.67
541.425	45.7
541.852	45.73
542.28	45.76
542.707	45.84
543.134	45.87
543.561	45.9
543.988	45.94
544.415	45.98
544.842	46.03
545.269	46.08
545.696	46.12
546.123	46.16
546.549	46.19
546.976	46.25
547.403	46.28
547.829	46.35
548.256	46.42
548.682	46.46
549.108	46.51
549.535	46.57
549.961	46.63
550.387	46.68
550.813	46.71
551.24	46.78
551.666	46.83
552.092	46.87
552.518	46.91
552.943	46.94
553.369	46.99
553.795	47.05
554.221	47.1
554.646	47.13
555.072	47.18
555.498	47.22
555.923	47.26
556.349	47.29
556.774	47.31
557.199	47.32
557.625	47.34
558.05	47.37
558.475	47.36
558.9	47.37
559.325	47.34
559.75	47.29
560.175	47.27
560.6	47.24
561.025	47.2
561.449	47.17
561.874	47.13
562.299	47.1
562.723	47.06
563.148	47.01
563.572	46.97
563.997	46.92
564.421	46.88
564.846	46.82
565.27	46.76
565.694	46.69
566.118	46.61
566.542	46.54
566.966	46.45
567.39	46.34
567.814	46.24
568.238	46.12
568.662	46.03
569.086	45.94
569.509	45.82
569.933	45.69
570.357	45.58
570.78	45.48
571.204	45.35
571.627	45.25
572.05	45.17
572.474	45.1
572.897	44.99
573.32	44.92
573.743	44.83
574.166	44.78
574.589	44.74
575.012	44.69
575.435	44.64
575.858	44.63
576.281	44.6
576.704	44.56
577.126	44.49
577.549	44.49
577.972	44.43
578.394	44.39
578.817	44.35
579.239	44.34
579.661	44.33
580.084	44.29
580.506	44.25
580.928	44.18
581.35	44.16
581.772	44.17
582.194	44.14
582.616	44.14
583.038	44.14
583.46	44.13
583.882	44.08
584.303	44.05
584.725	44.02
585.147	43.99
585.568	43.99
585.99	43.94
586.411	43.9
586.833	43.87
587.254	43.83
587.675	43.78
588.096	43.76
588.518	43.74
588.939	43.69
589.36	43.65
589.781	43.61
590.202	43.59
590.623	43.54
591.043	43.49
591.464	43.47
591.885	43.43
592.305	43.38
592.726	43.31
593.147	43.29
593.567	43.27
593.987	43.26
594.408	43.23
594.828	43.19
595.248	43.18
595.669	43.14
596.089	43.09
596.509	43.06
596.929	43.04
597.349	43.01
597.769	42.94
598.189	42.91
598.608	42.85
599.028	42.8
599.448	42.74
599.867	42.69
600.287	42.68
600.706	42.64
601.126	42.59
601.545	42.54
601.965	42.49
602.384	42.45
602.803	42.39
603.222	42.34
603.641	42.32
604.061	42.29
604.48	42.24
604.898	42.19
605.317	42.15
605.736	42.12
606.155	42.07
606.574	42.04
606.992	42
607.411	41.99
607.829	41.91
608.248	41.88
608.666	41.85
609.085	41.81
609.503	41.76
609.921	41.72
610.339	41.7
610.758	41.68
611.176	41.63
611.594	41.61
612.012	41.56
612.43	41.58
612.847	41.54
613.265	41.52
613.683	41.47
614.101	41.43
614.518	41.37
614.936	41.35
615.353	41.32
615.771	41.3
616.188	41.25
616.606	41.21
617.023	41.15
617.44	41.11
617.857	41.06
618.274	41.04
618.691	41.05
619.108	41.03
619.525	40.99
619.942	40.97
620.359	40.96
620.776	40.95
621.192	40.96
621.609	40.94
622.026	40.93
622.442	40.92
622.859	40.89
623.275	40.91
623.691	40.93
624.108	40.92
624.524	40.93
624.94	40.94
625.356	40.94
625.772	40.95
626.188	41
626.604	40.98
627.02	41.01
627.436	41.03
627.852	41.02
628.268	41
628.683	41.01
629.099	41
629.514	40.95
629.93	40.93
630.345	40.89
630.761	40.82
631.176	40.81
631.591	40.75
632.007	40.67
632.422	40.58
632.837	40.48
633.252	40.36
633.667	40.22
634.082	40.11
634.497	39.94
634.911	39.77
635.326	39.56
635.741	39.33
636.155	39.11
636.57	38.87
636.984	38.61
637.399	38.33
637.813	38.05
638.228	37.76
638.642	37.46
639.056	37.12
639.47	36.82
639.884	36.52
640.298	36.2
640.712	35.85
641.126	35.51
641.54	35.17
641.954	34.85
642.368	34.52
642.781	34.16
643.195	33.8
643.609	33.51
644.022	33.2
644.436	32.9
644.849	32.59
645.262	32.31
645.676	32.03
646.089	31.78
646.502	31.55
646.915	31.34
647.328	31.15
647.741	30.98
648.154	30.83
648.567	30.67
648.98	30.55
649.393	30.45
649.805	30.35
650.218	30.28
650.631	30.21
651.043	30.15
651.456	30.09
651.868	30.05
652.28	30.03
652.693	29.98
653.105	29.95
653.517	29.93
653.929	29.9
654.341	29.87
654.753	29.83
655.165	29.79
655.577	29.72
655.989	29.67
656.401	29.58
656.813	29.5
657.224	29.42
657.636	29.32
658.047	29.2
658.459	29.04
658.87	28.9
659.282	28.77
659.693	28.63
660.104	28.5
660.515	28.33
660.926	28.21
661.338	28.06
661.749	27.88
662.159	27.71
662.57	27.52
662.981	27.38
663.392	27.23
663.803	27.05
664.213	26.88
664.624	26.72
665.035	26.56
665.445	26.4
665.855	26.24
666.266	26.12
666.676	25.99
667.086	25.9
667.497	25.8
667.907	25.7
668.317	25.61
668.727	25.54
669.137	25.48
669.547	25.42
669.956	25.36
670.366	25.34
670.776	25.32
671.186	25.32
671.595	25.32
672.005	25.33
672.414	25.35
672.824	25.4
673.233	25.43
673.642	25.47
674.052	25.55
674.461	25.61
674.87	25.66
675.279	25.73
675.688	25.81
676.097	25.93
676.506	26.06
676.915	26.22
677.323	26.4
677.732	26.61
678.141	26.85
678.549	27.12
678.958	27.44
679.366	27.79
679.775	28.18
680.183	28.6
680.592	29.07
681	29.57
681.408	30.12
681.816	30.7
682.224	31.35
682.632	32.03
683.04	32.71
683.448	33.48
683.856	34.28
684.264	35.07
684.671	35.95
685.079	36.81
685.487	37.68
685.894	38.6
686.302	39.48
686.709	40.35
687.116	41.22
687.524	42.1
687.931	42.93
688.338	43.76
688.745	44.59
689.152	45.36
689.559	46.1
689.966	46.8
690.373	47.5
690.78	48.15
691.187	48.77
691.593	49.36
692	49.95
692.407	50.49
692.813	51.02
693.22	51.51
693.626	51.96
694.032	52.44
694.439	52.92
694.845	53.3
695.251	53.7
695.657	54.06
696.063	54.42
696.469	54.75
696.875	55.01
697.281	55.27
697.687	55.54
698.093	55.8
698.498	56.05
698.904	56.25
699.31	56.45
699.715	56.66
700.12	56.84
700.526	56.99
700.931	57.15
701.337	57.35
701.742	57.51
702.147	57.65
702.552	57.79
702.957	57.89
703.362	58.01
703.767	58.15
704.172	58.25
704.577	58.38
704.981	58.51
705.386	58.58
705.791	58.67
706.195	58.77
706.6	58.85
707.004	58.93
707.408	59
707.813	59.08
708.217	59.12
708.621	59.18
709.025	59.25
709.43	59.3
709.834	59.38
710.237	59.43
710.641	59.5
711.045	59.58
711.449	59.62
711.853	59.69
712.256	59.78
712.66	59.82
713.064	59.88
713.467	59.88
713.87	59.96
714.274	60.03
714.677	60.08
715.08	60.09
715.484	60.13
715.887	60.16
716.29	60.19
716.693	60.21
717.096	60.27
717.499	60.28
717.901	60.3
718.304	60.3
718.707	60.32
719.109	60.35
719.512	60.4
719.915	60.41
720.317	60.47
720.719	60.5
721.122	60.52
721.524	60.56
721.926	60.61
722.328	60.68
722.731	60.73
723.133	60.72
723.535	60.76
723.937	60.8
724.338	60.8
724.74	60.82
725.142	60.78
725.544	60.79
725.945	60.79
726.347	60.83
726.748	60.81
727.15	60.84
727.551	60.89
727.952	60.88
728.354	60.88
728.755	60.93
729.156	60.94
729.557	61.07
729.958	61.09
730.359	61.12
730.76	61.08
731.161	61.1
731.562	61.12
731.962	61.13
732.363	61.13
732.763	61.16
733.164	61.13
733.564	61.1
733.965	61.06
734.365	61.07
734.766	61.08
735.166	61.05
735.566	61.04
735.966	61.02
736.366	61
736.766	61.01
737.166	60.96
737.566	60.97
737.966	61.01
738.365	61.03
738.765	61.04
739.165	60.97
739.564	61.06
739.964	61.06
740.363	61.08
740.763	61.05
741.162	61.04
741.561	61.05
741.96	61.07
742.36	61.04
742.759	60.98
743.158	60.94
743.557	61
743.955	61
744.354	61.06
744.753	61.06
745.152	61.12
745.55	61.15
745.949	61.18
746.348	61.2
746.746	61.23
747.144	61.33
747.543	61.38
747.941	61.42
748.339	61.45
748.737	61.46
749.136	61.49
749.534	61.52
749.932	61.53
750.33	61.52
750.727	61.54
751.125	61.54
751.523	61.5
751.921	61.5
752.318	61.44
752.716	61.38
753.113	61.36
753.511	61.32
753.908	61.28
754.305	61.25
754.703	61.23
755.1	61.18
755.497	61.18
755.894	61.16
756.291	61.14
756.688	61.17
757.085	61.17
757.482	61.14
757.878	61.17
758.275	61.15
758.672	61.17
759.068	61.2
759.465	61.19
759.861	61.18
760.258	61.17
760.654	61.15
761.05	61.13
761.447	61.1
761.843	61.09
762.239	61.07
762.635	61.06
763.031	61.03
763.427	61
763.822	61
764.218	60.97
764.614	60.97
765.01	60.95
765.405	60.92
765.801	60.91
766.196	60.91
766.592	60.92
766.987	60.94
767.382	60.96
767.778	60.96
768.173	60.96
768.568	60.94
768.963	60.96
769.358	60.97
769.753	61.02
770.148	61.04
770.542	61.03
770.937	61.03
771.332	61
