Data from C_3_div_oh_2n_Splice17_09.txt Node
Date: Sat Feb 29 14:38:54 EST 2020
User: sa697716
Spectrometer: FLMS03696
Trigger mode: 0
Integration Time (sec): 3.180400E-1
Scans to average: 20
Electric dark correction enabled: true
Nonlinearity correction enabled: true
Boxcar width: 5
XAxis mode: Wavelengths
Number of Pixels in Spectrum: 2048
>>>>>Begin Spectral Data<<<<<
187.83	67.66
188.298	71.55
188.766	67.57
189.233	66.86
189.701	84.57
190.169	78.86
190.636	93.52
191.104	121.75
191.571	455.75
192.039	453.69
192.506	-633.97
192.974	-4450.2
193.441	-9.8
193.908	51.98
194.375	36.34
194.842	219.12
195.31	113.7
195.777	147.46
196.244	16.29
196.711	-15.89
197.177	-21.97
197.644	-23.33
198.111	-24.52
198.578	-26.32
199.045	-26.02
199.511	-25.73
199.978	-25.56
200.445	-25.61
200.911	-25.26
201.378	-24.83
201.844	-24.5
202.31	-23.59
202.777	-22.92
203.243	-22.24
203.709	-21.01
204.176	-21.15
204.642	-20.59
205.108	-20.36
205.574	-19.55
206.04	-19.09
206.506	-18.96
206.972	-18.64
207.438	-18.39
207.903	-17.72
208.369	-17.02
208.835	-16.87
209.301	-15.58
209.766	-14.89
210.232	-14.08
210.697	-13.39
211.163	-12.89
211.628	-12.23
212.094	-11.69
212.559	-11.33
213.024	-11.27
213.49	-11.11
213.955	-10.36
214.42	-9.8
214.885	-9.18
215.35	-8.25
215.815	-7.41
216.28	-6.26
216.745	-4.75
217.21	-3.28
217.675	-1.92
218.14	-0.73
218.604	0.14
219.069	0.94
219.534	1.56
219.998	2.11
220.463	2.56
220.927	2.91
221.392	3.19
221.856	3.36
222.32	3.54
222.785	3.69
223.249	3.82
223.713	3.99
224.177	4.02
224.642	4.12
225.106	4.17
225.57	4.25
226.034	4.31
226.497	4.36
226.961	4.38
227.425	4.37
227.889	4.39
228.353	4.39
228.816	4.4
229.28	4.4
229.744	4.39
230.207	4.41
230.671	4.39
231.134	4.37
231.597	4.36
232.061	4.35
232.524	4.36
232.987	4.34
233.45	4.32
233.914	4.3
234.377	4.29
234.84	4.25
235.303	4.21
235.766	4.19
236.229	4.15
236.691	4.13
237.154	4.1
237.617	4.06
238.08	4.02
238.542	3.97
239.005	3.93
239.468	3.89
239.93	3.86
240.393	3.84
240.855	3.78
241.317	3.77
241.78	3.74
242.242	3.7
242.704	3.67
243.166	3.65
243.629	3.64
244.091	3.62
244.553	3.62
245.015	3.6
245.477	3.59
245.939	3.59
246.4	3.57
246.862	3.56
247.324	3.56
247.786	3.56
248.247	3.55
248.709	3.54
249.17	3.55
249.632	3.52
250.093	3.5
250.555	3.48
251.016	3.47
251.477	3.47
251.939	3.46
252.4	3.45
252.861	3.44
253.322	3.43
253.783	3.43
254.244	3.42
254.705	3.42
255.166	3.43
255.627	3.43
256.088	3.42
256.549	3.41
257.009	3.41
257.47	3.41
257.931	3.39
258.391	3.38
258.852	3.37
259.312	3.37
259.773	3.37
260.233	3.36
260.694	3.36
261.154	3.34
261.614	3.34
262.074	3.33
262.534	3.32
262.994	3.32
263.455	3.32
263.915	3.32
264.374	3.31
264.834	3.31
265.294	3.3
265.754	3.29
266.214	3.3
266.673	3.3
267.133	3.3
267.593	3.3
268.052	3.3
268.512	3.29
268.971	3.28
269.431	3.28
269.89	3.27
270.349	3.27
270.809	3.27
271.268	3.26
271.727	3.24
272.186	3.24
272.645	3.23
273.104	3.23
273.563	3.23
274.022	3.23
274.481	3.22
274.94	3.21
275.399	3.21
275.857	3.21
276.316	3.21
276.775	3.2
277.233	3.19
277.692	3.18
278.15	3.17
278.609	3.15
279.067	3.14
279.525	3.13
279.984	3.12
280.442	3.11
280.9	3.09
281.358	3.08
281.816	3.07
282.274	3.06
282.732	3.05
283.19	3.04
283.648	3.03
284.106	3.02
284.564	3.02
285.021	3.02
285.479	3.01
285.937	3.01
286.394	3
286.852	3
287.309	3
287.767	3
288.224	3.01
288.682	3.02
289.139	3.02
289.596	3.03
290.053	3.03
290.511	3.03
290.968	3.04
291.425	3.04
291.882	3.03
292.339	3.03
292.796	3.02
293.252	3.01
293.709	3
294.166	2.99
294.623	2.99
295.079	2.98
295.536	2.98
295.992	2.96
296.449	2.96
296.905	2.96
297.362	2.95
297.818	2.95
298.274	2.94
298.731	2.94
299.187	2.94
299.643	2.93
300.099	2.92
300.555	2.91
301.011	2.91
301.467	2.9
301.923	2.9
302.379	2.89
302.835	2.88
303.291	2.88
303.746	2.87
304.202	2.86
304.658	2.84
305.113	2.83
305.569	2.83
306.024	2.81
306.479	2.8
306.935	2.79
307.39	2.78
307.845	2.77
308.301	2.76
308.756	2.75
309.211	2.74
309.666	2.73
310.121	2.72
310.576	2.71
311.031	2.7
311.486	2.7
311.94	2.7
312.395	2.69
312.85	2.68
313.305	2.67
313.759	2.66
314.214	2.65
314.668	2.64
315.123	2.65
315.577	2.65
316.032	2.65
316.486	2.64
316.94	2.63
317.394	2.62
317.849	2.62
318.303	2.61
318.757	2.62
319.211	2.62
319.665	2.61
320.119	2.61
320.572	2.61
321.026	2.61
321.48	2.6
321.934	2.6
322.387	2.6
322.841	2.6
323.295	2.6
323.748	2.59
324.202	2.58
324.655	2.57
325.108	2.56
325.562	2.54
326.015	2.54
326.468	2.52
326.921	2.52
327.374	2.51
327.827	2.51
328.28	2.49
328.733	2.49
329.186	2.48
329.639	2.48
330.092	2.48
330.545	2.47
330.997	2.47
331.45	2.47
331.903	2.45
332.355	2.45
332.808	2.45
333.26	2.44
333.713	2.43
334.165	2.44
334.617	2.44
335.069	2.43
335.522	2.43
335.974	2.42
336.426	2.42
336.878	2.42
337.33	2.41
337.782	2.41
338.234	2.41
338.686	2.42
339.137	2.42
339.589	2.43
340.041	2.43
340.493	2.42
340.944	2.42
341.396	2.42
341.847	2.42
342.299	2.42
342.75	2.42
343.201	2.42
343.653	2.42
344.104	2.41
344.555	2.4
345.006	2.39
345.457	2.39
345.908	2.39
346.359	2.39
346.81	2.39
347.261	2.39
347.712	2.38
348.163	2.38
348.613	2.37
349.064	2.35
349.515	2.35
349.965	2.34
350.416	2.34
350.866	2.33
351.317	2.33
351.767	2.33
352.217	2.32
352.668	2.33
353.118	2.33
353.568	2.34
354.018	2.34
354.468	2.34
354.918	2.36
355.368	2.36
355.818	2.36
356.268	2.36
356.718	2.36
357.168	2.35
357.617	2.33
358.067	2.33
358.517	2.33
358.966	2.33
359.416	2.34
359.865	2.33
360.315	2.33
360.764	2.33
361.213	2.32
361.663	2.31
362.112	2.31
362.561	2.33
363.01	2.33
363.459	2.32
363.908	2.31
364.357	2.31
364.806	2.3
365.255	2.31
365.703	2.3
366.152	2.3
366.601	2.3
367.05	2.3
367.498	2.29
367.947	2.28
368.395	2.29
368.844	2.29
369.292	2.29
369.74	2.29
370.189	2.28
370.637	2.29
371.085	2.3
371.533	2.29
371.981	2.29
372.429	2.29
372.877	2.29
373.325	2.28
373.773	2.27
374.221	2.27
374.669	2.27
375.116	2.26
375.564	2.24
376.012	2.23
376.459	2.23
376.907	2.22
377.354	2.21
377.801	2.23
378.249	2.22
378.696	2.22
379.143	2.22
379.591	2.21
380.038	2.22
380.485	2.24
380.932	2.23
381.379	2.23
381.826	2.23
382.273	2.23
382.72	2.22
383.166	2.23
383.613	2.24
384.06	2.24
384.506	2.24
384.953	2.23
385.4	2.22
385.846	2.23
386.292	2.24
386.739	2.22
387.185	2.24
387.631	2.24
388.078	2.24
388.524	2.22
388.97	2.22
389.416	2.21
389.862	2.2
390.308	2.2
390.754	2.19
391.2	2.19
391.645	2.2
392.091	2.18
392.537	2.17
392.983	2.16
393.428	2.17
393.874	2.16
394.319	2.16
394.765	2.17
395.21	2.16
395.655	2.16
396.101	2.16
396.546	2.15
396.991	2.13
397.436	2.12
397.881	2.12
398.326	2.11
398.771	2.1
399.216	2.09
399.661	2.09
400.106	2.09
400.551	2.08
400.995	2.06
401.44	2.06
401.885	2.07
402.329	2.08
402.774	2.06
403.218	2.05
403.663	2.03
404.107	2.04
404.551	2.03
404.995	2.03
405.44	2.03
405.884	2.03
406.328	2.03
406.772	2.03
407.216	2.03
407.66	2.03
408.104	2.02
408.547	2.04
408.991	2.02
409.435	2.02
409.879	2.01
410.322	2.01
410.766	2.01
411.209	2.01
411.653	1.99
412.096	1.98
412.54	1.96
412.983	1.96
413.426	1.96
413.869	1.97
414.312	1.97
414.756	1.96
415.199	1.96
415.642	1.96
416.085	1.95
416.527	1.96
416.97	1.99
417.413	1.97
417.856	1.96
418.298	1.94
418.741	1.93
419.184	1.93
419.626	1.9
420.069	1.9
420.511	1.89
420.953	1.88
421.396	1.88
421.838	1.86
422.28	1.88
422.722	1.88
423.164	1.89
423.606	1.89
424.048	1.88
424.49	1.89
424.932	1.88
425.374	1.89
425.816	1.89
426.258	1.88
426.699	1.87
427.141	1.85
427.582	1.85
428.024	1.83
428.465	1.83
428.907	1.83
429.348	1.83
429.789	1.83
430.231	1.82
430.672	1.82
431.113	1.81
431.554	1.81
431.995	1.8
432.436	1.79
432.877	1.77
433.318	1.76
433.759	1.76
434.2	1.75
434.64	1.72
435.081	1.7
435.522	1.68
435.962	1.68
436.403	1.67
436.843	1.69
437.284	1.69
437.724	1.71
438.164	1.71
438.604	1.72
439.045	1.72
439.485	1.72
439.925	1.73
440.365	1.72
440.805	1.7
441.245	1.68
441.685	1.68
442.125	1.66
442.564	1.64
443.004	1.64
443.444	1.63
443.883	1.62
444.323	1.6
444.762	1.6
445.202	1.61
445.641	1.62
446.081	1.61
446.52	1.57
446.959	1.58
447.398	1.59
447.837	1.6
448.276	1.59
448.716	1.59
449.154	1.61
449.593	1.59
450.032	1.59
450.471	1.59
450.91	1.59
451.349	1.61
451.787	1.61
452.226	1.59
452.664	1.56
453.103	1.57
453.541	1.59
453.98	1.6
454.418	1.6
454.856	1.59
455.295	1.58
455.733	1.6
456.171	1.61
456.609	1.62
457.047	1.62
457.485	1.64
457.923	1.63
458.361	1.61
458.798	1.63
459.236	1.63
459.674	1.63
460.111	1.65
460.549	1.64
460.987	1.64
461.424	1.63
461.862	1.62
462.299	1.62
462.736	1.61
463.173	1.6
463.611	1.57
464.048	1.57
464.485	1.58
464.922	1.57
465.359	1.57
465.796	1.54
466.233	1.53
466.67	1.52
467.106	1.5
467.543	1.51
467.98	1.5
468.416	1.51
468.853	1.5
469.29	1.5
469.726	1.5
470.162	1.51
470.599	1.53
471.035	1.55
471.471	1.54
471.907	1.54
472.344	1.54
472.78	1.55
473.216	1.55
473.652	1.56
474.088	1.56
474.523	1.55
474.959	1.56
475.395	1.57
475.831	1.57
476.266	1.59
476.702	1.61
477.138	1.61
477.573	1.61
478.008	1.62
478.444	1.61
478.879	1.62
479.314	1.63
479.75	1.63
480.185	1.63
480.62	1.64
481.055	1.62
481.49	1.62
481.925	1.64
482.36	1.65
482.795	1.65
483.229	1.66
483.664	1.66
484.099	1.65
484.534	1.65
484.968	1.66
485.403	1.66
485.837	1.67
486.271	1.67
486.706	1.65
487.14	1.65
487.574	1.66
488.009	1.66
488.443	1.66
488.877	1.67
489.311	1.67
489.745	1.67
490.179	1.66
490.613	1.66
491.046	1.67
491.48	1.68
491.914	1.67
492.348	1.67
492.781	1.67
493.215	1.66
493.648	1.65
494.082	1.65
494.515	1.64
494.948	1.64
495.382	1.64
495.815	1.64
496.248	1.64
496.681	1.64
497.114	1.62
497.547	1.62
497.98	1.63
498.413	1.62
498.846	1.63
499.279	1.63
499.711	1.63
500.144	1.62
500.577	1.6
501.009	1.6
501.442	1.6
501.874	1.6
502.306	1.59
502.739	1.58
503.171	1.58
503.603	1.57
504.036	1.57
504.468	1.57
504.9	1.58
505.332	1.59
505.764	1.59
506.196	1.59
506.627	1.58
507.059	1.59
507.491	1.59
507.923	1.59
508.354	1.6
508.786	1.6
509.217	1.58
509.649	1.59
510.08	1.59
510.512	1.58
510.943	1.58
511.374	1.59
511.805	1.59
512.237	1.59
512.668	1.58
513.099	1.58
513.53	1.58
513.961	1.6
514.391	1.58
514.822	1.57
515.253	1.58
515.684	1.57
516.114	1.56
516.545	1.55
516.975	1.55
517.406	1.55
517.836	1.54
518.267	1.53
518.697	1.53
519.127	1.53
519.558	1.54
519.988	1.54
520.418	1.53
520.848	1.54
521.278	1.55
521.708	1.5
522.138	1.51
522.567	1.52
522.997	1.52
523.427	1.52
523.857	1.52
524.286	1.53
524.716	1.52
525.145	1.55
525.575	1.54
526.004	1.54
526.433	1.6
526.863	1.6
527.292	1.59
527.721	1.58
528.15	1.57
528.579	1.57
529.008	1.57
529.437	1.57
529.866	1.55
530.295	1.55
530.724	1.56
531.152	1.55
531.581	1.55
532.01	1.56
532.438	1.56
532.867	1.55
533.295	1.56
533.723	1.56
534.152	1.56
534.58	1.55
535.008	1.56
535.436	1.54
535.865	1.53
536.293	1.54
536.721	1.53
537.149	1.54
537.576	1.56
538.004	1.55
538.432	1.55
538.86	1.55
539.287	1.55
539.715	1.55
540.143	1.55
540.57	1.55
540.998	1.57
541.425	1.56
541.852	1.56
542.28	1.55
542.707	1.56
543.134	1.56
543.561	1.54
543.988	1.55
544.415	1.56
544.842	1.56
545.269	1.57
545.696	1.56
546.123	1.56
546.549	1.55
546.976	1.56
547.403	1.55
547.829	1.54
548.256	1.55
548.682	1.54
549.108	1.54
549.535	1.52
549.961	1.51
550.387	1.51
550.813	1.5
551.24	1.52
551.666	1.52
552.092	1.52
552.518	1.52
552.943	1.53
553.369	1.53
553.795	1.53
554.221	1.55
554.646	1.56
555.072	1.57
555.498	1.58
555.923	1.58
556.349	1.57
556.774	1.58
557.199	1.57
557.625	1.57
558.05	1.57
558.475	1.57
558.9	1.56
559.325	1.56
559.75	1.54
560.175	1.54
560.6	1.54
561.025	1.53
561.449	1.53
561.874	1.54
562.299	1.53
562.723	1.53
563.148	1.53
563.572	1.52
563.997	1.52
564.421	1.53
564.846	1.53
565.27	1.52
565.694	1.53
566.118	1.53
566.542	1.52
566.966	1.54
567.39	1.55
567.814	1.54
568.238	1.55
568.662	1.56
569.086	1.56
569.509	1.56
569.933	1.56
570.357	1.54
570.78	1.56
571.204	1.55
571.627	1.54
572.05	1.53
572.474	1.53
572.897	1.52
573.32	1.52
573.743	1.51
574.166	1.51
574.589	1.51
575.012	1.52
575.435	1.51
575.858	1.51
576.281	1.52
576.704	1.53
577.126	1.53
577.549	1.54
577.972	1.53
578.394	1.53
578.817	1.53
579.239	1.52
579.661	1.51
580.084	1.51
580.506	1.51
580.928	1.5
581.35	1.48
581.772	1.47
582.194	1.47
582.616	1.47
583.038	1.47
583.46	1.47
583.882	1.48
584.303	1.48
584.725	1.48
585.147	1.45
585.568	1.44
585.99	1.47
586.411	1.46
586.833	1.48
587.254	1.48
587.675	1.49
588.096	1.48
588.518	1.49
588.939	1.48
589.36	1.48
589.781	1.5
590.202	1.49
590.623	1.48
591.043	1.48
591.464	1.47
591.885	1.46
592.305	1.46
592.726	1.46
593.147	1.47
593.567	1.48
593.987	1.5
594.408	1.5
594.828	1.51
595.248	1.51
595.669	1.52
596.089	1.52
596.509	1.52
596.929	1.51
597.349	1.51
597.769	1.51
598.189	1.51
598.608	1.51
599.028	1.52
599.448	1.52
599.867	1.52
600.287	1.52
600.706	1.53
601.126	1.54
601.545	1.54
601.965	1.55
602.384	1.54
602.803	1.53
603.222	1.53
603.641	1.52
604.061	1.52
604.48	1.52
604.898	1.52
605.317	1.51
605.736	1.51
606.155	1.52
606.574	1.53
606.992	1.52
607.411	1.53
607.829	1.48
608.248	1.48
608.666	1.49
609.085	1.49
609.503	1.48
609.921	1.47
610.339	1.48
610.758	1.47
611.176	1.47
611.594	1.47
612.012	1.47
612.43	1.52
612.847	1.53
613.265	1.53
613.683	1.53
614.101	1.52
614.518	1.53
614.936	1.53
615.353	1.53
615.771	1.52
616.188	1.53
616.606	1.53
617.023	1.53
617.44	1.52
617.857	1.52
618.274	1.51
618.691	1.51
619.108	1.52
619.525	1.52
619.942	1.51
620.359	1.52
620.776	1.51
621.192	1.5
621.609	1.49
622.026	1.5
622.442	1.49
622.859	1.5
623.275	1.51
623.691	1.51
624.108	1.52
624.524	1.52
624.94	1.51
625.356	1.52
625.772	1.52
626.188	1.52
626.604	1.51
627.02	1.52
627.436	1.51
627.852	1.5
628.268	1.49
628.683	1.48
629.099	1.48
629.514	1.47
629.93	1.46
630.345	1.45
630.761	1.45
631.176	1.46
631.591	1.45
632.007	1.44
632.422	1.45
632.837	1.45
633.252	1.46
633.667	1.45
634.082	1.46
634.497	1.46
634.911	1.47
635.326	1.46
635.741	1.46
636.155	1.46
636.57	1.46
636.984	1.44
637.399	1.43
637.813	1.42
638.228	1.42
638.642	1.43
639.056	1.43
639.47	1.42
639.884	1.42
640.298	1.42
640.712	1.42
641.126	1.42
641.54	1.42
641.954	1.43
642.368	1.43
642.781	1.42
643.195	1.41
643.609	1.41
644.022	1.41
644.436	1.42
644.849	1.42
645.262	1.44
645.676	1.43
646.089	1.43
646.502	1.43
646.915	1.44
647.328	1.45
647.741	1.44
648.154	1.44
648.567	1.44
648.98	1.45
649.393	1.44
649.805	1.42
650.218	1.43
650.631	1.43
651.043	1.43
651.456	1.43
651.868	1.43
652.28	1.44
652.693	1.44
653.105	1.43
653.517	1.42
653.929	1.43
654.341	1.44
654.753	1.44
655.165	1.43
655.577	1.43
655.989	1.41
656.401	1.4
656.813	1.4
657.224	1.41
657.636	1.42
658.047	1.41
658.459	1.4
658.87	1.41
659.282	1.42
659.693	1.41
660.104	1.42
660.515	1.42
660.926	1.43
661.338	1.43
661.749	1.42
662.159	1.41
662.57	1.41
662.981	1.4
663.392	1.38
663.803	1.36
664.213	1.35
664.624	1.36
665.035	1.36
665.445	1.36
665.855	1.36
666.266	1.37
666.676	1.38
667.086	1.36
667.497	1.36
667.907	1.36
668.317	1.36
668.727	1.36
669.137	1.37
669.547	1.37
669.956	1.36
670.366	1.35
670.776	1.35
671.186	1.35
671.595	1.36
672.005	1.37
672.414	1.37
672.824	1.38
673.233	1.39
673.642	1.38
674.052	1.38
674.461	1.38
674.87	1.37
675.279	1.36
675.688	1.36
676.097	1.35
676.506	1.34
676.915	1.35
677.323	1.35
677.732	1.35
678.141	1.36
678.549	1.36
678.958	1.36
679.366	1.36
679.775	1.36
680.183	1.37
680.592	1.38
681	1.36
681.408	1.35
681.816	1.33
682.224	1.32
682.632	1.31
683.04	1.31
683.448	1.31
683.856	1.31
684.264	1.32
684.671	1.32
685.079	1.32
685.487	1.35
685.894	1.35
686.302	1.36
686.709	1.35
687.116	1.36
687.524	1.36
687.931	1.36
688.338	1.35
688.745	1.36
689.152	1.34
689.559	1.34
689.966	1.32
690.373	1.33
690.78	1.32
691.187	1.33
691.593	1.33
692	1.34
692.407	1.34
692.813	1.36
693.22	1.34
693.626	1.34
694.032	1.33
694.439	1.35
694.845	1.35
695.251	1.36
695.657	1.36
696.063	1.36
696.469	1.37
696.875	1.36
697.281	1.34
697.687	1.35
698.093	1.36
698.498	1.36
698.904	1.36
699.31	1.37
699.715	1.37
700.12	1.36
700.526	1.38
700.931	1.37
701.337	1.37
701.742	1.37
702.147	1.37
702.552	1.36
702.957	1.38
703.362	1.37
703.767	1.36
704.172	1.36
704.577	1.36
704.981	1.36
705.386	1.37
705.791	1.36
706.195	1.39
706.6	1.38
707.004	1.38
707.408	1.39
707.813	1.36
708.217	1.35
708.621	1.37
709.025	1.36
709.43	1.34
709.834	1.36
710.237	1.35
710.641	1.35
711.045	1.33
711.449	1.32
711.853	1.31
712.256	1.32
712.66	1.32
713.064	1.3
713.467	1.31
713.87	1.31
714.274	1.3
714.677	1.29
715.08	1.27
715.484	1.28
715.887	1.28
716.29	1.28
716.693	1.29
717.096	1.3
717.499	1.3
717.901	1.3
718.304	1.31
718.707	1.31
719.109	1.31
719.512	1.33
719.915	1.33
720.317	1.34
720.719	1.36
721.122	1.35
721.524	1.34
721.926	1.33
722.328	1.32
722.731	1.31
723.133	1.3
723.535	1.3
723.937	1.29
724.338	1.28
724.74	1.27
725.142	1.2
725.544	1.18
725.945	1.16
726.347	1.16
726.748	1.16
727.15	1.16
727.551	1.17
727.952	1.16
728.354	1.18
728.755	1.19
729.156	1.19
729.557	1.26
729.958	1.27
730.359	1.29
730.76	1.3
731.161	1.3
731.562	1.31
731.962	1.3
732.363	1.31
732.763	1.29
733.164	1.28
733.564	1.29
733.965	1.3
734.365	1.32
734.766	1.31
735.166	1.31
735.566	1.31
735.966	1.28
736.366	1.29
736.766	1.28
737.166	1.28
737.566	1.28
737.966	1.28
738.365	1.27
738.765	1.25
739.165	1.25
739.564	1.26
739.964	1.27
740.363	1.29
740.763	1.28
741.162	1.3
741.561	1.31
741.96	1.32
742.36	1.31
742.759	1.31
743.158	1.29
743.557	1.29
743.955	1.29
744.354	1.29
744.753	1.29
745.152	1.3
745.55	1.27
745.949	1.27
746.348	1.28
746.746	1.28
747.144	1.28
747.543	1.31
747.941	1.31
748.339	1.31
748.737	1.31
749.136	1.3
749.534	1.29
749.932	1.3
750.33	1.3
750.727	1.3
751.125	1.29
751.523	1.3
751.921	1.31
752.318	1.29
752.716	1.3
753.113	1.31
753.511	1.31
753.908	1.31
754.305	1.3
754.703	1.3
755.1	1.28
755.497	1.3
755.894	1.29
756.291	1.29
756.688	1.3
757.085	1.28
757.482	1.27
757.878	1.27
758.275	1.28
758.672	1.28
759.068	1.28
759.465	1.29
759.861	1.27
760.258	1.26
760.654	1.25
761.05	1.25
761.447	1.28
761.843	1.28
762.239	1.28
762.635	1.25
763.031	1.26
763.427	1.27
763.822	1.26
764.218	1.28
764.614	1.28
765.01	1.26
765.405	1.26
765.801	1.25
766.196	1.26
766.592	1.25
766.987	1.27
767.382	1.26
767.778	1.25
768.173	1.24
768.568	1.22
768.963	1.22
769.358	1.24
769.753	1.24
770.148	1.24
770.542	1.23
770.937	1.23
771.332	1.22
771.726	1.23
772.121	1.21
772.515	1.21
772.91	1.2
773.304	1.2
773.699	1.21
774.093	1.19
774.487	1.18
774.881	1.18
775.275	1.18
775.669	1.18
776.063	1.16
776.457	1.17
776.851	1.16
777.245	1.16
777.638	1.16
778.032	1.14
778.425	1.13
778.819	1.15
779.212	1.16
779.606	1.16
779.999	1.17
780.392	1.18
780.786	1.19
781.179	1.2
781.572	1.2
781.965	1.19
782.358	1.18
782.751	1.19
783.143	1.18
783.536	1.16
783.929	1.15
784.322	1.15
784.714	1.15
785.107	1.15
785.499	1.14
785.891	1.13
786.284	1.13
786.676	1.13
787.068	1.14
787.46	1.15
787.852	1.15
788.245	1.15
788.636	1.15
789.028	1.15
789.42	1.14
789.812	1.14
790.204	1.15
790.595	1.16
790.987	1.15
791.378	1.16
791.77	1.17
792.161	1.17
792.553	1.15
792.944	1.15
793.335	1.15
793.726	1.14
794.117	1.16
794.508	1.17
794.899	1.18
795.29	1.19
795.681	1.18
796.072	1.18
796.463	1.14
