Data from C_3_dec_oh_4n_Splice17_20.txt Node
Date: Sat Feb 29 15:05:06 EST 2020
User: sa697716
Spectrometer: FLMS03696
Trigger mode: 0
Integration Time (sec): 3.180400E-1
Scans to average: 20
Electric dark correction enabled: true
Nonlinearity correction enabled: true
Boxcar width: 5
XAxis mode: Wavelengths
Number of Pixels in Spectrum: 2048
>>>>>Begin Spectral Data<<<<<
187.83	79.94
188.298	89.48
188.766	85.86
189.233	91.66
189.701	96.34
190.169	100.2
190.636	109.08
191.104	125.81
191.571	536.91
192.039	451.7
192.506	-606.95
192.974	-4296
193.441	448.56
193.908	45.49
194.375	132.94
194.842	272.77
195.31	159.93
195.777	220.44
196.244	141.74
196.711	116.56
197.177	113.07
197.644	110.63
198.111	111.09
198.578	110.64
199.045	110.11
199.511	110.07
199.978	109.87
200.445	109.14
200.911	108.5
201.378	108.36
201.844	109.16
202.31	109.03
202.777	109.1
203.243	109.24
203.709	109.02
204.176	108.84
204.642	108.11
205.108	107.33
205.574	107.61
206.04	107.25
206.506	106.21
206.972	105.2
207.438	104.49
207.903	103.12
208.369	100.58
208.835	99.39
209.301	98.06
209.766	96.06
210.232	94.42
210.697	92.35
211.163	90.56
211.628	89
212.094	87.42
212.559	85.72
213.024	84.36
213.49	83.12
213.955	81.21
214.42	79.07
214.885	76.84
215.35	74.02
215.815	70.49
216.28	66.51
216.745	61.99
217.21	56.97
217.675	52.41
218.14	48.18
218.604	44.48
219.069	41.49
219.534	38.68
219.998	36.44
220.463	34.48
220.927	32.94
221.392	31.59
221.856	30.41
222.32	29.46
222.785	28.55
223.249	27.78
223.713	27.14
224.177	26.44
224.642	25.92
225.106	25.38
225.57	24.89
226.034	24.37
226.497	23.88
226.961	23.44
227.425	22.96
227.889	22.56
228.353	22.13
228.816	21.72
229.28	21.33
229.744	20.97
230.207	20.64
230.671	20.29
231.134	19.96
231.597	19.61
232.061	19.3
232.524	19.03
232.987	18.73
233.45	18.48
233.914	18.2
234.377	17.96
234.84	17.71
235.303	17.46
235.766	17.23
236.229	17.02
236.691	16.84
237.154	16.65
237.617	16.46
238.08	16.28
238.542	16.11
239.005	15.93
239.468	15.74
239.93	15.58
240.393	15.44
240.855	15.28
241.317	15.12
241.78	14.96
242.242	14.78
242.704	14.63
243.166	14.48
243.629	14.31
244.091	14.17
244.553	14.03
245.015	13.87
245.477	13.72
245.939	13.56
246.4	13.39
246.862	13.27
247.324	13.15
247.786	13.01
248.247	12.87
248.709	12.74
249.17	12.61
249.632	12.47
250.093	12.34
250.555	12.2
251.016	12.1
251.477	11.98
251.939	11.87
252.4	11.76
252.861	11.67
253.322	11.58
253.783	11.49
254.244	11.42
254.705	11.34
255.166	11.26
255.627	11.19
256.088	11.09
256.549	11.01
257.009	10.91
257.47	10.81
257.931	10.71
258.391	10.6
258.852	10.5
259.312	10.4
259.773	10.31
260.233	10.21
260.694	10.12
261.154	10.04
261.614	9.95
262.074	9.87
262.534	9.79
262.994	9.72
263.455	9.65
263.915	9.57
264.374	9.49
264.834	9.41
265.294	9.35
265.754	9.29
266.214	9.23
266.673	9.17
267.133	9.11
267.593	9.05
268.052	9
268.512	8.95
268.971	8.9
269.431	8.87
269.89	8.82
270.349	8.78
270.809	8.74
271.268	8.7
271.727	8.66
272.186	8.63
272.645	8.59
273.104	8.56
273.563	8.53
274.022	8.48
274.481	8.45
274.94	8.41
275.399	8.37
275.857	8.34
276.316	8.3
276.775	8.26
277.233	8.23
277.692	8.2
278.15	8.17
278.609	8.13
279.067	8.1
279.525	8.08
279.984	8.05
280.442	8.03
280.9	8.01
281.358	8
281.816	7.98
282.274	7.95
282.732	7.93
283.19	7.91
283.648	7.91
284.106	7.9
284.564	7.89
285.021	7.88
285.479	7.87
285.937	7.86
286.394	7.85
286.852	7.85
287.309	7.83
287.767	7.81
288.224	7.78
288.682	7.73
289.139	7.7
289.596	7.66
290.053	7.61
290.511	7.56
290.968	7.51
291.425	7.45
291.882	7.4
292.339	7.35
292.796	7.31
293.252	7.26
293.709	7.23
294.166	7.19
294.623	7.15
295.079	7.12
295.536	7.09
295.992	7.06
296.449	7.04
296.905	7.01
297.362	6.98
297.818	6.96
298.274	6.94
298.731	6.92
299.187	6.9
299.643	6.88
300.099	6.86
300.555	6.84
301.011	6.82
301.467	6.81
301.923	6.79
302.379	6.78
302.835	6.76
303.291	6.74
303.746	6.73
304.202	6.71
304.658	6.7
305.113	6.69
305.569	6.67
306.024	6.67
306.479	6.66
306.935	6.65
307.39	6.64
307.845	6.64
308.301	6.65
308.756	6.65
309.211	6.65
309.666	6.65
310.121	6.65
310.576	6.65
311.031	6.65
311.486	6.65
311.94	6.65
312.395	6.65
312.85	6.65
313.305	6.64
313.759	6.64
314.214	6.64
314.668	6.63
315.123	6.62
315.577	6.6
316.032	6.59
316.486	6.57
316.94	6.56
317.394	6.53
317.849	6.5
318.303	6.48
318.757	6.44
319.211	6.41
319.665	6.38
320.119	6.36
320.572	6.34
321.026	6.32
321.48	6.3
321.934	6.29
322.387	6.28
322.841	6.27
323.295	6.25
323.748	6.23
324.202	6.22
324.655	6.22
325.108	6.2
325.562	6.18
326.015	6.16
326.468	6.14
326.921	6.13
327.374	6.11
327.827	6.1
328.28	6.09
328.733	6.08
329.186	6.08
329.639	6.07
330.092	6.06
330.545	6.06
330.997	6.06
331.45	6.06
331.903	6.06
332.355	6.06
332.808	6.07
333.26	6.08
333.713	6.08
334.165	6.08
334.617	6.1
335.069	6.1
335.522	6.12
335.974	6.13
336.426	6.14
336.878	6.14
337.33	6.14
337.782	6.14
338.234	6.14
338.686	6.13
339.137	6.13
339.589	6.11
340.041	6.1
340.493	6.08
340.944	6.06
341.396	6.05
341.847	6.04
342.299	6.01
342.75	5.98
343.201	5.95
343.653	5.93
344.104	5.9
344.555	5.87
345.006	5.84
345.457	5.82
345.908	5.8
346.359	5.79
346.81	5.78
347.261	5.76
347.712	5.75
348.163	5.74
348.613	5.72
349.064	5.7
349.515	5.7
349.965	5.69
350.416	5.68
350.866	5.67
351.317	5.65
351.767	5.63
352.217	5.62
352.668	5.63
353.118	5.64
353.568	5.64
354.018	5.65
354.468	5.66
354.918	5.66
355.368	5.67
355.818	5.67
356.268	5.69
356.718	5.7
357.168	5.7
357.617	5.69
358.067	5.67
358.517	5.68
358.966	5.68
359.416	5.68
359.865	5.68
360.315	5.68
360.764	5.68
361.213	5.66
361.663	5.67
362.112	5.68
362.561	5.68
363.01	5.69
363.459	5.67
363.908	5.67
364.357	5.66
364.806	5.65
365.255	5.66
365.703	5.65
366.152	5.66
366.601	5.66
367.05	5.66
367.498	5.65
367.947	5.64
368.395	5.66
368.844	5.66
369.292	5.65
369.74	5.65
370.189	5.65
370.637	5.65
371.085	5.63
371.533	5.63
371.981	5.62
372.429	5.62
372.877	5.62
373.325	5.6
373.773	5.59
374.221	5.6
374.669	5.59
375.116	5.58
375.564	5.57
376.012	5.58
376.459	5.58
376.907	5.59
377.354	5.59
377.801	5.6
378.249	5.62
378.696	5.63
379.143	5.64
379.591	5.64
380.038	5.67
380.485	5.69
380.932	5.7
381.379	5.7
381.826	5.7
382.273	5.7
382.72	5.71
383.166	5.7
383.613	5.71
384.06	5.7
384.506	5.7
384.953	5.71
385.4	5.71
385.846	5.71
386.292	5.73
386.739	5.75
387.185	5.77
387.631	5.78
388.078	5.8
388.524	5.79
388.97	5.81
389.416	5.83
389.862	5.84
390.308	5.86
390.754	5.89
391.2	5.92
391.645	5.94
392.091	5.96
392.537	5.99
392.983	6.02
393.428	6.06
393.874	6.11
394.319	6.13
394.765	6.15
395.21	6.16
395.655	6.19
396.101	6.21
396.546	6.24
396.991	6.24
397.436	6.26
397.881	6.29
398.326	6.32
398.771	6.36
399.216	6.42
399.661	6.46
400.106	6.51
400.551	6.53
400.995	6.54
401.44	6.53
401.885	6.56
402.329	6.57
402.774	6.59
403.218	6.6
403.663	6.61
404.107	6.62
404.551	6.63
404.995	6.64
405.44	6.65
405.884	6.67
406.328	6.69
406.772	6.73
407.216	6.76
407.66	6.78
408.104	6.79
408.547	6.81
408.991	6.82
409.435	6.82
409.879	6.84
410.322	6.87
410.766	6.92
411.209	6.96
411.653	6.96
412.096	6.97
412.54	6.98
412.983	7.02
413.426	7.06
413.869	7.09
414.312	7.15
414.756	7.2
415.199	7.23
415.642	7.26
416.085	7.29
416.527	7.33
416.97	7.36
417.413	7.35
417.856	7.33
418.298	7.31
418.741	7.31
419.184	7.29
419.626	7.28
420.069	7.26
420.511	7.25
420.953	7.24
421.396	7.25
421.838	7.27
422.28	7.33
422.722	7.36
423.164	7.38
423.606	7.39
424.048	7.42
424.49	7.45
424.932	7.45
425.374	7.46
425.816	7.44
426.258	7.42
426.699	7.38
427.141	7.34
427.582	7.34
428.024	7.35
428.465	7.37
428.907	7.39
429.348	7.38
429.789	7.4
430.231	7.42
430.672	7.46
431.113	7.51
431.554	7.56
431.995	7.6
432.436	7.62
432.877	7.63
433.318	7.64
433.759	7.65
434.2	7.69
434.64	7.72
435.081	7.74
435.522	7.77
435.962	7.79
436.403	7.82
436.843	7.84
437.284	7.86
437.724	7.92
438.164	7.96
438.604	8
439.045	8.02
439.485	8.03
439.925	8.03
440.365	8.05
440.805	8.06
441.245	8.05
441.685	8.1
442.125	8.13
442.564	8.13
443.004	8.16
443.444	8.2
443.883	8.22
444.323	8.25
444.762	8.3
445.202	8.37
445.641	8.43
446.081	8.51
446.52	8.54
446.959	8.58
447.398	8.66
447.837	8.71
448.276	8.73
448.716	8.77
449.154	8.83
449.593	8.86
450.032	8.87
450.471	8.88
450.91	8.88
451.349	8.89
451.787	8.88
452.226	8.82
452.664	8.79
453.103	8.78
453.541	8.77
453.98	8.76
454.418	8.71
454.856	8.67
455.295	8.63
455.733	8.61
456.171	8.59
456.609	8.59
457.047	8.58
457.485	8.59
457.923	8.57
458.361	8.53
458.798	8.53
459.236	8.54
459.674	8.54
460.111	8.55
460.549	8.54
460.987	8.55
461.424	8.53
461.862	8.53
462.299	8.52
462.736	8.52
463.173	8.53
463.611	8.51
464.048	8.51
464.485	8.49
464.922	8.48
465.359	8.5
465.796	8.48
466.233	8.49
466.67	8.52
467.106	8.53
467.543	8.53
467.98	8.55
468.416	8.57
468.853	8.58
469.29	8.6
469.726	8.62
470.162	8.61
470.599	8.63
471.035	8.62
471.471	8.58
471.907	8.59
472.344	8.58
472.78	8.57
473.216	8.54
473.652	8.52
474.088	8.53
474.523	8.51
474.959	8.51
475.395	8.49
475.831	8.48
476.266	8.49
476.702	8.46
477.138	8.44
477.573	8.43
478.008	8.42
478.444	8.41
478.879	8.38
479.314	8.36
479.75	8.35
480.185	8.33
480.62	8.31
481.055	8.29
481.49	8.27
481.925	8.25
482.36	8.24
482.795	8.21
483.229	8.2
483.664	8.18
484.099	8.17
484.534	8.15
484.968	8.15
485.403	8.14
485.837	8.14
486.271	8.14
486.706	8.14
487.14	8.15
487.574	8.16
488.009	8.17
488.443	8.2
488.877	8.23
489.311	8.25
489.745	8.27
490.179	8.3
490.613	8.32
491.046	8.36
491.48	8.39
491.914	8.43
492.348	8.47
492.781	8.51
493.215	8.54
493.648	8.59
494.082	8.65
494.515	8.7
494.948	8.76
495.382	8.83
495.815	8.9
496.248	8.98
496.681	9.06
497.114	9.14
497.547	9.24
497.98	9.33
498.413	9.43
498.846	9.52
499.279	9.64
499.711	9.75
500.144	9.87
500.577	10
501.009	10.14
501.442	10.28
501.874	10.44
502.306	10.59
502.739	10.75
503.171	10.94
503.603	11.13
504.036	11.32
504.468	11.52
504.9	11.74
505.332	11.96
505.764	12.2
506.196	12.45
506.627	12.71
507.059	12.97
507.491	13.25
507.923	13.52
508.354	13.83
508.786	14.15
509.217	14.46
509.649	14.79
510.08	15.14
510.512	15.49
510.943	15.83
511.374	16.19
511.805	16.57
512.237	16.96
512.668	17.37
513.099	17.78
513.53	18.18
513.961	18.62
514.391	19.05
514.822	19.47
515.253	19.92
515.684	20.37
516.114	20.85
516.545	21.33
516.975	21.8
517.406	22.27
517.836	22.73
518.267	23.2
518.697	23.68
519.127	24.16
519.558	24.61
519.988	25.07
520.418	25.54
520.848	25.98
521.278	26.42
521.708	26.91
522.138	27.33
522.567	27.76
522.997	28.17
523.427	28.57
523.857	28.98
524.286	29.39
524.716	29.79
525.145	30.18
525.575	30.56
526.004	30.93
526.433	31.24
526.863	31.61
527.292	31.96
527.721	32.31
528.15	32.61
528.579	32.92
529.008	33.22
529.437	33.5
529.866	33.73
530.295	33.98
530.724	34.26
531.152	34.5
531.581	34.71
532.01	34.92
532.438	35.11
532.867	35.31
533.295	35.51
533.723	35.68
534.152	35.83
534.58	36.01
535.008	36.14
535.436	36.25
535.865	36.35
536.293	36.44
536.721	36.54
537.149	36.64
537.576	36.74
538.004	36.79
538.432	36.88
538.86	36.97
539.287	37.03
539.715	37.09
540.143	37.15
540.57	37.23
540.998	37.32
541.425	37.37
541.852	37.44
542.28	37.47
542.707	37.53
543.134	37.58
543.561	37.61
543.988	37.65
544.415	37.69
544.842	37.74
545.269	37.77
545.696	37.81
546.123	37.86
546.549	37.93
546.976	38
547.403	38.03
547.829	38.09
548.256	38.15
548.682	38.21
549.108	38.25
549.535	38.3
549.961	38.32
550.387	38.33
550.813	38.33
551.24	38.34
551.666	38.35
552.092	38.39
552.518	38.36
552.943	38.33
553.369	38.3
553.795	38.29
554.221	38.26
554.646	38.24
555.072	38.21
555.498	38.14
555.923	38.06
556.349	37.96
556.774	37.86
557.199	37.78
557.625	37.68
558.05	37.57
558.475	37.45
558.9	37.32
559.325	37.19
559.75	37.03
560.175	36.9
560.6	36.73
561.025	36.57
561.449	36.39
561.874	36.2
562.299	36
562.723	35.8
563.148	35.6
563.572	35.38
563.997	35.14
564.421	34.91
564.846	34.67
565.27	34.41
565.694	34.15
566.118	33.88
566.542	33.64
566.966	33.38
567.39	33.11
567.814	32.81
568.238	32.52
568.662	32.25
569.086	31.97
569.509	31.69
569.933	31.42
570.357	31.15
570.78	30.88
571.204	30.6
571.627	30.33
572.05	30.09
572.474	29.88
572.897	29.64
573.32	29.43
573.743	29.2
574.166	29
574.589	28.81
575.012	28.64
575.435	28.46
575.858	28.28
576.281	28.12
576.704	27.96
577.126	27.79
577.549	27.63
577.972	27.48
578.394	27.33
578.817	27.15
579.239	27
579.661	26.84
580.084	26.7
580.506	26.57
580.928	26.43
581.35	26.3
581.772	26.17
582.194	26.03
582.616	25.9
583.038	25.78
583.46	25.7
583.882	25.59
584.303	25.48
584.725	25.38
585.147	25.27
585.568	25.16
585.99	25.06
586.411	24.96
586.833	24.88
587.254	24.79
587.675	24.7
588.096	24.63
588.518	24.54
588.939	24.44
589.36	24.37
589.781	24.28
590.202	24.2
590.623	24.12
591.043	24.03
591.464	23.96
591.885	23.9
592.305	23.83
592.726	23.76
593.147	23.68
593.567	23.62
593.987	23.55
594.408	23.5
594.828	23.44
595.248	23.38
595.669	23.33
596.089	23.28
596.509	23.2
596.929	23.13
597.349	23.05
597.769	22.99
598.189	22.94
598.608	22.86
599.028	22.79
599.448	22.72
599.867	22.65
600.287	22.57
600.706	22.48
601.126	22.42
601.545	22.34
601.965	22.27
602.384	22.19
602.803	22.1
603.222	22.01
603.641	21.93
604.061	21.84
604.48	21.74
604.898	21.65
605.317	21.56
605.736	21.45
606.155	21.34
606.574	21.23
606.992	21.12
607.411	21.01
607.829	20.88
608.248	20.77
608.666	20.67
609.085	20.56
609.503	20.44
609.921	20.34
610.339	20.24
610.758	20.13
611.176	20.02
611.594	19.91
612.012	19.79
612.43	19.72
612.847	19.61
613.265	19.5
613.683	19.38
614.101	19.27
614.518	19.15
614.936	19.04
615.353	18.94
615.771	18.84
616.188	18.75
616.606	18.66
617.023	18.57
617.44	18.48
617.857	18.39
618.274	18.34
618.691	18.26
619.108	18.19
619.525	18.14
619.942	18.08
620.359	18.02
620.776	17.97
621.192	17.92
621.609	17.87
622.026	17.84
622.442	17.8
622.859	17.77
623.275	17.76
623.691	17.75
624.108	17.71
624.524	17.69
624.94	17.66
625.356	17.65
625.772	17.64
626.188	17.64
626.604	17.6
627.02	17.59
627.436	17.55
627.852	17.52
628.268	17.48
628.683	17.44
629.099	17.41
629.514	17.38
629.93	17.32
630.345	17.25
630.761	17.19
631.176	17.14
631.591	17.06
632.007	16.98
632.422	16.89
632.837	16.81
633.252	16.71
633.667	16.59
634.082	16.47
634.497	16.34
634.911	16.22
635.326	16.06
635.741	15.89
636.155	15.74
636.57	15.58
636.984	15.41
637.399	15.21
637.813	15.03
638.228	14.85
638.642	14.67
639.056	14.48
639.47	14.3
639.884	14.11
640.298	13.93
640.712	13.74
641.126	13.56
641.54	13.37
641.954	13.21
642.368	13.04
642.781	12.86
643.195	12.69
643.609	12.53
644.022	12.37
644.436	12.22
644.849	12.09
645.262	11.95
645.676	11.82
646.089	11.71
646.502	11.59
646.915	11.49
647.328	11.4
647.741	11.31
648.154	11.24
648.567	11.19
648.98	11.13
649.393	11.05
649.805	11
650.218	10.94
650.631	10.88
651.043	10.84
651.456	10.8
651.868	10.75
652.28	10.71
652.693	10.65
653.105	10.59
653.517	10.52
653.929	10.48
654.341	10.44
654.753	10.39
655.165	10.34
655.577	10.26
655.989	10.17
656.401	10.08
656.813	9.98
657.224	9.9
657.636	9.83
658.047	9.74
658.459	9.62
658.87	9.51
659.282	9.41
659.693	9.32
660.104	9.22
660.515	9.14
660.926	9.05
661.338	8.97
661.749	8.86
662.159	8.76
662.57	8.68
662.981	8.62
663.392	8.52
663.803	8.44
664.213	8.37
664.624	8.31
665.035	8.26
665.445	8.21
665.855	8.17
666.266	8.14
666.676	8.1
667.086	8.07
667.497	8.03
667.907	8.01
668.317	7.98
668.727	7.95
669.137	7.94
669.547	7.92
669.956	7.88
670.366	7.89
670.776	7.88
671.186	7.87
671.595	7.87
672.005	7.88
672.414	7.88
672.824	7.9
673.233	7.91
673.642	7.91
674.052	7.93
674.461	7.95
674.87	7.96
675.279	7.98
675.688	8
676.097	8.03
676.506	8.07
676.915	8.11
677.323	8.16
677.732	8.22
678.141	8.28
678.549	8.34
678.958	8.41
679.366	8.48
679.775	8.57
680.183	8.67
680.592	8.76
681	8.86
681.408	8.98
681.816	9.11
682.224	9.27
682.632	9.44
683.04	9.63
683.448	9.84
683.856	10.09
684.264	10.35
684.671	10.63
685.079	10.97
685.487	11.35
685.894	11.76
686.302	12.21
686.709	12.65
687.116	13.17
687.524	13.73
687.931	14.32
688.338	14.96
688.745	15.65
689.152	16.38
689.559	17.13
689.966	17.9
690.373	18.74
690.78	19.59
691.187	20.49
691.593	21.4
692	22.36
692.407	23.31
692.813	24.3
693.22	25.3
693.626	26.32
694.032	27.35
694.439	28.41
694.845	29.45
695.251	30.49
695.657	31.55
696.063	32.61
696.469	33.67
696.875	34.72
697.281	35.76
697.687	36.82
698.093	37.85
698.498	38.89
698.904	39.89
699.31	40.89
699.715	41.88
700.12	42.85
700.526	43.84
700.931	44.79
701.337	45.74
701.742	46.65
702.147	47.53
702.552	48.42
702.957	49.28
703.362	50.15
703.767	51
704.172	51.81
704.577	52.62
704.981	53.44
705.386	54.21
705.791	55
706.195	55.76
706.6	56.49
707.004	57.19
707.408	57.89
707.813	58.59
708.217	59.27
708.621	59.95
709.025	60.63
709.43	61.21
709.834	61.88
710.237	62.49
710.641	63.12
711.045	63.74
711.449	64.34
711.853	64.96
712.256	65.55
712.66	66.16
713.064	66.72
713.467	67.26
713.87	67.85
714.274	68.42
714.677	68.96
715.08	69.45
715.484	70
715.887	70.54
716.29	71.04
716.693	71.51
717.096	71.98
717.499	72.48
717.901	72.95
718.304	73.39
718.707	73.8
719.109	74.22
719.512	74.7
719.915	75.09
720.317	75.49
720.719	75.86
721.122	76.25
721.524	76.64
721.926	77.01
722.328	77.39
722.731	77.7
723.133	78.04
723.535	78.38
723.937	78.67
724.338	78.99
724.74	79.23
725.142	79.47
725.544	79.73
725.945	80
726.347	80.28
726.748	80.51
727.15	80.76
727.551	81
727.952	81.24
728.354	81.46
728.755	81.7
729.156	81.93
729.557	82.19
729.958	82.41
730.359	82.6
730.76	82.73
731.161	82.91
731.562	83.13
731.962	83.3
732.363	83.48
732.763	83.69
733.164	83.79
733.564	83.95
733.965	84.09
734.365	84.17
734.766	84.29
735.166	84.38
735.566	84.46
735.966	84.52
736.366	84.59
736.766	84.62
737.166	84.65
737.566	84.73
737.966	84.8
738.365	84.89
738.765	85.01
739.165	85.02
739.564	85.13
739.964	85.19
740.363	85.26
740.763	85.27
741.162	85.33
741.561	85.4
741.96	85.52
742.36	85.6
742.759	85.62
743.158	85.63
743.557	85.77
743.955	85.82
744.354	85.91
744.753	85.98
745.152	86.07
745.55	86.14
745.949	86.17
746.348	86.2
746.746	86.2
747.144	86.3
747.543	86.4
747.941	86.43
748.339	86.49
748.737	86.6
749.136	86.63
749.534	86.68
749.932	86.74
750.33	86.79
750.727	86.8
751.125	86.84
751.523	86.79
751.921	86.77
752.318	86.74
752.716	86.75
753.113	86.67
753.511	86.66
753.908	86.63
754.305	86.57
754.703	86.5
755.1	86.49
755.497	86.43
755.894	86.44
756.291	86.44
756.688	86.43
757.085	86.38
757.482	86.4
757.878	86.41
758.275	86.39
758.672	86.41
759.068	86.47
759.465	86.46
759.861	86.48
760.258	86.43
760.654	86.44
761.05	86.4
761.447	86.38
761.843	86.35
762.239	86.33
762.635	86.31
763.031	86.3
763.427	86.23
763.822	86.2
764.218	86.16
764.614	86.19
765.01	86.18
765.405	86.22
765.801	86.19
766.196	86.17
766.592	86.18
766.987	86.19
767.382	86.19
767.778	86.24
768.173	86.26
768.568	86.26
768.963	86.26
769.358	86.26
769.753	86.25
770.148	86.26
770.542	86.27
770.937	86.24
771.332	86.24
771.726	86.22
772.121	86.16
772.515	86.16
772.91	86.18
773.304	86.18
773.699	86.17
774.093	86.17
774.487	86.19
774.881	86.19
775.275	86.22
775.669	86.26
776.063	86.3
776.457	86.3
776.851	86.26
777.245	86.28
777.638	86.28
778.032	86.29
