Data from C_3_dec_oh_4n_Splice17_14.txt Node
Date: Sat Feb 29 15:04:54 EST 2020
User: sa697716
Spectrometer: FLMS03696
Trigger mode: 0
Integration Time (sec): 3.180400E-1
Scans to average: 20
Electric dark correction enabled: true
Nonlinearity correction enabled: true
Boxcar width: 5
XAxis mode: Wavelengths
Number of Pixels in Spectrum: 2048
>>>>>Begin Spectral Data<<<<<
187.83	93.57
188.298	96.92
188.766	93.98
189.233	84.72
189.701	90.62
190.169	96.14
190.636	92.38
191.104	60.28
191.571	-64.19
192.039	101.8
192.506	106.66
192.974	2861.2
193.441	-145.99
193.908	74.71
194.375	21.77
194.842	14.54
195.31	82.3
195.777	73.68
196.244	85.66
196.711	100.62
197.177	102.66
197.644	103.21
198.111	104.12
198.578	105.31
199.045	106.67
199.511	106.8
199.978	106.86
200.445	106.5
200.911	106.99
201.378	107.04
201.844	107.69
202.31	108.54
202.777	109.09
203.243	109.12
203.709	108.95
204.176	108.26
204.642	107.55
205.108	107.72
205.574	107.82
206.04	107.13
206.506	106.38
206.972	105.38
207.438	104.07
207.903	102.58
208.369	100.72
208.835	99.18
209.301	97.9
209.766	96.32
210.232	94.44
210.697	92.28
211.163	90.28
211.628	88.64
212.094	87.08
212.559	85.45
213.024	84.21
213.49	82.59
213.955	80.84
214.42	78.99
214.885	76.84
215.35	74
215.815	70.59
216.28	66.62
216.745	61.95
217.21	57.01
217.675	52.46
218.14	48.05
218.604	44.34
219.069	41.24
219.534	38.43
219.998	36.16
220.463	34.28
220.927	32.61
221.392	31.23
221.856	30.09
222.32	29.16
222.785	28.27
223.249	27.58
223.713	26.93
224.177	26.26
224.642	25.71
225.106	25.17
225.57	24.62
226.034	24.15
226.497	23.7
226.961	23.26
227.425	22.8
227.889	22.4
228.353	21.94
228.816	21.54
229.28	21.16
229.744	20.82
230.207	20.46
230.671	20.12
231.134	19.8
231.597	19.46
232.061	19.17
232.524	18.91
232.987	18.62
233.45	18.36
233.914	18.08
234.377	17.84
234.84	17.58
235.303	17.36
235.766	17.14
236.229	16.93
236.691	16.76
237.154	16.57
237.617	16.36
238.08	16.19
238.542	16.02
239.005	15.85
239.468	15.66
239.93	15.52
240.393	15.34
240.855	15.19
241.317	15.03
241.78	14.87
242.242	14.69
242.704	14.53
243.166	14.37
243.629	14.22
244.091	14.08
244.553	13.95
245.015	13.8
245.477	13.65
245.939	13.5
246.4	13.35
246.862	13.21
247.324	13.08
247.786	12.95
248.247	12.82
248.709	12.69
249.17	12.56
249.632	12.41
250.093	12.25
250.555	12.15
251.016	12.05
251.477	11.93
251.939	11.81
252.4	11.71
252.861	11.6
253.322	11.5
253.783	11.43
254.244	11.34
254.705	11.26
255.166	11.2
255.627	11.11
256.088	11
256.549	10.92
257.009	10.83
257.47	10.74
257.931	10.65
258.391	10.54
258.852	10.42
259.312	10.33
259.773	10.24
260.233	10.14
260.694	10.05
261.154	9.97
261.614	9.88
262.074	9.8
262.534	9.72
262.994	9.64
263.455	9.58
263.915	9.51
264.374	9.43
264.834	9.36
265.294	9.29
265.754	9.22
266.214	9.16
266.673	9.1
267.133	9.04
267.593	8.98
268.052	8.93
268.512	8.87
268.971	8.83
269.431	8.79
269.89	8.76
270.349	8.71
270.809	8.68
271.268	8.64
271.727	8.61
272.186	8.57
272.645	8.53
273.104	8.49
273.563	8.46
274.022	8.43
274.481	8.39
274.94	8.34
275.399	8.31
275.857	8.28
276.316	8.24
276.775	8.2
277.233	8.18
277.692	8.15
278.15	8.12
278.609	8.08
279.067	8.05
279.525	8.03
279.984	8.02
280.442	7.99
280.9	7.97
281.358	7.95
281.816	7.93
282.274	7.91
282.732	7.89
283.19	7.87
283.648	7.87
284.106	7.86
284.564	7.84
285.021	7.84
285.479	7.84
285.937	7.82
286.394	7.81
286.852	7.79
287.309	7.78
287.767	7.76
288.224	7.73
288.682	7.7
289.139	7.66
289.596	7.62
290.053	7.57
290.511	7.52
290.968	7.47
291.425	7.42
291.882	7.38
292.339	7.33
292.796	7.29
293.252	7.24
293.709	7.21
294.166	7.17
294.623	7.15
295.079	7.11
295.536	7.09
295.992	7.06
296.449	7.04
296.905	7.02
297.362	6.99
297.818	6.97
298.274	6.95
298.731	6.92
299.187	6.9
299.643	6.88
300.099	6.86
300.555	6.83
301.011	6.8
301.467	6.78
301.923	6.76
302.379	6.74
302.835	6.72
303.291	6.71
303.746	6.7
304.202	6.68
304.658	6.66
305.113	6.66
305.569	6.66
306.024	6.65
306.479	6.64
306.935	6.64
307.39	6.64
307.845	6.64
308.301	6.65
308.756	6.65
309.211	6.65
309.666	6.65
310.121	6.64
310.576	6.63
311.031	6.63
311.486	6.63
311.94	6.62
312.395	6.61
312.85	6.61
313.305	6.62
313.759	6.61
314.214	6.6
314.668	6.6
315.123	6.6
315.577	6.59
316.032	6.58
316.486	6.57
316.94	6.56
317.394	6.54
317.849	6.51
318.303	6.48
318.757	6.45
319.211	6.42
319.665	6.39
320.119	6.36
320.572	6.34
321.026	6.32
321.48	6.29
321.934	6.27
322.387	6.26
322.841	6.25
323.295	6.23
323.748	6.23
324.202	6.21
324.655	6.21
325.108	6.19
325.562	6.17
326.015	6.14
326.468	6.13
326.921	6.12
327.374	6.11
327.827	6.09
328.28	6.08
328.733	6.07
329.186	6.06
329.639	6.05
330.092	6.05
330.545	6.05
330.997	6.05
331.45	6.06
331.903	6.06
332.355	6.06
332.808	6.06
333.26	6.07
333.713	6.08
334.165	6.09
334.617	6.11
335.069	6.12
335.522	6.13
335.974	6.14
336.426	6.14
336.878	6.14
337.33	6.14
337.782	6.13
338.234	6.13
338.686	6.12
339.137	6.12
339.589	6.11
340.041	6.1
340.493	6.09
340.944	6.07
341.396	6.06
341.847	6.03
342.299	6
342.75	5.98
343.201	5.94
343.653	5.91
344.104	5.88
344.555	5.84
345.006	5.81
345.457	5.78
345.908	5.75
346.359	5.74
346.81	5.74
347.261	5.73
347.712	5.72
348.163	5.71
348.613	5.7
349.064	5.68
349.515	5.67
349.965	5.67
350.416	5.66
350.866	5.66
351.317	5.65
351.767	5.64
352.217	5.63
352.668	5.63
353.118	5.63
353.568	5.64
354.018	5.65
354.468	5.66
354.918	5.66
355.368	5.66
355.818	5.66
356.268	5.67
356.718	5.66
357.168	5.66
357.617	5.67
358.067	5.66
358.517	5.65
358.966	5.65
359.416	5.66
359.865	5.66
360.315	5.65
360.764	5.65
361.213	5.64
361.663	5.62
362.112	5.63
362.561	5.63
363.01	5.63
363.459	5.63
363.908	5.62
364.357	5.61
364.806	5.61
365.255	5.61
365.703	5.61
366.152	5.62
366.601	5.63
367.05	5.62
367.498	5.61
367.947	5.61
368.395	5.62
368.844	5.61
369.292	5.61
369.74	5.62
370.189	5.61
370.637	5.63
371.085	5.63
371.533	5.63
371.981	5.63
372.429	5.64
372.877	5.65
373.325	5.65
373.773	5.64
374.221	5.64
374.669	5.63
375.116	5.62
375.564	5.6
376.012	5.6
376.459	5.59
376.907	5.6
377.354	5.59
377.801	5.58
378.249	5.59
378.696	5.61
379.143	5.63
379.591	5.64
380.038	5.65
380.485	5.67
380.932	5.68
381.379	5.69
381.826	5.69
382.273	5.71
382.72	5.72
383.166	5.73
383.613	5.73
384.06	5.73
384.506	5.75
384.953	5.75
385.4	5.76
385.846	5.77
386.292	5.79
386.739	5.79
387.185	5.81
387.631	5.81
388.078	5.83
388.524	5.82
388.97	5.84
389.416	5.85
389.862	5.87
390.308	5.89
390.754	5.91
391.2	5.94
391.645	5.98
392.091	6
392.537	6.03
392.983	6.06
393.428	6.12
393.874	6.15
394.319	6.17
394.765	6.2
395.21	6.21
395.655	6.23
396.101	6.25
396.546	6.27
396.991	6.28
397.436	6.3
397.881	6.32
398.326	6.35
398.771	6.39
399.216	6.43
399.661	6.47
400.106	6.52
400.551	6.54
400.995	6.55
401.44	6.56
401.885	6.57
402.329	6.59
402.774	6.6
403.218	6.61
403.663	6.61
404.107	6.63
404.551	6.63
404.995	6.63
405.44	6.66
405.884	6.69
406.328	6.72
406.772	6.75
407.216	6.77
407.66	6.81
408.104	6.82
408.547	6.85
408.991	6.86
409.435	6.89
409.879	6.91
410.322	6.93
410.766	6.94
411.209	6.96
411.653	6.97
412.096	6.98
412.54	7
412.983	7.02
413.426	7.05
413.869	7.07
414.312	7.12
414.756	7.16
415.199	7.18
415.642	7.21
416.085	7.25
416.527	7.29
416.97	7.31
417.413	7.3
417.856	7.29
418.298	7.28
418.741	7.26
419.184	7.25
419.626	7.23
420.069	7.22
420.511	7.22
420.953	7.21
421.396	7.21
421.838	7.22
422.28	7.27
422.722	7.31
423.164	7.34
423.606	7.38
424.048	7.38
424.49	7.42
424.932	7.44
425.374	7.44
425.816	7.43
426.258	7.42
426.699	7.37
427.141	7.33
427.582	7.33
428.024	7.34
428.465	7.36
428.907	7.37
429.348	7.36
429.789	7.37
430.231	7.37
430.672	7.41
431.113	7.45
431.554	7.5
431.995	7.54
432.436	7.56
432.877	7.57
433.318	7.59
433.759	7.6
434.2	7.64
434.64	7.68
435.081	7.71
435.522	7.74
435.962	7.79
436.403	7.84
436.843	7.87
437.284	7.91
437.724	7.95
438.164	7.97
438.604	8.01
439.045	8.03
439.485	8.05
439.925	8.08
440.365	8.08
440.805	8.08
441.245	8.06
441.685	8.11
442.125	8.12
442.564	8.15
443.004	8.18
443.444	8.21
443.883	8.25
444.323	8.26
444.762	8.31
445.202	8.37
445.641	8.42
446.081	8.49
446.52	8.48
446.959	8.53
447.398	8.61
447.837	8.66
448.276	8.7
448.716	8.73
449.154	8.79
449.593	8.83
450.032	8.84
450.471	8.86
450.91	8.87
451.349	8.89
451.787	8.88
452.226	8.84
452.664	8.81
453.103	8.79
453.541	8.8
453.98	8.77
454.418	8.73
454.856	8.69
455.295	8.67
455.733	8.63
456.171	8.62
456.609	8.59
457.047	8.57
457.485	8.56
457.923	8.55
458.361	8.52
458.798	8.52
459.236	8.51
459.674	8.49
460.111	8.5
460.549	8.48
460.987	8.49
461.424	8.5
461.862	8.51
462.299	8.5
462.736	8.49
463.173	8.48
463.611	8.48
464.048	8.49
464.485	8.5
464.922	8.5
465.359	8.52
465.796	8.49
466.233	8.5
466.67	8.5
467.106	8.5
467.543	8.52
467.98	8.53
468.416	8.55
468.853	8.54
469.29	8.54
469.726	8.54
470.162	8.53
470.599	8.52
471.035	8.51
471.471	8.51
471.907	8.51
472.344	8.5
472.78	8.48
473.216	8.48
473.652	8.46
474.088	8.47
474.523	8.46
474.959	8.46
475.395	8.47
475.831	8.46
476.266	8.43
476.702	8.42
477.138	8.4
477.573	8.39
478.008	8.36
478.444	8.34
478.879	8.33
479.314	8.3
479.75	8.28
480.185	8.27
480.62	8.24
481.055	8.24
481.49	8.22
481.925	8.2
482.36	8.17
482.795	8.15
483.229	8.15
483.664	8.13
484.099	8.11
484.534	8.1
484.968	8.08
485.403	8.08
485.837	8.07
486.271	8.06
486.706	8.06
487.14	8.09
487.574	8.1
488.009	8.11
488.443	8.12
488.877	8.14
489.311	8.17
489.745	8.2
490.179	8.22
490.613	8.24
491.046	8.27
491.48	8.31
491.914	8.33
492.348	8.38
492.781	8.43
493.215	8.47
493.648	8.52
494.082	8.57
494.515	8.62
494.948	8.68
495.382	8.77
495.815	8.85
496.248	8.94
496.681	9.03
497.114	9.1
497.547	9.19
497.98	9.29
498.413	9.39
498.846	9.49
499.279	9.6
499.711	9.7
500.144	9.82
500.577	9.93
501.009	10.06
501.442	10.19
501.874	10.34
502.306	10.49
502.739	10.65
503.171	10.83
503.603	11.03
504.036	11.22
504.468	11.43
504.9	11.65
505.332	11.88
505.764	12.11
506.196	12.36
506.627	12.61
507.059	12.87
507.491	13.16
507.923	13.45
508.354	13.73
508.786	14.03
509.217	14.32
509.649	14.65
510.08	14.99
510.512	15.31
510.943	15.68
511.374	16.05
511.805	16.43
512.237	16.81
512.668	17.19
513.099	17.62
513.53	18.05
513.961	18.51
514.391	18.94
514.822	19.36
515.253	19.82
515.684	20.25
516.114	20.71
516.545	21.17
516.975	21.64
517.406	22.1
517.836	22.55
518.267	23
518.697	23.47
519.127	23.94
519.558	24.41
519.988	24.88
520.418	25.34
520.848	25.79
521.278	26.25
521.708	26.76
522.138	27.19
522.567	27.62
522.997	28.06
523.427	28.46
523.857	28.86
524.286	29.27
524.716	29.66
525.145	30.05
525.575	30.41
526.004	30.78
526.433	31.08
526.863	31.47
527.292	31.8
527.721	32.12
528.15	32.42
528.579	32.71
529.008	33
529.437	33.29
529.866	33.54
530.295	33.82
530.724	34.06
531.152	34.29
531.581	34.49
532.01	34.71
532.438	34.92
532.867	35.11
533.295	35.31
533.723	35.5
534.152	35.65
534.58	35.82
535.008	35.93
535.436	36.04
535.865	36.13
536.293	36.26
536.721	36.36
537.149	36.45
537.576	36.53
538.004	36.59
538.432	36.66
538.86	36.73
539.287	36.81
539.715	36.88
540.143	36.94
540.57	37.03
540.998	37.08
541.425	37.13
541.852	37.2
542.28	37.26
542.707	37.34
543.134	37.39
543.561	37.42
543.988	37.48
544.415	37.51
544.842	37.58
545.269	37.63
545.696	37.69
546.123	37.75
546.549	37.81
546.976	37.89
547.403	37.92
547.829	37.99
548.256	38.05
548.682	38.1
549.108	38.15
549.535	38.2
549.961	38.21
550.387	38.23
550.813	38.23
551.24	38.25
551.666	38.26
552.092	38.28
552.518	38.26
552.943	38.27
553.369	38.24
553.795	38.23
554.221	38.19
554.646	38.16
555.072	38.13
555.498	38.09
555.923	38.03
556.349	37.92
556.774	37.83
557.199	37.74
557.625	37.6
558.05	37.46
558.475	37.32
558.9	37.21
559.325	37.08
559.75	36.93
560.175	36.76
560.6	36.57
561.025	36.4
561.449	36.21
561.874	36.01
562.299	35.85
562.723	35.68
563.148	35.46
563.572	35.22
563.997	34.99
564.421	34.75
564.846	34.5
565.27	34.27
565.694	34.03
566.118	33.78
566.542	33.54
566.966	33.26
567.39	32.98
567.814	32.73
568.238	32.46
568.662	32.19
569.086	31.91
569.509	31.65
569.933	31.37
570.357	31.09
570.78	30.81
571.204	30.53
571.627	30.27
572.05	30.02
572.474	29.79
572.897	29.56
573.32	29.32
573.743	29.11
574.166	28.9
574.589	28.69
575.012	28.51
575.435	28.33
575.858	28.17
576.281	28
576.704	27.83
577.126	27.67
577.549	27.52
577.972	27.37
578.394	27.21
578.817	27.06
579.239	26.93
579.661	26.78
580.084	26.64
580.506	26.5
580.928	26.37
581.35	26.24
581.772	26.12
582.194	25.97
582.616	25.85
583.038	25.72
583.46	25.63
583.882	25.51
584.303	25.42
584.725	25.32
585.147	25.2
585.568	25.08
585.99	24.98
586.411	24.87
586.833	24.78
587.254	24.7
587.675	24.63
588.096	24.54
588.518	24.45
588.939	24.34
589.36	24.25
589.781	24.18
590.202	24.13
590.623	24.05
591.043	23.96
591.464	23.9
591.885	23.82
592.305	23.75
592.726	23.68
593.147	23.62
593.567	23.56
593.987	23.51
594.408	23.42
594.828	23.35
595.248	23.3
595.669	23.24
596.089	23.17
596.509	23.11
596.929	23.04
597.349	22.96
597.769	22.89
598.189	22.85
598.608	22.79
599.028	22.74
599.448	22.67
599.867	22.59
600.287	22.53
600.706	22.46
601.126	22.39
601.545	22.3
601.965	22.22
602.384	22.15
602.803	22.05
603.222	21.95
603.641	21.85
604.061	21.76
604.48	21.67
604.898	21.58
605.317	21.49
605.736	21.38
606.155	21.29
606.574	21.19
606.992	21.08
607.411	20.98
607.829	20.84
608.248	20.73
608.666	20.62
609.085	20.52
609.503	20.4
609.921	20.27
610.339	20.17
610.758	20.06
611.176	19.94
611.594	19.84
612.012	19.71
612.43	19.64
612.847	19.55
613.265	19.46
613.683	19.34
614.101	19.22
614.518	19.12
614.936	19.02
615.353	18.92
615.771	18.83
616.188	18.75
616.606	18.65
617.023	18.55
617.44	18.46
617.857	18.37
618.274	18.3
618.691	18.23
619.108	18.16
619.525	18.1
619.942	18.02
620.359	17.97
620.776	17.91
621.192	17.87
621.609	17.84
622.026	17.79
622.442	17.75
622.859	17.7
623.275	17.7
623.691	17.68
624.108	17.66
624.524	17.64
624.94	17.62
625.356	17.59
625.772	17.58
626.188	17.55
626.604	17.54
627.02	17.52
627.436	17.52
627.852	17.48
628.268	17.44
628.683	17.39
629.099	17.37
629.514	17.33
629.93	17.28
630.345	17.22
630.761	17.18
631.176	17.11
631.591	17.05
632.007	16.98
632.422	16.9
632.837	16.82
633.252	16.73
633.667	16.61
634.082	16.51
634.497	16.38
634.911	16.25
635.326	16.1
635.741	15.93
636.155	15.77
636.57	15.59
636.984	15.39
637.399	15.19
637.813	15
638.228	14.8
638.642	14.61
639.056	14.42
639.47	14.22
639.884	14.04
640.298	13.86
640.712	13.66
641.126	13.48
641.54	13.31
641.954	13.16
642.368	12.98
642.781	12.82
643.195	12.64
643.609	12.47
644.022	12.31
644.436	12.15
644.849	12
645.262	11.87
645.676	11.74
646.089	11.6
646.502	11.49
646.915	11.39
647.328	11.29
647.741	11.19
648.154	11.13
648.567	11.08
648.98	11.01
649.393	10.95
649.805	10.89
650.218	10.85
650.631	10.81
651.043	10.76
651.456	10.72
651.868	10.66
652.28	10.63
652.693	10.57
653.105	10.52
653.517	10.47
653.929	10.43
654.341	10.39
654.753	10.31
655.165	10.25
655.577	10.16
655.989	10.07
656.401	9.99
656.813	9.91
657.224	9.83
657.636	9.72
658.047	9.63
658.459	9.53
658.87	9.42
659.282	9.34
659.693	9.25
660.104	9.17
660.515	9.08
660.926	9
661.338	8.92
661.749	8.83
662.159	8.74
662.57	8.64
662.981	8.56
663.392	8.47
663.803	8.38
664.213	8.31
664.624	8.25
665.035	8.19
665.445	8.13
665.855	8.06
666.266	8.02
666.676	7.98
667.086	7.96
667.497	7.91
667.907	7.88
668.317	7.85
668.727	7.82
669.137	7.79
669.547	7.78
669.956	7.76
670.366	7.76
670.776	7.74
671.186	7.73
671.595	7.73
672.005	7.75
672.414	7.77
672.824	7.8
673.233	7.8
673.642	7.81
674.052	7.83
674.461	7.84
674.87	7.86
675.279	7.89
675.688	7.91
676.097	7.94
676.506	7.97
676.915	8
677.323	8.04
677.732	8.08
678.141	8.15
678.549	8.21
678.958	8.28
679.366	8.35
679.775	8.44
680.183	8.55
680.592	8.64
681	8.75
681.408	8.87
681.816	9
682.224	9.18
682.632	9.35
683.04	9.55
683.448	9.78
683.856	10.03
684.264	10.3
684.671	10.6
685.079	10.93
685.487	11.31
685.894	11.7
686.302	12.16
686.709	12.62
687.116	13.11
687.524	13.66
687.931	14.24
688.338	14.88
688.745	15.56
689.152	16.27
689.559	17.03
689.966	17.82
690.373	18.67
690.78	19.51
691.187	20.41
691.593	21.35
692	22.3
692.407	23.26
692.813	24.25
693.22	25.23
693.626	26.24
694.032	27.28
694.439	28.31
694.845	29.34
695.251	30.42
695.657	31.46
696.063	32.51
696.469	33.55
696.875	34.58
697.281	35.6
697.687	36.65
698.093	37.7
698.498	38.72
698.904	39.75
699.31	40.74
699.715	41.73
700.12	42.71
700.526	43.67
700.931	44.62
701.337	45.57
701.742	46.48
702.147	47.39
702.552	48.28
702.957	49.15
703.362	50.01
703.767	50.85
704.172	51.67
704.577	52.45
704.981	53.25
705.386	54.05
705.791	54.85
706.195	55.6
706.6	56.34
707.004	57.06
707.408	57.75
707.813	58.45
708.217	59.11
708.621	59.78
709.025	60.47
709.43	61.1
709.834	61.75
710.237	62.34
710.641	63.01
711.045	63.62
711.449	64.21
711.853	64.82
712.256	65.46
712.66	66.04
713.064	66.62
713.467	67.18
713.87	67.75
714.274	68.31
714.677	68.86
715.08	69.35
715.484	69.89
715.887	70.39
716.29	70.9
716.693	71.32
717.096	71.84
717.499	72.28
717.901	72.75
718.304	73.2
718.707	73.58
719.109	73.99
719.512	74.42
719.915	74.8
720.317	75.21
720.719	75.56
721.122	75.94
721.524	76.31
721.926	76.7
722.328	77.03
722.731	77.41
723.133	77.79
723.535	78.16
723.937	78.49
724.338	78.78
724.74	79.07
725.142	79.35
725.544	79.63
725.945	79.86
726.347	80.13
726.748	80.36
727.15	80.58
727.551	80.78
727.952	80.96
728.354	81.18
728.755	81.39
729.156	81.63
729.557	81.88
729.958	82.09
730.359	82.29
730.76	82.41
731.161	82.61
731.562	82.77
731.962	82.95
732.363	83.11
732.763	83.28
733.164	83.42
733.564	83.53
733.965	83.62
734.365	83.73
734.766	83.87
735.166	83.97
735.566	84.03
735.966	84.13
736.366	84.22
736.766	84.32
737.166	84.41
737.566	84.48
737.966	84.56
738.365	84.64
738.765	84.75
739.165	84.76
739.564	84.87
739.964	84.95
740.363	85.04
740.763	85.07
741.162	85.08
741.561	85.15
741.96	85.24
742.36	85.35
742.759	85.38
743.158	85.41
743.557	85.52
743.955	85.6
744.354	85.66
744.753	85.72
745.152	85.82
745.55	85.9
745.949	85.95
746.348	85.99
746.746	86.01
747.144	86.1
747.543	86.11
747.941	86.19
748.339	86.23
748.737	86.35
749.136	86.39
749.534	86.43
749.932	86.46
750.33	86.47
750.727	86.47
751.125	86.47
751.523	86.45
751.921	86.51
752.318	86.48
752.716	86.45
753.113	86.39
753.511	86.34
753.908	86.31
754.305	86.24
754.703	86.18
755.1	86.16
755.497	86.13
755.894	86.11
756.291	86.08
756.688	86.05
757.085	86.05
757.482	86.02
757.878	86.08
758.275	86.05
758.672	86.1
759.068	86.17
759.465	86.19
759.861	86.2
760.258	86.16
760.654	86.14
761.05	86.15
761.447	86.14
761.843	86.14
762.239	86.08
762.635	86.08
763.031	86.08
763.427	86.01
763.822	85.96
764.218	85.97
764.614	85.99
765.01	85.97
765.405	85.93
765.801	85.87
766.196	85.86
766.592	85.84
766.987	85.81
767.382	85.8
767.778	85.79
768.173	85.82
768.568	85.77
768.963	85.75
769.358	85.75
769.753	85.77
770.148	85.84
770.542	85.81
770.937	85.78
771.332	85.8
771.726	85.79
772.121	85.78
772.515	85.79
772.91	85.82
773.304	85.86
773.699	85.84
774.093	85.84
774.487	85.8
774.881	85.84
775.275	85.9
775.669	85.96
776.063	85.98
776.457	85.98
776.851	85.91
777.245	85.95
777.638	85.94
