Data from C_3_div_oh_2n_Splice17_06.txt Node
Date: Sat Feb 29 14:38:47 EST 2020
User: sa697716
Spectrometer: FLMS03696
Trigger mode: 0
Integration Time (sec): 3.180400E-1
Scans to average: 20
Electric dark correction enabled: true
Nonlinearity correction enabled: true
Boxcar width: 5
XAxis mode: Wavelengths
Number of Pixels in Spectrum: 2048
>>>>>Begin Spectral Data<<<<<
187.83	33.37
188.298	23.83
188.766	30.23
189.233	17.71
189.701	37.9
190.169	38.13
190.636	34.11
191.104	-22
191.571	-164.28
192.039	-9.44
192.506	474.41
192.974	5527.87
193.441	-247.47
193.908	72.68
194.375	-27.87
194.842	48.68
195.31	8.93
195.777	-13.19
196.244	-46.57
196.711	-28.09
197.177	-29.57
197.644	-27.43
198.111	-27.32
198.578	-26.3
199.045	-25.87
199.511	-24.8
199.978	-24.04
200.445	-24.06
200.911	-23.34
201.378	-22.96
201.844	-22.39
202.31	-21.45
202.777	-20.89
203.243	-20.09
203.709	-19.38
204.176	-19.36
204.642	-18.91
205.108	-18.76
205.574	-17.7
206.04	-17.62
206.506	-17.57
206.972	-17.35
207.438	-17.22
207.903	-16.71
208.369	-16.29
208.835	-16.29
209.301	-15.55
209.766	-14.94
210.232	-14.13
210.697	-13.52
211.163	-12.81
211.628	-12.22
212.094	-11.83
212.559	-11.43
213.024	-11.17
213.49	-10.88
213.955	-9.85
214.42	-9.23
214.885	-8.7
215.35	-7.91
215.815	-7.26
216.28	-6.18
216.745	-4.67
217.21	-3.03
217.675	-1.41
218.14	-0.5
218.604	0.32
219.069	1.03
219.534	1.75
219.998	2.24
220.463	2.67
220.927	3.12
221.392	3.44
221.856	3.67
222.32	3.76
222.785	3.8
223.249	4
223.713	4.16
224.177	4.21
224.642	4.28
225.106	4.37
225.57	4.42
226.034	4.51
226.497	4.5
226.961	4.51
227.425	4.53
227.889	4.55
228.353	4.52
228.816	4.54
229.28	4.52
229.744	4.51
230.207	4.51
230.671	4.48
231.134	4.43
231.597	4.42
232.061	4.39
232.524	4.38
232.987	4.36
233.45	4.35
233.914	4.33
234.377	4.31
234.84	4.28
235.303	4.25
235.766	4.22
236.229	4.19
236.691	4.16
237.154	4.14
237.617	4.1
238.08	4.07
238.542	4.03
239.005	3.98
239.468	3.93
239.93	3.89
240.393	3.86
240.855	3.83
241.317	3.82
241.78	3.79
242.242	3.76
242.704	3.74
243.166	3.71
243.629	3.69
244.091	3.67
244.553	3.67
245.015	3.67
245.477	3.65
245.939	3.62
246.4	3.6
246.862	3.58
247.324	3.57
247.786	3.57
248.247	3.57
248.709	3.55
249.17	3.55
249.632	3.53
250.093	3.5
250.555	3.49
251.016	3.5
251.477	3.49
251.939	3.49
252.4	3.48
252.861	3.47
253.322	3.46
253.783	3.46
254.244	3.45
254.705	3.45
255.166	3.47
255.627	3.47
256.088	3.46
256.549	3.46
257.009	3.45
257.47	3.45
257.931	3.45
258.391	3.43
258.852	3.42
259.312	3.42
259.773	3.4
260.233	3.39
260.694	3.38
261.154	3.38
261.614	3.37
262.074	3.37
262.534	3.35
262.994	3.34
263.455	3.34
263.915	3.34
264.374	3.34
264.834	3.34
265.294	3.34
265.754	3.34
266.214	3.34
266.673	3.33
267.133	3.33
267.593	3.33
268.052	3.32
268.512	3.32
268.971	3.32
269.431	3.31
269.89	3.3
270.349	3.29
270.809	3.28
271.268	3.27
271.727	3.26
272.186	3.25
272.645	3.24
273.104	3.24
273.563	3.24
274.022	3.23
274.481	3.23
274.94	3.22
275.399	3.22
275.857	3.22
276.316	3.21
276.775	3.2
277.233	3.19
277.692	3.19
278.15	3.18
278.609	3.16
279.067	3.15
279.525	3.14
279.984	3.14
280.442	3.12
280.9	3.12
281.358	3.11
281.816	3.1
282.274	3.09
282.732	3.08
283.19	3.08
283.648	3.07
284.106	3.07
284.564	3.06
285.021	3.06
285.479	3.06
285.937	3.05
286.394	3.04
286.852	3.04
287.309	3.04
287.767	3.04
288.224	3.04
288.682	3.03
289.139	3.04
289.596	3.04
290.053	3.03
290.511	3.03
290.968	3.04
291.425	3.05
291.882	3.05
292.339	3.05
292.796	3.04
293.252	3.04
293.709	3.04
294.166	3.04
294.623	3.04
295.079	3.04
295.536	3.03
295.992	3.01
296.449	3.01
296.905	3
297.362	3
297.818	2.99
298.274	2.98
298.731	2.98
299.187	2.97
299.643	2.96
300.099	2.95
300.555	2.95
301.011	2.94
301.467	2.93
301.923	2.92
302.379	2.92
302.835	2.9
303.291	2.9
303.746	2.89
304.202	2.88
304.658	2.87
305.113	2.86
305.569	2.86
306.024	2.85
306.479	2.84
306.935	2.83
307.39	2.81
307.845	2.81
308.301	2.8
308.756	2.78
309.211	2.78
309.666	2.78
310.121	2.77
310.576	2.75
311.031	2.75
311.486	2.75
311.94	2.74
312.395	2.74
312.85	2.73
313.305	2.72
313.759	2.71
314.214	2.7
314.668	2.68
315.123	2.68
315.577	2.68
316.032	2.68
316.486	2.66
316.94	2.66
317.394	2.66
317.849	2.65
318.303	2.65
318.757	2.65
319.211	2.65
319.665	2.64
320.119	2.64
320.572	2.64
321.026	2.64
321.48	2.63
321.934	2.63
322.387	2.62
322.841	2.61
323.295	2.61
323.748	2.6
324.202	2.6
324.655	2.59
325.108	2.58
325.562	2.57
326.015	2.56
326.468	2.55
326.921	2.54
327.374	2.54
327.827	2.53
328.28	2.51
328.733	2.5
329.186	2.49
329.639	2.48
330.092	2.47
330.545	2.47
330.997	2.47
331.45	2.46
331.903	2.45
332.355	2.45
332.808	2.44
333.26	2.45
333.713	2.45
334.165	2.45
334.617	2.46
335.069	2.46
335.522	2.46
335.974	2.45
336.426	2.45
336.878	2.45
337.33	2.45
337.782	2.44
338.234	2.44
338.686	2.43
339.137	2.43
339.589	2.42
340.041	2.42
340.493	2.41
340.944	2.42
341.396	2.43
341.847	2.42
342.299	2.41
342.75	2.41
343.201	2.41
343.653	2.41
344.104	2.41
344.555	2.4
345.006	2.4
345.457	2.4
345.908	2.39
346.359	2.39
346.81	2.41
347.261	2.42
347.712	2.42
348.163	2.42
348.613	2.41
349.064	2.4
349.515	2.39
349.965	2.39
350.416	2.38
350.866	2.38
351.317	2.38
351.767	2.37
352.217	2.36
352.668	2.36
353.118	2.36
353.568	2.37
354.018	2.38
354.468	2.38
354.918	2.38
355.368	2.39
355.818	2.38
356.268	2.38
356.718	2.37
357.168	2.35
357.617	2.35
358.067	2.34
358.517	2.33
358.966	2.33
359.416	2.34
359.865	2.34
360.315	2.34
360.764	2.35
361.213	2.35
361.663	2.35
362.112	2.36
362.561	2.36
363.01	2.37
363.459	2.36
363.908	2.35
364.357	2.35
364.806	2.35
365.255	2.34
365.703	2.33
366.152	2.33
366.601	2.33
367.05	2.32
367.498	2.32
367.947	2.31
368.395	2.33
368.844	2.32
369.292	2.33
369.74	2.32
370.189	2.32
370.637	2.32
371.085	2.33
371.533	2.32
371.981	2.32
372.429	2.32
372.877	2.31
373.325	2.3
373.773	2.3
374.221	2.29
374.669	2.28
375.116	2.28
375.564	2.27
376.012	2.26
376.459	2.27
376.907	2.27
377.354	2.25
377.801	2.25
378.249	2.25
378.696	2.25
379.143	2.25
379.591	2.25
380.038	2.25
380.485	2.25
380.932	2.25
381.379	2.23
381.826	2.22
382.273	2.23
382.72	2.23
383.166	2.24
383.613	2.24
384.06	2.25
384.506	2.24
384.953	2.24
385.4	2.24
385.846	2.23
386.292	2.23
386.739	2.23
387.185	2.24
387.631	2.24
388.078	2.24
388.524	2.22
388.97	2.21
389.416	2.21
389.862	2.21
390.308	2.2
390.754	2.2
391.2	2.21
391.645	2.21
392.091	2.2
392.537	2.19
392.983	2.18
393.428	2.19
393.874	2.19
394.319	2.19
394.765	2.18
395.21	2.17
395.655	2.18
396.101	2.17
396.546	2.17
396.991	2.17
397.436	2.15
397.881	2.14
398.326	2.14
398.771	2.14
399.216	2.14
399.661	2.14
400.106	2.15
400.551	2.14
400.995	2.13
401.44	2.12
401.885	2.12
402.329	2.13
402.774	2.11
403.218	2.11
403.663	2.09
404.107	2.08
404.551	2.08
404.995	2.07
405.44	2.06
405.884	2.05
406.328	2.05
406.772	2.05
407.216	2.04
407.66	2.05
408.104	2.04
408.547	2.05
408.991	2.05
409.435	2.04
409.879	2.03
410.322	2.03
410.766	2.04
411.209	2.04
411.653	2.03
412.096	2.02
412.54	2.01
412.983	2
413.426	1.99
413.869	1.98
414.312	1.98
414.756	1.98
415.199	1.99
415.642	1.99
416.085	1.99
416.527	1.99
416.97	1.99
417.413	1.98
417.856	1.97
418.298	1.98
418.741	1.96
419.184	1.96
419.626	1.94
420.069	1.93
420.511	1.91
420.953	1.9
421.396	1.91
421.838	1.93
422.28	1.94
422.722	1.94
423.164	1.94
423.606	1.94
424.048	1.93
424.49	1.96
424.932	1.95
425.374	1.96
425.816	1.95
426.258	1.93
426.699	1.91
427.141	1.9
427.582	1.9
428.024	1.89
428.465	1.89
428.907	1.88
429.348	1.87
429.789	1.87
430.231	1.84
430.672	1.84
431.113	1.84
431.554	1.83
431.995	1.81
432.436	1.8
432.877	1.77
433.318	1.74
433.759	1.74
434.2	1.73
434.64	1.7
435.081	1.7
435.522	1.69
435.962	1.69
436.403	1.68
436.843	1.69
437.284	1.69
437.724	1.71
438.164	1.73
438.604	1.73
439.045	1.72
439.485	1.74
439.925	1.73
440.365	1.72
440.805	1.71
441.245	1.71
441.685	1.69
442.125	1.68
442.564	1.68
443.004	1.67
443.444	1.66
443.883	1.66
444.323	1.62
444.762	1.63
445.202	1.64
445.641	1.62
446.081	1.62
446.52	1.59
446.959	1.58
447.398	1.58
447.837	1.61
448.276	1.61
448.716	1.61
449.154	1.63
449.593	1.64
450.032	1.64
450.471	1.65
450.91	1.63
451.349	1.66
451.787	1.66
452.226	1.64
452.664	1.61
453.103	1.62
453.541	1.63
453.98	1.61
454.418	1.62
454.856	1.6
455.295	1.6
455.733	1.62
456.171	1.62
456.609	1.63
457.047	1.64
457.485	1.64
457.923	1.65
458.361	1.63
458.798	1.65
459.236	1.64
459.674	1.64
460.111	1.66
460.549	1.64
460.987	1.64
461.424	1.64
461.862	1.64
462.299	1.64
462.736	1.63
463.173	1.64
463.611	1.62
464.048	1.64
464.485	1.63
464.922	1.61
465.359	1.62
465.796	1.6
466.233	1.6
466.67	1.58
467.106	1.57
467.543	1.57
467.98	1.56
468.416	1.57
468.853	1.55
469.29	1.55
469.726	1.55
470.162	1.55
470.599	1.55
471.035	1.57
471.471	1.55
471.907	1.57
472.344	1.57
472.78	1.57
473.216	1.57
473.652	1.58
474.088	1.59
474.523	1.6
474.959	1.61
475.395	1.62
475.831	1.63
476.266	1.63
476.702	1.64
477.138	1.64
477.573	1.63
478.008	1.64
478.444	1.64
478.879	1.64
479.314	1.64
479.75	1.65
480.185	1.65
480.62	1.65
481.055	1.66
481.49	1.66
481.925	1.66
482.36	1.66
482.795	1.66
483.229	1.67
483.664	1.67
484.099	1.67
484.534	1.66
484.968	1.67
485.403	1.66
485.837	1.66
486.271	1.65
486.706	1.66
487.14	1.67
487.574	1.67
488.009	1.67
488.443	1.66
488.877	1.67
489.311	1.67
489.745	1.67
490.179	1.67
490.613	1.68
491.046	1.68
491.48	1.68
491.914	1.67
492.348	1.67
492.781	1.66
493.215	1.66
493.648	1.67
494.082	1.67
494.515	1.66
494.948	1.66
495.382	1.66
495.815	1.67
496.248	1.66
496.681	1.66
497.114	1.65
497.547	1.65
497.98	1.65
498.413	1.65
498.846	1.64
499.279	1.64
499.711	1.63
500.144	1.64
500.577	1.63
501.009	1.62
501.442	1.62
501.874	1.62
502.306	1.62
502.739	1.6
503.171	1.61
503.603	1.61
504.036	1.61
504.468	1.61
504.9	1.62
505.332	1.61
505.764	1.62
506.196	1.62
506.627	1.61
507.059	1.61
507.491	1.61
507.923	1.61
508.354	1.61
508.786	1.6
509.217	1.58
509.649	1.58
510.08	1.58
510.512	1.57
510.943	1.58
511.374	1.58
511.805	1.58
512.237	1.59
512.668	1.58
513.099	1.58
513.53	1.58
513.961	1.59
514.391	1.59
514.822	1.59
515.253	1.59
515.684	1.59
516.114	1.59
516.545	1.59
516.975	1.59
517.406	1.59
517.836	1.58
518.267	1.58
518.697	1.58
519.127	1.58
519.558	1.58
519.988	1.57
520.418	1.58
520.848	1.58
521.278	1.58
521.708	1.52
522.138	1.52
522.567	1.52
522.997	1.52
523.427	1.52
523.857	1.52
524.286	1.51
524.716	1.5
525.145	1.51
525.575	1.51
526.004	1.51
526.433	1.56
526.863	1.57
527.292	1.57
527.721	1.57
528.15	1.57
528.579	1.56
529.008	1.56
529.437	1.57
529.866	1.55
530.295	1.55
530.724	1.55
531.152	1.57
531.581	1.56
532.01	1.57
532.438	1.57
532.867	1.58
533.295	1.58
533.723	1.58
534.152	1.59
534.58	1.59
535.008	1.58
535.436	1.59
535.865	1.57
536.293	1.58
536.721	1.57
537.149	1.57
537.576	1.57
538.004	1.57
538.432	1.56
538.86	1.56
539.287	1.57
539.715	1.57
540.143	1.58
540.57	1.57
540.998	1.57
541.425	1.56
541.852	1.56
542.28	1.55
542.707	1.56
543.134	1.55
543.561	1.53
543.988	1.53
544.415	1.52
544.842	1.52
545.269	1.52
545.696	1.52
546.123	1.52
546.549	1.51
546.976	1.53
547.403	1.52
547.829	1.53
548.256	1.55
548.682	1.55
549.108	1.56
549.535	1.55
549.961	1.54
550.387	1.54
550.813	1.54
551.24	1.54
551.666	1.55
552.092	1.55
552.518	1.55
552.943	1.54
553.369	1.54
553.795	1.53
554.221	1.53
554.646	1.53
555.072	1.54
555.498	1.56
555.923	1.55
556.349	1.55
556.774	1.55
557.199	1.56
557.625	1.57
558.05	1.57
558.475	1.58
558.9	1.59
559.325	1.58
559.75	1.58
560.175	1.57
560.6	1.59
561.025	1.59
561.449	1.58
561.874	1.58
562.299	1.58
562.723	1.58
563.148	1.57
563.572	1.57
563.997	1.58
564.421	1.58
564.846	1.58
565.27	1.57
565.694	1.57
566.118	1.57
566.542	1.58
566.966	1.59
567.39	1.58
567.814	1.57
568.238	1.57
568.662	1.56
569.086	1.57
569.509	1.57
569.933	1.56
570.357	1.55
570.78	1.55
571.204	1.54
571.627	1.53
572.05	1.54
572.474	1.54
572.897	1.54
573.32	1.54
573.743	1.53
574.166	1.52
574.589	1.52
575.012	1.52
575.435	1.52
575.858	1.53
576.281	1.53
576.704	1.54
577.126	1.54
577.549	1.54
577.972	1.54
578.394	1.54
578.817	1.54
579.239	1.53
579.661	1.53
580.084	1.52
580.506	1.52
580.928	1.51
581.35	1.51
581.772	1.5
582.194	1.49
582.616	1.49
583.038	1.5
583.46	1.5
583.882	1.51
584.303	1.51
584.725	1.5
585.147	1.48
585.568	1.47
585.99	1.47
586.411	1.46
586.833	1.47
587.254	1.48
587.675	1.48
588.096	1.47
588.518	1.49
588.939	1.5
589.36	1.5
589.781	1.52
590.202	1.52
590.623	1.52
591.043	1.52
591.464	1.5
591.885	1.51
592.305	1.52
592.726	1.52
593.147	1.51
593.567	1.51
593.987	1.52
594.408	1.52
594.828	1.53
595.248	1.54
595.669	1.55
596.089	1.55
596.509	1.54
596.929	1.53
597.349	1.52
597.769	1.52
598.189	1.52
598.608	1.52
599.028	1.53
599.448	1.52
599.867	1.52
600.287	1.51
600.706	1.52
601.126	1.52
601.545	1.52
601.965	1.53
602.384	1.53
602.803	1.52
603.222	1.52
603.641	1.52
604.061	1.51
604.48	1.53
604.898	1.52
605.317	1.51
605.736	1.53
606.155	1.53
606.574	1.54
606.992	1.52
607.411	1.54
607.829	1.5
608.248	1.5
608.666	1.5
609.085	1.5
609.503	1.5
609.921	1.5
610.339	1.5
610.758	1.5
611.176	1.5
611.594	1.52
612.012	1.5
612.43	1.55
612.847	1.56
613.265	1.56
613.683	1.56
614.101	1.56
614.518	1.56
614.936	1.55
615.353	1.55
615.771	1.55
616.188	1.55
616.606	1.56
617.023	1.54
617.44	1.54
617.857	1.53
618.274	1.53
618.691	1.52
619.108	1.52
619.525	1.52
619.942	1.52
620.359	1.52
620.776	1.51
621.192	1.51
621.609	1.51
622.026	1.51
622.442	1.51
622.859	1.51
623.275	1.53
623.691	1.53
624.108	1.53
624.524	1.53
624.94	1.52
625.356	1.52
625.772	1.51
626.188	1.52
626.604	1.51
627.02	1.51
627.436	1.52
627.852	1.51
628.268	1.51
628.683	1.51
629.099	1.51
629.514	1.51
629.93	1.52
630.345	1.51
630.761	1.51
631.176	1.51
631.591	1.5
632.007	1.49
632.422	1.5
632.837	1.49
633.252	1.49
633.667	1.47
634.082	1.46
634.497	1.45
634.911	1.45
635.326	1.44
635.741	1.43
636.155	1.44
636.57	1.43
636.984	1.41
637.399	1.4
637.813	1.39
638.228	1.39
638.642	1.39
639.056	1.4
639.47	1.41
639.884	1.4
640.298	1.4
640.712	1.39
641.126	1.4
641.54	1.41
641.954	1.44
642.368	1.45
642.781	1.45
643.195	1.45
643.609	1.44
644.022	1.45
644.436	1.46
644.849	1.46
645.262	1.48
645.676	1.47
646.089	1.46
646.502	1.45
646.915	1.46
647.328	1.46
647.741	1.46
648.154	1.47
648.567	1.46
648.98	1.46
649.393	1.46
649.805	1.44
650.218	1.45
650.631	1.45
651.043	1.45
651.456	1.45
651.868	1.45
652.28	1.45
652.693	1.45
653.105	1.44
653.517	1.44
653.929	1.46
654.341	1.46
654.753	1.46
655.165	1.46
655.577	1.45
655.989	1.44
656.401	1.45
656.813	1.44
657.224	1.44
657.636	1.45
658.047	1.45
658.459	1.43
658.87	1.43
659.282	1.43
659.693	1.42
660.104	1.42
660.515	1.42
660.926	1.43
661.338	1.43
661.749	1.42
662.159	1.41
662.57	1.42
662.981	1.41
663.392	1.4
663.803	1.4
664.213	1.4
664.624	1.4
665.035	1.4
665.445	1.39
665.855	1.39
666.266	1.39
666.676	1.4
667.086	1.39
667.497	1.38
667.907	1.39
668.317	1.38
668.727	1.38
669.137	1.38
669.547	1.38
669.956	1.38
670.366	1.38
670.776	1.38
671.186	1.38
671.595	1.39
672.005	1.39
672.414	1.38
672.824	1.39
673.233	1.4
673.642	1.39
674.052	1.38
674.461	1.39
674.87	1.39
675.279	1.38
675.688	1.37
676.097	1.37
676.506	1.36
676.915	1.37
677.323	1.36
677.732	1.37
678.141	1.37
678.549	1.38
678.958	1.37
679.366	1.36
679.775	1.37
680.183	1.37
680.592	1.36
681	1.35
681.408	1.35
681.816	1.34
682.224	1.34
682.632	1.33
683.04	1.34
683.448	1.34
683.856	1.34
684.264	1.35
684.671	1.36
685.079	1.36
685.487	1.38
685.894	1.39
686.302	1.39
686.709	1.38
687.116	1.38
687.524	1.37
687.931	1.38
688.338	1.38
688.745	1.37
689.152	1.37
689.559	1.36
689.966	1.36
690.373	1.35
690.78	1.35
691.187	1.35
691.593	1.34
692	1.35
692.407	1.35
692.813	1.35
693.22	1.35
693.626	1.34
694.032	1.35
694.439	1.36
694.845	1.36
695.251	1.36
695.657	1.37
696.063	1.38
696.469	1.38
696.875	1.37
697.281	1.36
697.687	1.37
698.093	1.37
698.498	1.37
698.904	1.37
699.31	1.37
699.715	1.37
700.12	1.37
700.526	1.38
700.931	1.37
701.337	1.37
701.742	1.36
702.147	1.36
702.552	1.36
702.957	1.36
703.362	1.36
703.767	1.35
704.172	1.34
704.577	1.35
704.981	1.34
705.386	1.35
705.791	1.35
706.195	1.37
706.6	1.35
707.004	1.35
707.408	1.36
707.813	1.34
708.217	1.35
708.621	1.36
709.025	1.36
709.43	1.35
709.834	1.37
710.237	1.36
710.641	1.36
711.045	1.36
711.449	1.36
711.853	1.34
712.256	1.35
712.66	1.35
713.064	1.35
713.467	1.34
713.87	1.35
714.274	1.31
714.677	1.33
715.08	1.31
715.484	1.3
715.887	1.29
716.29	1.3
716.693	1.3
717.096	1.3
717.499	1.29
717.901	1.29
718.304	1.29
718.707	1.3
719.109	1.3
719.512	1.31
719.915	1.3
720.317	1.31
720.719	1.31
721.122	1.31
721.524	1.3
721.926	1.3
722.328	1.29
722.731	1.28
723.133	1.29
723.535	1.27
723.937	1.26
724.338	1.27
724.74	1.28
725.142	1.2
725.544	1.18
725.945	1.15
726.347	1.15
726.748	1.16
727.15	1.17
727.551	1.15
727.952	1.16
728.354	1.18
728.755	1.18
729.156	1.19
729.557	1.27
729.958	1.28
730.359	1.32
730.76	1.33
731.161	1.33
731.562	1.33
731.962	1.35
732.363	1.34
732.763	1.33
733.164	1.33
733.564	1.34
733.965	1.36
734.365	1.37
734.766	1.36
735.166	1.35
735.566	1.35
735.966	1.34
736.366	1.33
736.766	1.33
737.166	1.34
737.566	1.33
737.966	1.34
738.365	1.32
738.765	1.3
739.165	1.3
739.564	1.3
739.964	1.3
740.363	1.3
740.763	1.3
741.162	1.31
741.561	1.3
741.96	1.31
742.36	1.3
742.759	1.3
743.158	1.3
743.557	1.3
743.955	1.32
744.354	1.32
744.753	1.33
745.152	1.33
745.55	1.32
745.949	1.32
746.348	1.32
746.746	1.33
747.144	1.32
747.543	1.33
747.941	1.33
748.339	1.32
748.737	1.31
749.136	1.3
749.534	1.31
749.932	1.3
750.33	1.29
750.727	1.29
751.125	1.29
751.523	1.31
751.921	1.31
752.318	1.3
752.716	1.3
753.113	1.32
753.511	1.31
753.908	1.31
754.305	1.3
754.703	1.29
755.1	1.28
755.497	1.29
755.894	1.27
756.291	1.28
756.688	1.29
757.085	1.28
757.482	1.27
757.878	1.29
758.275	1.29
758.672	1.31
759.068	1.33
759.465	1.33
759.861	1.32
760.258	1.29
760.654	1.29
761.05	1.29
761.447	1.3
761.843	1.29
762.239	1.29
762.635	1.28
763.031	1.28
763.427	1.28
763.822	1.27
764.218	1.29
764.614	1.29
765.01	1.27
765.405	1.25
765.801	1.25
766.196	1.26
766.592	1.25
766.987	1.27
767.382	1.25
767.778	1.24
768.173	1.24
768.568	1.22
768.963	1.24
769.358	1.27
769.753	1.29
770.148	1.29
770.542	1.27
770.937	1.27
771.332	1.25
771.726	1.25
772.121	1.23
772.515	1.23
772.91	1.23
773.304	1.23
773.699	1.23
774.093	1.21
774.487	1.19
774.881	1.2
775.275	1.2
775.669	1.21
776.063	1.2
776.457	1.22
776.851	1.2
777.245	1.19
777.638	1.17
778.032	1.16
778.425	1.14
778.819	1.15
779.212	1.15
779.606	1.15
779.999	1.14
780.392	1.16
780.786	1.15
781.179	1.16
781.572	1.17
781.965	1.17
782.358	1.15
782.751	1.15
783.143	1.15
783.536	1.12
783.929	1.14
784.322	1.15
784.714	1.16
785.107	1.16
785.499	1.14
785.891	1.14
786.284	1.16
786.676	1.17
787.068	1.19
787.46	1.18
787.852	1.19
788.245	1.15
788.636	1.14
789.028	1.14
789.42	1.15
789.812	1.16
790.204	1.16
790.595	1.15
790.987	1.13
791.378	1.13
791.77	1.15
792.161	1.17
792.553	1.17
792.944	1.18
793.335	1.18
793.726	1.17
794.117	1.17
794.508	1.18
794.899	1.19
795.29	1.21
795.681	1.2
796.072	1.19
796.463	1.15
