Data from c_3_dec_va_2n_Splice17_04.txt Node
Date: Sat Feb 29 15:01:15 EST 2020
User: sa697716
Spectrometer: FLMS03696
Trigger mode: 0
Integration Time (sec): 3.180400E-1
Scans to average: 20
Electric dark correction enabled: true
Nonlinearity correction enabled: true
Boxcar width: 5
XAxis mode: Wavelengths
Number of Pixels in Spectrum: 2048
>>>>>Begin Spectral Data<<<<<
187.83	60.83
188.298	52.51
188.766	51.88
189.233	40.04
189.701	46.69
190.169	56.48
190.636	52.34
191.104	14.12
191.571	-226.48
192.039	-45.16
192.506	270.9
192.974	7218.28
193.441	-515.16
193.908	93.65
194.375	15.29
194.842	68.75
195.31	89.49
195.777	79.65
196.244	33.52
196.711	42.8
197.177	40.25
197.644	41.28
198.111	41.5
198.578	41.94
199.045	42.98
199.511	43.56
199.978	43.61
200.445	43.08
200.911	43.47
201.378	43.48
201.844	43.47
202.31	44.07
202.777	44.29
203.243	44.53
203.709	44.65
204.176	43.86
204.642	43.61
205.108	43.11
205.574	43.4
206.04	42.98
206.506	42.69
206.972	42.24
207.438	41.88
207.903	41.52
208.369	40.78
208.835	40.2
209.301	40.08
209.766	39.43
210.232	39.29
210.697	38.77
211.163	38.27
211.628	38.05
212.094	37.44
212.559	36.84
213.024	36.04
213.49	35.52
213.955	35.2
214.42	34.5
214.885	33.76
215.35	32.64
215.815	31.35
216.28	29.92
216.745	28.32
217.21	26.83
217.675	25.5
218.14	24.16
218.604	22.86
219.069	21.7
219.534	20.7
219.998	19.97
220.463	19.32
220.927	18.76
221.392	18.27
221.856	17.82
222.32	17.4
222.785	16.94
223.249	16.62
223.713	16.33
224.177	16
224.642	15.75
225.106	15.43
225.57	15.2
226.034	14.98
226.497	14.73
226.961	14.51
227.425	14.26
227.889	14.06
228.353	13.83
228.816	13.64
229.28	13.44
229.744	13.26
230.207	13.1
230.671	12.93
231.134	12.73
231.597	12.55
232.061	12.38
232.524	12.24
232.987	12.1
233.45	11.96
233.914	11.82
234.377	11.69
234.84	11.55
235.303	11.43
235.766	11.29
236.229	11.17
236.691	11.07
237.154	10.97
237.617	10.87
238.08	10.76
238.542	10.66
239.005	10.55
239.468	10.44
239.93	10.35
240.393	10.25
240.855	10.16
241.317	10.08
241.78	10.01
242.242	9.91
242.704	9.82
243.166	9.74
243.629	9.67
244.091	9.6
244.553	9.54
245.015	9.47
245.477	9.38
245.939	9.3
246.4	9.22
246.862	9.14
247.324	9.06
247.786	8.99
248.247	8.92
248.709	8.86
249.17	8.79
249.632	8.72
250.093	8.64
250.555	8.57
251.016	8.53
251.477	8.47
251.939	8.42
252.4	8.37
252.861	8.31
253.322	8.25
253.783	8.21
254.244	8.16
254.705	8.12
255.166	8.1
255.627	8.07
256.088	8.01
256.549	7.97
257.009	7.93
257.47	7.89
257.931	7.86
258.391	7.81
258.852	7.76
259.312	7.72
259.773	7.68
260.233	7.63
260.694	7.59
261.154	7.55
261.614	7.5
262.074	7.46
262.534	7.41
262.994	7.37
263.455	7.35
263.915	7.32
264.374	7.28
264.834	7.25
265.294	7.22
265.754	7.19
266.214	7.17
266.673	7.15
267.133	7.12
267.593	7.1
268.052	7.07
268.512	7.05
268.971	7.03
269.431	7.01
269.89	6.98
270.349	6.96
270.809	6.95
271.268	6.94
271.727	6.92
272.186	6.91
272.645	6.89
273.104	6.88
273.563	6.86
274.022	6.84
274.481	6.82
274.94	6.8
275.399	6.79
275.857	6.77
276.316	6.74
276.775	6.71
277.233	6.68
277.692	6.66
278.15	6.63
278.609	6.61
279.067	6.6
279.525	6.57
279.984	6.55
280.442	6.53
280.9	6.51
281.358	6.5
281.816	6.48
282.274	6.48
282.732	6.47
283.19	6.46
283.648	6.45
284.106	6.43
284.564	6.43
285.021	6.43
285.479	6.42
285.937	6.41
286.394	6.41
286.852	6.41
287.309	6.41
287.767	6.4
288.224	6.39
288.682	6.38
289.139	6.37
289.596	6.35
290.053	6.33
290.511	6.3
290.968	6.28
291.425	6.26
291.882	6.23
292.339	6.2
292.796	6.17
293.252	6.15
293.709	6.13
294.166	6.1
294.623	6.09
295.079	6.07
295.536	6.05
295.992	6.03
296.449	6.02
296.905	6.01
297.362	6
297.818	5.99
298.274	5.98
298.731	5.97
299.187	5.96
299.643	5.95
300.099	5.94
300.555	5.94
301.011	5.93
301.467	5.92
301.923	5.91
302.379	5.9
302.835	5.9
303.291	5.88
303.746	5.87
304.202	5.85
304.658	5.84
305.113	5.82
305.569	5.82
306.024	5.8
306.479	5.79
306.935	5.79
307.39	5.79
307.845	5.78
308.301	5.78
308.756	5.79
309.211	5.79
309.666	5.8
310.121	5.8
310.576	5.79
311.031	5.79
311.486	5.8
311.94	5.8
312.395	5.8
312.85	5.8
313.305	5.8
313.759	5.8
314.214	5.8
314.668	5.8
315.123	5.79
315.577	5.79
316.032	5.8
316.486	5.79
316.94	5.78
317.394	5.77
317.849	5.75
318.303	5.74
318.757	5.72
319.211	5.71
319.665	5.7
320.119	5.69
320.572	5.68
321.026	5.66
321.48	5.64
321.934	5.64
322.387	5.63
322.841	5.62
323.295	5.61
323.748	5.62
324.202	5.61
324.655	5.6
325.108	5.59
325.562	5.57
326.015	5.56
326.468	5.56
326.921	5.54
327.374	5.53
327.827	5.53
328.28	5.52
328.733	5.5
329.186	5.5
329.639	5.49
330.092	5.48
330.545	5.49
330.997	5.48
331.45	5.48
331.903	5.49
332.355	5.49
332.808	5.48
333.26	5.49
333.713	5.49
334.165	5.48
334.617	5.5
335.069	5.5
335.522	5.5
335.974	5.5
336.426	5.5
336.878	5.48
337.33	5.49
337.782	5.5
338.234	5.49
338.686	5.48
339.137	5.48
339.589	5.46
340.041	5.46
340.493	5.44
340.944	5.44
341.396	5.45
341.847	5.45
342.299	5.42
342.75	5.41
343.201	5.39
343.653	5.39
344.104	5.37
344.555	5.35
345.006	5.34
345.457	5.33
345.908	5.31
346.359	5.3
346.81	5.29
347.261	5.28
347.712	5.27
348.163	5.27
348.613	5.25
349.064	5.24
349.515	5.24
349.965	5.22
350.416	5.21
350.866	5.21
351.317	5.19
351.767	5.19
352.217	5.19
352.668	5.17
353.118	5.17
353.568	5.18
354.018	5.19
354.468	5.19
354.918	5.21
355.368	5.21
355.818	5.2
356.268	5.21
356.718	5.21
357.168	5.21
357.617	5.21
358.067	5.21
358.517	5.21
358.966	5.22
359.416	5.23
359.865	5.21
360.315	5.21
360.764	5.22
361.213	5.22
361.663	5.22
362.112	5.24
362.561	5.24
363.01	5.25
363.459	5.24
363.908	5.23
364.357	5.24
364.806	5.24
365.255	5.26
365.703	5.26
366.152	5.27
366.601	5.28
367.05	5.29
367.498	5.3
367.947	5.33
368.395	5.36
368.844	5.39
369.292	5.41
369.74	5.45
370.189	5.49
370.637	5.53
371.085	5.58
371.533	5.61
371.981	5.67
372.429	5.73
372.877	5.78
373.325	5.84
373.773	5.92
374.221	6
374.669	6.09
375.116	6.18
375.564	6.29
376.012	6.37
376.459	6.49
376.907	6.6
377.354	6.71
377.801	6.83
378.249	6.97
378.696	7.1
379.143	7.24
379.591	7.37
380.038	7.52
380.485	7.66
380.932	7.82
381.379	7.97
381.826	8.12
382.273	8.29
382.72	8.45
383.166	8.62
383.613	8.78
384.06	8.96
384.506	9.13
384.953	9.29
385.4	9.46
385.846	9.62
386.292	9.79
386.739	9.97
387.185	10.14
387.631	10.31
388.078	10.48
388.524	10.63
388.97	10.76
389.416	10.9
389.862	11.04
390.308	11.18
390.754	11.33
391.2	11.47
391.645	11.59
392.091	11.72
392.537	11.84
392.983	11.98
393.428	12.12
393.874	12.26
394.319	12.37
394.765	12.46
395.21	12.55
395.655	12.64
396.101	12.72
396.546	12.79
396.991	12.86
397.436	12.92
397.881	12.98
398.326	13.04
398.771	13.12
399.216	13.21
399.661	13.29
400.106	13.35
400.551	13.41
400.995	13.44
401.44	13.46
401.885	13.47
402.329	13.49
402.774	13.5
403.218	13.5
403.663	13.51
404.107	13.52
404.551	13.54
404.995	13.55
405.44	13.54
405.884	13.54
406.328	13.56
406.772	13.57
407.216	13.59
407.66	13.61
408.104	13.62
408.547	13.61
408.991	13.59
409.435	13.58
409.879	13.56
410.322	13.56
410.766	13.55
411.209	13.56
411.653	13.55
412.096	13.52
412.54	13.49
412.983	13.47
413.426	13.46
413.869	13.46
414.312	13.47
414.756	13.49
415.199	13.49
415.642	13.49
416.085	13.5
416.527	13.52
416.97	13.53
417.413	13.52
417.856	13.49
418.298	13.45
418.741	13.42
419.184	13.39
419.626	13.33
420.069	13.29
420.511	13.25
420.953	13.21
421.396	13.15
421.838	13.13
422.28	13.12
422.722	13.13
423.164	13.12
423.606	13.13
424.048	13.1
424.49	13.09
424.932	13.09
425.374	13.08
425.816	13.03
426.258	13
426.699	12.94
427.141	12.89
427.582	12.83
428.024	12.82
428.465	12.79
428.907	12.81
429.348	12.82
429.789	12.79
430.231	12.78
430.672	12.79
431.113	12.83
431.554	12.88
431.995	12.93
432.436	12.98
432.877	12.98
433.318	12.98
433.759	12.97
434.2	12.96
434.64	13
435.081	13.03
435.522	13.08
435.962	13.12
436.403	13.18
436.843	13.23
437.284	13.27
437.724	13.35
438.164	13.41
438.604	13.48
439.045	13.53
439.485	13.58
439.925	13.6
440.365	13.61
440.805	13.61
441.245	13.63
441.685	13.68
442.125	13.72
442.564	13.75
443.004	13.8
443.444	13.82
443.883	13.89
444.323	13.94
444.762	14.03
445.202	14.12
445.641	14.19
446.081	14.24
446.52	14.3
446.959	14.38
447.398	14.48
447.837	14.57
448.276	14.65
448.716	14.71
449.154	14.77
449.593	14.85
450.032	14.91
450.471	14.98
450.91	15.03
451.349	15.12
451.787	15.16
452.226	15.16
452.664	15.17
453.103	15.2
453.541	15.23
453.98	15.25
454.418	15.25
454.856	15.27
455.295	15.3
455.733	15.32
456.171	15.32
456.609	15.35
457.047	15.39
457.485	15.43
457.923	15.48
458.361	15.5
458.798	15.56
459.236	15.62
459.674	15.65
460.111	15.68
460.549	15.72
460.987	15.76
461.424	15.77
461.862	15.81
462.299	15.84
462.736	15.85
463.173	15.89
463.611	15.9
464.048	15.93
464.485	15.95
464.922	15.98
465.359	16.02
465.796	16.03
466.233	16.06
466.67	16.07
467.106	16.08
467.543	16.09
467.98	16.11
468.416	16.13
468.853	16.14
469.29	16.16
469.726	16.17
470.162	16.17
470.599	16.18
471.035	16.19
471.471	16.17
471.907	16.2
472.344	16.22
472.78	16.21
473.216	16.23
473.652	16.22
474.088	16.23
474.523	16.22
474.959	16.22
475.395	16.21
475.831	16.22
476.266	16.24
476.702	16.21
477.138	16.19
477.573	16.19
478.008	16.18
478.444	16.18
478.879	16.18
479.314	16.19
479.75	16.21
480.185	16.23
480.62	16.24
481.055	16.26
481.49	16.29
481.925	16.32
482.36	16.35
482.795	16.38
483.229	16.43
483.664	16.47
484.099	16.54
484.534	16.6
484.968	16.67
485.403	16.74
485.837	16.83
486.271	16.91
486.706	17.02
487.14	17.14
487.574	17.25
488.009	17.38
488.443	17.51
488.877	17.66
489.311	17.81
489.745	17.96
490.179	18.13
490.613	18.3
491.046	18.49
491.48	18.68
491.914	18.88
492.348	19.08
492.781	19.29
493.215	19.51
493.648	19.74
494.082	19.97
494.515	20.21
494.948	20.45
495.382	20.71
495.815	20.98
496.248	21.26
496.681	21.55
497.114	21.84
497.547	22.13
497.98	22.42
498.413	22.72
498.846	23.04
499.279	23.36
499.711	23.69
500.144	23.99
500.577	24.31
501.009	24.64
501.442	24.99
501.874	25.33
502.306	25.71
502.739	26.06
503.171	26.42
503.603	26.79
504.036	27.17
504.468	27.56
504.9	27.97
505.332	28.37
505.764	28.78
506.196	29.17
506.627	29.59
507.059	29.98
507.491	30.42
507.923	30.84
508.354	31.27
508.786	31.68
509.217	32.1
509.649	32.5
510.08	32.95
510.512	33.33
510.943	33.73
511.374	34.14
511.805	34.53
512.237	34.92
512.668	35.3
513.099	35.69
513.53	36.08
513.961	36.46
514.391	36.82
514.822	37.14
515.253	37.51
515.684	37.84
516.114	38.19
516.545	38.51
516.975	38.85
517.406	39.18
517.836	39.5
518.267	39.81
518.697	40.12
519.127	40.46
519.558	40.75
519.988	41.02
520.418	41.29
520.848	41.55
521.278	41.83
521.708	42.1
522.138	42.31
522.567	42.54
522.997	42.76
523.427	42.97
523.857	43.15
524.286	43.36
524.716	43.56
525.145	43.79
525.575	43.99
526.004	44.15
526.433	44.29
526.863	44.5
527.292	44.68
527.721	44.83
528.15	44.96
528.579	45.13
529.008	45.29
529.437	45.44
529.866	45.56
530.295	45.67
530.724	45.86
531.152	45.99
531.581	46.1
532.01	46.18
532.438	46.32
532.867	46.45
533.295	46.57
533.723	46.69
534.152	46.77
534.58	46.87
535.008	46.95
535.436	47
535.865	47.05
536.293	47.15
536.721	47.23
537.149	47.29
537.576	47.33
538.004	47.35
538.432	47.4
538.86	47.45
539.287	47.5
539.715	47.55
540.143	47.58
540.57	47.62
540.998	47.65
541.425	47.7
541.852	47.74
542.28	47.76
542.707	47.81
543.134	47.85
543.561	47.89
543.988	47.92
544.415	47.98
544.842	48.04
545.269	48.11
545.696	48.15
546.123	48.19
546.549	48.24
546.976	48.32
547.403	48.35
547.829	48.4
548.256	48.44
548.682	48.47
549.108	48.5
549.535	48.53
549.961	48.55
550.387	48.57
550.813	48.58
551.24	48.62
551.666	48.67
552.092	48.74
552.518	48.78
552.943	48.85
553.369	48.89
553.795	48.94
554.221	48.98
554.646	49.03
555.072	49.06
555.498	49.12
555.923	49.16
556.349	49.15
556.774	49.17
557.199	49.16
557.625	49.18
558.05	49.17
558.475	49.17
558.9	49.18
559.325	49.17
559.75	49.16
560.175	49.14
560.6	49.08
561.025	49.07
561.449	49.01
561.874	48.97
562.299	48.94
562.723	48.91
563.148	48.85
563.572	48.83
563.997	48.75
564.421	48.68
564.846	48.64
565.27	48.6
565.694	48.53
566.118	48.47
566.542	48.42
566.966	48.32
567.39	48.2
567.814	48.12
568.238	47.98
568.662	47.91
569.086	47.83
569.509	47.71
569.933	47.61
570.357	47.49
570.78	47.4
571.204	47.27
571.627	47.18
572.05	47.12
572.474	47.04
572.897	46.98
573.32	46.86
573.743	46.78
574.166	46.69
574.589	46.59
575.012	46.55
575.435	46.47
575.858	46.44
576.281	46.41
576.704	46.35
577.126	46.28
577.549	46.23
577.972	46.23
578.394	46.17
578.817	46.15
579.239	46.14
579.661	46.08
580.084	46.06
580.506	46.02
580.928	45.98
581.35	45.95
581.772	45.94
582.194	45.9
582.616	45.86
583.038	45.88
583.46	45.88
583.882	45.85
584.303	45.85
584.725	45.83
585.147	45.77
585.568	45.75
585.99	45.73
586.411	45.71
586.833	45.67
587.254	45.65
587.675	45.58
588.096	45.56
588.518	45.53
588.939	45.47
589.36	45.42
589.781	45.44
590.202	45.39
590.623	45.33
591.043	45.29
591.464	45.27
591.885	45.23
592.305	45.2
592.726	45.14
593.147	45.13
593.567	45.08
593.987	45.07
594.408	45.02
594.828	44.98
595.248	44.97
595.669	44.94
596.089	44.91
596.509	44.85
596.929	44.83
597.349	44.78
597.769	44.72
598.189	44.7
598.608	44.64
599.028	44.58
599.448	44.55
599.867	44.51
600.287	44.46
600.706	44.4
601.126	44.34
601.545	44.29
601.965	44.24
602.384	44.19
602.803	44.14
603.222	44.08
603.641	44.05
604.061	44.01
604.48	43.94
604.898	43.88
605.317	43.84
605.736	43.83
606.155	43.77
606.574	43.74
606.992	43.7
607.411	43.66
607.829	43.61
608.248	43.56
608.666	43.53
609.085	43.5
609.503	43.45
609.921	43.42
610.339	43.37
610.758	43.34
611.176	43.29
611.594	43.23
612.012	43.19
612.43	43.16
612.847	43.12
613.265	43.09
613.683	43.04
614.101	43
614.518	42.95
614.936	42.91
615.353	42.86
615.771	42.83
616.188	42.81
616.606	42.76
617.023	42.73
617.44	42.7
617.857	42.66
618.274	42.63
618.691	42.59
619.108	42.57
619.525	42.56
619.942	42.56
620.359	42.55
620.776	42.52
621.192	42.5
621.609	42.48
622.026	42.46
622.442	42.47
622.859	42.46
623.275	42.5
623.691	42.49
624.108	42.5
624.524	42.49
624.94	42.51
625.356	42.54
625.772	42.58
626.188	42.59
626.604	42.59
627.02	42.59
627.436	42.58
627.852	42.54
628.268	42.52
628.683	42.48
629.099	42.5
629.514	42.43
629.93	42.39
630.345	42.32
630.761	42.26
631.176	42.23
631.591	42.18
632.007	42.09
632.422	42.03
632.837	41.95
633.252	41.83
633.667	41.67
634.082	41.55
634.497	41.39
634.911	41.24
635.326	41.06
635.741	40.85
636.155	40.63
636.57	40.43
636.984	40.15
637.399	39.87
637.813	39.61
638.228	39.34
638.642	39.08
639.056	38.78
639.47	38.45
639.884	38.14
640.298	37.8
640.712	37.46
641.126	37.11
641.54	36.79
641.954	36.47
642.368	36.13
642.781	35.79
643.195	35.41
643.609	35.09
644.022	34.78
644.436	34.46
644.849	34.16
645.262	33.88
645.676	33.6
646.089	33.36
646.502	33.12
646.915	32.91
647.328	32.73
647.741	32.54
648.154	32.38
648.567	32.25
648.98	32.13
649.393	32.02
649.805	31.91
650.218	31.83
650.631	31.75
651.043	31.69
651.456	31.65
651.868	31.6
652.28	31.57
652.693	31.49
653.105	31.46
653.517	31.42
653.929	31.39
654.341	31.34
654.753	31.27
655.165	31.22
655.577	31.13
655.989	31.06
656.401	30.95
656.813	30.83
657.224	30.75
657.636	30.63
658.047	30.51
658.459	30.34
658.87	30.2
659.282	30.06
659.693	29.88
660.104	29.71
660.515	29.52
660.926	29.36
661.338	29.19
661.749	28.98
662.159	28.8
662.57	28.57
662.981	28.4
663.392	28.2
663.803	28.01
664.213	27.83
664.624	27.67
665.035	27.48
665.445	27.32
665.855	27.16
666.266	27.01
666.676	26.86
667.086	26.74
667.497	26.63
667.907	26.53
668.317	26.43
668.727	26.33
669.137	26.24
669.547	26.19
669.956	26.12
670.366	26.09
670.776	26.06
671.186	26.04
671.595	26.03
672.005	26.02
672.414	26.03
672.824	26.05
673.233	26.08
673.642	26.11
674.052	26.17
674.461	26.23
674.87	26.31
675.279	26.39
675.688	26.48
676.097	26.6
676.506	26.73
676.915	26.87
677.323	27.08
677.732	27.29
678.141	27.54
678.549	27.81
678.958	28.15
679.366	28.49
679.775	28.91
680.183	29.35
680.592	29.85
681	30.39
681.408	30.97
681.816	31.57
682.224	32.21
682.632	32.91
683.04	33.63
683.448	34.36
683.856	35.16
684.264	35.98
684.671	36.82
685.079	37.65
685.487	38.5
685.894	39.39
686.302	40.28
686.709	41.15
687.116	41.99
687.524	42.82
687.931	43.61
688.338	44.39
688.745	45.11
689.152	45.87
689.559	46.59
689.966	47.25
690.373	47.89
690.78	48.46
691.187	49.04
691.593	49.6
692	50.13
692.407	50.65
692.813	51.13
693.22	51.56
693.626	51.95
694.032	52.37
694.439	52.78
694.845	53.13
695.251	53.51
695.657	53.81
696.063	54.12
696.469	54.42
696.875	54.65
697.281	54.89
697.687	55.2
698.093	55.43
698.498	55.62
698.904	55.81
699.31	56.01
699.715	56.18
700.12	56.34
700.526	56.53
700.931	56.68
701.337	56.85
701.742	56.96
702.147	57.06
702.552	57.18
702.957	57.31
703.362	57.47
703.767	57.56
704.172	57.68
704.577	57.82
704.981	57.9
705.386	57.98
705.791	58.07
706.195	58.19
706.6	58.28
707.004	58.37
707.408	58.45
707.813	58.5
708.217	58.56
708.621	58.63
709.025	58.66
709.43	58.68
709.834	58.74
710.237	58.8
710.641	58.89
711.045	58.9
711.449	58.93
711.853	58.94
712.256	59
712.66	59.07
713.064	59.09
713.467	59.15
713.87	59.23
714.274	59.29
714.677	59.31
715.08	59.32
715.484	59.41
715.887	59.45
716.29	59.51
716.693	59.51
717.096	59.55
717.499	59.57
717.901	59.58
718.304	59.6
718.707	59.63
719.109	59.67
719.512	59.72
719.915	59.73
720.317	59.79
720.719	59.79
721.122	59.84
721.524	59.9
721.926	59.97
722.328	59.99
722.731	60.03
723.133	60.05
723.535	60.07
723.937	60.06
724.338	60.04
724.74	60.05
725.142	60.03
725.544	60.04
725.945	60.01
726.347	59.98
726.748	59.98
727.15	59.98
727.551	59.99
727.952	59.99
728.354	60.01
728.755	60.07
729.156	60.04
729.557	60.1
729.958	60.11
730.359	60.14
730.76	60.13
731.161	60.16
731.562	60.16
731.962	60.18
732.363	60.18
732.763	60.21
733.164	60.17
733.564	60.19
733.965	60.19
734.365	60.16
734.766	60.15
735.166	60.14
735.566	60.11
735.966	60.08
736.366	60.05
736.766	60.04
737.166	60.03
737.566	60.03
737.966	60.06
738.365	60.03
738.765	60.06
739.165	60.01
739.564	60.02
739.964	60.03
740.363	60.06
740.763	60.06
741.162	60.05
741.561	60.06
741.96	60.09
742.36	60.09
742.759	60.09
743.158	60.07
743.557	60.1
743.955	60.13
744.354	60.16
744.753	60.16
745.152	60.16
745.55	60.19
745.949	60.19
746.348	60.18
746.746	60.19
747.144	60.25
747.543	60.3
747.941	60.35
748.339	60.4
748.737	60.42
749.136	60.45
749.534	60.47
749.932	60.47
750.33	60.48
750.727	60.52
751.125	60.53
751.523	60.49
751.921	60.47
752.318	60.44
752.716	60.37
753.113	60.33
753.511	60.29
753.908	60.28
754.305	60.22
754.703	60.18
755.1	60.11
755.497	60.08
755.894	60.07
756.291	60.03
756.688	60.04
757.085	60.04
757.482	60.03
757.878	60.05
758.275	60.03
758.672	60.08
759.068	60.07
759.465	60.08
759.861	60.08
760.258	60.03
760.654	60.03
761.05	60.02
761.447	60
761.843	59.98
762.239	59.96
762.635	59.97
763.031	59.94
763.427	59.93
763.822	59.89
764.218	59.87
764.614	59.86
765.01	59.83
765.405	59.79
765.801	59.77
766.196	59.75
766.592	59.73
766.987	59.72
767.382	59.71
767.778	59.72
768.173	59.74
768.568	59.71
768.963	59.75
769.358	59.76
769.753	59.77
770.148	59.79
770.542	59.79
770.937	59.76
