Data from c_3_hir_wi_4n_Splice17_20.txt Node
Date: Sat Feb 29 14:52:53 EST 2020
User: sa697716
Spectrometer: FLMS03696
Trigger mode: 0
Integration Time (sec): 3.180400E-1
Scans to average: 20
Electric dark correction enabled: true
Nonlinearity correction enabled: true
Boxcar width: 5
XAxis mode: Wavelengths
Number of Pixels in Spectrum: 2048
>>>>>Begin Spectral Data<<<<<
187.83	135.82
188.298	136.78
188.766	120.05
189.233	113.04
189.701	115.46
190.169	105.73
190.636	98.95
191.104	83.05
191.571	277.94
192.039	89.21
192.506	201.37
192.974	7894.18
193.441	-543.15
193.908	64.31
194.375	71.05
194.842	83
195.31	50.26
195.777	-15.63
196.244	21.42
196.711	50.95
197.177	51.52
197.644	53.18
198.111	53.75
198.578	54.16
199.045	55.83
199.511	56.21
199.978	56.48
200.445	56.13
200.911	56.69
201.378	57.23
201.844	57.78
202.31	58.68
202.777	59.43
203.243	59.95
203.709	60.11
204.176	59.69
204.642	59.32
205.108	58.99
205.574	59.61
206.04	59.01
206.506	58.3
206.972	57.64
207.438	56.4
207.903	55.65
208.369	54.51
208.835	53.93
209.301	53.16
209.766	52.06
210.232	51.23
210.697	49.99
211.163	49.13
211.628	48.41
212.094	47.69
212.559	46.88
213.024	45.8
213.49	44.95
213.955	43.78
214.42	42.48
214.885	41.25
215.35	39.63
215.815	37.34
216.28	35.12
216.745	32.61
217.21	29.77
217.675	27.15
218.14	24.81
218.604	22.63
219.069	21.03
219.534	19.44
219.998	18.15
220.463	17.18
220.927	16.32
221.392	15.52
221.856	14.79
222.32	14.23
222.785	13.81
223.249	13.39
223.713	13.02
224.177	12.62
224.642	12.35
225.106	12.06
225.57	11.71
226.034	11.48
226.497	11.21
226.961	10.97
227.425	10.74
227.889	10.49
228.353	10.26
228.816	10.08
229.28	9.86
229.744	9.68
230.207	9.53
230.671	9.39
231.134	9.21
231.597	9.06
232.061	8.91
232.524	8.79
232.987	8.67
233.45	8.54
233.914	8.42
234.377	8.32
234.84	8.23
235.303	8.13
235.766	8.03
236.229	7.94
236.691	7.86
237.154	7.79
237.617	7.7
238.08	7.62
238.542	7.55
239.005	7.48
239.468	7.39
239.93	7.3
240.393	7.23
240.855	7.14
241.317	7.08
241.78	7.03
242.242	6.93
242.704	6.87
243.166	6.8
243.629	6.74
244.091	6.67
244.553	6.63
245.015	6.57
245.477	6.51
245.939	6.45
246.4	6.39
246.862	6.32
247.324	6.28
247.786	6.23
248.247	6.18
248.709	6.13
249.17	6.09
249.632	6.03
250.093	5.96
250.555	5.91
251.016	5.88
251.477	5.84
251.939	5.8
252.4	5.76
252.861	5.72
253.322	5.68
253.783	5.65
254.244	5.61
254.705	5.58
255.166	5.58
255.627	5.54
256.088	5.49
256.549	5.46
257.009	5.43
257.47	5.39
257.931	5.35
258.391	5.31
258.852	5.25
259.312	5.22
259.773	5.18
260.233	5.13
260.694	5.08
261.154	5.05
261.614	5.01
262.074	4.97
262.534	4.93
262.994	4.9
263.455	4.87
263.915	4.84
264.374	4.8
264.834	4.77
265.294	4.74
265.754	4.72
266.214	4.69
266.673	4.66
267.133	4.63
267.593	4.62
268.052	4.59
268.512	4.56
268.971	4.55
269.431	4.53
269.89	4.51
270.349	4.48
270.809	4.47
271.268	4.45
271.727	4.44
272.186	4.43
272.645	4.41
273.104	4.4
273.563	4.39
274.022	4.38
274.481	4.37
274.94	4.35
275.399	4.35
275.857	4.33
276.316	4.31
276.775	4.3
277.233	4.28
277.692	4.27
278.15	4.26
278.609	4.25
279.067	4.23
279.525	4.21
279.984	4.2
280.442	4.2
280.9	4.19
281.358	4.18
281.816	4.17
282.274	4.16
282.732	4.16
283.19	4.15
283.648	4.15
284.106	4.14
284.564	4.15
285.021	4.15
285.479	4.14
285.937	4.14
286.394	4.14
286.852	4.14
287.309	4.13
287.767	4.12
288.224	4.11
288.682	4.1
289.139	4.1
289.596	4.07
290.053	4.05
290.511	4.03
290.968	4.01
291.425	3.99
291.882	3.97
292.339	3.95
292.796	3.94
293.252	3.91
293.709	3.9
294.166	3.88
294.623	3.87
295.079	3.86
295.536	3.86
295.992	3.84
296.449	3.83
296.905	3.82
297.362	3.8
297.818	3.79
298.274	3.79
298.731	3.78
299.187	3.77
299.643	3.76
300.099	3.75
300.555	3.74
301.011	3.73
301.467	3.72
301.923	3.72
302.379	3.72
302.835	3.72
303.291	3.71
303.746	3.71
304.202	3.7
304.658	3.69
305.113	3.68
305.569	3.67
306.024	3.67
306.479	3.67
306.935	3.67
307.39	3.66
307.845	3.65
308.301	3.65
308.756	3.65
309.211	3.65
309.666	3.65
310.121	3.66
310.576	3.66
311.031	3.66
311.486	3.67
311.94	3.66
312.395	3.66
312.85	3.67
313.305	3.67
313.759	3.67
314.214	3.66
314.668	3.66
315.123	3.65
315.577	3.65
316.032	3.65
316.486	3.63
316.94	3.63
317.394	3.62
317.849	3.61
318.303	3.62
318.757	3.6
319.211	3.59
319.665	3.59
320.119	3.58
320.572	3.57
321.026	3.56
321.48	3.55
321.934	3.55
322.387	3.54
322.841	3.53
323.295	3.52
323.748	3.52
324.202	3.51
324.655	3.51
325.108	3.5
325.562	3.49
326.015	3.5
326.468	3.48
326.921	3.48
327.374	3.48
327.827	3.48
328.28	3.47
328.733	3.46
329.186	3.45
329.639	3.45
330.092	3.44
330.545	3.45
330.997	3.44
331.45	3.45
331.903	3.43
332.355	3.43
332.808	3.44
333.26	3.44
333.713	3.44
334.165	3.44
334.617	3.45
335.069	3.45
335.522	3.46
335.974	3.47
336.426	3.47
336.878	3.49
337.33	3.5
337.782	3.49
338.234	3.5
338.686	3.5
339.137	3.5
339.589	3.5
340.041	3.49
340.493	3.48
340.944	3.47
341.396	3.46
341.847	3.44
342.299	3.42
342.75	3.39
343.201	3.38
343.653	3.37
344.104	3.36
344.555	3.34
345.006	3.33
345.457	3.32
345.908	3.31
346.359	3.31
346.81	3.31
347.261	3.32
347.712	3.32
348.163	3.32
348.613	3.31
349.064	3.29
349.515	3.29
349.965	3.29
350.416	3.29
350.866	3.29
351.317	3.28
351.767	3.27
352.217	3.27
352.668	3.28
353.118	3.29
353.568	3.3
354.018	3.31
354.468	3.32
354.918	3.33
355.368	3.34
355.818	3.34
356.268	3.35
356.718	3.36
357.168	3.35
357.617	3.35
358.067	3.35
358.517	3.36
358.966	3.37
359.416	3.39
359.865	3.39
360.315	3.4
360.764	3.41
361.213	3.41
361.663	3.43
362.112	3.46
362.561	3.48
363.01	3.49
363.459	3.5
363.908	3.51
364.357	3.53
364.806	3.56
365.255	3.59
365.703	3.6
366.152	3.64
366.601	3.67
367.05	3.69
367.498	3.72
367.947	3.75
368.395	3.8
368.844	3.82
369.292	3.84
369.74	3.88
370.189	3.91
370.637	3.96
371.085	4
371.533	4.04
371.981	4.08
372.429	4.11
372.877	4.16
373.325	4.19
373.773	4.24
374.221	4.29
374.669	4.33
375.116	4.36
375.564	4.4
376.012	4.45
376.459	4.5
376.907	4.55
377.354	4.6
377.801	4.65
378.249	4.7
378.696	4.75
379.143	4.79
379.591	4.84
380.038	4.9
380.485	4.95
380.932	4.98
381.379	5.02
381.826	5.06
382.273	5.11
382.72	5.14
383.166	5.18
383.613	5.22
384.06	5.27
384.506	5.31
384.953	5.35
385.4	5.38
385.846	5.42
386.292	5.47
386.739	5.51
387.185	5.55
387.631	5.59
388.078	5.63
388.524	5.66
388.97	5.69
389.416	5.7
389.862	5.73
390.308	5.76
390.754	5.79
391.2	5.82
391.645	5.85
392.091	5.87
392.537	5.9
392.983	5.92
393.428	5.96
393.874	5.99
394.319	6.02
394.765	6.04
395.21	6.05
395.655	6.06
396.101	6.07
396.546	6.07
396.991	6.09
397.436	6.09
397.881	6.1
398.326	6.13
398.771	6.14
399.216	6.16
399.661	6.18
400.106	6.2
400.551	6.21
400.995	6.21
401.44	6.21
401.885	6.2
402.329	6.21
402.774	6.18
403.218	6.16
403.663	6.15
404.107	6.13
404.551	6.12
404.995	6.11
405.44	6.09
405.884	6.08
406.328	6.07
406.772	6.08
407.216	6.08
407.66	6.09
408.104	6.09
408.547	6.08
408.991	6.07
409.435	6.05
409.879	6.03
410.322	6.04
410.766	6.04
411.209	6.04
411.653	6.04
412.096	6.03
412.54	6.04
412.983	6.04
413.426	6.06
413.869	6.07
414.312	6.1
414.756	6.12
415.199	6.12
415.642	6.14
416.085	6.15
416.527	6.17
416.97	6.2
417.413	6.18
417.856	6.17
418.298	6.13
418.741	6.14
419.184	6.13
419.626	6.11
420.069	6.12
420.511	6.11
420.953	6.1
421.396	6.08
421.838	6.07
422.28	6.09
422.722	6.11
423.164	6.12
423.606	6.12
424.048	6.1
424.49	6.12
424.932	6.11
425.374	6.11
425.816	6.09
426.258	6.07
426.699	6.03
427.141	6.01
427.582	5.98
428.024	5.99
428.465	5.98
428.907	6
429.348	5.99
429.789	5.98
430.231	5.97
430.672	5.98
431.113	6
431.554	6.02
431.995	6.04
432.436	6.05
432.877	6.04
433.318	6.03
433.759	6.02
434.2	6.02
434.64	6.03
435.081	6.03
435.522	6.06
435.962	6.08
436.403	6.08
436.843	6.08
437.284	6.09
437.724	6.13
438.164	6.15
438.604	6.17
439.045	6.18
439.485	6.2
439.925	6.2
440.365	6.18
440.805	6.18
441.245	6.16
441.685	6.19
442.125	6.19
442.564	6.19
443.004	6.21
443.444	6.23
443.883	6.25
444.323	6.25
444.762	6.3
445.202	6.35
445.641	6.37
446.081	6.42
446.52	6.41
446.959	6.43
447.398	6.47
447.837	6.49
448.276	6.5
448.716	6.53
449.154	6.57
449.593	6.58
450.032	6.57
450.471	6.59
450.91	6.59
451.349	6.62
451.787	6.63
452.226	6.61
452.664	6.58
453.103	6.57
453.541	6.55
453.98	6.54
454.418	6.52
454.856	6.49
455.295	6.48
455.733	6.46
456.171	6.44
456.609	6.43
457.047	6.41
457.485	6.42
457.923	6.41
458.361	6.4
458.798	6.39
459.236	6.38
459.674	6.38
460.111	6.39
460.549	6.38
460.987	6.37
461.424	6.36
461.862	6.37
462.299	6.37
462.736	6.38
463.173	6.36
463.611	6.36
464.048	6.36
464.485	6.36
464.922	6.33
465.359	6.35
465.796	6.33
466.233	6.34
466.67	6.35
467.106	6.34
467.543	6.33
467.98	6.34
468.416	6.35
468.853	6.34
469.29	6.36
469.726	6.37
470.162	6.35
470.599	6.37
471.035	6.38
471.471	6.36
471.907	6.37
472.344	6.36
472.78	6.37
473.216	6.38
473.652	6.37
474.088	6.36
474.523	6.36
474.959	6.37
475.395	6.36
475.831	6.35
476.266	6.36
476.702	6.36
477.138	6.34
477.573	6.33
478.008	6.32
478.444	6.3
478.879	6.3
479.314	6.29
479.75	6.29
480.185	6.28
480.62	6.26
481.055	6.25
481.49	6.23
481.925	6.23
482.36	6.23
482.795	6.22
483.229	6.23
483.664	6.21
484.099	6.21
484.534	6.21
484.968	6.21
485.403	6.22
485.837	6.22
486.271	6.23
486.706	6.24
487.14	6.25
487.574	6.26
488.009	6.28
488.443	6.31
488.877	6.33
489.311	6.36
489.745	6.38
490.179	6.4
490.613	6.43
491.046	6.48
491.48	6.51
491.914	6.55
492.348	6.6
492.781	6.64
493.215	6.68
493.648	6.73
494.082	6.79
494.515	6.85
494.948	6.91
495.382	6.98
495.815	7.04
496.248	7.1
496.681	7.16
497.114	7.23
497.547	7.31
497.98	7.4
498.413	7.48
498.846	7.57
499.279	7.67
499.711	7.76
500.144	7.86
500.577	7.97
501.009	8.09
501.442	8.22
501.874	8.35
502.306	8.48
502.739	8.61
503.171	8.77
503.603	8.92
504.036	9.09
504.468	9.26
504.9	9.44
505.332	9.62
505.764	9.81
506.196	10
506.627	10.2
507.059	10.39
507.491	10.59
507.923	10.81
508.354	11.02
508.786	11.22
509.217	11.44
509.649	11.68
510.08	11.92
510.512	12.14
510.943	12.38
511.374	12.62
511.805	12.88
512.237	13.16
512.668	13.42
513.099	13.7
513.53	14
513.961	14.29
514.391	14.57
514.822	14.85
515.253	15.15
515.684	15.43
516.114	15.75
516.545	16.04
516.975	16.35
517.406	16.63
517.836	16.92
518.267	17.2
518.697	17.49
519.127	17.78
519.558	18.06
519.988	18.35
520.418	18.63
520.848	18.89
521.278	19.14
521.708	19.23
522.138	19.48
522.567	19.73
522.997	19.96
523.427	20.2
523.857	20.39
524.286	20.6
524.716	20.82
525.145	21.03
525.575	21.23
526.004	21.45
526.433	21.8
526.863	22
527.292	22.18
527.721	22.37
528.15	22.54
528.579	22.73
529.008	22.89
529.437	23.04
529.866	23.17
530.295	23.31
530.724	23.44
531.152	23.58
531.581	23.69
532.01	23.8
532.438	23.92
532.867	24.03
533.295	24.13
533.723	24.24
534.152	24.31
534.58	24.38
535.008	24.43
535.436	24.48
535.865	24.53
536.293	24.6
536.721	24.64
537.149	24.67
537.576	24.69
538.004	24.72
538.432	24.75
538.86	24.79
539.287	24.85
539.715	24.9
540.143	24.93
540.57	24.96
540.998	24.97
541.425	25.01
541.852	25.04
542.28	25.06
542.707	25.09
543.134	25.11
543.561	25.13
543.988	25.14
544.415	25.14
544.842	25.16
545.269	25.19
545.696	25.22
546.123	25.25
546.549	25.26
546.976	25.3
547.403	25.33
547.829	25.37
548.256	25.4
548.682	25.42
549.108	25.47
549.535	25.49
549.961	25.51
550.387	25.51
550.813	25.5
551.24	25.5
551.666	25.51
552.092	25.52
552.518	25.51
552.943	25.5
553.369	25.47
553.795	25.45
554.221	25.42
554.646	25.39
555.072	25.38
555.498	25.36
555.923	25.32
556.349	25.27
556.774	25.2
557.199	25.14
557.625	25.08
558.05	25.02
558.475	24.96
558.9	24.88
559.325	24.82
559.75	24.71
560.175	24.6
560.6	24.52
561.025	24.43
561.449	24.34
561.874	24.25
562.299	24.16
562.723	24.04
563.148	23.92
563.572	23.8
563.997	23.66
564.421	23.54
564.846	23.42
565.27	23.29
565.694	23.11
566.118	22.95
566.542	22.81
566.966	22.66
567.39	22.49
567.814	22.34
568.238	22.16
568.662	22
569.086	21.83
569.509	21.66
569.933	21.49
570.357	21.33
570.78	21.16
571.204	20.98
571.627	20.82
572.05	20.66
572.474	20.51
572.897	20.4
573.32	20.26
573.743	20.13
574.166	19.99
574.589	19.87
575.012	19.76
575.435	19.66
575.858	19.57
576.281	19.46
576.704	19.37
577.126	19.26
577.549	19.14
577.972	19.05
578.394	18.95
578.817	18.87
579.239	18.78
579.661	18.71
580.084	18.62
580.506	18.53
580.928	18.45
581.35	18.36
581.772	18.29
582.194	18.22
582.616	18.15
583.038	18.08
583.46	18.03
583.882	17.97
584.303	17.89
584.725	17.83
585.147	17.76
585.568	17.67
585.99	17.61
586.411	17.55
586.833	17.49
587.254	17.44
587.675	17.38
588.096	17.31
588.518	17.25
588.939	17.21
589.36	17.15
589.781	17.11
590.202	17.07
590.623	17.02
591.043	16.98
591.464	16.93
591.885	16.89
592.305	16.88
592.726	16.82
593.147	16.79
593.567	16.74
593.987	16.73
594.408	16.7
594.828	16.68
595.248	16.65
595.669	16.62
596.089	16.58
596.509	16.54
596.929	16.48
597.349	16.44
597.769	16.41
598.189	16.4
598.608	16.36
599.028	16.32
599.448	16.28
599.867	16.24
600.287	16.19
600.706	16.15
601.126	16.1
601.545	16.05
601.965	16.01
602.384	15.95
602.803	15.87
603.222	15.8
603.641	15.73
604.061	15.64
604.48	15.58
604.898	15.51
605.317	15.44
605.736	15.38
606.155	15.31
606.574	15.24
606.992	15.15
607.411	15.1
607.829	14.99
608.248	14.93
608.666	14.87
609.085	14.8
609.503	14.72
609.921	14.64
610.339	14.56
610.758	14.5
611.176	14.42
611.594	14.34
612.012	14.25
612.43	14.21
612.847	14.14
613.265	14.06
613.683	13.99
614.101	13.91
614.518	13.83
614.936	13.76
615.353	13.68
615.771	13.6
616.188	13.53
616.606	13.47
617.023	13.41
617.44	13.34
617.857	13.28
618.274	13.22
618.691	13.17
619.108	13.13
619.525	13.08
619.942	13.05
620.359	13.02
620.776	12.98
621.192	12.95
621.609	12.93
622.026	12.9
622.442	12.89
622.859	12.87
623.275	12.86
623.691	12.83
624.108	12.83
624.524	12.81
624.94	12.78
625.356	12.78
625.772	12.77
626.188	12.77
626.604	12.73
627.02	12.72
627.436	12.71
627.852	12.68
628.268	12.67
628.683	12.65
629.099	12.64
629.514	12.62
629.93	12.58
630.345	12.54
630.761	12.51
631.176	12.49
631.591	12.45
632.007	12.41
632.422	12.37
632.837	12.31
633.252	12.25
633.667	12.17
634.082	12.1
634.497	12.03
634.911	11.96
635.326	11.87
635.741	11.76
636.155	11.68
636.57	11.56
636.984	11.45
637.399	11.35
637.813	11.23
638.228	11.13
638.642	11.02
639.056	10.92
639.47	10.8
639.884	10.67
640.298	10.57
640.712	10.44
641.126	10.32
641.54	10.22
641.954	10.11
642.368	10
642.781	9.88
643.195	9.76
643.609	9.63
644.022	9.52
644.436	9.43
644.849	9.33
645.262	9.24
645.676	9.16
646.089	9.07
646.502	8.98
646.915	8.92
647.328	8.86
647.741	8.79
648.154	8.75
648.567	8.7
648.98	8.65
649.393	8.6
649.805	8.54
650.218	8.49
650.631	8.44
651.043	8.4
651.456	8.35
651.868	8.31
652.28	8.28
652.693	8.22
653.105	8.18
653.517	8.12
653.929	8.07
654.341	8.02
654.753	7.95
655.165	7.89
655.577	7.81
655.989	7.74
656.401	7.66
656.813	7.57
657.224	7.5
657.636	7.44
658.047	7.37
658.459	7.28
658.87	7.22
659.282	7.15
659.693	7.07
660.104	7
660.515	6.93
660.926	6.87
661.338	6.79
661.749	6.72
662.159	6.63
662.57	6.56
662.981	6.51
663.392	6.43
663.803	6.37
664.213	6.31
664.624	6.26
665.035	6.21
665.445	6.16
665.855	6.11
666.266	6.08
666.676	6.03
667.086	6
667.497	5.96
667.907	5.94
668.317	5.91
668.727	5.89
669.137	5.87
669.547	5.85
669.956	5.85
670.366	5.84
670.776	5.83
671.186	5.85
671.595	5.86
672.005	5.87
672.414	5.87
672.824	5.9
673.233	5.9
673.642	5.92
674.052	5.93
674.461	5.94
674.87	5.96
675.279	5.98
675.688	5.99
676.097	6.02
676.506	6.04
676.915	6.07
677.323	6.1
677.732	6.15
678.141	6.19
678.549	6.25
678.958	6.31
679.366	6.37
679.775	6.43
680.183	6.51
680.592	6.59
681	6.65
681.408	6.76
681.816	6.86
682.224	6.98
682.632	7.12
683.04	7.24
683.448	7.4
683.856	7.58
684.264	7.78
684.671	7.99
685.079	8.21
685.487	8.48
685.894	8.75
686.302	9.05
686.709	9.35
687.116	9.69
687.524	10.06
687.931	10.44
688.338	10.86
688.745	11.28
689.152	11.73
689.559	12.2
689.966	12.68
690.373	13.19
690.78	13.71
691.187	14.24
691.593	14.78
692	15.35
692.407	15.91
692.813	16.5
693.22	17.09
693.626	17.66
694.032	18.28
694.439	18.91
694.845	19.49
695.251	20.1
695.657	20.71
696.063	21.31
696.469	21.89
696.875	22.46
697.281	23.02
697.687	23.62
698.093	24.21
698.498	24.78
698.904	25.31
699.31	25.89
699.715	26.45
700.12	26.96
700.526	27.48
700.931	27.99
701.337	28.5
701.742	28.98
702.147	29.45
702.552	29.92
702.957	30.37
703.362	30.83
703.767	31.24
704.172	31.67
704.577	32.14
704.981	32.57
705.386	33.01
705.791	33.44
706.195	33.85
706.6	34.25
707.004	34.63
707.408	35.04
707.813	35.39
708.217	35.78
708.621	36.15
709.025	36.51
709.43	36.83
709.834	37.19
710.237	37.52
710.641	37.87
711.045	38.19
711.449	38.5
711.853	38.81
712.256	39.16
712.66	39.46
713.064	39.77
713.467	40.03
713.87	40.35
714.274	40.64
714.677	40.95
715.08	41.21
715.484	41.51
715.887	41.79
716.29	42.04
716.693	42.29
717.096	42.57
717.499	42.8
717.901	43.06
718.304	43.29
718.707	43.51
719.109	43.75
719.512	44.01
719.915	44.22
720.317	44.48
720.719	44.69
721.122	44.89
721.524	45.1
721.926	45.32
722.328	45.5
722.731	45.69
723.133	45.88
723.535	46.04
723.937	46.2
724.338	46.35
724.74	46.48
725.142	46.56
725.544	46.68
725.945	46.79
726.347	46.91
726.748	47.05
727.15	47.17
727.551	47.31
727.952	47.4
728.354	47.51
728.755	47.64
729.156	47.75
729.557	47.95
729.958	48.09
730.359	48.21
730.76	48.29
731.161	48.4
731.562	48.47
731.962	48.55
732.363	48.62
732.763	48.7
733.164	48.77
733.564	48.85
733.965	48.9
734.365	48.95
734.766	49.01
735.166	49.09
735.566	49.09
735.966	49.14
736.366	49.15
736.766	49.2
737.166	49.24
737.566	49.27
737.966	49.3
738.365	49.36
738.765	49.38
739.165	49.4
739.564	49.46
739.964	49.52
740.363	49.55
740.763	49.62
741.162	49.65
741.561	49.7
741.96	49.76
742.36	49.78
742.759	49.8
743.158	49.78
743.557	49.83
743.955	49.9
744.354	49.96
744.753	50.04
745.152	50.05
745.55	50.09
745.949	50.14
746.348	50.17
746.746	50.18
747.144	50.22
747.543	50.31
747.941	50.35
748.339	50.37
748.737	50.41
749.136	50.4
749.534	50.43
749.932	50.45
750.33	50.45
750.727	50.47
751.125	50.51
751.523	50.52
751.921	50.49
752.318	50.47
752.716	50.45
753.113	50.41
753.511	50.39
753.908	50.37
754.305	50.35
754.703	50.35
755.1	50.34
755.497	50.33
755.894	50.31
756.291	50.33
756.688	50.33
757.085	50.32
757.482	50.31
757.878	50.32
758.275	50.3
758.672	50.3
759.068	50.3
759.465	50.29
759.861	50.28
760.258	50.25
760.654	50.22
761.05	50.19
761.447	50.16
761.843	50.14
762.239	50.1
762.635	50.09
763.031	50.06
763.427	50.02
763.822	50.02
764.218	49.98
764.614	49.99
765.01	49.98
765.405	49.99
765.801	50.01
766.196	50.03
766.592	50.05
766.987	50.03
767.382	50.03
767.778	50.06
768.173	50.09
768.568	50.07
768.963	50.08
769.358	50.09
769.753	50.1
770.148	50.09
770.542	50.06
770.937	50.04
771.332	50.08
771.726	50.06
772.121	50.02
772.515	49.96
772.91	49.97
773.304	49.96
773.699	49.91
774.093	49.87
774.487	49.88
774.881	49.92
775.275	49.94
775.669	49.94
776.063	49.92
776.457	49.93
776.851	49.92
777.245	49.94
777.638	49.94
778.032	49.98
778.425	50.01
778.819	50.01
779.212	49.98
779.606	49.97
779.999	49.97
780.392	50.01
780.786	50.02
781.179	50.08
781.572	50.07
