Data from N_1_dec_nc_4n_037_Splice17_10.txt Node
Date: Sat Feb 29 13:48:47 EST 2020
User: sa697716
Spectrometer: FLMS03696
Trigger mode: 0
Integration Time (sec): 3.180400E-1
Scans to average: 20
Electric dark correction enabled: true
Nonlinearity correction enabled: true
Boxcar width: 5
XAxis mode: Wavelengths
Number of Pixels in Spectrum: 2048
>>>>>Begin Spectral Data<<<<<
187.83	99.67
188.298	101.38
188.766	96.62
189.233	89.89
189.701	99.49
190.169	88.26
190.636	81.34
191.104	57.29
191.571	130.35
192.039	97.66
192.506	77.39
192.974	6045.82
193.441	-158.7
193.908	81.76
194.375	113.5
194.842	189.35
195.31	74.08
195.777	59.46
196.244	72.32
196.711	79.92
197.177	78.35
197.644	77.8
198.111	78.1
198.578	78.77
199.045	79.56
199.511	79.66
199.978	79.48
200.445	79.15
200.911	79.25
201.378	78.98
201.844	79.38
202.31	79.55
202.777	79.69
203.243	79.79
203.709	79.62
204.176	78.88
204.642	77.94
205.108	77.28
205.574	77.25
206.04	76.65
206.506	75.58
206.972	74.39
207.438	73.48
207.903	72.51
208.369	70.85
208.835	69.68
209.301	68.28
209.766	66.51
210.232	65.28
210.697	63.88
211.163	62.16
211.628	61.13
212.094	59.79
212.559	58.15
213.024	56.7
213.49	55.3
213.955	53.58
214.42	52.06
214.885	50.35
215.35	48.09
215.815	44.68
216.28	41.72
216.745	37.8
217.21	34.07
217.675	30.62
218.14	27.44
218.604	24.53
219.069	22.2
219.534	20.09
219.998	18.41
220.463	17.05
220.927	15.9
221.392	14.85
221.856	14.02
222.32	13.3
222.785	12.69
223.249	12.15
223.713	11.73
224.177	11.26
224.642	10.9
225.106	10.55
225.57	10.16
226.034	9.85
226.497	9.54
226.961	9.24
227.425	8.97
227.889	8.73
228.353	8.48
228.816	8.24
229.28	8.04
229.744	7.85
230.207	7.68
230.671	7.53
231.134	7.38
231.597	7.23
232.061	7.12
232.524	6.98
232.987	6.85
233.45	6.74
233.914	6.64
234.377	6.54
234.84	6.44
235.303	6.36
235.766	6.27
236.229	6.19
236.691	6.12
237.154	6.06
237.617	6
238.08	5.94
238.542	5.87
239.005	5.79
239.468	5.73
239.93	5.67
240.393	5.61
240.855	5.53
241.317	5.48
241.78	5.42
242.242	5.33
242.704	5.27
243.166	5.2
243.629	5.16
244.091	5.1
244.553	5.05
245.015	4.98
245.477	4.91
245.939	4.86
246.4	4.8
246.862	4.75
247.324	4.72
247.786	4.68
248.247	4.64
248.709	4.58
249.17	4.54
249.632	4.49
250.093	4.44
250.555	4.41
251.016	4.37
251.477	4.34
251.939	4.3
252.4	4.25
252.861	4.2
253.322	4.16
253.783	4.15
254.244	4.11
254.705	4.08
255.166	4.06
255.627	4.03
256.088	3.98
256.549	3.94
257.009	3.91
257.47	3.88
257.931	3.85
258.391	3.81
258.852	3.77
259.312	3.74
259.773	3.7
260.233	3.65
260.694	3.62
261.154	3.59
261.614	3.55
262.074	3.51
262.534	3.47
262.994	3.43
263.455	3.4
263.915	3.37
264.374	3.34
264.834	3.31
265.294	3.28
265.754	3.25
266.214	3.22
266.673	3.21
267.133	3.19
267.593	3.17
268.052	3.16
268.512	3.14
268.971	3.11
269.431	3.1
269.89	3.08
270.349	3.07
270.809	3.06
271.268	3.05
271.727	3.04
272.186	3.03
272.645	3.01
273.104	3.01
273.563	3
274.022	2.99
274.481	2.99
274.94	2.97
275.399	2.96
275.857	2.96
276.316	2.95
276.775	2.92
277.233	2.91
277.692	2.91
278.15	2.89
278.609	2.88
279.067	2.88
279.525	2.87
279.984	2.86
280.442	2.87
280.9	2.86
281.358	2.86
281.816	2.87
282.274	2.87
282.732	2.87
283.19	2.88
283.648	2.88
284.106	2.88
284.564	2.88
285.021	2.89
285.479	2.89
285.937	2.88
286.394	2.88
286.852	2.87
287.309	2.87
287.767	2.85
288.224	2.84
288.682	2.82
289.139	2.81
289.596	2.79
290.053	2.77
290.511	2.74
290.968	2.72
291.425	2.7
291.882	2.69
292.339	2.67
292.796	2.66
293.252	2.64
293.709	2.62
294.166	2.61
294.623	2.61
295.079	2.6
295.536	2.59
295.992	2.58
296.449	2.57
296.905	2.56
297.362	2.56
297.818	2.55
298.274	2.54
298.731	2.54
299.187	2.53
299.643	2.52
300.099	2.51
300.555	2.51
301.011	2.5
301.467	2.5
301.923	2.49
302.379	2.49
302.835	2.49
303.291	2.5
303.746	2.49
304.202	2.49
304.658	2.49
305.113	2.49
305.569	2.49
306.024	2.49
306.479	2.49
306.935	2.5
307.39	2.5
307.845	2.5
308.301	2.5
308.756	2.51
309.211	2.52
309.666	2.52
310.121	2.52
310.576	2.52
311.031	2.53
311.486	2.54
311.94	2.54
312.395	2.54
312.85	2.54
313.305	2.54
313.759	2.54
314.214	2.54
314.668	2.54
315.123	2.55
315.577	2.55
316.032	2.55
316.486	2.54
316.94	2.54
317.394	2.53
317.849	2.52
318.303	2.51
318.757	2.5
319.211	2.48
319.665	2.47
320.119	2.46
320.572	2.45
321.026	2.44
321.48	2.43
321.934	2.42
322.387	2.42
322.841	2.41
323.295	2.41
323.748	2.41
324.202	2.41
324.655	2.41
325.108	2.41
325.562	2.41
326.015	2.41
326.468	2.4
326.921	2.4
327.374	2.4
327.827	2.39
328.28	2.39
328.733	2.39
329.186	2.4
329.639	2.39
330.092	2.38
330.545	2.38
330.997	2.39
331.45	2.39
331.903	2.39
332.355	2.39
332.808	2.4
333.26	2.4
333.713	2.42
334.165	2.42
334.617	2.44
335.069	2.45
335.522	2.46
335.974	2.46
336.426	2.47
336.878	2.48
337.33	2.49
337.782	2.5
338.234	2.5
338.686	2.49
339.137	2.49
339.589	2.48
340.041	2.47
340.493	2.45
340.944	2.45
341.396	2.44
341.847	2.43
342.299	2.41
342.75	2.39
343.201	2.38
343.653	2.37
344.104	2.36
344.555	2.35
345.006	2.34
345.457	2.34
345.908	2.33
346.359	2.32
346.81	2.32
347.261	2.31
347.712	2.31
348.163	2.31
348.613	2.31
349.064	2.29
349.515	2.29
349.965	2.29
350.416	2.29
350.866	2.29
351.317	2.29
351.767	2.29
352.217	2.29
352.668	2.29
353.118	2.29
353.568	2.29
354.018	2.3
354.468	2.3
354.918	2.31
355.368	2.32
355.818	2.32
356.268	2.32
356.718	2.32
357.168	2.32
357.617	2.31
358.067	2.31
358.517	2.31
358.966	2.31
359.416	2.32
359.865	2.31
360.315	2.31
360.764	2.31
361.213	2.31
361.663	2.31
362.112	2.32
362.561	2.33
363.01	2.34
363.459	2.34
363.908	2.34
364.357	2.34
364.806	2.34
365.255	2.35
365.703	2.34
366.152	2.35
366.601	2.36
367.05	2.37
367.498	2.39
367.947	2.39
368.395	2.4
368.844	2.41
369.292	2.41
369.74	2.43
370.189	2.43
370.637	2.43
371.085	2.44
371.533	2.44
371.981	2.44
372.429	2.43
372.877	2.43
373.325	2.43
373.773	2.44
374.221	2.44
374.669	2.44
375.116	2.44
375.564	2.45
376.012	2.46
376.459	2.47
376.907	2.48
377.354	2.49
377.801	2.51
378.249	2.51
378.696	2.53
379.143	2.54
379.591	2.56
380.038	2.57
380.485	2.59
380.932	2.59
381.379	2.59
381.826	2.61
382.273	2.62
382.72	2.63
383.166	2.64
383.613	2.64
384.06	2.66
384.506	2.67
384.953	2.68
385.4	2.71
385.846	2.72
386.292	2.74
386.739	2.74
387.185	2.77
387.631	2.79
388.078	2.81
388.524	2.81
388.97	2.83
389.416	2.85
389.862	2.86
390.308	2.87
390.754	2.88
391.2	2.91
391.645	2.94
392.091	2.94
392.537	2.96
392.983	2.98
393.428	3.01
393.874	3.04
394.319	3.06
394.765	3.07
395.21	3.08
395.655	3.09
396.101	3.1
396.546	3.11
396.991	3.11
397.436	3.11
397.881	3.13
398.326	3.15
398.771	3.16
399.216	3.17
399.661	3.2
400.106	3.21
400.551	3.21
400.995	3.2
401.44	3.2
401.885	3.2
402.329	3.21
402.774	3.19
403.218	3.19
403.663	3.17
404.107	3.17
404.551	3.17
404.995	3.17
405.44	3.17
405.884	3.18
406.328	3.18
406.772	3.19
407.216	3.19
407.66	3.21
408.104	3.21
408.547	3.21
408.991	3.22
409.435	3.21
409.879	3.22
410.322	3.22
410.766	3.23
411.209	3.25
411.653	3.24
412.096	3.22
412.54	3.22
412.983	3.24
413.426	3.27
413.869	3.28
414.312	3.3
414.756	3.33
415.199	3.34
415.642	3.36
416.085	3.36
416.527	3.39
416.97	3.4
417.413	3.41
417.856	3.38
418.298	3.36
418.741	3.36
419.184	3.35
419.626	3.34
420.069	3.33
420.511	3.33
420.953	3.33
421.396	3.32
421.838	3.36
422.28	3.38
422.722	3.41
423.164	3.43
423.606	3.44
424.048	3.45
424.49	3.45
424.932	3.44
425.374	3.44
425.816	3.42
426.258	3.42
426.699	3.38
427.141	3.36
427.582	3.34
428.024	3.35
428.465	3.35
428.907	3.35
429.348	3.35
429.789	3.35
430.231	3.36
430.672	3.39
431.113	3.41
431.554	3.43
431.995	3.45
432.436	3.45
432.877	3.44
433.318	3.45
433.759	3.46
434.2	3.49
434.64	3.52
435.081	3.53
435.522	3.55
435.962	3.56
436.403	3.6
436.843	3.6
437.284	3.61
437.724	3.66
438.164	3.67
438.604	3.69
439.045	3.69
439.485	3.69
439.925	3.7
440.365	3.69
440.805	3.68
441.245	3.66
441.685	3.68
442.125	3.69
442.564	3.68
443.004	3.7
443.444	3.71
443.883	3.75
444.323	3.74
444.762	3.77
445.202	3.81
445.641	3.83
446.081	3.85
446.52	3.84
446.959	3.87
447.398	3.9
447.837	3.91
448.276	3.91
448.716	3.91
449.154	3.95
449.593	3.96
450.032	3.97
450.471	3.98
450.91	3.99
451.349	4.01
451.787	4.01
452.226	3.99
452.664	3.97
453.103	3.96
453.541	3.94
453.98	3.91
454.418	3.87
454.856	3.84
455.295	3.83
455.733	3.8
456.171	3.78
456.609	3.77
457.047	3.76
457.485	3.77
457.923	3.76
458.361	3.75
458.798	3.77
459.236	3.77
459.674	3.77
460.111	3.76
460.549	3.77
460.987	3.77
461.424	3.77
461.862	3.8
462.299	3.8
462.736	3.82
463.173	3.82
463.611	3.82
464.048	3.84
464.485	3.86
464.922	3.86
465.359	3.88
465.796	3.87
466.233	3.88
466.67	3.9
467.106	3.88
467.543	3.89
467.98	3.89
468.416	3.89
468.853	3.88
469.29	3.88
469.726	3.88
470.162	3.88
470.599	3.89
471.035	3.88
471.471	3.85
471.907	3.84
472.344	3.82
472.78	3.83
473.216	3.83
473.652	3.8
474.088	3.8
474.523	3.81
474.959	3.78
475.395	3.77
475.831	3.74
476.266	3.75
476.702	3.73
477.138	3.71
477.573	3.68
478.008	3.67
478.444	3.66
478.879	3.64
479.314	3.62
479.75	3.62
480.185	3.59
480.62	3.6
481.055	3.57
481.49	3.55
481.925	3.54
482.36	3.52
482.795	3.51
483.229	3.5
483.664	3.49
484.099	3.48
484.534	3.47
484.968	3.46
485.403	3.46
485.837	3.47
486.271	3.49
486.706	3.5
487.14	3.52
487.574	3.52
488.009	3.55
488.443	3.57
488.877	3.59
489.311	3.6
489.745	3.63
490.179	3.65
490.613	3.67
491.046	3.69
491.48	3.73
491.914	3.76
492.348	3.8
492.781	3.82
493.215	3.86
493.648	3.9
494.082	3.96
494.515	4
494.948	4.05
495.382	4.11
495.815	4.17
496.248	4.22
496.681	4.28
497.114	4.35
497.547	4.43
497.98	4.5
498.413	4.58
498.846	4.68
499.279	4.77
499.711	4.87
500.144	4.95
500.577	5.06
501.009	5.17
501.442	5.29
501.874	5.41
502.306	5.55
502.739	5.68
503.171	5.83
503.603	5.97
504.036	6.12
504.468	6.3
504.9	6.48
505.332	6.66
505.764	6.84
506.196	7.03
506.627	7.23
507.059	7.43
507.491	7.65
507.923	7.88
508.354	8.12
508.786	8.36
509.217	8.58
509.649	8.84
510.08	9.11
510.512	9.36
510.943	9.64
511.374	9.93
511.805	10.21
512.237	10.5
512.668	10.78
513.099	11.09
513.53	11.4
513.961	11.74
514.391	12.04
514.822	12.35
515.253	12.69
515.684	13.01
516.114	13.35
516.545	13.69
516.975	14.05
517.406	14.4
517.836	14.74
518.267	15.09
518.697	15.43
519.127	15.79
519.558	16.13
519.988	16.48
520.418	16.82
520.848	17.14
521.278	17.48
521.708	17.64
522.138	17.95
522.567	18.23
522.997	18.53
523.427	18.81
523.857	19.09
524.286	19.37
524.716	19.64
525.145	19.91
525.575	20.14
526.004	20.38
526.433	20.78
526.863	21.03
527.292	21.26
527.721	21.47
528.15	21.69
528.579	21.91
529.008	22.11
529.437	22.29
529.866	22.46
530.295	22.65
530.724	22.83
531.152	22.98
531.581	23.11
532.01	23.26
532.438	23.39
532.867	23.5
533.295	23.59
533.723	23.72
534.152	23.83
534.58	23.93
535.008	24.02
535.436	24.09
535.865	24.16
536.293	24.23
536.721	24.31
537.149	24.38
537.576	24.47
538.004	24.52
538.432	24.56
538.86	24.62
539.287	24.67
539.715	24.71
540.143	24.74
540.57	24.8
540.998	24.84
541.425	24.88
541.852	24.91
542.28	24.92
542.707	24.96
543.134	24.99
543.561	25
543.988	25.03
544.415	25.08
544.842	25.13
545.269	25.15
545.696	25.18
546.123	25.22
546.549	25.24
546.976	25.27
547.403	25.3
547.829	25.33
548.256	25.35
548.682	25.36
549.108	25.36
549.535	25.35
549.961	25.36
550.387	25.38
550.813	25.36
551.24	25.36
551.666	25.36
552.092	25.37
552.518	25.35
552.943	25.34
553.369	25.32
553.795	25.29
554.221	25.28
554.646	25.24
555.072	25.22
555.498	25.19
555.923	25.14
556.349	25.05
556.774	24.98
557.199	24.92
557.625	24.85
558.05	24.77
558.475	24.68
558.9	24.59
559.325	24.49
559.75	24.37
560.175	24.25
560.6	24.12
561.025	24.01
561.449	23.88
561.874	23.74
562.299	23.59
562.723	23.46
563.148	23.32
563.572	23.17
563.997	23
564.421	22.84
564.846	22.68
565.27	22.52
565.694	22.34
566.118	22.17
566.542	22.02
566.966	21.84
567.39	21.65
567.814	21.46
568.238	21.27
568.662	21.08
569.086	20.9
569.509	20.71
569.933	20.52
570.357	20.34
570.78	20.17
571.204	19.97
571.627	19.78
572.05	19.61
572.474	19.44
572.897	19.29
573.32	19.14
573.743	18.98
574.166	18.83
574.589	18.68
575.012	18.56
575.435	18.4
575.858	18.26
576.281	18.15
576.704	18.03
577.126	17.9
577.549	17.79
577.972	17.67
578.394	17.54
578.817	17.43
579.239	17.32
579.661	17.19
580.084	17.08
580.506	16.98
580.928	16.87
581.35	16.76
581.772	16.69
582.194	16.59
582.616	16.51
583.038	16.44
583.46	16.36
583.882	16.27
584.303	16.19
584.725	16.11
585.147	16.01
585.568	15.93
585.99	15.86
586.411	15.78
586.833	15.7
587.254	15.62
587.675	15.54
588.096	15.49
588.518	15.43
588.939	15.38
589.36	15.32
589.781	15.28
590.202	15.23
590.623	15.17
591.043	15.11
591.464	15.04
591.885	14.99
592.305	14.96
592.726	14.9
593.147	14.85
593.567	14.79
593.987	14.75
594.408	14.7
594.828	14.64
595.248	14.61
595.669	14.59
596.089	14.56
596.509	14.5
596.929	14.45
597.349	14.39
597.769	14.34
598.189	14.3
598.608	14.24
599.028	14.19
599.448	14.17
599.867	14.12
600.287	14.06
600.706	14.01
601.126	13.97
601.545	13.92
601.965	13.87
602.384	13.82
602.803	13.75
603.222	13.69
603.641	13.63
604.061	13.54
604.48	13.47
604.898	13.39
605.317	13.31
605.736	13.22
606.155	13.14
606.574	13.06
606.992	12.97
607.411	12.89
607.829	12.77
608.248	12.71
608.666	12.63
609.085	12.55
609.503	12.47
609.921	12.38
610.339	12.28
610.758	12.2
611.176	12.11
611.594	12.02
612.012	11.95
612.43	11.91
612.847	11.82
613.265	11.74
613.683	11.66
614.101	11.58
614.518	11.5
614.936	11.43
615.353	11.34
615.771	11.28
616.188	11.23
616.606	11.15
617.023	11.09
617.44	11.02
617.857	10.95
618.274	10.89
618.691	10.84
619.108	10.79
619.525	10.74
619.942	10.71
620.359	10.67
620.776	10.63
621.192	10.6
621.609	10.56
622.026	10.53
622.442	10.5
622.859	10.49
623.275	10.47
623.691	10.46
624.108	10.45
624.524	10.41
624.94	10.41
625.356	10.39
625.772	10.37
626.188	10.37
626.604	10.35
627.02	10.34
627.436	10.33
627.852	10.32
628.268	10.29
628.683	10.27
629.099	10.26
629.514	10.24
629.93	10.22
630.345	10.18
630.761	10.14
631.176	10.1
631.591	10.05
632.007	10
632.422	9.95
632.837	9.89
633.252	9.84
633.667	9.76
634.082	9.68
634.497	9.59
634.911	9.5
635.326	9.41
635.741	9.31
636.155	9.2
636.57	9.08
636.984	8.94
637.399	8.81
637.813	8.67
638.228	8.54
638.642	8.42
639.056	8.3
639.47	8.17
639.884	8.04
640.298	7.91
640.712	7.78
641.126	7.65
641.54	7.53
641.954	7.42
642.368	7.29
642.781	7.17
643.195	7.04
643.609	6.92
644.022	6.82
644.436	6.71
644.849	6.61
645.262	6.51
645.676	6.42
646.089	6.33
646.502	6.24
646.915	6.17
647.328	6.11
647.741	6.04
648.154	5.99
648.567	5.94
648.98	5.88
649.393	5.83
649.805	5.79
650.218	5.76
650.631	5.74
651.043	5.71
651.456	5.67
651.868	5.63
652.28	5.6
652.693	5.55
653.105	5.5
653.517	5.47
653.929	5.45
654.341	5.4
654.753	5.36
655.165	5.31
655.577	5.26
655.989	5.19
656.401	5.13
656.813	5.07
657.224	5.03
657.636	4.96
658.047	4.89
658.459	4.81
658.87	4.74
659.282	4.67
659.693	4.6
660.104	4.53
660.515	4.47
660.926	4.41
661.338	4.35
661.749	4.28
662.159	4.23
662.57	4.17
662.981	4.13
663.392	4.08
663.803	4.03
664.213	3.99
664.624	3.96
665.035	3.92
665.445	3.89
665.855	3.87
666.266	3.85
666.676	3.82
667.086	3.79
667.497	3.77
667.907	3.76
668.317	3.73
668.727	3.72
669.137	3.7
669.547	3.72
669.956	3.71
670.366	3.72
670.776	3.72
671.186	3.73
671.595	3.77
672.005	3.79
672.414	3.8
672.824	3.84
673.233	3.87
673.642	3.9
674.052	3.93
674.461	3.96
674.87	3.99
675.279	4.03
675.688	4.07
676.097	4.1
676.506	4.14
676.915	4.18
677.323	4.23
677.732	4.29
678.141	4.34
678.549	4.4
678.958	4.46
679.366	4.52
679.775	4.59
680.183	4.66
680.592	4.74
681	4.81
681.408	4.91
681.816	5
682.224	5.09
682.632	5.22
683.04	5.33
683.448	5.47
683.856	5.62
684.264	5.79
684.671	5.98
685.079	6.18
685.487	6.43
685.894	6.68
686.302	6.94
686.709	7.26
687.116	7.57
687.524	7.92
687.931	8.31
688.338	8.71
688.745	9.14
689.152	9.61
689.559	10.12
689.966	10.63
690.373	11.18
690.78	11.74
691.187	12.32
691.593	12.92
692	13.55
692.407	14.21
692.813	14.89
693.22	15.58
693.626	16.25
694.032	16.94
694.439	17.66
694.845	18.36
695.251	19.07
695.657	19.78
696.063	20.49
696.469	21.22
696.875	21.9
697.281	22.56
697.687	23.24
698.093	23.95
698.498	24.61
698.904	25.29
699.31	25.93
699.715	26.56
700.12	27.19
700.526	27.82
700.931	28.41
701.337	29.01
701.742	29.61
702.147	30.19
702.552	30.75
702.957	31.32
703.362	31.86
703.767	32.39
704.172	32.93
704.577	33.45
704.981	33.97
705.386	34.46
705.791	34.98
706.195	35.48
706.6	35.94
707.004	36.39
707.408	36.82
707.813	37.25
708.217	37.68
708.621	38.11
709.025	38.53
709.43	38.93
709.834	39.36
710.237	39.73
710.641	40.13
711.045	40.51
711.449	40.89
711.853	41.28
712.256	41.64
712.66	42
713.064	42.36
713.467	42.7
713.87	43.06
714.274	43.38
714.677	43.69
715.08	43.99
715.484	44.32
715.887	44.66
716.29	44.95
716.693	45.25
717.096	45.57
717.499	45.86
717.901	46.15
718.304	46.41
718.707	46.69
719.109	46.99
719.512	47.27
719.915	47.51
720.317	47.75
720.719	48
721.122	48.22
721.524	48.45
721.926	48.68
722.328	48.92
722.731	49.13
723.133	49.33
723.535	49.54
723.937	49.74
724.338	49.93
724.74	50.12
725.142	50.25
725.544	50.4
725.945	50.55
726.347	50.73
726.748	50.82
727.15	50.97
727.551	51.17
727.952	51.26
728.354	51.41
728.755	51.57
729.156	51.67
729.557	51.86
729.958	52.02
730.359	52.15
730.76	52.18
731.161	52.33
731.562	52.43
731.962	52.46
732.363	52.57
732.763	52.68
733.164	52.74
733.564	52.84
733.965	52.88
734.365	52.92
734.766	52.99
735.166	53.09
735.566	53.13
735.966	53.17
736.366	53.24
736.766	53.29
737.166	53.29
737.566	53.33
737.966	53.4
738.365	53.46
738.765	53.51
739.165	53.52
739.564	53.54
739.964	53.6
740.363	53.66
740.763	53.7
741.162	53.76
741.561	53.82
741.96	53.86
742.36	53.88
742.759	53.85
743.158	53.88
743.557	53.95
743.955	54.02
744.354	54.08
744.753	54.09
745.152	54.1
745.55	54.14
745.949	54.15
746.348	54.15
746.746	54.15
747.144	54.24
747.543	54.26
747.941	54.31
748.339	54.32
748.737	54.35
749.136	54.41
749.534	54.47
749.932	54.45
750.33	54.46
750.727	54.49
751.125	54.52
751.523	54.5
751.921	54.52
752.318	54.48
752.716	54.44
753.113	54.42
753.511	54.37
753.908	54.34
754.305	54.34
754.703	54.34
755.1	54.33
755.497	54.34
755.894	54.35
756.291	54.33
756.688	54.32
757.085	54.35
757.482	54.34
757.878	54.37
758.275	54.35
758.672	54.37
759.068	54.38
759.465	54.36
759.861	54.35
760.258	54.33
760.654	54.33
761.05	54.32
761.447	54.32
761.843	54.32
762.239	54.3
762.635	54.3
763.031	54.28
763.427	54.23
763.822	54.22
764.218	54.19
764.614	54.2
765.01	54.19
765.405	54.19
765.801	54.14
766.196	54.12
766.592	54.11
766.987	54.09
767.382	54.09
767.778	54.1
768.173	54.1
768.568	54.06
768.963	54.08
769.358	54.06
769.753	54.08
770.148	54.1
770.542	54.11
770.937	54.1
771.332	54.11
771.726	54.08
772.121	54.04
772.515	53.99
772.91	54.01
773.304	53.97
773.699	53.96
774.093	53.91
774.487	53.91
774.881	53.89
775.275	53.91
775.669	53.91
776.063	53.9
776.457	53.93
776.851	53.96
777.245	54.01
777.638	54.03
778.032	54.05
778.425	54.09
778.819	54.1
779.212	54.1
779.606	54.09
779.999	54.07
780.392	54.07
780.786	54.07
781.179	54.09
781.572	54.07
781.965	54.05
782.358	54.04
782.751	54.05
