Data from N_1_div_wi_4n_029_Splice17_15.txt Node
Date: Sat Feb 29 13:45:40 EST 2020
User: sa697716
Spectrometer: FLMS03696
Trigger mode: 0
Integration Time (sec): 3.180400E-1
Scans to average: 20
Electric dark correction enabled: true
Nonlinearity correction enabled: true
Boxcar width: 5
XAxis mode: Wavelengths
Number of Pixels in Spectrum: 2048
>>>>>Begin Spectral Data<<<<<
187.83	63.97
188.298	53.34
188.766	56.1
189.233	57.42
189.701	69.85
190.169	67.28
190.636	72.44
191.104	59.95
191.571	79.36
192.039	61.49
192.506	358.25
192.974	8212.74
193.441	-244.38
193.908	92.29
194.375	66.65
194.842	170.64
195.31	54.72
195.777	67.21
196.244	40.07
196.711	38.42
197.177	36.11
197.644	35.49
198.111	35.44
198.578	36.38
199.045	37.57
199.511	38.66
199.978	38.83
200.445	39.05
200.911	39.3
201.378	38.95
201.844	39.39
202.31	40.23
202.777	40.88
203.243	41.35
203.709	41.63
204.176	41.09
204.642	41.14
205.108	41.15
205.574	41.68
206.04	41.47
206.506	41.76
206.972	41.66
207.438	41.06
207.903	40.75
208.369	40.24
208.835	40.1
209.301	40.28
209.766	39.98
210.232	39.98
210.697	39.49
211.163	39.13
211.628	39.01
212.094	38.81
212.559	38.54
213.024	38.11
213.49	38.13
213.955	37.88
214.42	37.45
214.885	36.94
215.35	36.39
215.815	35.97
216.28	35.67
216.745	34.87
217.21	34.15
217.675	33.42
218.14	32.77
218.604	31.88
219.069	31.28
219.534	30.65
219.998	30.18
220.463	29.8
220.927	29.36
221.392	28.92
221.856	28.55
222.32	28.18
222.785	27.87
223.249	27.56
223.713	27.35
224.177	27.04
224.642	26.83
225.106	26.58
225.57	26.29
226.034	26.07
226.497	25.79
226.961	25.54
227.425	25.27
227.889	25.04
228.353	24.76
228.816	24.52
229.28	24.26
229.744	24.05
230.207	23.82
230.671	23.59
231.134	23.35
231.597	23.14
232.061	22.93
232.524	22.75
232.987	22.53
233.45	22.33
233.914	22.14
234.377	21.96
234.84	21.75
235.303	21.55
235.766	21.36
236.229	21.19
236.691	21.04
237.154	20.88
237.617	20.71
238.08	20.57
238.542	20.43
239.005	20.26
239.468	20.09
239.93	19.96
240.393	19.82
240.855	19.69
241.317	19.57
241.78	19.44
242.242	19.31
242.704	19.2
243.166	19.07
243.629	18.96
244.091	18.86
244.553	18.78
245.015	18.68
245.477	18.57
245.939	18.47
246.4	18.36
246.862	18.26
247.324	18.19
247.786	18.08
248.247	18
248.709	17.91
249.17	17.84
249.632	17.74
250.093	17.65
250.555	17.59
251.016	17.53
251.477	17.47
251.939	17.41
252.4	17.33
252.861	17.3
253.322	17.24
253.783	17.21
254.244	17.16
254.705	17.13
255.166	17.09
255.627	17.04
256.088	16.98
256.549	16.93
257.009	16.87
257.47	16.84
257.931	16.78
258.391	16.72
258.852	16.68
259.312	16.64
259.773	16.59
260.233	16.55
260.694	16.53
261.154	16.49
261.614	16.47
262.074	16.46
262.534	16.42
262.994	16.4
263.455	16.39
263.915	16.36
264.374	16.33
264.834	16.31
265.294	16.29
265.754	16.26
266.214	16.25
266.673	16.23
267.133	16.21
267.593	16.2
268.052	16.2
268.512	16.18
268.971	16.17
269.431	16.17
269.89	16.17
270.349	16.17
270.809	16.18
271.268	16.18
271.727	16.18
272.186	16.17
272.645	16.17
273.104	16.15
273.563	16.16
274.022	16.15
274.481	16.15
274.94	16.14
275.399	16.12
275.857	16.1
276.316	16.09
276.775	16.07
277.233	16.05
277.692	16.02
278.15	15.99
278.609	15.95
279.067	15.92
279.525	15.89
279.984	15.86
280.442	15.84
280.9	15.81
281.358	15.78
281.816	15.75
282.274	15.73
282.732	15.71
283.19	15.7
283.648	15.69
284.106	15.67
284.564	15.67
285.021	15.65
285.479	15.64
285.937	15.62
286.394	15.6
286.852	15.59
287.309	15.57
287.767	15.56
288.224	15.54
288.682	15.53
289.139	15.5
289.596	15.46
290.053	15.43
290.511	15.39
290.968	15.36
291.425	15.33
291.882	15.31
292.339	15.27
292.796	15.24
293.252	15.22
293.709	15.19
294.166	15.17
294.623	15.15
295.079	15.13
295.536	15.12
295.992	15.09
296.449	15.09
296.905	15.06
297.362	15.04
297.818	15.03
298.274	15.02
298.731	15
299.187	14.97
299.643	14.96
300.099	14.94
300.555	14.92
301.011	14.91
301.467	14.88
301.923	14.86
302.379	14.84
302.835	14.82
303.291	14.8
303.746	14.79
304.202	14.77
304.658	14.76
305.113	14.75
305.569	14.74
306.024	14.74
306.479	14.72
306.935	14.7
307.39	14.71
307.845	14.7
308.301	14.68
308.756	14.68
309.211	14.67
309.666	14.67
310.121	14.66
310.576	14.65
311.031	14.64
311.486	14.64
311.94	14.63
312.395	14.62
312.85	14.6
313.305	14.61
313.759	14.6
314.214	14.58
314.668	14.58
315.123	14.56
315.577	14.55
316.032	14.54
316.486	14.53
316.94	14.51
317.394	14.49
317.849	14.49
318.303	14.46
318.757	14.44
319.211	14.41
319.665	14.4
320.119	14.38
320.572	14.37
321.026	14.35
321.48	14.34
321.934	14.34
322.387	14.32
322.841	14.31
323.295	14.3
323.748	14.29
324.202	14.29
324.655	14.28
325.108	14.26
325.562	14.25
326.015	14.23
326.468	14.2
326.921	14.19
327.374	14.17
327.827	14.16
328.28	14.13
328.733	14.1
329.186	14.08
329.639	14.07
330.092	14.06
330.545	14.05
330.997	14.05
331.45	14.05
331.903	14.04
332.355	14.04
332.808	14.04
333.26	14.04
333.713	14.05
334.165	14.06
334.617	14.07
335.069	14.06
335.522	14.06
335.974	14.06
336.426	14.05
336.878	14.05
337.33	14.05
337.782	14.06
338.234	14.06
338.686	14.05
339.137	14.04
339.589	14.02
340.041	14
340.493	14
340.944	13.99
341.396	13.98
341.847	13.96
342.299	13.93
342.75	13.89
343.201	13.87
343.653	13.84
344.104	13.81
344.555	13.79
345.006	13.77
345.457	13.75
345.908	13.72
346.359	13.7
346.81	13.69
347.261	13.67
347.712	13.68
348.163	13.67
348.613	13.66
349.064	13.65
349.515	13.64
349.965	13.64
350.416	13.63
350.866	13.62
351.317	13.61
351.767	13.61
352.217	13.6
352.668	13.6
353.118	13.61
353.568	13.6
354.018	13.61
354.468	13.6
354.918	13.6
355.368	13.6
355.818	13.59
356.268	13.6
356.718	13.6
357.168	13.6
357.617	13.6
358.067	13.58
358.517	13.57
358.966	13.57
359.416	13.58
359.865	13.59
360.315	13.59
360.764	13.59
361.213	13.59
361.663	13.6
362.112	13.6
362.561	13.61
363.01	13.62
363.459	13.62
363.908	13.62
364.357	13.62
364.806	13.6
365.255	13.61
365.703	13.61
366.152	13.63
366.601	13.61
367.05	13.63
367.498	13.64
367.947	13.65
368.395	13.67
368.844	13.68
369.292	13.68
369.74	13.7
370.189	13.73
370.637	13.74
371.085	13.76
371.533	13.8
371.981	13.81
372.429	13.81
372.877	13.81
373.325	13.82
373.773	13.85
374.221	13.87
374.669	13.89
375.116	13.9
375.564	13.92
376.012	13.94
376.459	13.98
376.907	14
377.354	14.05
377.801	14.1
378.249	14.14
378.696	14.16
379.143	14.21
379.591	14.24
380.038	14.27
380.485	14.32
380.932	14.35
381.379	14.35
381.826	14.4
382.273	14.42
382.72	14.45
383.166	14.46
383.613	14.48
384.06	14.5
384.506	14.5
384.953	14.53
385.4	14.54
385.846	14.56
386.292	14.6
386.739	14.61
387.185	14.63
387.631	14.66
388.078	14.69
388.524	14.69
388.97	14.71
389.416	14.73
389.862	14.73
390.308	14.74
390.754	14.75
391.2	14.75
391.645	14.77
392.091	14.77
392.537	14.78
392.983	14.81
393.428	14.85
393.874	14.87
394.319	14.88
394.765	14.9
395.21	14.89
395.655	14.92
396.101	14.92
396.546	14.93
396.991	14.92
397.436	14.9
397.881	14.89
398.326	14.88
398.771	14.88
399.216	14.9
399.661	14.9
400.106	14.93
400.551	14.92
400.995	14.9
401.44	14.89
401.885	14.88
402.329	14.87
402.774	14.85
403.218	14.85
403.663	14.84
404.107	14.82
404.551	14.82
404.995	14.8
405.44	14.79
405.884	14.76
406.328	14.75
406.772	14.76
407.216	14.76
407.66	14.77
408.104	14.74
408.547	14.73
408.991	14.7
409.435	14.68
409.879	14.68
410.322	14.66
410.766	14.67
411.209	14.67
411.653	14.66
412.096	14.65
412.54	14.63
412.983	14.63
413.426	14.62
413.869	14.61
414.312	14.62
414.756	14.6
415.199	14.61
415.642	14.62
416.085	14.62
416.527	14.63
416.97	14.64
417.413	14.64
417.856	14.62
418.298	14.59
418.741	14.59
419.184	14.57
419.626	14.55
420.069	14.54
420.511	14.53
420.953	14.51
421.396	14.49
421.838	14.48
422.28	14.49
422.722	14.51
423.164	14.53
423.606	14.54
424.048	14.54
424.49	14.56
424.932	14.56
425.374	14.56
425.816	14.55
426.258	14.53
426.699	14.49
427.141	14.44
427.582	14.41
428.024	14.4
428.465	14.42
428.907	14.43
429.348	14.41
429.789	14.4
430.231	14.38
430.672	14.38
431.113	14.4
431.554	14.42
431.995	14.46
432.436	14.46
432.877	14.46
433.318	14.45
433.759	14.45
434.2	14.45
434.64	14.46
435.081	14.47
435.522	14.49
435.962	14.49
436.403	14.51
436.843	14.54
437.284	14.57
437.724	14.58
438.164	14.57
438.604	14.57
439.045	14.59
439.485	14.59
439.925	14.58
440.365	14.59
440.805	14.57
441.245	14.55
441.685	14.54
442.125	14.54
442.564	14.57
443.004	14.57
443.444	14.57
443.883	14.57
444.323	14.57
444.762	14.62
445.202	14.65
445.641	14.7
446.081	14.73
446.52	14.72
446.959	14.72
447.398	14.76
447.837	14.8
448.276	14.8
448.716	14.83
449.154	14.85
449.593	14.89
450.032	14.88
450.471	14.88
450.91	14.89
451.349	14.9
451.787	14.92
452.226	14.88
452.664	14.86
453.103	14.85
453.541	14.84
453.98	14.81
454.418	14.76
454.856	14.74
455.295	14.72
455.733	14.69
456.171	14.68
456.609	14.66
457.047	14.66
457.485	14.64
457.923	14.64
458.361	14.63
458.798	14.65
459.236	14.65
459.674	14.66
460.111	14.67
460.549	14.66
460.987	14.65
461.424	14.63
461.862	14.61
462.299	14.6
462.736	14.59
463.173	14.58
463.611	14.56
464.048	14.55
464.485	14.52
464.922	14.52
465.359	14.51
465.796	14.5
466.233	14.5
466.67	14.5
467.106	14.51
467.543	14.51
467.98	14.54
468.416	14.54
468.853	14.55
469.29	14.56
469.726	14.54
470.162	14.55
470.599	14.56
471.035	14.57
471.471	14.56
471.907	14.55
472.344	14.55
472.78	14.54
473.216	14.53
473.652	14.53
474.088	14.53
474.523	14.54
474.959	14.52
475.395	14.53
475.831	14.51
476.266	14.52
476.702	14.5
477.138	14.49
477.573	14.46
478.008	14.44
478.444	14.42
478.879	14.41
479.314	14.39
479.75	14.38
480.185	14.35
480.62	14.34
481.055	14.33
481.49	14.32
481.925	14.29
482.36	14.27
482.795	14.24
483.229	14.23
483.664	14.19
484.099	14.15
484.534	14.14
484.968	14.13
485.403	14.1
485.837	14.09
486.271	14.07
486.706	14.09
487.14	14.1
487.574	14.1
488.009	14.11
488.443	14.12
488.877	14.14
489.311	14.15
489.745	14.14
490.179	14.14
490.613	14.14
491.046	14.16
491.48	14.16
491.914	14.16
492.348	14.16
492.781	14.16
493.215	14.16
493.648	14.17
494.082	14.17
494.515	14.18
494.948	14.2
495.382	14.22
495.815	14.22
496.248	14.24
496.681	14.23
497.114	14.25
497.547	14.26
497.98	14.28
498.413	14.29
498.846	14.3
499.279	14.32
499.711	14.33
500.144	14.33
500.577	14.36
501.009	14.39
501.442	14.43
501.874	14.46
502.306	14.49
502.739	14.52
503.171	14.56
503.603	14.61
504.036	14.68
504.468	14.75
504.9	14.83
505.332	14.88
505.764	14.95
506.196	15.04
506.627	15.13
507.059	15.23
507.491	15.32
507.923	15.42
508.354	15.51
508.786	15.62
509.217	15.71
509.649	15.81
510.08	15.94
510.512	16.06
510.943	16.18
511.374	16.29
511.805	16.42
512.237	16.56
512.668	16.7
513.099	16.87
513.53	17.02
513.961	17.19
514.391	17.36
514.822	17.53
515.253	17.7
515.684	17.86
516.114	18.06
516.545	18.23
516.975	18.43
517.406	18.62
517.836	18.81
518.267	19
518.697	19.2
519.127	19.4
519.558	19.6
519.988	19.81
520.418	20.01
520.848	20.2
521.278	20.41
521.708	20.52
522.138	20.69
522.567	20.9
522.997	21.1
523.427	21.28
523.857	21.46
524.286	21.64
524.716	21.83
525.145	22.02
525.575	22.21
526.004	22.38
526.433	22.65
526.863	22.83
527.292	22.98
527.721	23.13
528.15	23.29
528.579	23.46
529.008	23.61
529.437	23.73
529.866	23.85
530.295	23.97
530.724	24.1
531.152	24.24
531.581	24.35
532.01	24.46
532.438	24.57
532.867	24.66
533.295	24.73
533.723	24.81
534.152	24.9
534.58	24.98
535.008	25.03
535.436	25.1
535.865	25.15
536.293	25.21
536.721	25.27
537.149	25.3
537.576	25.37
538.004	25.42
538.432	25.47
538.86	25.52
539.287	25.56
539.715	25.6
540.143	25.62
540.57	25.65
540.998	25.69
541.425	25.71
541.852	25.75
542.28	25.76
542.707	25.78
543.134	25.81
543.561	25.8
543.988	25.82
544.415	25.84
544.842	25.87
545.269	25.9
545.696	25.93
546.123	25.94
546.549	25.96
546.976	25.99
547.403	26
547.829	26.01
548.256	26.05
548.682	26.06
549.108	26.06
549.535	26.07
549.961	26.07
550.387	26.05
550.813	26.04
551.24	26.02
551.666	26.02
552.092	26.02
552.518	25.99
552.943	25.99
553.369	25.97
553.795	25.95
554.221	25.9
554.646	25.86
555.072	25.83
555.498	25.79
555.923	25.76
556.349	25.7
556.774	25.64
557.199	25.59
557.625	25.5
558.05	25.42
558.475	25.36
558.9	25.3
559.325	25.22
559.75	25.14
560.175	25.05
560.6	24.96
561.025	24.86
561.449	24.77
561.874	24.66
562.299	24.56
562.723	24.44
563.148	24.33
563.572	24.23
563.997	24.1
564.421	23.98
564.846	23.86
565.27	23.74
565.694	23.61
566.118	23.48
566.542	23.36
566.966	23.24
567.39	23.13
567.814	22.99
568.238	22.82
568.662	22.7
569.086	22.58
569.509	22.46
569.933	22.32
570.357	22.17
570.78	22.03
571.204	21.89
571.627	21.75
572.05	21.63
572.474	21.5
572.897	21.39
573.32	21.26
573.743	21.12
574.166	21
574.589	20.89
575.012	20.81
575.435	20.72
575.858	20.61
576.281	20.52
576.704	20.42
577.126	20.33
577.549	20.26
577.972	20.19
578.394	20.1
578.817	20.02
579.239	19.95
579.661	19.88
580.084	19.82
580.506	19.76
580.928	19.71
581.35	19.64
581.772	19.59
582.194	19.54
582.616	19.47
583.038	19.42
583.46	19.38
583.882	19.32
584.303	19.27
584.725	19.23
585.147	19.16
585.568	19.09
585.99	19.05
586.411	19
586.833	18.95
587.254	18.91
587.675	18.87
588.096	18.82
588.518	18.78
588.939	18.76
589.36	18.69
589.781	18.67
590.202	18.65
590.623	18.62
591.043	18.56
591.464	18.52
591.885	18.48
592.305	18.46
592.726	18.41
593.147	18.38
593.567	18.34
593.987	18.32
594.408	18.26
594.828	18.21
595.248	18.19
595.669	18.18
596.089	18.16
596.509	18.13
596.929	18.08
597.349	18.07
597.769	18.03
598.189	17.99
598.608	17.95
599.028	17.93
599.448	17.92
599.867	17.87
600.287	17.83
600.706	17.79
601.126	17.75
601.545	17.73
601.965	17.68
602.384	17.66
602.803	17.63
603.222	17.58
603.641	17.56
604.061	17.5
604.48	17.46
604.898	17.43
605.317	17.4
605.736	17.35
606.155	17.3
606.574	17.26
606.992	17.19
607.411	17.14
607.829	17.06
608.248	17.02
608.666	16.97
609.085	16.92
609.503	16.86
609.921	16.78
610.339	16.74
610.758	16.7
611.176	16.65
611.594	16.62
612.012	16.56
612.43	16.57
612.847	16.52
613.265	16.49
613.683	16.44
614.101	16.41
614.518	16.36
614.936	16.32
615.353	16.27
615.771	16.22
616.188	16.18
616.606	16.16
617.023	16.1
617.44	16.06
617.857	16.02
618.274	15.98
618.691	15.95
619.108	15.92
619.525	15.89
619.942	15.87
620.359	15.85
620.776	15.82
621.192	15.79
621.609	15.77
622.026	15.75
622.442	15.74
622.859	15.73
623.275	15.71
623.691	15.7
624.108	15.69
624.524	15.66
624.94	15.63
625.356	15.62
625.772	15.62
626.188	15.6
626.604	15.58
627.02	15.57
627.436	15.55
627.852	15.52
628.268	15.5
628.683	15.48
629.099	15.46
629.514	15.44
629.93	15.42
630.345	15.4
630.761	15.37
631.176	15.35
631.591	15.31
632.007	15.28
632.422	15.26
632.837	15.23
633.252	15.2
633.667	15.16
634.082	15.13
634.497	15.06
634.911	15
635.326	14.94
635.741	14.87
636.155	14.81
636.57	14.75
636.984	14.67
637.399	14.59
637.813	14.5
638.228	14.42
638.642	14.35
639.056	14.29
639.47	14.23
639.884	14.17
640.298	14.11
640.712	14.04
641.126	13.99
641.54	13.93
641.954	13.89
642.368	13.84
642.781	13.79
643.195	13.74
643.609	13.69
644.022	13.62
644.436	13.58
644.849	13.53
645.262	13.5
645.676	13.44
646.089	13.41
646.502	13.37
646.915	13.34
647.328	13.31
647.741	13.27
648.154	13.25
648.567	13.25
648.98	13.23
649.393	13.21
649.805	13.18
650.218	13.18
650.631	13.18
651.043	13.18
651.456	13.16
651.868	13.14
652.28	13.15
652.693	13.12
653.105	13.1
653.517	13.08
653.929	13.08
654.341	13.08
654.753	13.06
655.165	13.04
655.577	13
655.989	12.99
656.401	12.97
656.813	12.93
657.224	12.92
657.636	12.91
658.047	12.89
658.459	12.85
658.87	12.82
659.282	12.8
659.693	12.78
660.104	12.77
660.515	12.75
660.926	12.75
661.338	12.74
661.749	12.72
662.159	12.7
662.57	12.68
662.981	12.67
663.392	12.67
663.803	12.65
664.213	12.64
664.624	12.64
665.035	12.62
665.445	12.62
665.855	12.6
666.266	12.6
666.676	12.59
667.086	12.59
667.497	12.59
667.907	12.6
668.317	12.6
668.727	12.59
669.137	12.59
669.547	12.6
669.956	12.6
670.366	12.63
670.776	12.64
671.186	12.65
671.595	12.65
672.005	12.67
672.414	12.67
672.824	12.7
673.233	12.73
673.642	12.75
674.052	12.77
674.461	12.79
674.87	12.81
675.279	12.84
675.688	12.86
676.097	12.9
676.506	12.92
676.915	12.95
677.323	12.98
677.732	13.01
678.141	13.03
678.549	13.07
678.958	13.1
679.366	13.13
679.775	13.16
680.183	13.2
680.592	13.23
681	13.27
681.408	13.31
681.816	13.34
682.224	13.38
682.632	13.43
683.04	13.48
683.448	13.53
683.856	13.59
684.264	13.64
684.671	13.71
685.079	13.79
685.487	13.87
685.894	13.98
686.302	14.1
686.709	14.22
687.116	14.37
687.524	14.52
687.931	14.67
688.338	14.87
688.745	15.09
689.152	15.33
689.559	15.56
689.966	15.81
690.373	16.08
690.78	16.38
691.187	16.69
691.593	17.02
692	17.38
692.407	17.8
692.813	18.19
693.22	18.58
693.626	19.02
694.032	19.48
694.439	19.97
694.845	20.45
695.251	20.93
695.657	21.44
696.063	21.95
696.469	22.46
696.875	22.97
697.281	23.5
697.687	24.05
698.093	24.56
698.498	25.11
698.904	25.67
699.31	26.2
699.715	26.78
700.12	27.35
700.526	27.9
700.931	28.46
701.337	29.03
701.742	29.56
702.147	30.12
702.552	30.7
702.957	31.23
703.362	31.76
703.767	32.33
704.172	32.86
704.577	33.4
704.981	33.93
705.386	34.47
705.791	34.98
706.195	35.51
706.6	36
707.004	36.5
707.408	37.01
707.813	37.5
708.217	37.98
708.621	38.44
709.025	38.91
709.43	39.38
709.834	39.84
710.237	40.31
710.641	40.81
711.045	41.25
711.449	41.69
711.853	42.16
712.256	42.62
712.66	43.07
713.064	43.51
713.467	43.94
713.87	44.39
714.274	44.84
714.677	45.27
715.08	45.66
715.484	46.1
715.887	46.54
716.29	46.93
716.693	47.35
717.096	47.75
717.499	48.16
717.901	48.54
718.304	48.9
718.707	49.25
719.109	49.64
719.512	50.04
719.915	50.37
720.317	50.71
720.719	51.06
721.122	51.39
721.524	51.72
721.926	52.04
722.328	52.36
722.731	52.68
723.133	52.98
723.535	53.28
723.937	53.56
724.338	53.83
724.74	54.09
725.142	54.31
725.544	54.53
725.945	54.74
726.347	55.03
726.748	55.21
727.15	55.45
727.551	55.69
727.952	55.84
728.354	56.04
728.755	56.23
729.156	56.41
729.557	56.66
729.958	56.9
730.359	57.09
730.76	57.21
731.161	57.42
731.562	57.58
731.962	57.71
732.363	57.91
732.763	58.07
733.164	58.25
733.564	58.39
733.965	58.5
734.365	58.58
734.766	58.7
735.166	58.8
735.566	58.89
735.966	58.96
736.366	59.04
736.766	59.11
737.166	59.2
737.566	59.28
737.966	59.37
738.365	59.47
738.765	59.56
739.165	59.61
739.564	59.7
739.964	59.78
740.363	59.87
740.763	59.93
741.162	59.98
741.561	60.02
741.96	60.08
742.36	60.15
742.759	60.14
743.158	60.18
743.557	60.26
743.955	60.31
744.354	60.34
744.753	60.42
745.152	60.45
745.55	60.54
745.949	60.59
746.348	60.64
746.746	60.66
747.144	60.75
747.543	60.83
747.941	60.87
748.339	60.91
748.737	61
749.136	61.03
749.534	61.07
749.932	61.06
750.33	61.09
750.727	61.12
751.125	61.16
751.523	61.17
751.921	61.18
752.318	61.18
752.716	61.18
753.113	61.15
753.511	61.13
753.908	61.12
754.305	61.1
754.703	61.1
755.1	61.07
755.497	61.05
755.894	61.06
756.291	61.03
756.688	61.01
757.085	60.98
757.482	61.01
757.878	61.08
758.275	61.09
758.672	61.14
759.068	61.15
759.465	61.2
759.861	61.2
760.258	61.18
760.654	61.18
761.05	61.21
761.447	61.2
761.843	61.16
762.239	61.11
762.635	61.1
763.031	61.07
763.427	61.03
