Data from N_1_dec_oh_4n_013_Splice17_18.txt Node
Date: Sat Feb 29 13:38:47 EST 2020
User: sa697716
Spectrometer: FLMS03696
Trigger mode: 0
Integration Time (sec): 3.180400E-1
Scans to average: 20
Electric dark correction enabled: true
Nonlinearity correction enabled: true
Boxcar width: 5
XAxis mode: Wavelengths
Number of Pixels in Spectrum: 2048
>>>>>Begin Spectral Data<<<<<
187.83	119.24
188.298	125.95
188.766	112.31
189.233	98.02
189.701	107.92
190.169	109.72
190.636	111.89
191.104	108.11
191.571	245.39
192.039	315.52
192.506	-444.82
192.974	-5256.19
193.441	296.76
193.908	48.57
194.375	-5.64
194.842	81.6
195.31	93.14
195.777	22.48
196.244	19.8
196.711	20.51
197.177	21.61
197.644	20.37
198.111	20.32
198.578	19.9
199.045	20.06
199.511	19.91
199.978	20.82
200.445	20.69
200.911	21.81
201.378	21.98
201.844	22.37
202.31	22.47
202.777	22.97
203.243	23.53
203.709	23.72
204.176	23.1
204.642	23.37
205.108	22.83
205.574	22.95
206.04	22.67
206.506	22.43
206.972	22.19
207.438	22.24
207.903	22.21
208.369	21.69
208.835	21.67
209.301	21.75
209.766	21.8
210.232	21.89
210.697	21.8
211.163	21.67
211.628	21.62
212.094	21.62
212.559	21.17
213.024	20.65
213.49	20.46
213.955	20.13
214.42	19.78
214.885	19.1
215.35	18.51
215.815	17.95
216.28	17.19
216.745	16.53
217.21	15.86
217.675	15.25
218.14	14.56
218.604	13.87
219.069	13.31
219.534	12.84
219.998	12.52
220.463	12.19
220.927	11.82
221.392	11.54
221.856	11.28
222.32	11.06
222.785	10.86
223.249	10.69
223.713	10.59
224.177	10.39
224.642	10.27
225.106	10.09
225.57	9.92
226.034	9.82
226.497	9.68
226.961	9.51
227.425	9.34
227.889	9.21
228.353	9.08
228.816	8.95
229.28	8.81
229.744	8.67
230.207	8.56
230.671	8.45
231.134	8.32
231.597	8.22
232.061	8.12
232.524	8.02
232.987	7.91
233.45	7.79
233.914	7.69
234.377	7.61
234.84	7.54
235.303	7.45
235.766	7.37
236.229	7.29
236.691	7.21
237.154	7.13
237.617	7.05
238.08	6.97
238.542	6.91
239.005	6.84
239.468	6.77
239.93	6.69
240.393	6.63
240.855	6.55
241.317	6.49
241.78	6.43
242.242	6.37
242.704	6.32
243.166	6.26
243.629	6.21
244.091	6.15
244.553	6.1
245.015	6.05
245.477	5.98
245.939	5.93
246.4	5.87
246.862	5.81
247.324	5.78
247.786	5.72
248.247	5.68
248.709	5.63
249.17	5.58
249.632	5.52
250.093	5.47
250.555	5.43
251.016	5.4
251.477	5.37
251.939	5.34
252.4	5.31
252.861	5.28
253.322	5.24
253.783	5.22
254.244	5.19
254.705	5.17
255.166	5.16
255.627	5.12
256.088	5.1
256.549	5.07
257.009	5.04
257.47	5.01
257.931	4.98
258.391	4.95
258.852	4.91
259.312	4.89
259.773	4.85
260.233	4.82
260.694	4.8
261.154	4.77
261.614	4.74
262.074	4.71
262.534	4.67
262.994	4.65
263.455	4.63
263.915	4.6
264.374	4.58
264.834	4.55
265.294	4.52
265.754	4.49
266.214	4.47
266.673	4.45
267.133	4.43
267.593	4.41
268.052	4.38
268.512	4.35
268.971	4.33
269.431	4.31
269.89	4.3
270.349	4.28
270.809	4.27
271.268	4.25
271.727	4.23
272.186	4.21
272.645	4.2
273.104	4.19
273.563	4.17
274.022	4.16
274.481	4.15
274.94	4.13
275.399	4.12
275.857	4.1
276.316	4.09
276.775	4.07
277.233	4.06
277.692	4.05
278.15	4.03
278.609	4.01
279.067	3.99
279.525	3.97
279.984	3.95
280.442	3.94
280.9	3.93
281.358	3.91
281.816	3.9
282.274	3.88
282.732	3.87
283.19	3.86
283.648	3.85
284.106	3.83
284.564	3.83
285.021	3.83
285.479	3.81
285.937	3.8
286.394	3.79
286.852	3.77
287.309	3.76
287.767	3.75
288.224	3.74
288.682	3.72
289.139	3.72
289.596	3.69
290.053	3.68
290.511	3.65
290.968	3.65
291.425	3.63
291.882	3.63
292.339	3.61
292.796	3.59
293.252	3.57
293.709	3.56
294.166	3.54
294.623	3.53
295.079	3.52
295.536	3.52
295.992	3.5
296.449	3.5
296.905	3.48
297.362	3.47
297.818	3.46
298.274	3.45
298.731	3.44
299.187	3.43
299.643	3.42
300.099	3.42
300.555	3.4
301.011	3.4
301.467	3.38
301.923	3.38
302.379	3.37
302.835	3.37
303.291	3.36
303.746	3.35
304.202	3.34
304.658	3.33
305.113	3.33
305.569	3.33
306.024	3.31
306.479	3.3
306.935	3.3
307.39	3.29
307.845	3.28
308.301	3.27
308.756	3.27
309.211	3.27
309.666	3.27
310.121	3.26
310.576	3.26
311.031	3.25
311.486	3.25
311.94	3.25
312.395	3.25
312.85	3.24
313.305	3.23
313.759	3.23
314.214	3.23
314.668	3.22
315.123	3.22
315.577	3.21
316.032	3.21
316.486	3.2
316.94	3.2
317.394	3.19
317.849	3.17
318.303	3.17
318.757	3.16
319.211	3.15
319.665	3.15
320.119	3.14
320.572	3.14
321.026	3.13
321.48	3.13
321.934	3.12
322.387	3.11
322.841	3.11
323.295	3.1
323.748	3.09
324.202	3.09
324.655	3.08
325.108	3.07
325.562	3.05
326.015	3.04
326.468	3.01
326.921	3.01
327.374	3
327.827	2.99
328.28	2.99
328.733	2.99
329.186	2.98
329.639	2.99
330.092	2.98
330.545	2.99
330.997	2.99
331.45	2.99
331.903	2.98
332.355	2.98
332.808	2.97
333.26	2.96
333.713	2.95
334.165	2.95
334.617	2.95
335.069	2.94
335.522	2.94
335.974	2.94
336.426	2.94
336.878	2.93
337.33	2.94
337.782	2.94
338.234	2.94
338.686	2.95
339.137	2.95
339.589	2.94
340.041	2.94
340.493	2.93
340.944	2.92
341.396	2.92
341.847	2.92
342.299	2.9
342.75	2.89
343.201	2.87
343.653	2.86
344.104	2.84
344.555	2.83
345.006	2.82
345.457	2.81
345.908	2.8
346.359	2.8
346.81	2.8
347.261	2.79
347.712	2.79
348.163	2.79
348.613	2.79
349.064	2.78
349.515	2.77
349.965	2.77
350.416	2.78
350.866	2.78
351.317	2.77
351.767	2.77
352.217	2.76
352.668	2.76
353.118	2.77
353.568	2.78
354.018	2.79
354.468	2.8
354.918	2.79
355.368	2.8
355.818	2.79
356.268	2.8
356.718	2.82
357.168	2.82
357.617	2.83
358.067	2.83
358.517	2.84
358.966	2.85
359.416	2.87
359.865	2.88
360.315	2.89
360.764	2.91
361.213	2.92
361.663	2.93
362.112	2.96
362.561	2.98
363.01	3
363.459	3.01
363.908	3.04
364.357	3.06
364.806	3.08
365.255	3.11
365.703	3.14
366.152	3.17
366.601	3.21
367.05	3.26
367.498	3.3
367.947	3.34
368.395	3.39
368.844	3.44
369.292	3.49
369.74	3.55
370.189	3.61
370.637	3.68
371.085	3.75
371.533	3.8
371.981	3.87
372.429	3.93
372.877	4
373.325	4.06
373.773	4.13
374.221	4.21
374.669	4.28
375.116	4.34
375.564	4.42
376.012	4.49
376.459	4.58
376.907	4.66
377.354	4.74
377.801	4.82
378.249	4.91
378.696	4.99
379.143	5.08
379.591	5.17
380.038	5.27
380.485	5.36
380.932	5.44
381.379	5.51
381.826	5.59
382.273	5.68
382.72	5.77
383.166	5.85
383.613	5.92
384.06	6
384.506	6.08
384.953	6.15
385.4	6.21
385.846	6.27
386.292	6.35
386.739	6.4
387.185	6.46
387.631	6.52
388.078	6.57
388.524	6.62
388.97	6.67
389.416	6.72
389.862	6.76
390.308	6.79
390.754	6.84
391.2	6.88
391.645	6.92
392.091	6.96
392.537	6.98
392.983	7.02
393.428	7.06
393.874	7.09
394.319	7.11
394.765	7.13
395.21	7.14
395.655	7.16
396.101	7.16
396.546	7.17
396.991	7.16
397.436	7.15
397.881	7.15
398.326	7.16
398.771	7.16
399.216	7.16
399.661	7.14
400.106	7.15
400.551	7.12
400.995	7.09
401.44	7.06
401.885	7.05
402.329	7.03
402.774	6.99
403.218	6.96
403.663	6.92
404.107	6.9
404.551	6.88
404.995	6.84
405.44	6.81
405.884	6.79
406.328	6.77
406.772	6.74
407.216	6.73
407.66	6.71
408.104	6.7
408.547	6.68
408.991	6.65
409.435	6.62
409.879	6.6
410.322	6.59
410.766	6.58
411.209	6.56
411.653	6.52
412.096	6.49
412.54	6.47
412.983	6.45
413.426	6.44
413.869	6.43
414.312	6.43
414.756	6.43
415.199	6.42
415.642	6.42
416.085	6.41
416.527	6.42
416.97	6.43
417.413	6.42
417.856	6.39
418.298	6.37
418.741	6.35
419.184	6.33
419.626	6.29
420.069	6.27
420.511	6.25
420.953	6.23
421.396	6.21
421.838	6.22
422.28	6.22
422.722	6.24
423.164	6.22
423.606	6.22
424.048	6.19
424.49	6.21
424.932	6.2
425.374	6.17
425.816	6.15
426.258	6.12
426.699	6.07
427.141	6.04
427.582	6.02
428.024	6.02
428.465	6
428.907	5.99
429.348	5.97
429.789	5.97
430.231	5.96
430.672	5.97
431.113	5.98
431.554	6
431.995	6.01
432.436	6.01
432.877	6
433.318	6
433.759	6.01
434.2	6.01
434.64	6.02
435.081	6.02
435.522	6.03
435.962	6.04
436.403	6.06
436.843	6.07
437.284	6.08
437.724	6.11
438.164	6.13
438.604	6.15
439.045	6.15
439.485	6.16
439.925	6.17
440.365	6.19
440.805	6.2
441.245	6.18
441.685	6.2
442.125	6.21
442.564	6.24
443.004	6.26
443.444	6.3
443.883	6.33
444.323	6.35
444.762	6.4
445.202	6.45
445.641	6.48
446.081	6.54
446.52	6.58
446.959	6.63
447.398	6.67
447.837	6.72
448.276	6.73
448.716	6.79
449.154	6.84
449.593	6.88
450.032	6.91
450.471	6.96
450.91	6.97
451.349	6.99
451.787	6.99
452.226	6.98
452.664	6.98
453.103	7
453.541	7.01
453.98	7.02
454.418	7.02
454.856	7.02
455.295	7
455.733	7.01
456.171	7.01
456.609	7.04
457.047	7.06
457.485	7.08
457.923	7.1
458.361	7.1
458.798	7.11
459.236	7.11
459.674	7.12
460.111	7.14
460.549	7.15
460.987	7.16
461.424	7.16
461.862	7.17
462.299	7.16
462.736	7.16
463.173	7.16
463.611	7.18
464.048	7.19
464.485	7.19
464.922	7.19
465.359	7.22
465.796	7.22
466.233	7.23
466.67	7.23
467.106	7.24
467.543	7.23
467.98	7.24
468.416	7.23
468.853	7.22
469.29	7.23
469.726	7.24
470.162	7.22
470.599	7.22
471.035	7.22
471.471	7.21
471.907	7.22
472.344	7.23
472.78	7.22
473.216	7.22
473.652	7.24
474.088	7.24
474.523	7.24
474.959	7.24
475.395	7.24
475.831	7.25
476.266	7.27
476.702	7.26
477.138	7.24
477.573	7.24
478.008	7.25
478.444	7.23
478.879	7.22
479.314	7.22
479.75	7.23
480.185	7.25
480.62	7.25
481.055	7.25
481.49	7.26
481.925	7.29
482.36	7.3
482.795	7.3
483.229	7.31
483.664	7.33
484.099	7.34
484.534	7.34
484.968	7.36
485.403	7.38
485.837	7.41
486.271	7.44
486.706	7.46
487.14	7.5
487.574	7.55
488.009	7.61
488.443	7.66
488.877	7.73
489.311	7.8
489.745	7.86
490.179	7.92
490.613	7.99
491.046	8.08
491.48	8.16
491.914	8.24
492.348	8.34
492.781	8.43
493.215	8.52
493.648	8.63
494.082	8.75
494.515	8.86
494.948	8.97
495.382	9.09
495.815	9.22
496.248	9.36
496.681	9.48
497.114	9.62
497.547	9.76
497.98	9.92
498.413	10.07
498.846	10.22
499.279	10.39
499.711	10.57
500.144	10.76
500.577	10.94
501.009	11.12
501.442	11.34
501.874	11.55
502.306	11.77
502.739	11.97
503.171	12.21
503.603	12.45
504.036	12.7
504.468	12.95
504.9	13.22
505.332	13.47
505.764	13.77
506.196	14.05
506.627	14.35
507.059	14.66
507.491	14.98
507.923	15.3
508.354	15.63
508.786	15.96
509.217	16.3
509.649	16.64
510.08	17.02
510.512	17.36
510.943	17.71
511.374	18.07
511.805	18.44
512.237	18.82
512.668	19.19
513.099	19.57
513.53	19.96
513.961	20.33
514.391	20.71
514.822	21.1
515.253	21.5
515.684	21.88
516.114	22.27
516.545	22.65
516.975	23.03
517.406	23.42
517.836	23.79
518.267	24.16
518.697	24.58
519.127	24.96
519.558	25.31
519.988	25.67
520.418	26.02
520.848	26.37
521.278	26.74
521.708	27.17
522.138	27.49
522.567	27.82
522.997	28.12
523.427	28.4
523.857	28.67
524.286	28.96
524.716	29.21
525.145	29.5
525.575	29.76
526.004	30
526.433	30.15
526.863	30.39
527.292	30.61
527.721	30.84
528.15	31.03
528.579	31.23
529.008	31.42
529.437	31.61
529.866	31.76
530.295	31.92
530.724	32.1
531.152	32.25
531.581	32.4
532.01	32.54
532.438	32.65
532.867	32.8
533.295	32.92
533.723	33.04
534.152	33.15
534.58	33.25
535.008	33.32
535.436	33.39
535.865	33.46
536.293	33.54
536.721	33.61
537.149	33.68
537.576	33.75
538.004	33.82
538.432	33.89
538.86	33.94
539.287	34
539.715	34.07
540.143	34.09
540.57	34.12
540.998	34.16
541.425	34.19
541.852	34.22
542.28	34.24
542.707	34.28
543.134	34.3
543.561	34.31
543.988	34.34
544.415	34.36
544.842	34.43
545.269	34.48
545.696	34.49
546.123	34.52
546.549	34.56
546.976	34.6
547.403	34.61
547.829	34.64
548.256	34.67
548.682	34.67
549.108	34.69
549.535	34.68
549.961	34.66
550.387	34.65
550.813	34.64
551.24	34.64
551.666	34.64
552.092	34.64
552.518	34.62
552.943	34.63
553.369	34.63
553.795	34.61
554.221	34.59
554.646	34.57
555.072	34.55
555.498	34.51
555.923	34.48
556.349	34.4
556.774	34.33
557.199	34.27
557.625	34.19
558.05	34.12
558.475	34.05
558.9	33.98
559.325	33.89
559.75	33.8
560.175	33.69
560.6	33.57
561.025	33.48
561.449	33.39
561.874	33.28
562.299	33.17
562.723	33.03
563.148	32.88
563.572	32.73
563.997	32.58
564.421	32.46
564.846	32.32
565.27	32.2
565.694	32.03
566.118	31.86
566.542	31.71
566.966	31.54
567.39	31.38
567.814	31.21
568.238	31.05
568.662	30.9
569.086	30.73
569.509	30.56
569.933	30.37
570.357	30.2
570.78	30.02
571.204	29.84
571.627	29.68
572.05	29.53
572.474	29.38
572.897	29.22
573.32	29.06
573.743	28.9
574.166	28.75
574.589	28.6
575.012	28.49
575.435	28.36
575.858	28.24
576.281	28.11
576.704	27.97
577.126	27.85
577.549	27.74
577.972	27.64
578.394	27.51
578.817	27.39
579.239	27.28
579.661	27.16
580.084	27.04
580.506	26.92
580.928	26.83
581.35	26.73
581.772	26.62
582.194	26.51
582.616	26.4
583.038	26.31
583.46	26.22
583.882	26.14
584.303	26.05
584.725	25.98
585.147	25.88
585.568	25.79
585.99	25.71
586.411	25.66
586.833	25.58
587.254	25.53
587.675	25.45
588.096	25.39
588.518	25.32
588.939	25.24
589.36	25.16
589.781	25.1
590.202	25.05
590.623	24.98
591.043	24.89
591.464	24.84
591.885	24.76
592.305	24.71
592.726	24.63
593.147	24.59
593.567	24.54
593.987	24.52
594.408	24.47
594.828	24.42
595.248	24.39
595.669	24.36
596.089	24.32
596.509	24.28
596.929	24.24
597.349	24.2
597.769	24.14
598.189	24.1
598.608	24.03
599.028	23.97
599.448	23.91
599.867	23.84
600.287	23.78
600.706	23.74
601.126	23.66
601.545	23.61
601.965	23.57
602.384	23.52
602.803	23.45
603.222	23.39
603.641	23.34
604.061	23.28
604.48	23.22
604.898	23.16
605.317	23.08
605.736	23.01
606.155	22.9
606.574	22.83
606.992	22.74
607.411	22.68
607.829	22.56
608.248	22.49
608.666	22.39
609.085	22.3
609.503	22.21
609.921	22.13
610.339	22.06
610.758	22
611.176	21.9
611.594	21.81
612.012	21.71
612.43	21.67
612.847	21.58
613.265	21.52
613.683	21.42
614.101	21.33
614.518	21.24
614.936	21.16
615.353	21.06
615.771	20.99
616.188	20.93
616.606	20.84
617.023	20.75
617.44	20.68
617.857	20.59
618.274	20.52
618.691	20.48
619.108	20.41
619.525	20.35
619.942	20.31
620.359	20.28
620.776	20.23
621.192	20.21
621.609	20.18
622.026	20.16
622.442	20.14
622.859	20.13
623.275	20.12
623.691	20.1
624.108	20.07
624.524	20.06
624.94	20.03
625.356	20.01
625.772	20
626.188	19.99
626.604	19.97
627.02	19.96
627.436	19.93
627.852	19.91
628.268	19.89
628.683	19.87
629.099	19.84
629.514	19.79
629.93	19.77
630.345	19.7
630.761	19.64
631.176	19.57
631.591	19.51
632.007	19.44
632.422	19.36
632.837	19.27
633.252	19.17
633.667	19.07
634.082	18.96
634.497	18.83
634.911	18.7
635.326	18.57
635.741	18.42
636.155	18.26
636.57	18.09
636.984	17.89
637.399	17.7
637.813	17.51
638.228	17.31
638.642	17.12
639.056	16.9
639.47	16.71
639.884	16.48
640.298	16.27
640.712	16.05
641.126	15.84
641.54	15.64
641.954	15.44
642.368	15.25
642.781	15.04
643.195	14.84
643.609	14.66
644.022	14.49
644.436	14.32
644.849	14.16
645.262	14
645.676	13.84
646.089	13.7
646.502	13.55
646.915	13.41
647.328	13.31
647.741	13.2
648.154	13.1
648.567	13
648.98	12.91
649.393	12.84
649.805	12.77
650.218	12.73
650.631	12.65
651.043	12.61
651.456	12.58
651.868	12.5
652.28	12.46
652.693	12.42
653.105	12.36
653.517	12.32
653.929	12.27
654.341	12.2
654.753	12.13
655.165	12.07
655.577	11.97
655.989	11.88
656.401	11.8
656.813	11.69
657.224	11.58
657.636	11.47
658.047	11.34
658.459	11.21
658.87	11.09
659.282	10.98
659.693	10.86
660.104	10.73
660.515	10.61
660.926	10.48
661.338	10.36
661.749	10.25
662.159	10.12
662.57	10.01
662.981	9.9
663.392	9.78
663.803	9.67
664.213	9.56
664.624	9.45
665.035	9.35
665.445	9.27
665.855	9.18
666.266	9.1
666.676	9.04
667.086	8.98
667.497	8.92
667.907	8.87
668.317	8.82
668.727	8.8
669.137	8.77
669.547	8.75
669.956	8.74
670.366	8.73
670.776	8.72
671.186	8.72
671.595	8.72
672.005	8.73
672.414	8.74
672.824	8.78
673.233	8.8
673.642	8.82
674.052	8.84
674.461	8.87
674.87	8.9
675.279	8.94
675.688	8.98
676.097	9.05
676.506	9.11
676.915	9.17
677.323	9.24
677.732	9.34
678.141	9.44
678.549	9.57
678.958	9.7
679.366	9.84
679.775	9.98
680.183	10.14
680.592	10.31
681	10.49
681.408	10.7
681.816	10.92
682.224	11.15
682.632	11.42
683.04	11.7
683.448	12
683.856	12.34
684.264	12.72
684.671	13.13
685.079	13.56
685.487	14.03
685.894	14.52
686.302	15.04
686.709	15.6
687.116	16.17
687.524	16.78
687.931	17.41
688.338	18.07
688.745	18.75
689.152	19.45
689.559	20.15
689.966	20.86
690.373	21.61
690.78	22.38
691.187	23.14
691.593	23.91
692	24.69
692.407	25.44
692.813	26.23
693.22	26.98
693.626	27.74
694.032	28.52
694.439	29.3
694.845	30.05
695.251	30.79
695.657	31.51
696.063	32.23
696.469	32.94
696.875	33.64
697.281	34.28
697.687	34.98
698.093	35.63
698.498	36.27
698.904	36.88
699.31	37.47
699.715	38.08
700.12	38.65
700.526	39.21
700.931	39.75
701.337	40.3
701.742	40.82
702.147	41.32
702.552	41.83
702.957	42.32
703.362	42.82
703.767	43.29
704.172	43.76
704.577	44.22
704.981	44.64
705.386	45.08
705.791	45.51
706.195	45.91
706.6	46.29
707.004	46.66
707.408	47.04
707.813	47.39
708.217	47.75
708.621	48.07
709.025	48.4
709.43	48.73
709.834	49.07
710.237	49.35
710.641	49.69
711.045	50.01
711.449	50.27
711.853	50.57
712.256	50.85
712.66	51.11
713.064	51.35
713.467	51.63
713.87	51.89
714.274	52.13
714.677	52.39
715.08	52.6
715.484	52.83
715.887	53.1
716.29	53.29
716.693	53.49
717.096	53.72
717.499	53.95
717.901	54.11
718.304	54.29
718.707	54.47
719.109	54.69
719.512	54.91
719.915	55.08
720.317	55.27
720.719	55.44
721.122	55.61
721.524	55.76
721.926	55.94
722.328	56.12
722.731	56.29
723.133	56.45
723.535	56.58
723.937	56.67
724.338	56.76
724.74	56.85
725.142	57.03
725.544	57.11
725.945	57.25
726.347	57.32
726.748	57.38
727.15	57.45
727.551	57.54
727.952	57.6
728.354	57.72
728.755	57.86
729.156	57.94
729.557	57.99
729.958	58.1
730.359	58.15
730.76	58.21
731.161	58.31
731.562	58.39
731.962	58.45
732.363	58.5
732.763	58.56
733.164	58.58
733.564	58.65
733.965	58.65
734.365	58.69
734.766	58.72
735.166	58.73
735.566	58.74
735.966	58.76
736.366	58.76
736.766	58.79
737.166	58.82
737.566	58.86
737.966	58.86
738.365	58.95
738.765	58.99
739.165	58.99
739.564	59.02
739.964	59.06
740.363	59.11
740.763	59.17
741.162	59.2
741.561	59.25
741.96	59.31
742.36	59.36
742.759	59.33
743.158	59.3
743.557	59.36
743.955	59.42
744.354	59.47
744.753	59.47
745.152	59.48
745.55	59.49
745.949	59.47
746.348	59.45
746.746	59.45
747.144	59.5
747.543	59.54
747.941	59.57
748.339	59.6
748.737	59.63
749.136	59.64
749.534	59.67
749.932	59.69
750.33	59.68
750.727	59.69
751.125	59.7
751.523	59.68
751.921	59.69
752.318	59.69
752.716	59.65
753.113	59.63
753.511	59.64
753.908	59.62
754.305	59.59
754.703	59.57
755.1	59.55
755.497	59.54
755.894	59.53
756.291	59.51
756.688	59.47
757.085	59.48
757.482	59.49
757.878	59.5
758.275	59.49
758.672	59.51
759.068	59.55
759.465	59.56
759.861	59.57
760.258	59.56
760.654	59.57
761.05	59.62
761.447	59.61
761.843	59.58
762.239	59.53
762.635	59.51
763.031	59.53
763.427	59.49
763.822	59.45
764.218	59.46
764.614	59.47
765.01	59.46
765.405	59.41
765.801	59.39
766.196	59.38
766.592	59.38
766.987	59.37
767.382	59.35
767.778	59.35
768.173	59.35
768.568	59.29
768.963	59.27
769.358	59.23
769.753	59.24
770.148	59.24
770.542	59.24
770.937	59.2
771.332	59.19
771.726	59.14
772.121	59.11
772.515	59.1
772.91	59.11
773.304	59.08
773.699	59.08
774.093	59.06
774.487	59.06
774.881	59.05
775.275	59.08
775.669	59.08
776.063	59.08
776.457	59.07
776.851	59.05
777.245	59.04
777.638	59.05
778.032	59.04
778.425	59.06
778.819	59.06
779.212	59.01
779.606	58.98
779.999	58.96
