Data from N_1_dec_nc_4n_037_Splice17_01.txt Node
Date: Sat Feb 29 13:48:29 EST 2020
User: sa697716
Spectrometer: FLMS03696
Trigger mode: 0
Integration Time (sec): 3.180400E-1
Scans to average: 20
Electric dark correction enabled: true
Nonlinearity correction enabled: true
Boxcar width: 5
XAxis mode: Wavelengths
Number of Pixels in Spectrum: 2048
>>>>>Begin Spectral Data<<<<<
187.83	49.44
188.298	46.12
188.766	50.18
189.233	47.76
189.701	54.1
190.169	60.94
190.636	55.66
191.104	38.21
191.571	136.21
192.039	131.96
192.506	52.79
192.974	4580.63
193.441	-130.59
193.908	98.8
194.375	136.98
194.842	160.28
195.31	111.67
195.777	111.69
196.244	76.55
196.711	76
197.177	72.58
197.644	71.69
198.111	70.59
198.578	71.63
199.045	71.5
199.511	71.98
199.978	72.15
200.445	71.27
200.911	71.18
201.378	70.69
201.844	71.04
202.31	71.4
202.777	71.13
203.243	71.33
203.709	70.64
204.176	69.8
204.642	69.06
205.108	68.42
205.574	68.54
206.04	67.6
206.506	66.78
206.972	65.52
207.438	64.62
207.903	63.72
208.369	62.07
208.835	61.21
209.301	60.31
209.766	59.04
210.232	57.47
210.697	56.31
211.163	55.13
211.628	54.07
212.094	52.57
212.559	51.03
213.024	49.57
213.49	48.75
213.955	47.04
214.42	45.27
214.885	43.07
215.35	41.2
215.815	38.18
216.28	35.24
216.745	32.07
217.21	28.78
217.675	25.64
218.14	22.83
218.604	20.24
219.069	18.22
219.534	16.32
219.998	14.78
220.463	13.48
220.927	12.46
221.392	11.55
221.856	10.72
222.32	10.06
222.785	9.49
223.249	9.04
223.713	8.63
224.177	8.19
224.642	7.89
225.106	7.6
225.57	7.3
226.034	7.04
226.497	6.77
226.961	6.53
227.425	6.31
227.889	6.11
228.353	5.9
228.816	5.72
229.28	5.54
229.744	5.4
230.207	5.28
230.671	5.15
231.134	5.03
231.597	4.93
232.061	4.83
232.524	4.74
232.987	4.65
233.45	4.56
233.914	4.49
234.377	4.43
234.84	4.34
235.303	4.27
235.766	4.22
236.229	4.16
236.691	4.12
237.154	4.09
237.617	4.04
238.08	4
238.542	3.96
239.005	3.91
239.468	3.85
239.93	3.82
240.393	3.79
240.855	3.73
241.317	3.69
241.78	3.64
242.242	3.58
242.704	3.55
243.166	3.51
243.629	3.47
244.091	3.43
244.553	3.4
245.015	3.38
245.477	3.32
245.939	3.28
246.4	3.24
246.862	3.21
247.324	3.2
247.786	3.16
248.247	3.12
248.709	3.09
249.17	3.07
249.632	3.04
250.093	2.98
250.555	2.97
251.016	2.95
251.477	2.92
251.939	2.89
252.4	2.86
252.861	2.83
253.322	2.8
253.783	2.79
254.244	2.75
254.705	2.72
255.166	2.72
255.627	2.7
256.088	2.67
256.549	2.65
257.009	2.63
257.47	2.61
257.931	2.59
258.391	2.56
258.852	2.52
259.312	2.5
259.773	2.48
260.233	2.44
260.694	2.41
261.154	2.39
261.614	2.36
262.074	2.34
262.534	2.3
262.994	2.28
263.455	2.27
263.915	2.24
264.374	2.22
264.834	2.2
265.294	2.18
265.754	2.16
266.214	2.14
266.673	2.13
267.133	2.11
267.593	2.1
268.052	2.08
268.512	2.07
268.971	2.06
269.431	2.05
269.89	2.04
270.349	2.03
270.809	2.02
271.268	2.02
271.727	2.02
272.186	2
272.645	2
273.104	2
273.563	2
274.022	1.99
274.481	1.99
274.94	1.99
275.399	1.99
275.857	1.99
276.316	1.98
276.775	1.98
277.233	1.98
277.692	1.98
278.15	1.98
278.609	1.97
279.067	1.97
279.525	1.96
279.984	1.96
280.442	1.97
280.9	1.97
281.358	1.97
281.816	1.97
282.274	1.96
282.732	1.96
283.19	1.97
283.648	1.98
284.106	1.98
284.564	1.99
285.021	1.98
285.479	1.98
285.937	1.97
286.394	1.97
286.852	1.97
287.309	1.97
287.767	1.96
288.224	1.95
288.682	1.94
289.139	1.95
289.596	1.93
290.053	1.92
290.511	1.91
290.968	1.9
291.425	1.89
291.882	1.88
292.339	1.86
292.796	1.85
293.252	1.84
293.709	1.83
294.166	1.82
294.623	1.81
295.079	1.81
295.536	1.8
295.992	1.79
296.449	1.79
296.905	1.78
297.362	1.77
297.818	1.76
298.274	1.76
298.731	1.76
299.187	1.76
299.643	1.76
300.099	1.76
300.555	1.75
301.011	1.75
301.467	1.75
301.923	1.75
302.379	1.75
302.835	1.76
303.291	1.76
303.746	1.76
304.202	1.75
304.658	1.75
305.113	1.75
305.569	1.76
306.024	1.76
306.479	1.76
306.935	1.77
307.39	1.77
307.845	1.78
308.301	1.78
308.756	1.79
309.211	1.81
309.666	1.81
310.121	1.81
310.576	1.82
311.031	1.81
311.486	1.82
311.94	1.82
312.395	1.83
312.85	1.82
313.305	1.82
313.759	1.82
314.214	1.81
314.668	1.81
315.123	1.82
315.577	1.82
316.032	1.83
316.486	1.82
316.94	1.83
317.394	1.82
317.849	1.81
318.303	1.82
318.757	1.81
319.211	1.8
319.665	1.79
320.119	1.79
320.572	1.79
321.026	1.78
321.48	1.78
321.934	1.77
322.387	1.76
322.841	1.76
323.295	1.76
323.748	1.76
324.202	1.76
324.655	1.76
325.108	1.75
325.562	1.74
326.015	1.74
326.468	1.73
326.921	1.72
327.374	1.73
327.827	1.73
328.28	1.73
328.733	1.72
329.186	1.72
329.639	1.72
330.092	1.73
330.545	1.74
330.997	1.74
331.45	1.76
331.903	1.76
332.355	1.76
332.808	1.77
333.26	1.78
333.713	1.79
334.165	1.8
334.617	1.81
335.069	1.82
335.522	1.82
335.974	1.82
336.426	1.82
336.878	1.82
337.33	1.83
337.782	1.83
338.234	1.83
338.686	1.83
339.137	1.83
339.589	1.82
340.041	1.82
340.493	1.8
340.944	1.8
341.396	1.8
341.847	1.79
342.299	1.76
342.75	1.75
343.201	1.74
343.653	1.73
344.104	1.72
344.555	1.71
345.006	1.7
345.457	1.71
345.908	1.71
346.359	1.7
346.81	1.71
347.261	1.72
347.712	1.72
348.163	1.73
348.613	1.72
349.064	1.71
349.515	1.7
349.965	1.7
350.416	1.69
350.866	1.68
351.317	1.68
351.767	1.67
352.217	1.66
352.668	1.66
353.118	1.67
353.568	1.68
354.018	1.69
354.468	1.69
354.918	1.7
355.368	1.71
355.818	1.71
356.268	1.71
356.718	1.72
357.168	1.73
357.617	1.73
358.067	1.73
358.517	1.72
358.966	1.73
359.416	1.74
359.865	1.73
360.315	1.73
360.764	1.73
361.213	1.72
361.663	1.73
362.112	1.73
362.561	1.73
363.01	1.73
363.459	1.73
363.908	1.73
364.357	1.72
364.806	1.73
365.255	1.74
365.703	1.75
366.152	1.76
366.601	1.76
367.05	1.77
367.498	1.79
367.947	1.78
368.395	1.8
368.844	1.8
369.292	1.8
369.74	1.8
370.189	1.81
370.637	1.81
371.085	1.81
371.533	1.81
371.981	1.81
372.429	1.81
372.877	1.82
373.325	1.81
373.773	1.82
374.221	1.83
374.669	1.83
375.116	1.82
375.564	1.82
376.012	1.83
376.459	1.85
376.907	1.84
377.354	1.84
377.801	1.85
378.249	1.87
378.696	1.88
379.143	1.89
379.591	1.89
380.038	1.91
380.485	1.92
380.932	1.93
381.379	1.92
381.826	1.93
382.273	1.94
382.72	1.95
383.166	1.96
383.613	1.97
384.06	1.99
384.506	2.01
384.953	2.04
385.4	2.06
385.846	2.08
386.292	2.12
386.739	2.16
387.185	2.21
387.631	2.25
388.078	2.29
388.524	2.3
388.97	2.33
389.416	2.36
389.862	2.41
390.308	2.46
390.754	2.54
391.2	2.63
391.645	2.72
392.091	2.77
392.537	2.83
392.983	2.91
393.428	3.05
393.874	3.21
394.319	3.4
394.765	3.58
395.21	3.76
395.655	3.97
396.101	4.19
396.546	4.44
396.991	4.74
397.436	5.05
397.881	5.41
398.326	5.75
398.771	6.07
399.216	6.4
399.661	6.72
400.106	7.03
400.551	7.3
400.995	7.56
401.44	7.8
401.885	8.05
402.329	8.32
402.774	8.58
403.218	8.87
403.663	9.19
404.107	9.54
404.551	9.91
404.995	10.27
405.44	10.6
405.884	10.95
406.328	11.35
406.772	11.8
407.216	12.26
407.66	12.73
408.104	13.14
408.547	13.52
408.991	13.84
409.435	14.21
409.879	14.6
410.322	15.08
410.766	15.58
411.209	16.06
411.653	16.49
412.096	16.89
412.54	17.25
412.983	17.65
413.426	18.08
413.869	18.53
414.312	18.95
414.756	19.36
415.199	19.71
415.642	20.02
416.085	20.29
416.527	20.55
416.97	20.72
417.413	20.83
417.856	20.86
418.298	20.89
418.741	20.94
419.184	21.02
419.626	21.14
420.069	21.3
420.511	21.45
420.953	21.6
421.396	21.79
421.838	22.08
422.28	22.42
422.722	22.82
423.164	23.16
423.606	23.48
424.048	23.7
424.49	23.86
424.932	23.79
425.374	23.53
425.816	23.12
426.258	22.63
426.699	22.25
427.141	22.17
427.582	22.36
428.024	22.75
428.465	23.17
428.907	23.59
429.348	23.93
429.789	24.39
430.231	25.14
430.672	26.21
431.113	27.46
431.554	28.7
431.995	29.67
432.436	30.37
432.877	30.85
433.318	31.25
433.759	31.71
434.2	32.25
434.64	32.96
435.081	33.65
435.522	34.23
435.962	34.72
436.403	35.13
436.843	35.45
437.284	35.81
437.724	36.24
438.164	36.74
438.604	37.3
439.045	37.93
439.485	38.49
439.925	38.93
440.365	39.32
440.805	39.62
441.245	39.84
441.685	40.08
442.125	40.38
442.564	40.74
443.004	41.12
443.444	41.53
443.883	41.98
444.323	42.45
444.762	42.93
445.202	43.49
445.641	44.1
446.081	44.85
446.52	45.63
446.959	46.34
447.398	46.93
447.837	47.36
448.276	47.54
448.716	47.66
449.154	47.77
449.593	47.89
450.032	47.93
450.471	47.88
450.91	47.72
451.349	47.57
451.787	47.42
452.226	47.29
452.664	47.28
453.103	47.29
453.541	47.32
453.98	47.23
454.418	47.09
454.856	46.89
455.295	46.74
455.733	46.58
456.171	46.43
456.609	46.37
457.047	46.3
457.485	46.24
457.923	46.29
458.361	46.39
458.798	46.6
459.236	46.79
459.674	46.97
460.111	47.12
460.549	47.31
460.987	47.56
461.424	47.7
461.862	47.87
462.299	48.02
462.736	48.2
463.173	48.41
463.611	48.68
464.048	49.06
464.485	49.52
464.922	50.09
465.359	50.58
465.796	50.97
466.233	51.45
466.67	51.97
467.106	52.63
467.543	53.34
467.98	54.04
468.416	54.66
468.853	55.17
469.29	55.7
469.726	56.16
470.162	56.77
470.599	57.4
471.035	57.94
471.471	58.33
471.907	58.55
472.344	58.68
472.78	58.8
473.216	58.96
473.652	59.12
474.088	59.22
474.523	59.27
474.959	59.22
475.395	59.18
475.831	59.1
476.266	59.09
476.702	59.08
477.138	59.01
477.573	58.89
478.008	58.63
478.444	58.35
478.879	58.02
479.314	57.65
479.75	57.22
480.185	56.71
480.62	56.15
481.055	55.34
481.49	54.26
481.925	53.11
482.36	51.97
482.795	51.02
483.229	50.27
483.664	49.68
484.099	49.14
484.534	48.66
484.968	48.28
485.403	48.06
485.837	48.05
486.271	48.3
486.706	48.58
487.14	48.82
487.574	48.9
488.009	48.86
488.443	48.79
488.877	48.73
489.311	48.69
489.745	48.66
490.179	48.64
490.613	48.63
491.046	48.63
491.48	48.69
491.914	48.81
492.348	49.01
492.781	49.21
493.215	49.37
493.648	49.49
494.082	49.57
494.515	49.66
494.948	49.72
495.382	49.77
495.815	49.78
496.248	49.77
496.681	49.73
497.114	49.68
497.547	49.63
497.98	49.65
498.413	49.79
498.846	49.98
499.279	50.14
499.711	50.27
500.144	50.42
500.577	50.69
501.009	51.09
501.442	51.58
501.874	52.1
502.306	52.62
502.739	53.05
503.171	53.45
503.603	53.82
504.036	54.19
504.468	54.65
504.9	55.16
505.332	55.6
505.764	55.97
506.196	56.31
506.627	56.69
507.059	57.1
507.491	57.6
507.923	58.09
508.354	58.55
508.786	59.01
509.217	59.38
509.649	59.74
510.08	60.11
510.512	60.54
510.943	61
511.374	61.42
511.805	61.71
512.237	61.82
512.668	61.81
513.099	61.89
513.53	62.01
513.961	62.22
514.391	62.45
514.822	62.82
515.253	63.22
515.684	63.67
516.114	64.2
516.545	64.82
516.975	65.69
517.406	66.74
517.836	67.71
518.267	68.62
518.697	69.47
519.127	70.34
519.558	71.15
519.988	71.9
520.418	72.62
520.848	73.26
521.278	73.88
521.708	74.15
522.138	74.36
522.567	74.53
522.997	74.78
523.427	75.13
523.857	75.47
524.286	75.89
524.716	76.32
525.145	76.66
525.575	77.04
526.004	77.47
526.433	78.19
526.863	78.96
527.292	79.73
527.721	80.35
528.15	80.76
528.579	81.03
529.008	81.19
529.437	81.28
529.866	81.38
530.295	81.48
530.724	81.63
531.152	81.77
531.581	81.87
532.01	81.92
532.438	81.99
532.867	82.18
533.295	82.4
533.723	82.6
534.152	82.77
534.58	82.91
535.008	82.93
535.436	82.81
535.865	82.59
536.293	82.36
536.721	82.24
537.149	82.22
537.576	82.24
538.004	82.28
538.432	82.31
538.86	82.35
539.287	82.46
539.715	82.69
540.143	82.99
540.57	83.37
540.998	83.83
541.425	84.2
541.852	84.57
542.28	84.9
542.707	85.24
543.134	85.51
543.561	85.74
543.988	85.96
544.415	86.19
544.842	86.43
545.269	86.7
545.696	86.9
546.123	87.16
546.549	87.4
546.976	87.61
547.403	87.79
547.829	88.08
548.256	88.35
548.682	88.52
549.108	88.7
549.535	88.88
549.961	89.01
550.387	89.15
550.813	89.31
551.24	89.43
551.666	89.51
552.092	89.53
552.518	89.45
552.943	89.39
553.369	89.36
553.795	89.24
554.221	89
554.646	88.68
555.072	88.33
555.498	87.89
555.923	87.53
556.349	87.22
556.774	87
557.199	86.79
557.625	86.54
558.05	86.28
558.475	86.03
558.9	85.83
559.325	85.68
559.75	85.48
560.175	85.28
560.6	84.98
561.025	84.57
561.449	84.06
561.874	83.52
562.299	83.03
562.723	82.57
563.148	82.09
563.572	81.61
563.997	81.06
564.421	80.47
564.846	79.88
565.27	79.32
565.694	78.77
566.118	78.22
566.542	77.64
566.966	77.04
567.39	76.44
567.814	75.92
568.238	75.42
568.662	75.05
569.086	74.73
569.509	74.47
569.933	74.17
570.357	73.92
570.78	73.66
571.204	73.46
571.627	73.29
572.05	73.15
572.474	72.96
572.897	72.77
573.32	72.52
573.743	72.26
574.166	71.94
574.589	71.68
575.012	71.51
575.435	71.4
575.858	71.35
576.281	71.33
576.704	71.28
577.126	71.23
577.549	71.24
577.972	71.3
578.394	71.35
578.817	71.47
579.239	71.6
579.661	71.68
580.084	71.75
580.506	71.74
580.928	71.67
581.35	71.6
581.772	71.46
582.194	71.27
582.616	71.13
583.038	71.01
583.46	70.85
583.882	70.59
584.303	70.21
584.725	69.68
585.147	69.09
585.568	68.57
585.99	68.14
586.411	67.86
586.833	67.6
587.254	67.31
587.675	67.03
588.096	66.78
588.518	66.61
588.939	66.54
589.36	66.62
589.781	66.77
590.202	66.9
590.623	66.9
591.043	66.79
591.464	66.65
591.885	66.51
592.305	66.34
592.726	66.15
593.147	65.96
593.567	65.72
593.987	65.48
594.408	65.23
594.828	64.96
595.248	64.71
595.669	64.43
596.089	64.15
596.509	63.78
596.929	63.43
597.349	63.04
597.769	62.64
598.189	62.29
598.608	61.97
599.028	61.67
599.448	61.4
599.867	61.16
600.287	60.95
600.706	60.7
601.126	60.5
601.545	60.29
601.965	60.12
602.384	59.96
602.803	59.78
603.222	59.58
603.641	59.37
604.061	59.12
604.48	58.81
604.898	58.5
605.317	58.23
605.736	57.92
606.155	57.62
606.574	57.32
606.992	57.03
607.411	56.76
607.829	56.45
608.248	56.16
608.666	55.89
609.085	55.63
609.503	55.35
609.921	55.08
610.339	54.87
610.758	54.66
611.176	54.42
611.594	54.13
612.012	53.8
612.43	53.51
612.847	53.21
613.265	52.95
613.683	52.76
614.101	52.57
614.518	52.42
614.936	52.23
615.353	52.05
615.771	51.94
616.188	51.87
616.606	51.83
617.023	51.77
617.44	51.7
617.857	51.56
618.274	51.4
618.691	51.24
619.108	51.03
619.525	50.82
619.942	50.6
620.359	50.32
620.776	50.02
621.192	49.71
621.609	49.44
622.026	49.19
622.442	49
622.859	48.79
623.275	48.59
623.691	48.35
624.108	48.15
624.524	47.95
624.94	47.79
625.356	47.63
625.772	47.49
626.188	47.35
626.604	47.19
627.02	47.03
627.436	46.87
627.852	46.72
628.268	46.64
628.683	46.59
629.099	46.53
629.514	46.46
629.93	46.4
630.345	46.37
630.761	46.34
631.176	46.32
631.591	46.26
632.007	46.22
632.422	46.19
632.837	46.14
633.252	46.06
633.667	46
634.082	45.97
634.497	45.93
634.911	45.82
635.326	45.68
635.741	45.53
636.155	45.37
636.57	45.2
636.984	45
637.399	44.78
637.813	44.55
638.228	44.32
638.642	44.1
639.056	43.84
639.47	43.62
639.884	43.44
640.298	43.25
640.712	43.05
641.126	42.85
641.54	42.67
641.954	42.48
642.368	42.28
642.781	42.06
643.195	41.8
643.609	41.57
644.022	41.36
644.436	41.12
644.849	40.85
645.262	40.58
645.676	40.33
646.089	40.11
646.502	39.93
646.915	39.78
647.328	39.62
647.741	39.49
648.154	39.39
648.567	39.28
648.98	39.2
649.393	39.14
649.805	39.13
650.218	39.1
650.631	38.99
651.043	38.8
651.456	38.43
651.868	37.93
652.28	37.37
652.693	36.85
653.105	36.43
653.517	36.11
653.929	35.85
654.341	35.65
654.753	35.48
655.165	35.36
655.577	35.3
655.989	35.45
656.401	35.7
656.813	36.02
657.224	36.31
657.636	36.53
658.047	36.63
658.459	36.66
658.87	36.61
659.282	36.52
659.693	36.42
660.104	36.32
660.515	36.16
660.926	36.09
661.338	35.96
661.749	35.8
662.159	35.64
662.57	35.48
662.981	35.31
663.392	35.14
663.803	35.04
664.213	34.9
664.624	34.81
665.035	34.69
665.445	34.53
665.855	34.39
666.266	34.25
666.676	34.09
667.086	33.93
667.497	33.76
667.907	33.62
668.317	33.46
668.727	33.32
669.137	33.16
669.547	33.04
669.956	32.9
670.366	32.79
670.776	32.66
671.186	32.55
671.595	32.46
672.005	32.4
672.414	32.34
672.824	32.26
673.233	32.2
673.642	32.11
674.052	32.04
674.461	32
674.87	31.95
675.279	31.93
675.688	31.88
676.097	31.86
676.506	31.82
676.915	31.81
677.323	31.82
677.732	31.82
678.141	31.83
678.549	31.84
678.958	31.84
679.366	31.86
679.775	31.86
680.183	31.87
680.592	31.86
681	31.87
681.408	31.87
681.816	31.83
682.224	31.64
682.632	31.33
683.04	30.89
683.448	30.43
683.856	30.01
684.264	29.69
684.671	29.42
685.079	29.15
685.487	28.94
685.894	28.81
686.302	28.74
686.709	28.87
687.116	29.22
687.524	29.75
687.931	30.39
688.338	31.03
688.745	31.64
689.152	32.27
689.559	32.9
689.966	33.52
690.373	34.11
690.78	34.73
691.187	35.33
691.593	35.9
692	36.45
692.407	37.03
692.813	37.57
693.22	38.11
693.626	38.64
694.032	39.17
694.439	39.7
694.845	40.19
695.251	40.65
695.657	41.12
696.063	41.57
696.469	41.99
696.875	42.35
697.281	42.69
697.687	43.04
698.093	43.4
698.498	43.76
698.904	44.12
699.31	44.52
699.715	44.9
700.12	45.32
700.526	45.78
700.931	46.22
701.337	46.68
701.742	47.1
702.147	47.52
702.552	47.94
702.957	48.36
703.362	48.76
703.767	49.13
704.172	49.49
704.577	49.8
704.981	50.1
705.386	50.42
705.791	50.73
706.195	51.05
706.6	51.37
707.004	51.67
707.408	51.93
707.813	52.22
708.217	52.48
708.621	52.72
709.025	52.99
709.43	53.23
709.834	53.47
710.237	53.66
710.641	53.88
711.045	54.04
711.449	54.22
711.853	54.37
712.256	54.48
712.66	54.49
713.064	54.44
713.467	54.3
713.87	54.09
714.274	53.82
714.677	53.48
715.08	53.1
715.484	52.79
715.887	52.47
716.29	52.22
716.693	52.03
717.096	52.08
717.499	52.28
717.901	52.58
718.304	52.93
718.707	53.36
719.109	53.82
719.512	54.26
719.915	54.61
720.317	54.95
720.719	55.22
721.122	55.43
721.524	55.52
721.926	55.57
722.328	55.57
722.731	55.56
723.133	55.52
723.535	55.54
723.937	55.56
724.338	55.6
724.74	55.64
725.142	55.65
725.544	55.72
725.945	55.83
726.347	55.88
726.748	55.93
727.15	56.01
727.551	56.13
727.952	56.26
728.354	56.46
728.755	56.67
729.156	56.92
729.557	57.26
729.958	57.56
730.359	57.8
730.76	58.02
731.161	58.25
731.562	58.43
731.962	58.6
732.363	58.69
732.763	58.79
733.164	58.85
733.564	58.89
733.965	58.87
734.365	58.78
734.766	58.7
735.166	58.61
735.566	58.52
735.966	58.47
736.366	58.4
736.766	58.33
737.166	58.26
737.566	58.18
737.966	58.09
738.365	58.05
738.765	58.03
739.165	58.03
739.564	58.07
739.964	58.08
740.363	58.07
740.763	58.05
741.162	58.06
741.561	58.08
741.96	58.14
742.36	58.17
742.759	58.15
743.158	58.16
743.557	58.13
743.955	58.1
744.354	58.05
744.753	58
745.152	57.95
745.55	57.91
745.949	57.83
746.348	57.73
746.746	57.63
747.144	57.58
747.543	57.46
747.941	57.4
748.339	57.35
748.737	57.3
749.136	57.25
749.534	57.2
749.932	57.13
750.33	57.1
750.727	57.03
751.125	56.95
751.523	56.88
751.921	56.82
752.318	56.72
752.716	56.58
753.113	56.48
753.511	56.37
753.908	56.23
754.305	56.06
754.703	55.72
755.1	55.08
755.497	53.95
755.894	52.24
756.291	50.15
756.688	47.91
757.085	45.74
757.482	43.74
757.878	41.92
758.275	40.12
758.672	38.34
759.068	36.63
759.465	35.3
759.861	34.6
760.258	34.55
760.654	35.05
761.05	35.87
761.447	36.75
761.843	37.57
762.239	38.37
762.635	39.33
763.031	40.45
763.427	41.72
763.822	43.05
764.218	44.35
764.614	45.61
765.01	46.76
765.405	47.79
765.801	48.77
766.196	49.62
766.592	50.36
766.987	50.92
767.382	51.34
767.778	51.66
768.173	51.87
768.568	52.04
768.963	52.15
769.358	52.24
769.753	52.31
770.148	52.33
770.542	52.3
770.937	52.23
771.332	52.18
771.726	52.14
772.121	52.09
772.515	52.06
772.91	52
773.304	51.94
773.699	51.81
