Data from N_1_dec_on_6n_017_Splice17_03.txt Node
Date: Sat Feb 29 13:40:10 EST 2020
User: sa697716
Spectrometer: FLMS03696
Trigger mode: 0
Integration Time (sec): 3.180400E-1
Scans to average: 20
Electric dark correction enabled: true
Nonlinearity correction enabled: true
Boxcar width: 5
XAxis mode: Wavelengths
Number of Pixels in Spectrum: 2048
>>>>>Begin Spectral Data<<<<<
187.83	124.3
188.298	128.69
188.766	104.27
189.233	104.32
189.701	111.18
190.169	108.31
190.636	117.82
191.104	137.15
191.571	398.32
192.039	258.83
192.506	-215.46
192.974	1107.97
193.441	-142.32
193.908	81.1
194.375	84.27
194.842	141.67
195.31	27.96
195.777	46.84
196.244	23.02
196.711	21.44
197.177	20.15
197.644	19.32
198.111	18.82
198.578	19.11
199.045	18.62
199.511	19.53
199.978	20.16
200.445	21.29
200.911	21.61
201.378	21.91
201.844	22.26
202.31	22.94
202.777	23.61
203.243	24.37
203.709	24.06
204.176	24.06
204.642	24.16
205.108	24.34
205.574	24.43
206.04	24.14
206.506	24.07
206.972	23.84
207.438	23.68
207.903	23.52
208.369	23.24
208.835	23.37
209.301	23.46
209.766	23.17
210.232	22.79
210.697	22.31
211.163	22.32
211.628	22.02
212.094	22.04
212.559	21.7
213.024	21.31
213.49	21.09
213.955	21.03
214.42	20.59
214.885	20.1
215.35	19.68
215.815	19.11
216.28	18.42
216.745	17.78
217.21	17.32
217.675	16.8
218.14	16.13
218.604	15.56
219.069	15.05
219.534	14.7
219.998	14.37
220.463	14.1
220.927	13.85
221.392	13.56
221.856	13.32
222.32	13.06
222.785	12.86
223.249	12.71
223.713	12.55
224.177	12.38
224.642	12.21
225.106	12.04
225.57	11.85
226.034	11.72
226.497	11.59
226.961	11.46
227.425	11.3
227.889	11.16
228.353	11.03
228.816	10.94
229.28	10.8
229.744	10.71
230.207	10.59
230.671	10.48
231.134	10.36
231.597	10.26
232.061	10.15
232.524	10.06
232.987	9.97
233.45	9.88
233.914	9.77
234.377	9.68
234.84	9.58
235.303	9.5
235.766	9.42
236.229	9.34
236.691	9.26
237.154	9.18
237.617	9.09
238.08	9.01
238.542	8.92
239.005	8.83
239.468	8.73
239.93	8.66
240.393	8.6
240.855	8.52
241.317	8.43
241.78	8.37
242.242	8.29
242.704	8.22
243.166	8.15
243.629	8.1
244.091	8.04
244.553	8.01
245.015	7.95
245.477	7.88
245.939	7.83
246.4	7.78
246.862	7.73
247.324	7.7
247.786	7.65
248.247	7.61
248.709	7.56
249.17	7.52
249.632	7.46
250.093	7.4
250.555	7.37
251.016	7.34
251.477	7.3
251.939	7.25
252.4	7.22
252.861	7.19
253.322	7.14
253.783	7.12
254.244	7.08
254.705	7.06
255.166	7.04
255.627	7.01
256.088	6.98
256.549	6.95
257.009	6.92
257.47	6.9
257.931	6.87
258.391	6.85
258.852	6.82
259.312	6.79
259.773	6.76
260.233	6.72
260.694	6.69
261.154	6.67
261.614	6.65
262.074	6.62
262.534	6.58
262.994	6.55
263.455	6.52
263.915	6.49
264.374	6.46
264.834	6.45
265.294	6.42
265.754	6.39
266.214	6.37
266.673	6.35
267.133	6.33
267.593	6.31
268.052	6.29
268.512	6.27
268.971	6.25
269.431	6.24
269.89	6.22
270.349	6.21
270.809	6.2
271.268	6.19
271.727	6.17
272.186	6.16
272.645	6.14
273.104	6.13
273.563	6.11
274.022	6.1
274.481	6.08
274.94	6.07
275.399	6.04
275.857	6.02
276.316	6
276.775	5.97
277.233	5.96
277.692	5.94
278.15	5.91
278.609	5.9
279.067	5.87
279.525	5.84
279.984	5.83
280.442	5.81
280.9	5.8
281.358	5.79
281.816	5.77
282.274	5.75
282.732	5.74
283.19	5.73
283.648	5.73
284.106	5.72
284.564	5.72
285.021	5.72
285.479	5.71
285.937	5.7
286.394	5.69
286.852	5.68
287.309	5.68
287.767	5.67
288.224	5.67
288.682	5.66
289.139	5.65
289.596	5.63
290.053	5.61
290.511	5.59
290.968	5.58
291.425	5.57
291.882	5.55
292.339	5.54
292.796	5.52
293.252	5.5
293.709	5.48
294.166	5.47
294.623	5.46
295.079	5.45
295.536	5.44
295.992	5.42
296.449	5.41
296.905	5.4
297.362	5.39
297.818	5.39
298.274	5.38
298.731	5.37
299.187	5.37
299.643	5.37
300.099	5.36
300.555	5.35
301.011	5.34
301.467	5.34
301.923	5.33
302.379	5.32
302.835	5.31
303.291	5.3
303.746	5.29
304.202	5.27
304.658	5.26
305.113	5.25
305.569	5.25
306.024	5.24
306.479	5.23
306.935	5.22
307.39	5.22
307.845	5.21
308.301	5.22
308.756	5.21
309.211	5.21
309.666	5.21
310.121	5.21
310.576	5.2
311.031	5.2
311.486	5.2
311.94	5.19
312.395	5.2
312.85	5.2
313.305	5.19
313.759	5.19
314.214	5.18
314.668	5.17
315.123	5.17
315.577	5.18
316.032	5.16
316.486	5.15
316.94	5.15
317.394	5.14
317.849	5.13
318.303	5.12
318.757	5.11
319.211	5.11
319.665	5.11
320.119	5.1
320.572	5.09
321.026	5.08
321.48	5.07
321.934	5.06
322.387	5.05
322.841	5.04
323.295	5.04
323.748	5.03
324.202	5.02
324.655	5.01
325.108	5
325.562	4.98
326.015	4.97
326.468	4.97
326.921	4.97
327.374	4.96
327.827	4.94
328.28	4.94
328.733	4.93
329.186	4.92
329.639	4.91
330.092	4.91
330.545	4.9
330.997	4.91
331.45	4.9
331.903	4.89
332.355	4.9
332.808	4.9
333.26	4.89
333.713	4.9
334.165	4.9
334.617	4.9
335.069	4.9
335.522	4.9
335.974	4.9
336.426	4.9
336.878	4.89
337.33	4.87
337.782	4.87
338.234	4.87
338.686	4.86
339.137	4.86
339.589	4.85
340.041	4.86
340.493	4.84
340.944	4.84
341.396	4.83
341.847	4.84
342.299	4.83
342.75	4.82
343.201	4.81
343.653	4.79
344.104	4.79
344.555	4.79
345.006	4.77
345.457	4.76
345.908	4.76
346.359	4.76
346.81	4.74
347.261	4.74
347.712	4.74
348.163	4.73
348.613	4.73
349.064	4.71
349.515	4.7
349.965	4.7
350.416	4.69
350.866	4.68
351.317	4.67
351.767	4.68
352.217	4.68
352.668	4.68
353.118	4.7
353.568	4.7
354.018	4.72
354.468	4.72
354.918	4.74
355.368	4.75
355.818	4.75
356.268	4.77
356.718	4.77
357.168	4.77
357.617	4.77
358.067	4.77
358.517	4.77
358.966	4.78
359.416	4.79
359.865	4.8
360.315	4.8
360.764	4.83
361.213	4.83
361.663	4.86
362.112	4.88
362.561	4.89
363.01	4.92
363.459	4.95
363.908	4.96
364.357	4.97
364.806	4.98
365.255	5
365.703	5
366.152	5.03
366.601	5.04
367.05	5.06
367.498	5.08
367.947	5.09
368.395	5.11
368.844	5.13
369.292	5.15
369.74	5.17
370.189	5.19
370.637	5.21
371.085	5.23
371.533	5.24
371.981	5.25
372.429	5.26
372.877	5.28
373.325	5.28
373.773	5.3
374.221	5.32
374.669	5.33
375.116	5.36
375.564	5.37
376.012	5.39
376.459	5.41
376.907	5.43
377.354	5.46
377.801	5.47
378.249	5.5
378.696	5.52
379.143	5.53
379.591	5.53
380.038	5.55
380.485	5.56
380.932	5.57
381.379	5.56
381.826	5.58
382.273	5.59
382.72	5.6
383.166	5.61
383.613	5.61
384.06	5.62
384.506	5.65
384.953	5.65
385.4	5.65
385.846	5.65
386.292	5.67
386.739	5.65
387.185	5.67
387.631	5.67
388.078	5.67
388.524	5.66
388.97	5.65
389.416	5.63
389.862	5.63
390.308	5.64
390.754	5.65
391.2	5.64
391.645	5.66
392.091	5.65
392.537	5.63
392.983	5.63
393.428	5.64
393.874	5.65
394.319	5.66
394.765	5.67
395.21	5.67
395.655	5.66
396.101	5.67
396.546	5.66
396.991	5.65
397.436	5.64
397.881	5.65
398.326	5.66
398.771	5.65
399.216	5.65
399.661	5.65
400.106	5.65
400.551	5.64
400.995	5.62
401.44	5.61
401.885	5.6
402.329	5.58
402.774	5.56
403.218	5.54
403.663	5.53
404.107	5.52
404.551	5.51
404.995	5.49
405.44	5.47
405.884	5.46
406.328	5.44
406.772	5.44
407.216	5.43
407.66	5.43
408.104	5.41
408.547	5.4
408.991	5.38
409.435	5.37
409.879	5.36
410.322	5.37
410.766	5.38
411.209	5.38
411.653	5.37
412.096	5.36
412.54	5.36
412.983	5.36
413.426	5.38
413.869	5.38
414.312	5.4
414.756	5.41
415.199	5.41
415.642	5.41
416.085	5.42
416.527	5.43
416.97	5.44
417.413	5.43
417.856	5.43
418.298	5.4
418.741	5.39
419.184	5.38
419.626	5.37
420.069	5.36
420.511	5.34
420.953	5.33
421.396	5.32
421.838	5.32
422.28	5.33
422.722	5.33
423.164	5.32
423.606	5.32
424.048	5.29
424.49	5.29
424.932	5.29
425.374	5.29
425.816	5.28
426.258	5.28
426.699	5.25
427.141	5.23
427.582	5.23
428.024	5.23
428.465	5.21
428.907	5.23
429.348	5.22
429.789	5.23
430.231	5.22
430.672	5.23
431.113	5.23
431.554	5.24
431.995	5.26
432.436	5.26
432.877	5.26
433.318	5.27
433.759	5.26
434.2	5.27
434.64	5.27
435.081	5.28
435.522	5.28
435.962	5.28
436.403	5.3
436.843	5.3
437.284	5.3
437.724	5.32
438.164	5.32
438.604	5.35
439.045	5.34
439.485	5.35
439.925	5.34
440.365	5.32
440.805	5.31
441.245	5.3
441.685	5.33
442.125	5.33
442.564	5.33
443.004	5.34
443.444	5.33
443.883	5.35
444.323	5.34
444.762	5.38
445.202	5.43
445.641	5.46
446.081	5.47
446.52	5.46
446.959	5.47
447.398	5.51
447.837	5.55
448.276	5.54
448.716	5.56
449.154	5.58
449.593	5.58
450.032	5.56
450.471	5.56
450.91	5.56
451.349	5.56
451.787	5.55
452.226	5.5
452.664	5.47
453.103	5.47
453.541	5.47
453.98	5.45
454.418	5.43
454.856	5.41
455.295	5.4
455.733	5.38
456.171	5.38
456.609	5.38
457.047	5.39
457.485	5.41
457.923	5.4
458.361	5.39
458.798	5.41
459.236	5.42
459.674	5.43
460.111	5.44
460.549	5.45
460.987	5.45
461.424	5.44
461.862	5.43
462.299	5.43
462.736	5.43
463.173	5.43
463.611	5.42
464.048	5.42
464.485	5.43
464.922	5.42
465.359	5.42
465.796	5.43
466.233	5.43
466.67	5.44
467.106	5.43
467.543	5.44
467.98	5.44
468.416	5.44
468.853	5.43
469.29	5.42
469.726	5.43
470.162	5.42
470.599	5.4
471.035	5.4
471.471	5.39
471.907	5.39
472.344	5.39
472.78	5.39
473.216	5.4
473.652	5.39
474.088	5.39
474.523	5.39
474.959	5.38
475.395	5.37
475.831	5.39
476.266	5.39
476.702	5.39
477.138	5.38
477.573	5.36
478.008	5.35
478.444	5.33
478.879	5.32
479.314	5.31
479.75	5.31
480.185	5.32
480.62	5.3
481.055	5.29
481.49	5.27
481.925	5.27
482.36	5.27
482.795	5.25
483.229	5.25
483.664	5.24
484.099	5.24
484.534	5.23
484.968	5.21
485.403	5.21
485.837	5.2
486.271	5.2
486.706	5.2
487.14	5.21
487.574	5.23
488.009	5.24
488.443	5.24
488.877	5.26
489.311	5.27
489.745	5.29
490.179	5.31
490.613	5.33
491.046	5.35
491.48	5.38
491.914	5.4
492.348	5.41
492.781	5.43
493.215	5.45
493.648	5.47
494.082	5.5
494.515	5.51
494.948	5.53
495.382	5.55
495.815	5.58
496.248	5.61
496.681	5.64
497.114	5.68
497.547	5.72
497.98	5.77
498.413	5.81
498.846	5.87
499.279	5.93
499.711	5.99
500.144	6.04
500.577	6.1
501.009	6.16
501.442	6.23
501.874	6.3
502.306	6.38
502.739	6.45
503.171	6.53
503.603	6.62
504.036	6.71
504.468	6.81
504.9	6.93
505.332	7.05
505.764	7.16
506.196	7.28
506.627	7.41
507.059	7.54
507.491	7.68
507.923	7.82
508.354	7.97
508.786	8.12
509.217	8.26
509.649	8.42
510.08	8.58
510.512	8.74
510.943	8.93
511.374	9.11
511.805	9.29
512.237	9.48
512.668	9.68
513.099	9.88
513.53	10.1
513.961	10.33
514.391	10.55
514.822	10.78
515.253	11.01
515.684	11.23
516.114	11.47
516.545	11.72
516.975	11.98
517.406	12.22
517.836	12.47
518.267	12.72
518.697	12.99
519.127	13.24
519.558	13.5
519.988	13.75
520.418	14
520.848	14.26
521.278	14.5
521.708	14.64
522.138	14.88
522.567	15.1
522.997	15.35
523.427	15.56
523.857	15.79
524.286	16.02
524.716	16.25
525.145	16.46
525.575	16.67
526.004	16.88
526.433	17.18
526.863	17.37
527.292	17.57
527.721	17.74
528.15	17.93
528.579	18.09
529.008	18.24
529.437	18.38
529.866	18.52
530.295	18.66
530.724	18.79
531.152	18.92
531.581	19.05
532.01	19.17
532.438	19.28
532.867	19.37
533.295	19.48
533.723	19.59
534.152	19.67
534.58	19.76
535.008	19.81
535.436	19.89
535.865	19.97
536.293	20.01
536.721	20.07
537.149	20.11
537.576	20.15
538.004	20.19
538.432	20.21
538.86	20.26
539.287	20.31
539.715	20.36
540.143	20.37
540.57	20.4
540.998	20.45
541.425	20.48
541.852	20.52
542.28	20.53
542.707	20.57
543.134	20.58
543.561	20.61
543.988	20.64
544.415	20.66
544.842	20.69
545.269	20.71
545.696	20.71
546.123	20.73
546.549	20.75
546.976	20.8
547.403	20.81
547.829	20.83
548.256	20.84
548.682	20.84
549.108	20.86
549.535	20.87
549.961	20.86
550.387	20.85
550.813	20.85
551.24	20.84
551.666	20.82
552.092	20.82
552.518	20.82
552.943	20.81
553.369	20.78
553.795	20.75
554.221	20.71
554.646	20.7
555.072	20.7
555.498	20.65
555.923	20.61
556.349	20.55
556.774	20.47
557.199	20.39
557.625	20.31
558.05	20.23
558.475	20.14
558.9	20.06
559.325	19.96
559.75	19.84
560.175	19.74
560.6	19.64
561.025	19.54
561.449	19.43
561.874	19.32
562.299	19.19
562.723	19.07
563.148	18.96
563.572	18.83
563.997	18.69
564.421	18.56
564.846	18.43
565.27	18.28
565.694	18.12
566.118	17.98
566.542	17.84
566.966	17.7
567.39	17.55
567.814	17.38
568.238	17.23
568.662	17.08
569.086	16.92
569.509	16.76
569.933	16.6
570.357	16.45
570.78	16.3
571.204	16.13
571.627	15.98
572.05	15.84
572.474	15.7
572.897	15.56
573.32	15.41
573.743	15.27
574.166	15.14
574.589	15.02
575.012	14.92
575.435	14.79
575.858	14.68
576.281	14.58
576.704	14.46
577.126	14.38
577.549	14.29
577.972	14.21
578.394	14.12
578.817	14.03
579.239	13.94
579.661	13.84
580.084	13.76
580.506	13.68
580.928	13.6
581.35	13.52
581.772	13.44
582.194	13.36
582.616	13.27
583.038	13.21
583.46	13.15
583.882	13.08
584.303	13.01
584.725	12.94
585.147	12.87
585.568	12.81
585.99	12.76
586.411	12.7
586.833	12.62
587.254	12.57
587.675	12.52
588.096	12.47
588.518	12.42
588.939	12.39
589.36	12.34
589.781	12.3
590.202	12.26
590.623	12.21
591.043	12.17
591.464	12.14
591.885	12.11
592.305	12.07
592.726	12.02
593.147	12.01
593.567	11.96
593.987	11.94
594.408	11.89
594.828	11.85
595.248	11.82
595.669	11.79
596.089	11.76
596.509	11.71
596.929	11.68
597.349	11.65
597.769	11.61
598.189	11.58
598.608	11.55
599.028	11.52
599.448	11.49
599.867	11.46
600.287	11.43
600.706	11.4
601.126	11.37
601.545	11.34
601.965	11.29
602.384	11.25
602.803	11.2
603.222	11.15
603.641	11.1
604.061	11.06
604.48	11.01
604.898	10.94
605.317	10.89
605.736	10.85
606.155	10.78
606.574	10.74
606.992	10.68
607.411	10.64
607.829	10.54
608.248	10.48
608.666	10.42
609.085	10.36
609.503	10.3
609.921	10.24
610.339	10.18
610.758	10.13
611.176	10.07
611.594	10.01
612.012	9.94
612.43	9.93
612.847	9.89
613.265	9.83
613.683	9.77
614.101	9.73
614.518	9.66
614.936	9.6
615.353	9.55
615.771	9.5
616.188	9.46
616.606	9.42
617.023	9.37
617.44	9.32
617.857	9.27
618.274	9.24
618.691	9.21
619.108	9.17
619.525	9.14
619.942	9.11
620.359	9.09
620.776	9.06
621.192	9.04
621.609	9.01
622.026	8.98
622.442	8.95
622.859	8.95
623.275	8.94
623.691	8.93
624.108	8.92
624.524	8.92
624.94	8.91
625.356	8.9
625.772	8.9
626.188	8.9
626.604	8.89
627.02	8.89
627.436	8.88
627.852	8.86
628.268	8.85
628.683	8.82
629.099	8.81
629.514	8.78
629.93	8.77
630.345	8.74
630.761	8.71
631.176	8.69
631.591	8.67
632.007	8.64
632.422	8.61
632.837	8.56
633.252	8.53
633.667	8.48
634.082	8.43
634.497	8.35
634.911	8.29
635.326	8.21
635.741	8.14
636.155	8.07
636.57	8
636.984	7.92
637.399	7.83
637.813	7.74
638.228	7.65
638.642	7.58
639.056	7.49
639.47	7.4
639.884	7.32
640.298	7.23
640.712	7.14
641.126	7.05
641.54	6.96
641.954	6.89
642.368	6.82
642.781	6.74
643.195	6.66
643.609	6.58
644.022	6.52
644.436	6.46
644.849	6.41
645.262	6.36
645.676	6.3
646.089	6.25
646.502	6.2
646.915	6.15
647.328	6.12
647.741	6.09
648.154	6.07
648.567	6.04
648.98	6.01
649.393	5.99
649.805	5.95
650.218	5.94
650.631	5.94
651.043	5.92
651.456	5.92
651.868	5.9
652.28	5.89
652.693	5.87
653.105	5.86
653.517	5.84
653.929	5.82
654.341	5.82
654.753	5.77
655.165	5.74
655.577	5.72
655.989	5.68
656.401	5.63
656.813	5.59
657.224	5.56
657.636	5.53
658.047	5.49
658.459	5.45
658.87	5.42
659.282	5.41
659.693	5.38
660.104	5.36
660.515	5.34
660.926	5.32
661.338	5.31
661.749	5.27
662.159	5.25
662.57	5.24
662.981	5.22
663.392	5.2
663.803	5.18
664.213	5.16
664.624	5.16
665.035	5.15
665.445	5.15
665.855	5.15
666.266	5.16
666.676	5.14
667.086	5.15
667.497	5.14
667.907	5.14
668.317	5.14
668.727	5.15
669.137	5.16
669.547	5.18
669.956	5.18
670.366	5.2
670.776	5.22
671.186	5.25
671.595	5.28
672.005	5.32
672.414	5.35
672.824	5.38
673.233	5.42
673.642	5.44
674.052	5.47
674.461	5.5
674.87	5.54
675.279	5.59
675.688	5.62
676.097	5.67
676.506	5.71
676.915	5.76
677.323	5.81
677.732	5.86
678.141	5.92
678.549	5.98
678.958	6.03
679.366	6.08
679.775	6.14
680.183	6.19
680.592	6.23
681	6.28
681.408	6.33
681.816	6.39
682.224	6.45
682.632	6.52
683.04	6.59
683.448	6.65
683.856	6.73
684.264	6.81
684.671	6.91
685.079	7.03
685.487	7.16
685.894	7.29
686.302	7.44
686.709	7.61
687.116	7.79
687.524	8
687.931	8.22
688.338	8.5
688.745	8.78
689.152	9.08
689.559	9.41
689.966	9.75
690.373	10.13
690.78	10.52
691.187	10.93
691.593	11.35
692	11.81
692.407	12.3
692.813	12.77
693.22	13.25
693.626	13.76
694.032	14.29
694.439	14.86
694.845	15.41
695.251	15.96
695.657	16.54
696.063	17.12
696.469	17.72
696.875	18.29
697.281	18.85
697.687	19.48
698.093	20.07
698.498	20.67
698.904	21.27
699.31	21.86
699.715	22.49
700.12	23.07
700.526	23.65
700.931	24.21
701.337	24.81
701.742	25.39
702.147	25.97
702.552	26.55
702.957	27.11
703.362	27.65
703.767	28.18
704.172	28.71
704.577	29.27
704.981	29.83
705.386	30.37
705.791	30.9
706.195	31.42
706.6	31.93
707.004	32.46
707.408	32.95
707.813	33.45
708.217	33.95
708.621	34.42
709.025	34.9
709.43	35.34
709.834	35.83
710.237	36.26
710.641	36.74
711.045	37.17
711.449	37.59
711.853	38.06
712.256	38.51
712.66	38.96
713.064	39.41
713.467	39.81
713.87	40.23
714.274	40.65
714.677	41.08
715.08	41.44
715.484	41.86
715.887	42.26
716.29	42.65
716.693	43.03
717.096	43.39
717.499	43.77
717.901	44.13
718.304	44.5
718.707	44.86
719.109	45.21
719.512	45.58
719.915	45.89
720.317	46.22
720.719	46.52
721.122	46.81
721.524	47.1
721.926	47.36
722.328	47.67
722.731	47.93
723.133	48.19
723.535	48.45
723.937	48.72
724.338	48.98
724.74	49.23
725.142	49.48
725.544	49.73
725.945	49.98
726.347	50.24
726.748	50.44
727.15	50.68
727.551	50.89
727.952	51.13
728.354	51.32
728.755	51.52
729.156	51.69
729.557	51.87
729.958	52.04
730.359	52.2
730.76	52.32
731.161	52.48
731.562	52.64
731.962	52.78
732.363	52.88
732.763	53.02
733.164	53.13
733.564	53.25
733.965	53.36
734.365	53.45
734.766	53.57
735.166	53.66
735.566	53.74
735.966	53.81
736.366	53.89
736.766	53.97
737.166	54.03
737.566	54.11
737.966	54.19
738.365	54.27
738.765	54.4
739.165	54.44
739.564	54.54
739.964	54.56
740.363	54.64
740.763	54.69
741.162	54.72
741.561	54.8
741.96	54.85
742.36	54.88
742.759	54.91
743.158	54.87
743.557	54.95
743.955	54.99
744.354	55.09
744.753	55.13
745.152	55.15
745.55	55.21
745.949	55.25
746.348	55.3
746.746	55.32
747.144	55.37
747.543	55.46
747.941	55.48
748.339	55.52
748.737	55.56
749.136	55.6
749.534	55.66
749.932	55.68
750.33	55.67
750.727	55.68
751.125	55.74
751.523	55.72
751.921	55.74
752.318	55.76
752.716	55.78
753.113	55.77
753.511	55.75
753.908	55.74
754.305	55.71
754.703	55.72
755.1	55.71
755.497	55.71
755.894	55.76
756.291	55.74
756.688	55.72
757.085	55.7
757.482	55.7
757.878	55.73
758.275	55.73
758.672	55.78
759.068	55.78
759.465	55.8
759.861	55.8
760.258	55.77
760.654	55.78
761.05	55.78
761.447	55.75
761.843	55.72
762.239	55.69
762.635	55.66
763.031	55.65
763.427	55.66
763.822	55.6
764.218	55.56
764.614	55.54
765.01	55.54
765.405	55.5
765.801	55.47
766.196	55.49
766.592	55.47
766.987	55.47
767.382	55.46
767.778	55.42
768.173	55.44
768.568	55.41
768.963	55.4
769.358	55.38
769.753	55.41
770.148	55.42
770.542	55.37
770.937	55.37
771.332	55.37
771.726	55.33
772.121	55.32
772.515	55.32
772.91	55.31
773.304	55.28
773.699	55.25
774.093	55.22
774.487	55.25
774.881	55.26
775.275	55.29
775.669	55.29
776.063	55.31
776.457	55.27
776.851	55.24
777.245	55.25
777.638	55.27
778.032	55.28
778.425	55.29
778.819	55.29
779.212	55.28
779.606	55.26
779.999	55.24
780.392	55.25
780.786	55.26
781.179	55.31
781.572	55.27
781.965	55.28
782.358	55.24
782.751	55.21
783.143	55.21
783.536	55.22
