Data from N_1_div_oh_2n_025_Splice17_14.txt Node
Date: Sat Feb 29 13:43:59 EST 2020
User: sa697716
Spectrometer: FLMS03696
Trigger mode: 0
Integration Time (sec): 3.180400E-1
Scans to average: 20
Electric dark correction enabled: true
Nonlinearity correction enabled: true
Boxcar width: 5
XAxis mode: Wavelengths
Number of Pixels in Spectrum: 2048
>>>>>Begin Spectral Data<<<<<
187.83	56.88
188.298	65.34
188.766	54.17
189.233	34.01
189.701	41.1
190.169	41.88
190.636	25.98
191.104	5.95
191.571	-108.83
192.039	120.13
192.506	-161.48
192.974	122.46
193.441	-95.11
193.908	67.64
194.375	-26.32
194.842	-10.5
195.31	44.77
195.777	-2.91
196.244	29.48
196.711	29.98
197.177	27.62
197.644	28.4
198.111	28.38
198.578	29.15
199.045	28.79
199.511	28.76
199.978	29.44
200.445	28.8
200.911	29.4
201.378	29
201.844	29.29
202.31	30.38
202.777	30.47
203.243	31
203.709	30.93
204.176	30.5
204.642	31.1
205.108	30.95
205.574	31.46
206.04	31.3
206.506	31.4
206.972	31.15
207.438	30.37
207.903	30.51
208.369	29.8
208.835	29.35
209.301	29.5
209.766	28.66
210.232	27.87
210.697	27.26
211.163	26.79
211.628	26.54
212.094	26.37
212.559	26.1
213.024	25.71
213.49	25.1
213.955	24.7
214.42	24.07
214.885	23.48
215.35	22.81
215.815	21.83
216.28	20.76
216.745	19.66
217.21	18.24
217.675	17.04
218.14	15.79
218.604	14.79
219.069	13.96
219.534	13.14
219.998	12.53
220.463	12.03
220.927	11.62
221.392	11.25
221.856	10.79
222.32	10.56
222.785	10.27
223.249	10.05
223.713	9.9
224.177	9.73
224.642	9.59
225.106	9.4
225.57	9.24
226.034	9.1
226.497	8.93
226.961	8.8
227.425	8.62
227.889	8.49
228.353	8.35
228.816	8.22
229.28	8.06
229.744	7.95
230.207	7.84
230.671	7.73
231.134	7.62
231.597	7.52
232.061	7.45
232.524	7.38
232.987	7.3
233.45	7.22
233.914	7.12
234.377	7.05
234.84	6.97
235.303	6.91
235.766	6.84
236.229	6.77
236.691	6.71
237.154	6.65
237.617	6.58
238.08	6.52
238.542	6.47
239.005	6.43
239.468	6.37
239.93	6.33
240.393	6.26
240.855	6.2
241.317	6.15
241.78	6.1
242.242	6.04
242.704	5.98
243.166	5.94
243.629	5.9
244.091	5.85
244.553	5.81
245.015	5.77
245.477	5.71
245.939	5.68
246.4	5.63
246.862	5.59
247.324	5.55
247.786	5.51
248.247	5.47
248.709	5.43
249.17	5.39
249.632	5.33
250.093	5.26
250.555	5.23
251.016	5.21
251.477	5.16
251.939	5.13
252.4	5.08
252.861	5.04
253.322	4.99
253.783	4.96
254.244	4.93
254.705	4.91
255.166	4.9
255.627	4.87
256.088	4.83
256.549	4.81
257.009	4.77
257.47	4.76
257.931	4.72
258.391	4.69
258.852	4.65
259.312	4.6
259.773	4.57
260.233	4.53
260.694	4.49
261.154	4.44
261.614	4.41
262.074	4.39
262.534	4.34
262.994	4.32
263.455	4.29
263.915	4.26
264.374	4.24
264.834	4.21
265.294	4.18
265.754	4.16
266.214	4.14
266.673	4.12
267.133	4.09
267.593	4.07
268.052	4.05
268.512	4.03
268.971	4.01
269.431	3.99
269.89	3.97
270.349	3.96
270.809	3.94
271.268	3.93
271.727	3.91
272.186	3.89
272.645	3.87
273.104	3.85
273.563	3.84
274.022	3.83
274.481	3.81
274.94	3.8
275.399	3.79
275.857	3.77
276.316	3.76
276.775	3.74
277.233	3.72
277.692	3.71
278.15	3.7
278.609	3.69
279.067	3.67
279.525	3.65
279.984	3.65
280.442	3.63
280.9	3.62
281.358	3.61
281.816	3.6
282.274	3.6
282.732	3.59
283.19	3.59
283.648	3.58
284.106	3.58
284.564	3.59
285.021	3.57
285.479	3.57
285.937	3.56
286.394	3.56
286.852	3.56
287.309	3.55
287.767	3.54
288.224	3.52
288.682	3.51
289.139	3.5
289.596	3.48
290.053	3.46
290.511	3.44
290.968	3.43
291.425	3.42
291.882	3.4
292.339	3.39
292.796	3.37
293.252	3.35
293.709	3.34
294.166	3.33
294.623	3.32
295.079	3.31
295.536	3.3
295.992	3.28
296.449	3.28
296.905	3.26
297.362	3.25
297.818	3.25
298.274	3.24
298.731	3.23
299.187	3.22
299.643	3.21
300.099	3.2
300.555	3.19
301.011	3.19
301.467	3.18
301.923	3.18
302.379	3.17
302.835	3.16
303.291	3.15
303.746	3.15
304.202	3.14
304.658	3.14
305.113	3.14
305.569	3.14
306.024	3.13
306.479	3.13
306.935	3.13
307.39	3.13
307.845	3.13
308.301	3.13
308.756	3.14
309.211	3.15
309.666	3.15
310.121	3.15
310.576	3.15
311.031	3.14
311.486	3.14
311.94	3.14
312.395	3.13
312.85	3.13
313.305	3.13
313.759	3.14
314.214	3.13
314.668	3.12
315.123	3.12
315.577	3.12
316.032	3.12
316.486	3.12
316.94	3.12
317.394	3.1
317.849	3.09
318.303	3.09
318.757	3.07
319.211	3.05
319.665	3.05
320.119	3.04
320.572	3.04
321.026	3.03
321.48	3.03
321.934	3.03
322.387	3.03
322.841	3.03
323.295	3.02
323.748	3.02
324.202	3.03
324.655	3.03
325.108	3.02
325.562	3.01
326.015	3
326.468	2.99
326.921	2.97
327.374	2.97
327.827	2.97
328.28	2.96
328.733	2.96
329.186	2.95
329.639	2.94
330.092	2.94
330.545	2.94
330.997	2.94
331.45	2.95
331.903	2.95
332.355	2.95
332.808	2.95
333.26	2.95
333.713	2.95
334.165	2.96
334.617	2.96
335.069	2.96
335.522	2.96
335.974	2.96
336.426	2.96
336.878	2.96
337.33	2.95
337.782	2.95
338.234	2.95
338.686	2.94
339.137	2.95
339.589	2.94
340.041	2.94
340.493	2.93
340.944	2.92
341.396	2.91
341.847	2.9
342.299	2.9
342.75	2.88
343.201	2.88
343.653	2.87
344.104	2.85
344.555	2.84
345.006	2.83
345.457	2.83
345.908	2.83
346.359	2.83
346.81	2.83
347.261	2.83
347.712	2.83
348.163	2.83
348.613	2.83
349.064	2.82
349.515	2.81
349.965	2.81
350.416	2.81
350.866	2.8
351.317	2.79
351.767	2.78
352.217	2.78
352.668	2.78
353.118	2.78
353.568	2.78
354.018	2.79
354.468	2.78
354.918	2.79
355.368	2.78
355.818	2.78
356.268	2.78
356.718	2.79
357.168	2.79
357.617	2.78
358.067	2.78
358.517	2.76
358.966	2.77
359.416	2.78
359.865	2.77
360.315	2.77
360.764	2.77
361.213	2.77
361.663	2.76
362.112	2.76
362.561	2.76
363.01	2.77
363.459	2.78
363.908	2.77
364.357	2.77
364.806	2.77
365.255	2.78
365.703	2.79
366.152	2.79
366.601	2.8
367.05	2.8
367.498	2.8
367.947	2.79
368.395	2.8
368.844	2.8
369.292	2.8
369.74	2.81
370.189	2.79
370.637	2.78
371.085	2.78
371.533	2.77
371.981	2.77
372.429	2.76
372.877	2.75
373.325	2.75
373.773	2.75
374.221	2.74
374.669	2.73
375.116	2.72
375.564	2.73
376.012	2.73
376.459	2.74
376.907	2.73
377.354	2.74
377.801	2.75
378.249	2.76
378.696	2.78
379.143	2.79
379.591	2.81
380.038	2.83
380.485	2.84
380.932	2.85
381.379	2.85
381.826	2.87
382.273	2.87
382.72	2.88
383.166	2.9
383.613	2.9
384.06	2.92
384.506	2.93
384.953	2.95
385.4	2.96
385.846	2.97
386.292	3
386.739	3.01
387.185	3.04
387.631	3.06
388.078	3.07
388.524	3.07
388.97	3.09
389.416	3.09
389.862	3.11
390.308	3.13
390.754	3.16
391.2	3.18
391.645	3.21
392.091	3.22
392.537	3.25
392.983	3.28
393.428	3.3
393.874	3.33
394.319	3.37
394.765	3.38
395.21	3.39
395.655	3.42
396.101	3.43
396.546	3.44
396.991	3.45
397.436	3.45
397.881	3.47
398.326	3.5
398.771	3.52
399.216	3.52
399.661	3.55
400.106	3.57
400.551	3.56
400.995	3.57
401.44	3.57
401.885	3.59
402.329	3.61
402.774	3.6
403.218	3.61
403.663	3.61
404.107	3.63
404.551	3.63
404.995	3.62
405.44	3.64
405.884	3.65
406.328	3.66
406.772	3.67
407.216	3.69
407.66	3.7
408.104	3.7
408.547	3.7
408.991	3.69
409.435	3.69
409.879	3.7
410.322	3.71
410.766	3.72
411.209	3.74
411.653	3.73
412.096	3.71
412.54	3.72
412.983	3.72
413.426	3.74
413.869	3.74
414.312	3.76
414.756	3.77
415.199	3.8
415.642	3.82
416.085	3.82
416.527	3.83
416.97	3.84
417.413	3.84
417.856	3.85
418.298	3.84
418.741	3.85
419.184	3.84
419.626	3.83
420.069	3.83
420.511	3.81
420.953	3.8
421.396	3.81
421.838	3.84
422.28	3.86
422.722	3.86
423.164	3.87
423.606	3.88
424.048	3.87
424.49	3.88
424.932	3.88
425.374	3.89
425.816	3.88
426.258	3.87
426.699	3.84
427.141	3.82
427.582	3.81
428.024	3.82
428.465	3.82
428.907	3.86
429.348	3.86
429.789	3.87
430.231	3.87
430.672	3.89
431.113	3.9
431.554	3.93
431.995	3.96
432.436	3.97
432.877	3.97
433.318	3.97
433.759	3.97
434.2	4
434.64	3.99
435.081	4
435.522	4.04
435.962	4.07
436.403	4.1
436.843	4.11
437.284	4.13
437.724	4.15
438.164	4.16
438.604	4.18
439.045	4.18
439.485	4.21
439.925	4.22
440.365	4.21
440.805	4.19
441.245	4.16
441.685	4.18
442.125	4.19
442.564	4.19
443.004	4.2
443.444	4.22
443.883	4.24
444.323	4.24
444.762	4.28
445.202	4.34
445.641	4.38
446.081	4.44
446.52	4.46
446.959	4.5
447.398	4.54
447.837	4.6
448.276	4.61
448.716	4.65
449.154	4.67
449.593	4.7
450.032	4.69
450.471	4.7
450.91	4.7
451.349	4.73
451.787	4.74
452.226	4.73
452.664	4.73
453.103	4.73
453.541	4.73
453.98	4.73
454.418	4.71
454.856	4.7
455.295	4.68
455.733	4.67
456.171	4.67
456.609	4.66
457.047	4.66
457.485	4.67
457.923	4.66
458.361	4.65
458.798	4.67
459.236	4.67
459.674	4.67
460.111	4.68
460.549	4.68
460.987	4.67
461.424	4.66
461.862	4.66
462.299	4.66
462.736	4.66
463.173	4.67
463.611	4.66
464.048	4.68
464.485	4.68
464.922	4.69
465.359	4.71
465.796	4.7
466.233	4.74
466.67	4.75
467.106	4.75
467.543	4.74
467.98	4.73
468.416	4.75
468.853	4.75
469.29	4.75
469.726	4.76
470.162	4.75
470.599	4.75
471.035	4.73
471.471	4.73
471.907	4.74
472.344	4.74
472.78	4.75
473.216	4.74
473.652	4.72
474.088	4.73
474.523	4.72
474.959	4.71
475.395	4.72
475.831	4.71
476.266	4.72
476.702	4.71
477.138	4.7
477.573	4.68
478.008	4.68
478.444	4.69
478.879	4.68
479.314	4.67
479.75	4.67
480.185	4.65
480.62	4.66
481.055	4.65
481.49	4.65
481.925	4.65
482.36	4.64
482.795	4.63
483.229	4.62
483.664	4.63
484.099	4.64
484.534	4.65
484.968	4.66
485.403	4.66
485.837	4.67
486.271	4.67
486.706	4.69
487.14	4.71
487.574	4.74
488.009	4.75
488.443	4.77
488.877	4.79
489.311	4.8
489.745	4.83
490.179	4.85
490.613	4.88
491.046	4.92
491.48	4.95
491.914	4.98
492.348	5.02
492.781	5.06
493.215	5.09
493.648	5.13
494.082	5.2
494.515	5.25
494.948	5.31
495.382	5.37
495.815	5.42
496.248	5.49
496.681	5.56
497.114	5.63
497.547	5.71
497.98	5.8
498.413	5.89
498.846	5.98
499.279	6.08
499.711	6.17
500.144	6.27
500.577	6.39
501.009	6.5
501.442	6.63
501.874	6.77
502.306	6.9
502.739	7.03
503.171	7.18
503.603	7.34
504.036	7.5
504.468	7.67
504.9	7.85
505.332	8.04
505.764	8.24
506.196	8.44
506.627	8.64
507.059	8.85
507.491	9.09
507.923	9.3
508.354	9.53
508.786	9.76
509.217	9.99
509.649	10.25
510.08	10.52
510.512	10.76
510.943	11.05
511.374	11.32
511.805	11.59
512.237	11.87
512.668	12.17
513.099	12.48
513.53	12.8
513.961	13.12
514.391	13.43
514.822	13.73
515.253	14.07
515.684	14.37
516.114	14.7
516.545	15.04
516.975	15.36
517.406	15.69
517.836	16.01
518.267	16.35
518.697	16.67
519.127	17
519.558	17.33
519.988	17.66
520.418	17.97
520.848	18.28
521.278	18.6
521.708	18.77
522.138	19.05
522.567	19.33
522.997	19.6
523.427	19.87
523.857	20.13
524.286	20.38
524.716	20.61
525.145	20.86
525.575	21.1
526.004	21.31
526.433	21.68
526.863	21.91
527.292	22.12
527.721	22.32
528.15	22.49
528.579	22.69
529.008	22.86
529.437	23.03
529.866	23.2
530.295	23.35
530.724	23.52
531.152	23.65
531.581	23.79
532.01	23.92
532.438	24.05
532.867	24.16
533.295	24.28
533.723	24.4
534.152	24.49
534.58	24.59
535.008	24.65
535.436	24.73
535.865	24.8
536.293	24.88
536.721	24.94
537.149	25
537.576	25.07
538.004	25.11
538.432	25.15
538.86	25.2
539.287	25.26
539.715	25.32
540.143	25.35
540.57	25.39
540.998	25.42
541.425	25.44
541.852	25.46
542.28	25.48
542.707	25.51
543.134	25.54
543.561	25.56
543.988	25.58
544.415	25.62
544.842	25.63
545.269	25.66
545.696	25.69
546.123	25.72
546.549	25.77
546.976	25.83
547.403	25.85
547.829	25.88
548.256	25.9
548.682	25.93
549.108	25.93
549.535	25.96
549.961	25.98
550.387	25.98
550.813	25.97
551.24	25.97
551.666	25.96
552.092	25.95
552.518	25.93
552.943	25.92
553.369	25.9
553.795	25.87
554.221	25.83
554.646	25.8
555.072	25.77
555.498	25.74
555.923	25.69
556.349	25.62
556.774	25.56
557.199	25.5
557.625	25.43
558.05	25.35
558.475	25.28
558.9	25.21
559.325	25.11
559.75	25.01
560.175	24.91
560.6	24.81
561.025	24.72
561.449	24.61
561.874	24.5
562.299	24.39
562.723	24.28
563.148	24.15
563.572	24.01
563.997	23.86
564.421	23.73
564.846	23.6
565.27	23.46
565.694	23.33
566.118	23.17
566.542	23.02
566.966	22.87
567.39	22.69
567.814	22.52
568.238	22.36
568.662	22.22
569.086	22.06
569.509	21.89
569.933	21.74
570.357	21.56
570.78	21.39
571.204	21.23
571.627	21.06
572.05	20.91
572.474	20.78
572.897	20.63
573.32	20.48
573.743	20.33
574.166	20.18
574.589	20.04
575.012	19.9
575.435	19.78
575.858	19.66
576.281	19.55
576.704	19.45
577.126	19.32
577.549	19.22
577.972	19.12
578.394	19.02
578.817	18.91
579.239	18.82
579.661	18.71
580.084	18.6
580.506	18.5
580.928	18.41
581.35	18.32
581.772	18.24
582.194	18.15
582.616	18.08
583.038	17.98
583.46	17.91
583.882	17.83
584.303	17.77
584.725	17.72
585.147	17.63
585.568	17.54
585.99	17.47
586.411	17.4
586.833	17.32
587.254	17.25
587.675	17.18
588.096	17.13
588.518	17.06
588.939	16.99
589.36	16.92
589.781	16.89
590.202	16.86
590.623	16.81
591.043	16.76
591.464	16.72
591.885	16.68
592.305	16.65
592.726	16.61
593.147	16.6
593.567	16.56
593.987	16.54
594.408	16.5
594.828	16.46
595.248	16.43
595.669	16.4
596.089	16.38
596.509	16.34
596.929	16.29
597.349	16.25
597.769	16.19
598.189	16.18
598.608	16.13
599.028	16.08
599.448	16.05
599.867	16.01
600.287	15.95
600.706	15.91
601.126	15.87
601.545	15.83
601.965	15.77
602.384	15.72
602.803	15.64
603.222	15.6
603.641	15.57
604.061	15.51
604.48	15.45
604.898	15.39
605.317	15.31
605.736	15.24
606.155	15.17
606.574	15.1
606.992	15.03
607.411	14.96
607.829	14.84
608.248	14.76
608.666	14.67
609.085	14.58
609.503	14.5
609.921	14.42
610.339	14.35
610.758	14.26
611.176	14.18
611.594	14.09
612.012	13.99
612.43	13.95
612.847	13.87
613.265	13.79
613.683	13.71
614.101	13.62
614.518	13.53
614.936	13.45
615.353	13.38
615.771	13.3
616.188	13.24
616.606	13.17
617.023	13.11
617.44	13.05
617.857	12.97
618.274	12.91
618.691	12.87
619.108	12.82
619.525	12.75
619.942	12.71
620.359	12.67
620.776	12.64
621.192	12.61
621.609	12.57
622.026	12.54
622.442	12.52
622.859	12.51
623.275	12.5
623.691	12.49
624.108	12.49
624.524	12.48
624.94	12.46
625.356	12.45
625.772	12.44
626.188	12.46
626.604	12.44
627.02	12.42
627.436	12.4
627.852	12.37
628.268	12.34
628.683	12.32
629.099	12.29
629.514	12.28
629.93	12.26
630.345	12.22
630.761	12.18
631.176	12.15
631.591	12.11
632.007	12.07
632.422	12.02
632.837	11.96
633.252	11.89
633.667	11.82
634.082	11.74
634.497	11.64
634.911	11.53
635.326	11.43
635.741	11.31
636.155	11.2
636.57	11.09
636.984	10.94
637.399	10.81
637.813	10.67
638.228	10.54
638.642	10.4
639.056	10.26
639.47	10.12
639.884	9.98
640.298	9.84
640.712	9.67
641.126	9.52
641.54	9.38
641.954	9.26
642.368	9.12
642.781	8.98
643.195	8.84
643.609	8.71
644.022	8.59
644.436	8.46
644.849	8.34
645.262	8.25
645.676	8.16
646.089	8.06
646.502	7.96
646.915	7.88
647.328	7.8
647.741	7.74
648.154	7.68
648.567	7.61
648.98	7.56
649.393	7.51
649.805	7.45
650.218	7.4
650.631	7.36
651.043	7.32
651.456	7.29
651.868	7.26
652.28	7.21
652.693	7.15
653.105	7.11
653.517	7.07
653.929	7.02
654.341	6.99
654.753	6.94
655.165	6.89
655.577	6.83
655.989	6.75
656.401	6.68
656.813	6.61
657.224	6.54
657.636	6.48
658.047	6.4
658.459	6.32
658.87	6.23
659.282	6.15
659.693	6.07
660.104	6.01
660.515	5.93
660.926	5.86
661.338	5.8
661.749	5.72
662.159	5.65
662.57	5.58
662.981	5.51
663.392	5.46
663.803	5.4
664.213	5.35
664.624	5.29
665.035	5.25
665.445	5.2
665.855	5.16
666.266	5.13
666.676	5.11
667.086	5.07
667.497	5.05
667.907	5.04
668.317	5.02
668.727	5
669.137	4.99
669.547	4.99
669.956	4.99
670.366	4.99
670.776	5
671.186	5
671.595	5.02
672.005	5.02
672.414	5.02
672.824	5.04
673.233	5.07
673.642	5.08
674.052	5.1
674.461	5.12
674.87	5.14
675.279	5.17
675.688	5.19
676.097	5.22
676.506	5.26
676.915	5.29
677.323	5.33
677.732	5.36
678.141	5.41
678.549	5.45
678.958	5.51
679.366	5.57
679.775	5.64
680.183	5.71
680.592	5.79
681	5.86
681.408	5.94
681.816	6.04
682.224	6.15
682.632	6.28
683.04	6.41
683.448	6.55
683.856	6.73
684.264	6.91
684.671	7.15
685.079	7.37
685.487	7.64
685.894	7.93
686.302	8.25
686.709	8.59
687.116	8.94
687.524	9.35
687.931	9.78
688.338	10.24
688.745	10.72
689.152	11.22
689.559	11.77
689.966	12.33
690.373	12.94
690.78	13.55
691.187	14.18
691.593	14.84
692	15.5
692.407	16.2
692.813	16.91
693.22	17.63
693.626	18.34
694.032	19.08
694.439	19.83
694.845	20.57
695.251	21.32
695.657	22.05
696.063	22.8
696.469	23.55
696.875	24.25
697.281	24.95
697.687	25.66
698.093	26.38
698.498	27.06
698.904	27.73
699.31	28.38
699.715	29.01
700.12	29.66
700.526	30.29
700.931	30.89
701.337	31.51
701.742	32.1
702.147	32.68
702.552	33.26
702.957	33.81
703.362	34.37
703.767	34.92
704.172	35.48
704.577	36
704.981	36.52
705.386	37.03
705.791	37.53
706.195	38.01
706.6	38.48
707.004	38.94
707.408	39.41
707.813	39.87
708.217	40.28
708.621	40.68
709.025	41.13
709.43	41.54
709.834	41.97
710.237	42.4
710.641	42.8
711.045	43.2
711.449	43.56
711.853	43.96
712.256	44.35
712.66	44.72
713.064	45.11
713.467	45.44
713.87	45.8
714.274	46.13
714.677	46.45
715.08	46.77
715.484	47.07
715.887	47.41
716.29	47.67
716.693	47.98
717.096	48.27
717.499	48.53
717.901	48.81
718.304	49.08
718.707	49.34
719.109	49.59
719.512	49.87
719.915	50.16
720.317	50.43
720.719	50.67
721.122	50.88
721.524	51.13
721.926	51.36
722.328	51.57
722.731	51.8
723.133	52.02
723.535	52.22
723.937	52.4
724.338	52.57
724.74	52.74
725.142	52.91
725.544	53.07
725.945	53.24
726.347	53.43
726.748	53.55
727.15	53.69
727.551	53.86
727.952	53.98
728.354	54.12
728.755	54.25
729.156	54.37
729.557	54.51
729.958	54.64
730.359	54.73
730.76	54.82
731.161	54.97
731.562	55.07
731.962	55.15
732.363	55.24
732.763	55.36
733.164	55.44
733.564	55.55
733.965	55.62
734.365	55.67
734.766	55.77
735.166	55.8
735.566	55.83
735.966	55.89
736.366	55.93
736.766	55.99
737.166	56.03
737.566	56.07
737.966	56.13
738.365	56.16
738.765	56.24
739.165	56.26
739.564	56.34
739.964	56.39
740.363	56.44
740.763	56.5
741.162	56.52
741.561	56.55
741.96	56.62
742.36	56.65
742.759	56.66
743.158	56.68
743.557	56.69
743.955	56.72
744.354	56.75
744.753	56.81
745.152	56.79
745.55	56.86
745.949	56.86
746.348	56.89
746.746	56.9
747.144	56.96
747.543	56.99
747.941	57.07
748.339	57.13
748.737	57.2
749.136	57.22
749.534	57.26
749.932	57.27
750.33	57.33
750.727	57.33
751.125	57.36
751.523	57.36
751.921	57.38
752.318	57.35
752.716	57.32
753.113	57.27
753.511	57.25
753.908	57.24
754.305	57.19
754.703	57.15
755.1	57.14
755.497	57.12
755.894	57.11
756.291	57.1
756.688	57.1
757.085	57.07
757.482	57.06
757.878	57.06
758.275	57.06
758.672	57.11
759.068	57.12
759.465	57.09
759.861	57.08
760.258	57.07
760.654	57.05
761.05	57.04
761.447	57.03
761.843	57.01
762.239	57
762.635	56.99
763.031	56.96
763.427	56.95
763.822	56.94
764.218	56.93
764.614	56.92
765.01	56.92
765.405	56.9
765.801	56.9
766.196	56.96
766.592	56.94
766.987	56.94
767.382	56.93
767.778	56.93
768.173	56.94
768.568	56.94
768.963	56.94
769.358	56.95
769.753	56.96
770.148	56.98
770.542	56.95
770.937	56.93
771.332	56.92
771.726	56.92
772.121	56.88
772.515	56.86
772.91	56.87
773.304	56.85
773.699	56.83
774.093	56.8
774.487	56.78
774.881	56.79
775.275	56.79
775.669	56.81
776.063	56.78
776.457	56.79
776.851	56.77
777.245	56.75
777.638	56.76
778.032	56.78
778.425	56.83
778.819	56.86
779.212	56.8
779.606	56.81
779.999	56.76
780.392	56.77
780.786	56.79
781.179	56.8
781.572	56.82
781.965	56.81
782.358	56.79
782.751	56.78
783.143	56.75
