Data from N_1_div_wi_4n_029_Splice17_01.txt Node
Date: Sat Feb 29 13:45:13 EST 2020
User: sa697716
Spectrometer: FLMS03696
Trigger mode: 0
Integration Time (sec): 3.180400E-1
Scans to average: 20
Electric dark correction enabled: true
Nonlinearity correction enabled: true
Boxcar width: 5
XAxis mode: Wavelengths
Number of Pixels in Spectrum: 2048
>>>>>Begin Spectral Data<<<<<
187.83	42.89
188.298	49.47
188.766	41.21
189.233	34.79
189.701	45.72
190.169	34.87
190.636	38.54
191.104	21.09
191.571	82.07
192.039	112.42
192.506	372.58
192.974	5904.72
193.441	-634.92
193.908	88.08
194.375	30.5
194.842	100.7
195.31	12.36
195.777	-8.88
196.244	-1.2
196.711	19.18
197.177	21.3
197.644	21.6
198.111	21.65
198.578	21.38
199.045	21.85
199.511	22.72
199.978	23.46
200.445	23.38
200.911	23.59
201.378	23.38
201.844	23.61
202.31	23.97
202.777	23.8
203.243	24.31
203.709	25.12
204.176	24.81
204.642	24.78
205.108	24.28
205.574	24.77
206.04	24.42
206.506	24.69
206.972	24.35
207.438	23.77
207.903	23.85
208.369	23.18
208.835	22.51
209.301	22.74
209.766	22.23
210.232	22.15
210.697	21.87
211.163	21.87
211.628	21.34
212.094	21.23
212.559	21.08
213.024	20.76
213.49	20.54
213.955	20.38
214.42	19.66
214.885	19.14
215.35	18.48
215.815	17.39
216.28	16.51
216.745	16.1
217.21	15.21
217.675	14.4
218.14	13.63
218.604	12.97
219.069	12.42
219.534	12.03
219.998	11.68
220.463	11.41
220.927	11.14
221.392	10.9
221.856	10.56
222.32	10.37
222.785	10.19
223.249	10.06
223.713	9.93
224.177	9.76
224.642	9.6
225.106	9.48
225.57	9.32
226.034	9.22
226.497	9.1
226.961	9
227.425	8.87
227.889	8.78
228.353	8.65
228.816	8.56
229.28	8.44
229.744	8.36
230.207	8.26
230.671	8.17
231.134	8.09
231.597	8.01
232.061	7.94
232.524	7.88
232.987	7.81
233.45	7.75
233.914	7.68
234.377	7.64
234.84	7.59
235.303	7.52
235.766	7.47
236.229	7.4
236.691	7.37
237.154	7.31
237.617	7.26
238.08	7.19
238.542	7.12
239.005	7.08
239.468	7
239.93	6.96
240.393	6.92
240.855	6.86
241.317	6.82
241.78	6.79
242.242	6.74
242.704	6.69
243.166	6.67
243.629	6.64
244.091	6.6
244.553	6.6
245.015	6.57
245.477	6.52
245.939	6.5
246.4	6.46
246.862	6.42
247.324	6.41
247.786	6.39
248.247	6.37
248.709	6.34
249.17	6.31
249.632	6.28
250.093	6.25
250.555	6.23
251.016	6.22
251.477	6.21
251.939	6.19
252.4	6.17
252.861	6.15
253.322	6.13
253.783	6.12
254.244	6.11
254.705	6.09
255.166	6.09
255.627	6.09
256.088	6.07
256.549	6.05
257.009	6.04
257.47	6.03
257.931	6
258.391	5.98
258.852	5.97
259.312	5.97
259.773	5.96
260.233	5.94
260.694	5.92
261.154	5.91
261.614	5.91
262.074	5.91
262.534	5.9
262.994	5.9
263.455	5.91
263.915	5.9
264.374	5.89
264.834	5.9
265.294	5.89
265.754	5.88
266.214	5.89
266.673	5.89
267.133	5.88
267.593	5.89
268.052	5.88
268.512	5.88
268.971	5.89
269.431	5.89
269.89	5.89
270.349	5.9
270.809	5.9
271.268	5.9
271.727	5.9
272.186	5.9
272.645	5.9
273.104	5.9
273.563	5.9
274.022	5.9
274.481	5.9
274.94	5.9
275.399	5.9
275.857	5.9
276.316	5.89
276.775	5.89
277.233	5.88
277.692	5.87
278.15	5.86
278.609	5.86
279.067	5.85
279.525	5.84
279.984	5.83
280.442	5.83
280.9	5.82
281.358	5.82
281.816	5.8
282.274	5.8
282.732	5.8
283.19	5.8
283.648	5.79
284.106	5.79
284.564	5.79
285.021	5.79
285.479	5.79
285.937	5.79
286.394	5.78
286.852	5.78
287.309	5.78
287.767	5.77
288.224	5.76
288.682	5.76
289.139	5.76
289.596	5.75
290.053	5.73
290.511	5.73
290.968	5.72
291.425	5.72
291.882	5.72
292.339	5.71
292.796	5.7
293.252	5.7
293.709	5.7
294.166	5.7
294.623	5.69
295.079	5.69
295.536	5.68
295.992	5.67
296.449	5.67
296.905	5.65
297.362	5.65
297.818	5.65
298.274	5.64
298.731	5.64
299.187	5.64
299.643	5.64
300.099	5.64
300.555	5.63
301.011	5.63
301.467	5.62
301.923	5.64
302.379	5.63
302.835	5.62
303.291	5.62
303.746	5.61
304.202	5.6
304.658	5.59
305.113	5.59
305.569	5.59
306.024	5.59
306.479	5.59
306.935	5.58
307.39	5.59
307.845	5.59
308.301	5.59
308.756	5.6
309.211	5.6
309.666	5.6
310.121	5.6
310.576	5.6
311.031	5.6
311.486	5.6
311.94	5.6
312.395	5.61
312.85	5.61
313.305	5.6
313.759	5.6
314.214	5.6
314.668	5.59
315.123	5.59
315.577	5.59
316.032	5.6
316.486	5.59
316.94	5.59
317.394	5.56
317.849	5.56
318.303	5.56
318.757	5.56
319.211	5.55
319.665	5.55
320.119	5.55
320.572	5.55
321.026	5.54
321.48	5.53
321.934	5.53
322.387	5.53
322.841	5.53
323.295	5.53
323.748	5.54
324.202	5.54
324.655	5.52
325.108	5.51
325.562	5.51
326.015	5.51
326.468	5.5
326.921	5.49
327.374	5.49
327.827	5.49
328.28	5.47
328.733	5.47
329.186	5.46
329.639	5.47
330.092	5.46
330.545	5.46
330.997	5.47
331.45	5.47
331.903	5.46
332.355	5.46
332.808	5.46
333.26	5.46
333.713	5.46
334.165	5.46
334.617	5.46
335.069	5.47
335.522	5.46
335.974	5.46
336.426	5.45
336.878	5.46
337.33	5.46
337.782	5.46
338.234	5.47
338.686	5.47
339.137	5.47
339.589	5.46
340.041	5.46
340.493	5.46
340.944	5.45
341.396	5.45
341.847	5.44
342.299	5.43
342.75	5.42
343.201	5.41
343.653	5.41
344.104	5.4
344.555	5.39
345.006	5.38
345.457	5.38
345.908	5.39
346.359	5.39
346.81	5.39
347.261	5.38
347.712	5.37
348.163	5.37
348.613	5.36
349.064	5.34
349.515	5.34
349.965	5.34
350.416	5.33
350.866	5.32
351.317	5.32
351.767	5.31
352.217	5.32
352.668	5.31
353.118	5.31
353.568	5.31
354.018	5.32
354.468	5.32
354.918	5.33
355.368	5.33
355.818	5.32
356.268	5.33
356.718	5.34
357.168	5.34
357.617	5.34
358.067	5.34
358.517	5.35
358.966	5.35
359.416	5.35
359.865	5.35
360.315	5.35
360.764	5.35
361.213	5.34
361.663	5.33
362.112	5.33
362.561	5.34
363.01	5.35
363.459	5.34
363.908	5.35
364.357	5.36
364.806	5.35
365.255	5.36
365.703	5.36
366.152	5.37
366.601	5.39
367.05	5.38
367.498	5.38
367.947	5.38
368.395	5.39
368.844	5.38
369.292	5.38
369.74	5.39
370.189	5.39
370.637	5.4
371.085	5.42
371.533	5.41
371.981	5.42
372.429	5.43
372.877	5.44
373.325	5.44
373.773	5.46
374.221	5.47
374.669	5.48
375.116	5.48
375.564	5.48
376.012	5.48
376.459	5.5
376.907	5.51
377.354	5.52
377.801	5.54
378.249	5.56
378.696	5.57
379.143	5.57
379.591	5.59
380.038	5.62
380.485	5.65
380.932	5.67
381.379	5.68
381.826	5.7
382.273	5.72
382.72	5.75
383.166	5.76
383.613	5.8
384.06	5.83
384.506	5.86
384.953	5.89
385.4	5.92
385.846	5.96
386.292	6.02
386.739	6.07
387.185	6.14
387.631	6.2
388.078	6.25
388.524	6.27
388.97	6.31
389.416	6.35
389.862	6.42
390.308	6.51
390.754	6.6
391.2	6.7
391.645	6.79
392.091	6.85
392.537	6.93
392.983	7.04
393.428	7.23
393.874	7.44
394.319	7.69
394.765	7.92
395.21	8.16
395.655	8.42
396.101	8.69
396.546	8.99
396.991	9.35
397.436	9.71
397.881	10.1
398.326	10.46
398.771	10.81
399.216	11.14
399.661	11.47
400.106	11.77
400.551	12.04
400.995	12.28
401.44	12.48
401.885	12.69
402.329	12.93
402.774	13.15
403.218	13.42
403.663	13.69
404.107	14.01
404.551	14.32
404.995	14.61
405.44	14.9
405.884	15.2
406.328	15.56
406.772	15.96
407.216	16.38
407.66	16.79
408.104	17.15
408.547	17.48
408.991	17.77
409.435	18.08
409.879	18.43
410.322	18.83
410.766	19.26
411.209	19.66
411.653	20.04
412.096	20.34
412.54	20.62
412.983	20.94
413.426	21.27
413.869	21.61
414.312	21.97
414.756	22.32
415.199	22.61
415.642	22.88
416.085	23.12
416.527	23.32
416.97	23.47
417.413	23.55
417.856	23.56
418.298	23.56
418.741	23.6
419.184	23.65
419.626	23.71
420.069	23.84
420.511	23.95
420.953	24.05
421.396	24.19
421.838	24.43
422.28	24.77
422.722	25.08
423.164	25.39
423.606	25.68
424.048	25.89
424.49	26
424.932	25.91
425.374	25.65
425.816	25.23
426.258	24.76
426.699	24.4
427.141	24.28
427.582	24.45
428.024	24.78
428.465	25.11
428.907	25.44
429.348	25.77
429.789	26.19
430.231	26.85
430.672	27.83
431.113	28.96
431.554	30.1
431.995	31.01
432.436	31.66
432.877	32.09
433.318	32.46
433.759	32.87
434.2	33.35
434.64	33.97
435.081	34.61
435.522	35.14
435.962	35.59
436.403	35.93
436.843	36.23
437.284	36.55
437.724	36.94
438.164	37.41
438.604	37.93
439.045	38.51
439.485	39.02
439.925	39.42
440.365	39.78
440.805	40.01
441.245	40.23
441.685	40.45
442.125	40.69
442.564	41.02
443.004	41.37
443.444	41.76
443.883	42.17
444.323	42.6
444.762	43.04
445.202	43.57
445.641	44.13
446.081	44.82
446.52	45.51
446.959	46.19
447.398	46.7
447.837	47.07
448.276	47.23
448.716	47.36
449.154	47.47
449.593	47.58
450.032	47.59
450.471	47.59
450.91	47.47
451.349	47.31
451.787	47.2
452.226	47.15
452.664	47.1
453.103	47.11
453.541	47.11
453.98	47.03
454.418	46.89
454.856	46.71
455.295	46.55
455.733	46.4
456.171	46.29
456.609	46.19
457.047	46.1
457.485	46.1
457.923	46.17
458.361	46.25
458.798	46.42
459.236	46.59
459.674	46.77
460.111	46.9
460.549	47.05
460.987	47.21
461.424	47.4
461.862	47.6
462.299	47.74
462.736	47.88
463.173	48.09
463.611	48.37
464.048	48.72
464.485	49.14
464.922	49.64
465.359	50.12
465.796	50.58
466.233	50.98
466.67	51.47
467.106	52.06
467.543	52.72
467.98	53.41
468.416	53.98
468.853	54.48
469.29	54.99
469.726	55.46
470.162	55.99
470.599	56.57
471.035	57.09
471.471	57.42
471.907	57.65
472.344	57.79
472.78	57.9
473.216	58.07
473.652	58.25
474.088	58.36
474.523	58.45
474.959	58.48
475.395	58.49
475.831	58.49
476.266	58.53
476.702	58.56
477.138	58.58
477.573	58.53
478.008	58.4
478.444	58.19
478.879	57.94
479.314	57.64
479.75	57.29
480.185	56.86
480.62	56.31
481.055	55.54
481.49	54.48
481.925	53.29
482.36	52.17
482.795	51.22
483.229	50.5
483.664	49.95
484.099	49.46
484.534	49.03
484.968	48.7
485.403	48.58
485.837	48.69
486.271	49.05
486.706	49.45
487.14	49.77
487.574	49.89
488.009	49.89
488.443	49.87
488.877	49.82
489.311	49.81
489.745	49.81
490.179	49.82
490.613	49.84
491.046	49.83
491.48	49.9
491.914	50.06
492.348	50.32
492.781	50.54
493.215	50.71
493.648	50.84
494.082	50.91
494.515	50.95
494.948	50.96
495.382	50.96
495.815	50.94
496.248	50.86
496.681	50.73
497.114	50.59
497.547	50.46
497.98	50.42
498.413	50.5
498.846	50.66
499.279	50.8
499.711	50.86
500.144	50.95
500.577	51.16
501.009	51.53
501.442	52.01
501.874	52.52
502.306	53.01
502.739	53.39
503.171	53.69
503.603	53.93
504.036	54.2
504.468	54.63
504.9	55.02
505.332	55.37
505.764	55.63
506.196	55.84
506.627	56.07
507.059	56.39
507.491	56.76
507.923	57.15
508.354	57.51
508.786	57.83
509.217	58.02
509.649	58.2
510.08	58.39
510.512	58.58
510.943	58.83
511.374	59.03
511.805	59.07
512.237	58.89
512.668	58.61
513.099	58.41
513.53	58.26
513.961	58.16
514.391	58.14
514.822	58.26
515.253	58.48
515.684	58.71
516.114	59
516.545	59.45
516.975	60.2
517.406	61.07
517.836	61.92
518.267	62.7
518.697	63.5
519.127	64.29
519.558	64.98
519.988	65.65
520.418	66.26
520.848	66.83
521.278	67.32
521.708	67.46
522.138	67.5
522.567	67.47
522.997	67.54
523.427	67.69
523.857	67.88
524.286	68.14
524.716	68.42
525.145	68.67
525.575	68.91
526.004	69.22
526.433	69.83
526.863	70.53
527.292	71.3
527.721	71.84
528.15	72.16
528.579	72.33
529.008	72.36
529.437	72.32
529.866	72.31
530.295	72.34
530.724	72.41
531.152	72.45
531.581	72.5
532.01	72.47
532.438	72.52
532.867	72.65
533.295	72.83
533.723	73.05
534.152	73.21
534.58	73.31
535.008	73.28
535.436	73.11
535.865	72.86
536.293	72.55
536.721	72.37
537.149	72.3
537.576	72.34
538.004	72.37
538.432	72.36
538.86	72.35
539.287	72.44
539.715	72.65
540.143	72.98
540.57	73.34
540.998	73.8
541.425	74.22
541.852	74.62
542.28	74.91
542.707	75.21
543.134	75.48
543.561	75.71
543.988	75.95
544.415	76.21
544.842	76.42
545.269	76.7
545.696	76.93
546.123	77.14
546.549	77.34
546.976	77.57
547.403	77.81
547.829	78.1
548.256	78.36
548.682	78.53
549.108	78.68
549.535	78.86
549.961	79.01
550.387	79.17
550.813	79.34
551.24	79.51
551.666	79.63
552.092	79.64
552.518	79.59
552.943	79.58
553.369	79.57
553.795	79.48
554.221	79.28
554.646	78.95
555.072	78.59
555.498	78.2
555.923	77.86
556.349	77.58
556.774	77.4
557.199	77.23
557.625	77.03
558.05	76.79
558.475	76.61
558.9	76.5
559.325	76.46
559.75	76.39
560.175	76.31
560.6	76.13
561.025	75.83
561.449	75.4
561.874	74.98
562.299	74.59
562.723	74.29
563.148	73.99
563.572	73.63
563.997	73.22
564.421	72.78
564.846	72.32
565.27	71.91
565.694	71.5
566.118	71.1
566.542	70.69
566.966	70.26
567.39	69.81
567.814	69.4
568.238	69.06
568.662	68.82
569.086	68.62
569.509	68.45
569.933	68.27
570.357	68.1
570.78	67.94
571.204	67.79
571.627	67.66
572.05	67.55
572.474	67.39
572.897	67.19
573.32	66.94
573.743	66.67
574.166	66.36
574.589	66.08
575.012	65.9
575.435	65.75
575.858	65.7
576.281	65.63
576.704	65.55
577.126	65.53
577.549	65.52
577.972	65.56
578.394	65.64
578.817	65.76
579.239	65.87
579.661	65.94
580.084	66.05
580.506	66.04
580.928	66.02
581.35	65.94
581.772	65.8
582.194	65.67
582.616	65.51
583.038	65.38
583.46	65.24
583.882	65
584.303	64.64
584.725	64.1
585.147	63.52
585.568	63.01
585.99	62.67
586.411	62.4
586.833	62.16
587.254	61.92
587.675	61.68
588.096	61.48
588.518	61.34
588.939	61.35
589.36	61.51
589.781	61.73
590.202	61.92
590.623	61.94
591.043	61.92
591.464	61.84
591.885	61.76
592.305	61.69
592.726	61.56
593.147	61.47
593.567	61.27
593.987	61.1
594.408	60.93
594.828	60.77
595.248	60.64
595.669	60.47
596.089	60.25
596.509	60
596.929	59.7
597.349	59.39
597.769	59.08
598.189	58.85
598.608	58.62
599.028	58.42
599.448	58.26
599.867	58.12
600.287	57.97
600.706	57.84
601.126	57.7
601.545	57.59
601.965	57.49
602.384	57.4
602.803	57.28
603.222	57.16
603.641	56.98
604.061	56.75
604.48	56.48
604.898	56.2
605.317	55.92
605.736	55.66
606.155	55.37
606.574	55.09
606.992	54.8
607.411	54.52
607.829	54.2
608.248	53.92
608.666	53.64
609.085	53.35
609.503	53.06
609.921	52.79
610.339	52.53
610.758	52.32
611.176	52.07
611.594	51.77
612.012	51.47
612.43	51.17
612.847	50.87
613.265	50.64
613.683	50.46
614.101	50.31
614.518	50.18
614.936	50.04
615.353	49.91
615.771	49.82
616.188	49.79
616.606	49.78
617.023	49.76
617.44	49.71
617.857	49.59
618.274	49.44
618.691	49.27
619.108	49.07
619.525	48.87
619.942	48.64
620.359	48.38
620.776	48.09
621.192	47.79
621.609	47.52
622.026	47.29
622.442	47.11
622.859	46.91
623.275	46.72
623.691	46.51
624.108	46.31
624.524	46.12
624.94	45.94
625.356	45.75
625.772	45.61
626.188	45.47
626.604	45.29
627.02	45.12
627.436	44.96
627.852	44.84
628.268	44.77
628.683	44.72
629.099	44.69
629.514	44.64
629.93	44.61
630.345	44.6
630.761	44.6
631.176	44.6
631.591	44.57
632.007	44.56
632.422	44.55
632.837	44.54
633.252	44.52
633.667	44.49
634.082	44.5
634.497	44.5
634.911	44.44
635.326	44.35
635.741	44.27
636.155	44.19
636.57	44.09
636.984	43.93
637.399	43.78
637.813	43.62
638.228	43.45
638.642	43.28
639.056	43.12
639.47	42.98
639.884	42.87
640.298	42.75
640.712	42.63
641.126	42.52
641.54	42.43
641.954	42.32
642.368	42.2
642.781	42.06
643.195	41.9
643.609	41.75
644.022	41.6
644.436	41.43
644.849	41.25
645.262	41.06
645.676	40.83
646.089	40.68
646.502	40.57
646.915	40.47
647.328	40.37
647.741	40.27
648.154	40.21
648.567	40.14
648.98	40.07
649.393	40.03
649.805	40
650.218	39.99
650.631	39.91
651.043	39.71
651.456	39.34
651.868	38.88
652.28	38.35
652.693	37.84
653.105	37.44
653.517	37.12
653.929	36.9
654.341	36.73
654.753	36.59
655.165	36.47
655.577	36.43
655.989	36.56
656.401	36.81
656.813	37.15
657.224	37.45
657.636	37.64
658.047	37.78
658.459	37.81
658.87	37.78
659.282	37.72
659.693	37.64
660.104	37.57
660.515	37.45
660.926	37.34
661.338	37.22
661.749	37.06
662.159	36.9
662.57	36.72
662.981	36.53
663.392	36.36
663.803	36.18
664.213	36.03
664.624	35.88
665.035	35.74
665.445	35.6
665.855	35.43
666.266	35.26
666.676	35.09
667.086	34.93
667.497	34.78
667.907	34.61
668.317	34.46
668.727	34.32
669.137	34.16
669.547	34.03
669.956	33.87
670.366	33.75
670.776	33.63
671.186	33.53
671.595	33.42
672.005	33.33
672.414	33.24
672.824	33.18
673.233	33.12
673.642	33.04
674.052	32.98
674.461	32.92
674.87	32.86
675.279	32.83
675.688	32.77
676.097	32.74
676.506	32.7
676.915	32.68
677.323	32.63
677.732	32.61
678.141	32.58
678.549	32.56
678.958	32.56
679.366	32.54
679.775	32.52
680.183	32.52
680.592	32.52
681	32.51
681.408	32.49
681.816	32.43
682.224	32.23
682.632	31.92
683.04	31.46
683.448	30.99
683.856	30.58
684.264	30.22
684.671	29.88
685.079	29.56
685.487	29.3
685.894	29.07
686.302	28.95
686.709	29
687.116	29.24
687.524	29.68
687.931	30.18
688.338	30.67
688.745	31.16
689.152	31.66
689.559	32.14
689.966	32.58
690.373	33.07
690.78	33.5
691.187	33.94
691.593	34.35
692	34.75
692.407	35.17
692.813	35.57
693.22	35.92
693.626	36.3
694.032	36.67
694.439	37.08
694.845	37.42
695.251	37.78
695.657	38.11
696.063	38.41
696.469	38.71
696.875	38.94
697.281	39.18
697.687	39.45
698.093	39.68
698.498	39.96
698.904	40.21
699.31	40.51
699.715	40.82
700.12	41.12
700.526	41.49
700.931	41.83
701.337	42.22
701.742	42.57
702.147	42.91
702.552	43.3
702.957	43.63
703.362	43.99
703.767	44.32
704.172	44.65
704.577	44.97
704.981	45.26
705.386	45.56
705.791	45.84
706.195	46.13
706.6	46.42
707.004	46.67
707.408	46.94
707.813	47.17
708.217	47.39
708.621	47.59
709.025	47.81
709.43	48.03
709.834	48.24
710.237	48.43
710.641	48.63
711.045	48.79
711.449	48.98
711.853	49.15
712.256	49.29
712.66	49.33
713.064	49.32
713.467	49.25
713.87	49.12
714.274	48.94
714.677	48.7
715.08	48.45
715.484	48.23
715.887	47.99
716.29	47.8
716.693	47.71
717.096	47.82
717.499	48.03
717.901	48.32
718.304	48.67
718.707	49.06
719.109	49.49
719.512	49.87
719.915	50.23
720.317	50.56
720.719	50.84
721.122	51.08
721.524	51.21
721.926	51.3
722.328	51.35
722.731	51.38
723.133	51.41
723.535	51.48
723.937	51.59
724.338	51.67
724.74	51.75
725.142	51.81
725.544	51.87
725.945	52
726.347	52.1
726.748	52.21
727.15	52.29
727.551	52.45
727.952	52.59
728.354	52.81
728.755	53.05
729.156	53.31
729.557	53.64
729.958	53.95
730.359	54.19
730.76	54.4
731.161	54.61
731.562	54.82
731.962	54.96
732.363	55.07
732.763	55.17
733.164	55.24
733.564	55.33
733.965	55.33
734.365	55.32
734.766	55.27
735.166	55.2
735.566	55.14
735.966	55.09
736.366	55.02
736.766	55
737.166	54.94
737.566	54.88
737.966	54.78
738.365	54.76
738.765	54.75
739.165	54.78
739.564	54.84
739.964	54.9
740.363	54.94
740.763	54.98
741.162	54.99
741.561	55.06
741.96	55.13
742.36	55.18
742.759	55.22
743.158	55.19
743.557	55.18
743.955	55.2
744.354	55.19
744.753	55.18
745.152	55.13
745.55	55.13
745.949	55.06
746.348	55
746.746	54.95
747.144	54.9
747.543	54.9
747.941	54.89
748.339	54.85
748.737	54.81
749.136	54.82
749.534	54.84
749.932	54.82
750.33	54.81
750.727	54.79
751.125	54.82
751.523	54.82
751.921	54.81
752.318	54.77
752.716	54.71
753.113	54.67
753.511	54.61
753.908	54.56
754.305	54.43
754.703	54.16
755.1	53.58
755.497	52.54
755.894	51.01
756.291	49.12
756.688	47.12
757.085	45.18
757.482	43.38
757.878	41.73
758.275	40.09
758.672	38.47
759.068	36.98
759.465	35.82
759.861	35.21
760.258	35.18
760.654	35.67
761.05	36.44
761.447	37.28
761.843	38.09
762.239	38.89
762.635	39.83
763.031	40.98
763.427	42.23
763.822	43.57
764.218	44.88
764.614	46.18
765.01	47.36
765.405	48.41
765.801	49.39
766.196	50.3
766.592	51.07
766.987	51.72
767.382	52.2
767.778	52.6
768.173	52.9
768.568	53.14
768.963	53.28
769.358	53.41
769.753	53.6
770.148	53.7
770.542	53.69
770.937	53.71
771.332	53.73
771.726	53.72
772.121	53.74
772.515	53.75
772.91	53.74
773.304	53.71
773.699	53.68
