Data from N_1_hir_il_4n_021_Splice17_13.txt Node
Date: Sat Feb 29 13:42:09 EST 2020
User: sa697716
Spectrometer: FLMS03696
Trigger mode: 0
Integration Time (sec): 3.180400E-1
Scans to average: 20
Electric dark correction enabled: true
Nonlinearity correction enabled: true
Boxcar width: 5
XAxis mode: Wavelengths
Number of Pixels in Spectrum: 2048
>>>>>Begin Spectral Data<<<<<
187.83	138.73
188.298	148.17
188.766	132.27
189.233	122.24
189.701	124.45
190.169	116.66
190.636	105.27
191.104	91.74
191.571	191.73
192.039	156.14
192.506	-58.26
192.974	5544.47
193.441	-547.98
193.908	101.3
194.375	57.09
194.842	131.34
195.31	46.29
195.777	38.99
196.244	16.08
196.711	17.5
197.177	13.46
197.644	14.43
198.111	14.11
198.578	13.85
199.045	13.84
199.511	14.43
199.978	14.4
200.445	14.52
200.911	14.64
201.378	14.97
201.844	15.36
202.31	16.32
202.777	16.58
203.243	17.01
203.709	17.6
204.176	18.25
204.642	18.84
205.108	19.21
205.574	20.21
206.04	20.48
206.506	20.79
206.972	20.94
207.438	20.99
207.903	21.22
208.369	20.88
208.835	20.98
209.301	20.89
209.766	20.77
210.232	20.79
210.697	20.59
211.163	20.46
211.628	20.54
212.094	20.59
212.559	20.57
213.024	20.18
213.49	20.13
213.955	20.07
214.42	19.97
214.885	19.65
215.35	19.62
215.815	19.42
216.28	19.46
216.745	19.29
217.21	19.28
217.675	19.36
218.14	19.26
218.604	19.24
219.069	19.24
219.534	19.12
219.998	19
220.463	18.91
220.927	18.75
221.392	18.54
221.856	18.4
222.32	18.22
222.785	18.06
223.249	17.92
223.713	17.79
224.177	17.59
224.642	17.45
225.106	17.29
225.57	17.08
226.034	16.94
226.497	16.75
226.961	16.56
227.425	16.37
227.889	16.17
228.353	16
228.816	15.82
229.28	15.63
229.744	15.49
230.207	15.33
230.671	15.2
231.134	15.03
231.597	14.89
232.061	14.75
232.524	14.61
232.987	14.45
233.45	14.3
233.914	14.17
234.377	14.03
234.84	13.87
235.303	13.75
235.766	13.59
236.229	13.47
236.691	13.35
237.154	13.21
237.617	13.1
238.08	12.99
238.542	12.88
239.005	12.75
239.468	12.63
239.93	12.52
240.393	12.4
240.855	12.3
241.317	12.19
241.78	12.11
242.242	12.01
242.704	11.93
243.166	11.85
243.629	11.75
244.091	11.67
244.553	11.6
245.015	11.53
245.477	11.45
245.939	11.39
246.4	11.31
246.862	11.23
247.324	11.17
247.786	11.1
248.247	11.03
248.709	10.96
249.17	10.92
249.632	10.84
250.093	10.77
250.555	10.73
251.016	10.67
251.477	10.63
251.939	10.59
252.4	10.55
252.861	10.51
253.322	10.47
253.783	10.44
254.244	10.39
254.705	10.35
255.166	10.33
255.627	10.3
256.088	10.27
256.549	10.24
257.009	10.2
257.47	10.17
257.931	10.13
258.391	10.1
258.852	10.07
259.312	10.06
259.773	10.03
260.233	9.99
260.694	9.96
261.154	9.93
261.614	9.9
262.074	9.88
262.534	9.84
262.994	9.82
263.455	9.8
263.915	9.78
264.374	9.76
264.834	9.74
265.294	9.74
265.754	9.71
266.214	9.7
266.673	9.68
267.133	9.67
267.593	9.65
268.052	9.63
268.512	9.62
268.971	9.59
269.431	9.57
269.89	9.55
270.349	9.52
270.809	9.51
271.268	9.49
271.727	9.47
272.186	9.45
272.645	9.43
273.104	9.41
273.563	9.4
274.022	9.38
274.481	9.36
274.94	9.34
275.399	9.32
275.857	9.29
276.316	9.26
276.775	9.23
277.233	9.2
277.692	9.18
278.15	9.14
278.609	9.11
279.067	9.07
279.525	9.03
279.984	8.99
280.442	8.96
280.9	8.93
281.358	8.89
281.816	8.87
282.274	8.84
282.732	8.81
283.19	8.78
283.648	8.74
284.106	8.72
284.564	8.7
285.021	8.66
285.479	8.63
285.937	8.6
286.394	8.57
286.852	8.55
287.309	8.52
287.767	8.51
288.224	8.49
288.682	8.47
289.139	8.45
289.596	8.43
290.053	8.41
290.511	8.39
290.968	8.38
291.425	8.35
291.882	8.32
292.339	8.3
292.796	8.27
293.252	8.24
293.709	8.22
294.166	8.19
294.623	8.17
295.079	8.14
295.536	8.12
295.992	8.1
296.449	8.08
296.905	8.05
297.362	8.03
297.818	8.02
298.274	8
298.731	7.99
299.187	7.97
299.643	7.95
300.099	7.94
300.555	7.92
301.011	7.9
301.467	7.88
301.923	7.88
302.379	7.87
302.835	7.85
303.291	7.83
303.746	7.81
304.202	7.79
304.658	7.78
305.113	7.76
305.569	7.75
306.024	7.73
306.479	7.71
306.935	7.68
307.39	7.66
307.845	7.64
308.301	7.63
308.756	7.62
309.211	7.6
309.666	7.6
310.121	7.59
310.576	7.58
311.031	7.57
311.486	7.56
311.94	7.55
312.395	7.55
312.85	7.54
313.305	7.52
313.759	7.51
314.214	7.5
314.668	7.48
315.123	7.47
315.577	7.46
316.032	7.44
316.486	7.44
316.94	7.43
317.394	7.42
317.849	7.41
318.303	7.4
318.757	7.39
319.211	7.37
319.665	7.37
320.119	7.36
320.572	7.35
321.026	7.34
321.48	7.32
321.934	7.31
322.387	7.3
322.841	7.28
323.295	7.27
323.748	7.25
324.202	7.23
324.655	7.21
325.108	7.18
325.562	7.17
326.015	7.16
326.468	7.15
326.921	7.13
327.374	7.12
327.827	7.11
328.28	7.1
328.733	7.09
329.186	7.08
329.639	7.08
330.092	7.07
330.545	7.06
330.997	7.05
331.45	7.04
331.903	7.02
332.355	7.02
332.808	7
333.26	7
333.713	7
334.165	6.99
334.617	6.98
335.069	6.96
335.522	6.96
335.974	6.95
336.426	6.94
336.878	6.94
337.33	6.92
337.782	6.93
338.234	6.92
338.686	6.91
339.137	6.91
339.589	6.89
340.041	6.9
340.493	6.89
340.944	6.89
341.396	6.87
341.847	6.88
342.299	6.86
342.75	6.84
343.201	6.83
343.653	6.8
344.104	6.79
344.555	6.78
345.006	6.77
345.457	6.74
345.908	6.73
346.359	6.73
346.81	6.72
347.261	6.72
347.712	6.71
348.163	6.71
348.613	6.71
349.064	6.68
349.515	6.67
349.965	6.66
350.416	6.65
350.866	6.63
351.317	6.61
351.767	6.6
352.217	6.59
352.668	6.58
353.118	6.56
353.568	6.55
354.018	6.56
354.468	6.55
354.918	6.55
355.368	6.55
355.818	6.54
356.268	6.54
356.718	6.53
357.168	6.52
357.617	6.51
358.067	6.52
358.517	6.51
358.966	6.51
359.416	6.51
359.865	6.5
360.315	6.5
360.764	6.5
361.213	6.5
361.663	6.5
362.112	6.51
362.561	6.51
363.01	6.52
363.459	6.51
363.908	6.51
364.357	6.52
364.806	6.51
365.255	6.51
365.703	6.52
366.152	6.52
366.601	6.53
367.05	6.52
367.498	6.52
367.947	6.52
368.395	6.53
368.844	6.53
369.292	6.53
369.74	6.53
370.189	6.54
370.637	6.53
371.085	6.55
371.533	6.55
371.981	6.55
372.429	6.55
372.877	6.55
373.325	6.56
373.773	6.55
374.221	6.57
374.669	6.59
375.116	6.59
375.564	6.61
376.012	6.62
376.459	6.63
376.907	6.66
377.354	6.68
377.801	6.7
378.249	6.73
378.696	6.77
379.143	6.78
379.591	6.79
380.038	6.82
380.485	6.83
380.932	6.84
381.379	6.85
381.826	6.85
382.273	6.87
382.72	6.88
383.166	6.89
383.613	6.89
384.06	6.9
384.506	6.92
384.953	6.93
385.4	6.95
385.846	6.96
386.292	6.99
386.739	7.01
387.185	7.04
387.631	7.06
388.078	7.08
388.524	7.09
388.97	7.1
389.416	7.11
389.862	7.13
390.308	7.14
390.754	7.16
391.2	7.17
391.645	7.19
392.091	7.18
392.537	7.19
392.983	7.2
393.428	7.23
393.874	7.25
394.319	7.26
394.765	7.26
395.21	7.27
395.655	7.27
396.101	7.28
396.546	7.29
396.991	7.29
397.436	7.29
397.881	7.29
398.326	7.29
398.771	7.31
399.216	7.33
399.661	7.35
400.106	7.38
400.551	7.4
400.995	7.39
401.44	7.39
401.885	7.42
402.329	7.44
402.774	7.43
403.218	7.44
403.663	7.43
404.107	7.45
404.551	7.45
404.995	7.43
405.44	7.42
405.884	7.42
406.328	7.42
406.772	7.42
407.216	7.42
407.66	7.43
408.104	7.43
408.547	7.43
408.991	7.42
409.435	7.41
409.879	7.41
410.322	7.42
410.766	7.42
411.209	7.41
411.653	7.39
412.096	7.38
412.54	7.35
412.983	7.34
413.426	7.35
413.869	7.35
414.312	7.35
414.756	7.36
415.199	7.37
415.642	7.39
416.085	7.41
416.527	7.42
416.97	7.43
417.413	7.43
417.856	7.42
418.298	7.4
418.741	7.41
419.184	7.4
419.626	7.39
420.069	7.38
420.511	7.36
420.953	7.34
421.396	7.35
421.838	7.36
422.28	7.36
422.722	7.37
423.164	7.38
423.606	7.37
424.048	7.35
424.49	7.35
424.932	7.34
425.374	7.33
425.816	7.31
426.258	7.29
426.699	7.26
427.141	7.23
427.582	7.2
428.024	7.18
428.465	7.15
428.907	7.15
429.348	7.13
429.789	7.12
430.231	7.11
430.672	7.11
431.113	7.09
431.554	7.06
431.995	7.06
432.436	7.06
432.877	7.03
433.318	7.02
433.759	6.99
434.2	6.97
434.64	6.96
435.081	6.94
435.522	6.92
435.962	6.93
436.403	6.96
436.843	6.95
437.284	6.95
437.724	6.98
438.164	6.98
438.604	6.99
439.045	6.98
439.485	6.98
439.925	6.96
440.365	6.96
440.805	6.95
441.245	6.92
441.685	6.92
442.125	6.89
442.564	6.85
443.004	6.84
443.444	6.83
443.883	6.83
444.323	6.8
444.762	6.83
445.202	6.85
445.641	6.84
446.081	6.84
446.52	6.83
446.959	6.84
447.398	6.86
447.837	6.89
448.276	6.88
448.716	6.9
449.154	6.92
449.593	6.89
450.032	6.88
450.471	6.9
450.91	6.89
451.349	6.91
451.787	6.9
452.226	6.87
452.664	6.86
453.103	6.86
453.541	6.85
453.98	6.82
454.418	6.81
454.856	6.78
455.295	6.75
455.733	6.75
456.171	6.73
456.609	6.73
457.047	6.72
457.485	6.71
457.923	6.7
458.361	6.68
458.798	6.69
459.236	6.71
459.674	6.71
460.111	6.73
460.549	6.71
460.987	6.71
461.424	6.71
461.862	6.71
462.299	6.71
462.736	6.71
463.173	6.7
463.611	6.7
464.048	6.67
464.485	6.67
464.922	6.65
465.359	6.66
465.796	6.64
466.233	6.63
466.67	6.65
467.106	6.63
467.543	6.62
467.98	6.63
468.416	6.62
468.853	6.61
469.29	6.61
469.726	6.62
470.162	6.62
470.599	6.63
471.035	6.62
471.471	6.59
471.907	6.61
472.344	6.62
472.78	6.61
473.216	6.6
473.652	6.59
474.088	6.61
474.523	6.59
474.959	6.59
475.395	6.59
475.831	6.6
476.266	6.61
476.702	6.6
477.138	6.58
477.573	6.57
478.008	6.58
478.444	6.57
478.879	6.57
479.314	6.56
479.75	6.56
480.185	6.55
480.62	6.54
481.055	6.54
481.49	6.53
481.925	6.54
482.36	6.54
482.795	6.53
483.229	6.53
483.664	6.51
484.099	6.52
484.534	6.51
484.968	6.51
485.403	6.5
485.837	6.5
486.271	6.51
486.706	6.51
487.14	6.51
487.574	6.52
488.009	6.53
488.443	6.53
488.877	6.55
489.311	6.56
489.745	6.55
490.179	6.57
490.613	6.59
491.046	6.6
491.48	6.62
491.914	6.63
492.348	6.64
492.781	6.66
493.215	6.68
493.648	6.68
494.082	6.72
494.515	6.74
494.948	6.76
495.382	6.78
495.815	6.79
496.248	6.81
496.681	6.82
497.114	6.85
497.547	6.87
497.98	6.89
498.413	6.92
498.846	6.95
499.279	6.98
499.711	7
500.144	7.03
500.577	7.07
501.009	7.11
501.442	7.16
501.874	7.21
502.306	7.26
502.739	7.31
503.171	7.36
503.603	7.42
504.036	7.47
504.468	7.54
504.9	7.61
505.332	7.67
505.764	7.74
506.196	7.81
506.627	7.89
507.059	7.97
507.491	8.07
507.923	8.15
508.354	8.25
508.786	8.35
509.217	8.43
509.649	8.54
510.08	8.66
510.512	8.77
510.943	8.89
511.374	9
511.805	9.1
512.237	9.21
512.668	9.33
513.099	9.45
513.53	9.59
513.961	9.73
514.391	9.84
514.822	9.95
515.253	10.1
515.684	10.23
516.114	10.38
516.545	10.54
516.975	10.69
517.406	10.85
517.836	10.99
518.267	11.13
518.697	11.28
519.127	11.44
519.558	11.62
519.988	11.78
520.418	11.93
520.848	12.09
521.278	12.25
521.708	12.27
522.138	12.41
522.567	12.57
522.997	12.72
523.427	12.86
523.857	13
524.286	13.12
524.716	13.25
525.145	13.4
525.575	13.52
526.004	13.64
526.433	13.88
526.863	14.01
527.292	14.13
527.721	14.24
528.15	14.34
528.579	14.45
529.008	14.56
529.437	14.65
529.866	14.73
530.295	14.8
530.724	14.89
531.152	14.99
531.581	15.06
532.01	15.11
532.438	15.18
532.867	15.25
533.295	15.31
533.723	15.37
534.152	15.44
534.58	15.48
535.008	15.52
535.436	15.57
535.865	15.6
536.293	15.65
536.721	15.69
537.149	15.71
537.576	15.74
538.004	15.78
538.432	15.79
538.86	15.81
539.287	15.84
539.715	15.9
540.143	15.88
540.57	15.9
540.998	15.92
541.425	15.94
541.852	15.97
542.28	15.99
542.707	16.01
543.134	16.02
543.561	16.02
543.988	16.03
544.415	16.02
544.842	16.04
545.269	16.06
545.696	16.07
546.123	16.07
546.549	16.08
546.976	16.09
547.403	16.1
547.829	16.12
548.256	16.12
548.682	16.14
549.108	16.16
549.535	16.16
549.961	16.15
550.387	16.15
550.813	16.14
551.24	16.14
551.666	16.15
552.092	16.15
552.518	16.15
552.943	16.14
553.369	16.12
553.795	16.1
554.221	16.09
554.646	16.08
555.072	16.05
555.498	16.05
555.923	16.01
556.349	15.95
556.774	15.89
557.199	15.85
557.625	15.79
558.05	15.74
558.475	15.68
558.9	15.63
559.325	15.56
559.75	15.49
560.175	15.41
560.6	15.34
561.025	15.28
561.449	15.21
561.874	15.13
562.299	15.06
562.723	14.98
563.148	14.9
563.572	14.82
563.997	14.74
564.421	14.66
564.846	14.59
565.27	14.5
565.694	14.41
566.118	14.32
566.542	14.24
566.966	14.16
567.39	14.06
567.814	13.97
568.238	13.86
568.662	13.75
569.086	13.65
569.509	13.54
569.933	13.43
570.357	13.32
570.78	13.22
571.204	13.11
571.627	13
572.05	12.9
572.474	12.83
572.897	12.74
573.32	12.66
573.743	12.57
574.166	12.5
574.589	12.43
575.012	12.36
575.435	12.28
575.858	12.22
576.281	12.16
576.704	12.1
577.126	12.04
577.549	11.98
577.972	11.91
578.394	11.84
578.817	11.76
579.239	11.71
579.661	11.66
580.084	11.62
580.506	11.56
580.928	11.5
581.35	11.45
581.772	11.4
582.194	11.36
582.616	11.33
583.038	11.3
583.46	11.28
583.882	11.25
584.303	11.21
584.725	11.16
585.147	11.1
585.568	11.07
585.99	11.02
586.411	10.98
586.833	10.93
587.254	10.91
587.675	10.87
588.096	10.82
588.518	10.77
588.939	10.75
589.36	10.72
589.781	10.72
590.202	10.7
590.623	10.67
591.043	10.64
591.464	10.61
591.885	10.57
592.305	10.57
592.726	10.55
593.147	10.55
593.567	10.53
593.987	10.52
594.408	10.48
594.828	10.47
595.248	10.45
595.669	10.45
596.089	10.44
596.509	10.41
596.929	10.39
597.349	10.36
597.769	10.34
598.189	10.33
598.608	10.3
599.028	10.27
599.448	10.25
599.867	10.24
600.287	10.2
600.706	10.18
601.126	10.16
601.545	10.12
601.965	10.1
602.384	10.07
602.803	10.02
603.222	9.98
603.641	9.96
604.061	9.93
604.48	9.89
604.898	9.86
605.317	9.83
605.736	9.79
606.155	9.77
606.574	9.73
606.992	9.69
607.411	9.66
607.829	9.6
608.248	9.56
608.666	9.52
609.085	9.48
609.503	9.45
609.921	9.4
610.339	9.37
610.758	9.32
611.176	9.28
611.594	9.24
612.012	9.19
612.43	9.19
612.847	9.14
613.265	9.11
613.683	9.06
614.101	9.01
614.518	8.97
614.936	8.93
615.353	8.9
615.771	8.87
616.188	8.84
616.606	8.81
617.023	8.77
617.44	8.76
617.857	8.73
618.274	8.71
618.691	8.69
619.108	8.66
619.525	8.63
619.942	8.6
620.359	8.6
620.776	8.58
621.192	8.57
621.609	8.56
622.026	8.54
622.442	8.53
622.859	8.51
623.275	8.52
623.691	8.52
624.108	8.51
624.524	8.5
624.94	8.48
625.356	8.48
625.772	8.47
626.188	8.48
626.604	8.47
627.02	8.46
627.436	8.44
627.852	8.43
628.268	8.42
628.683	8.41
629.099	8.42
629.514	8.41
629.93	8.4
630.345	8.38
630.761	8.36
631.176	8.33
631.591	8.3
632.007	8.29
632.422	8.26
632.837	8.23
633.252	8.22
633.667	8.18
634.082	8.16
634.497	8.12
634.911	8.09
635.326	8.05
635.741	8.01
636.155	7.99
636.57	7.95
636.984	7.89
637.399	7.84
637.813	7.78
638.228	7.74
638.642	7.69
639.056	7.65
639.47	7.59
639.884	7.53
640.298	7.49
640.712	7.45
641.126	7.41
641.54	7.35
641.954	7.34
642.368	7.29
642.781	7.25
643.195	7.21
643.609	7.17
644.022	7.14
644.436	7.11
644.849	7.07
645.262	7.04
645.676	7
646.089	6.97
646.502	6.93
646.915	6.9
647.328	6.87
647.741	6.84
648.154	6.83
648.567	6.81
648.98	6.81
649.393	6.79
649.805	6.76
650.218	6.75
650.631	6.75
651.043	6.74
651.456	6.74
651.868	6.72
652.28	6.72
652.693	6.7
653.105	6.67
653.517	6.65
653.929	6.64
654.341	6.63
654.753	6.6
655.165	6.58
655.577	6.55
655.989	6.52
656.401	6.48
656.813	6.45
657.224	6.41
657.636	6.4
658.047	6.37
658.459	6.34
658.87	6.31
659.282	6.3
659.693	6.25
660.104	6.23
660.515	6.21
660.926	6.21
661.338	6.19
661.749	6.15
662.159	6.14
662.57	6.13
662.981	6.1
663.392	6.08
663.803	6.05
664.213	6.04
664.624	6.04
665.035	6.02
665.445	6
665.855	5.98
666.266	5.99
666.676	5.97
667.086	5.95
667.497	5.95
667.907	5.94
668.317	5.93
668.727	5.93
669.137	5.93
669.547	5.96
669.956	5.95
670.366	5.95
670.776	5.95
671.186	5.95
671.595	5.96
672.005	5.98
672.414	5.99
672.824	6.02
673.233	6.04
673.642	6.03
674.052	6.02
674.461	6.05
674.87	6.08
675.279	6.1
675.688	6.11
676.097	6.13
676.506	6.14
676.915	6.16
677.323	6.18
677.732	6.19
678.141	6.21
678.549	6.23
678.958	6.25
679.366	6.25
679.775	6.28
680.183	6.31
680.592	6.34
681	6.37
681.408	6.4
681.816	6.42
682.224	6.45
682.632	6.5
683.04	6.55
683.448	6.6
683.856	6.66
684.264	6.72
684.671	6.77
685.079	6.83
685.487	6.91
685.894	6.99
686.302	7.09
686.709	7.19
687.116	7.29
687.524	7.41
687.931	7.52
688.338	7.67
688.745	7.81
689.152	7.98
689.559	8.15
689.966	8.34
690.373	8.53
690.78	8.73
691.187	8.94
691.593	9.16
692	9.4
692.407	9.67
692.813	9.94
693.22	10.21
693.626	10.5
694.032	10.8
694.439	11.13
694.845	11.44
695.251	11.78
695.657	12.12
696.063	12.47
696.469	12.81
696.875	13.14
697.281	13.46
697.687	13.84
698.093	14.2
698.498	14.56
698.904	14.91
699.31	15.27
699.715	15.63
700.12	15.98
700.526	16.34
700.931	16.71
701.337	17.07
701.742	17.43
702.147	17.77
702.552	18.13
702.957	18.48
703.362	18.84
703.767	19.2
704.172	19.55
704.577	19.9
704.981	20.26
705.386	20.6
705.791	20.95
706.195	21.3
706.6	21.64
707.004	21.97
707.408	22.28
707.813	22.57
708.217	22.88
708.621	23.19
709.025	23.52
709.43	23.82
709.834	24.13
710.237	24.43
710.641	24.71
711.045	24.98
711.449	25.28
711.853	25.6
712.256	25.91
712.66	26.23
713.064	26.49
713.467	26.77
713.87	27.05
714.274	27.33
714.677	27.61
715.08	27.9
715.484	28.2
715.887	28.48
716.29	28.72
716.693	28.97
717.096	29.2
717.499	29.46
717.901	29.7
718.304	29.95
718.707	30.21
719.109	30.45
719.512	30.69
719.915	30.9
720.317	31.11
720.719	31.35
721.122	31.56
721.524	31.79
721.926	32
722.328	32.23
722.731	32.42
723.133	32.6
723.535	32.8
723.937	32.97
724.338	33.17
724.74	33.35
725.142	33.48
725.544	33.63
725.945	33.8
726.347	33.97
726.748	34.09
727.15	34.22
727.551	34.37
727.952	34.5
728.354	34.64
728.755	34.75
729.156	34.88
729.557	35.05
729.958	35.19
730.359	35.29
730.76	35.39
731.161	35.51
731.562	35.66
731.962	35.77
732.363	35.87
732.763	35.96
733.164	36.05
733.564	36.13
733.965	36.21
734.365	36.3
734.766	36.37
735.166	36.42
735.566	36.49
735.966	36.52
736.366	36.57
736.766	36.63
737.166	36.71
737.566	36.77
737.966	36.84
738.365	36.89
738.765	36.96
739.165	36.99
739.564	37.06
739.964	37.11
740.363	37.2
740.763	37.25
741.162	37.26
741.561	37.27
741.96	37.33
742.36	37.37
742.759	37.38
743.158	37.39
743.557	37.45
743.955	37.52
744.354	37.58
744.753	37.61
745.152	37.63
745.55	37.66
745.949	37.71
746.348	37.73
746.746	37.77
747.144	37.82
747.543	37.85
747.941	37.87
748.339	37.9
748.737	37.93
749.136	37.93
749.534	37.96
749.932	38
750.33	38
750.727	38.01
751.125	38.01
751.523	38.01
751.921	38.04
752.318	38.04
752.716	38.02
753.113	38
753.511	38.01
753.908	38.01
754.305	38.01
754.703	38.03
755.1	38.04
755.497	38.04
755.894	38.03
756.291	38.02
756.688	38.02
757.085	38.02
757.482	38.01
757.878	38.02
758.275	38.01
758.672	38.03
759.068	38.03
759.465	38.02
759.861	38.01
760.258	38.01
760.654	38
761.05	38.02
761.447	38.01
761.843	38.01
762.239	38
762.635	37.98
763.031	37.97
763.427	37.93
763.822	37.92
764.218	37.93
764.614	37.93
765.01	37.96
765.405	37.94
765.801	37.96
766.196	37.95
766.592	37.97
766.987	38
767.382	37.99
767.778	38.07
768.173	38.07
768.568	38.04
768.963	38.03
769.358	38.02
769.753	38.05
770.148	38.03
770.542	38.03
770.937	38.02
771.332	38.01
771.726	37.99
772.121	37.94
772.515	37.93
772.91	37.94
773.304	37.95
773.699	37.96
774.093	37.91
774.487	37.93
774.881	37.94
775.275	37.95
775.669	37.94
776.063	37.92
776.457	37.93
776.851	37.91
777.245	37.9
777.638	37.88
778.032	37.83
778.425	37.84
778.819	37.84
779.212	37.8
779.606	37.78
779.999	37.78
780.392	37.81
780.786	37.8
781.179	37.82
781.572	37.83
781.965	37.84
782.358	37.85
782.751	37.86
783.143	37.85
783.536	37.87
783.929	37.87
