Data from N_1_dec_va_2n_009_Splice17_20.txt Node
Date: Sat Feb 29 13:36:51 EST 2020
User: sa697716
Spectrometer: FLMS03696
Trigger mode: 0
Integration Time (sec): 3.180400E-1
Scans to average: 20
Electric dark correction enabled: true
Nonlinearity correction enabled: true
Boxcar width: 5
XAxis mode: Wavelengths
Number of Pixels in Spectrum: 2048
>>>>>Begin Spectral Data<<<<<
187.83	122.22
188.298	137.15
188.766	124.89
189.233	143.15
189.701	144.69
190.169	149.75
190.636	149.84
191.104	170.16
191.571	502.14
192.039	457.41
192.506	-816.7
192.974	-6602.11
193.441	442.77
193.908	27.97
194.375	169.11
194.842	275.1
195.31	178.72
195.777	163.3
196.244	45.54
196.711	24.61
197.177	24.32
197.644	22.32
198.111	20.73
198.578	20.59
199.045	21.11
199.511	21.26
199.978	21.54
200.445	21.43
200.911	21.91
201.378	22.25
201.844	23.32
202.31	23.43
202.777	23.74
203.243	24.33
203.709	24.71
204.176	24.4
204.642	24.86
205.108	24.46
205.574	25.18
206.04	24.9
206.506	24.83
206.972	24.32
207.438	24.23
207.903	24.53
208.369	24.27
208.835	24.36
209.301	24.26
209.766	23.95
210.232	23.87
210.697	23.43
211.163	23.53
211.628	23.36
212.094	23.33
212.559	23.16
213.024	22.93
213.49	22.32
213.955	21.95
214.42	21.56
214.885	21.08
215.35	20.84
215.815	20.23
216.28	19.58
216.745	18.97
217.21	18.37
217.675	17.71
218.14	16.96
218.604	16.56
219.069	16.15
219.534	15.77
219.998	15.44
220.463	15.13
220.927	14.85
221.392	14.55
221.856	14.31
222.32	14.06
222.785	13.87
223.249	13.73
223.713	13.55
224.177	13.34
224.642	13.2
225.106	13.03
225.57	12.86
226.034	12.73
226.497	12.58
226.961	12.42
227.425	12.26
227.889	12.13
228.353	11.97
228.816	11.84
229.28	11.66
229.744	11.52
230.207	11.39
230.671	11.25
231.134	11.13
231.597	10.99
232.061	10.89
232.524	10.78
232.987	10.66
233.45	10.56
233.914	10.46
234.377	10.38
234.84	10.26
235.303	10.16
235.766	10.06
236.229	9.95
236.691	9.86
237.154	9.76
237.617	9.67
238.08	9.57
238.542	9.48
239.005	9.38
239.468	9.28
239.93	9.21
240.393	9.13
240.855	9.04
241.317	8.97
241.78	8.91
242.242	8.83
242.704	8.75
243.166	8.67
243.629	8.59
244.091	8.52
244.553	8.47
245.015	8.41
245.477	8.32
245.939	8.26
246.4	8.19
246.862	8.13
247.324	8.08
247.786	8.03
248.247	7.96
248.709	7.91
249.17	7.85
249.632	7.77
250.093	7.7
250.555	7.67
251.016	7.62
251.477	7.57
251.939	7.51
252.4	7.46
252.861	7.42
253.322	7.39
253.783	7.35
254.244	7.31
254.705	7.29
255.166	7.28
255.627	7.24
256.088	7.2
256.549	7.17
257.009	7.15
257.47	7.11
257.931	7.07
258.391	7.02
258.852	6.98
259.312	6.95
259.773	6.91
260.233	6.86
260.694	6.83
261.154	6.8
261.614	6.77
262.074	6.74
262.534	6.7
262.994	6.68
263.455	6.66
263.915	6.65
264.374	6.61
264.834	6.59
265.294	6.56
265.754	6.53
266.214	6.51
266.673	6.49
267.133	6.47
267.593	6.45
268.052	6.42
268.512	6.39
268.971	6.37
269.431	6.36
269.89	6.35
270.349	6.33
270.809	6.32
271.268	6.31
271.727	6.29
272.186	6.28
272.645	6.26
273.104	6.25
273.563	6.25
274.022	6.24
274.481	6.22
274.94	6.2
275.399	6.18
275.857	6.16
276.316	6.14
276.775	6.12
277.233	6.11
277.692	6.09
278.15	6.07
278.609	6.05
279.067	6.02
279.525	6
279.984	5.99
280.442	5.98
280.9	5.98
281.358	5.97
281.816	5.96
282.274	5.94
282.732	5.94
283.19	5.93
283.648	5.93
284.106	5.91
284.564	5.92
285.021	5.91
285.479	5.9
285.937	5.89
286.394	5.87
286.852	5.86
287.309	5.86
287.767	5.84
288.224	5.83
288.682	5.81
289.139	5.81
289.596	5.78
290.053	5.75
290.511	5.73
290.968	5.71
291.425	5.7
291.882	5.67
292.339	5.65
292.796	5.63
293.252	5.61
293.709	5.59
294.166	5.58
294.623	5.56
295.079	5.56
295.536	5.55
295.992	5.53
296.449	5.53
296.905	5.52
297.362	5.5
297.818	5.49
298.274	5.48
298.731	5.48
299.187	5.46
299.643	5.45
300.099	5.44
300.555	5.43
301.011	5.43
301.467	5.41
301.923	5.4
302.379	5.4
302.835	5.4
303.291	5.39
303.746	5.38
304.202	5.38
304.658	5.37
305.113	5.36
305.569	5.36
306.024	5.35
306.479	5.35
306.935	5.34
307.39	5.33
307.845	5.32
308.301	5.32
308.756	5.32
309.211	5.31
309.666	5.31
310.121	5.31
310.576	5.3
311.031	5.29
311.486	5.29
311.94	5.29
312.395	5.29
312.85	5.29
313.305	5.3
313.759	5.3
314.214	5.29
314.668	5.29
315.123	5.29
315.577	5.29
316.032	5.29
316.486	5.28
316.94	5.27
317.394	5.25
317.849	5.24
318.303	5.23
318.757	5.21
319.211	5.2
319.665	5.19
320.119	5.17
320.572	5.18
321.026	5.17
321.48	5.16
321.934	5.16
322.387	5.16
322.841	5.14
323.295	5.14
323.748	5.13
324.202	5.12
324.655	5.12
325.108	5.1
325.562	5.09
326.015	5.07
326.468	5.05
326.921	5.04
327.374	5.03
327.827	5.03
328.28	5.03
328.733	5.02
329.186	5.02
329.639	5.02
330.092	5.01
330.545	5.02
330.997	5.03
331.45	5.03
331.903	5.02
332.355	5.02
332.808	5.01
333.26	5
333.713	5.01
334.165	5
334.617	5.01
335.069	5
335.522	5
335.974	5
336.426	5
336.878	5.01
337.33	5
337.782	5
338.234	5
338.686	5
339.137	5.01
339.589	4.99
340.041	4.98
340.493	4.97
340.944	4.95
341.396	4.94
341.847	4.93
342.299	4.91
342.75	4.9
343.201	4.88
343.653	4.85
344.104	4.84
344.555	4.83
345.006	4.81
345.457	4.8
345.908	4.79
346.359	4.78
346.81	4.78
347.261	4.78
347.712	4.77
348.163	4.77
348.613	4.77
349.064	4.75
349.515	4.75
349.965	4.74
350.416	4.75
350.866	4.75
351.317	4.74
351.767	4.75
352.217	4.75
352.668	4.76
353.118	4.75
353.568	4.75
354.018	4.77
354.468	4.77
354.918	4.78
355.368	4.77
355.818	4.76
356.268	4.76
356.718	4.75
357.168	4.74
357.617	4.74
358.067	4.73
358.517	4.72
358.966	4.72
359.416	4.72
359.865	4.71
360.315	4.71
360.764	4.72
361.213	4.71
361.663	4.7
362.112	4.71
362.561	4.71
363.01	4.72
363.459	4.72
363.908	4.71
364.357	4.71
364.806	4.72
365.255	4.71
365.703	4.7
366.152	4.7
366.601	4.71
367.05	4.71
367.498	4.72
367.947	4.71
368.395	4.72
368.844	4.72
369.292	4.72
369.74	4.73
370.189	4.73
370.637	4.74
371.085	4.74
371.533	4.74
371.981	4.74
372.429	4.72
372.877	4.72
373.325	4.71
373.773	4.71
374.221	4.71
374.669	4.72
375.116	4.72
375.564	4.73
376.012	4.73
376.459	4.74
376.907	4.76
377.354	4.77
377.801	4.78
378.249	4.79
378.696	4.8
379.143	4.81
379.591	4.83
380.038	4.85
380.485	4.87
380.932	4.87
381.379	4.88
381.826	4.88
382.273	4.9
382.72	4.92
383.166	4.92
383.613	4.93
384.06	4.95
384.506	4.96
384.953	4.96
385.4	4.97
385.846	4.98
386.292	5
386.739	5.01
387.185	5.03
387.631	5.04
388.078	5.06
388.524	5.06
388.97	5.06
389.416	5.07
389.862	5.09
390.308	5.11
390.754	5.12
391.2	5.14
391.645	5.17
392.091	5.18
392.537	5.19
392.983	5.22
393.428	5.25
393.874	5.27
394.319	5.29
394.765	5.31
395.21	5.31
395.655	5.32
396.101	5.33
396.546	5.33
396.991	5.32
397.436	5.33
397.881	5.33
398.326	5.35
398.771	5.35
399.216	5.36
399.661	5.37
400.106	5.39
400.551	5.39
400.995	5.39
401.44	5.38
401.885	5.39
402.329	5.38
402.774	5.37
403.218	5.37
403.663	5.35
404.107	5.36
404.551	5.36
404.995	5.34
405.44	5.34
405.884	5.33
406.328	5.33
406.772	5.33
407.216	5.34
407.66	5.34
408.104	5.34
408.547	5.35
408.991	5.33
409.435	5.33
409.879	5.34
410.322	5.34
410.766	5.35
411.209	5.37
411.653	5.37
412.096	5.36
412.54	5.35
412.983	5.35
413.426	5.36
413.869	5.38
414.312	5.39
414.756	5.38
415.199	5.39
415.642	5.4
416.085	5.4
416.527	5.41
416.97	5.43
417.413	5.41
417.856	5.39
418.298	5.38
418.741	5.37
419.184	5.36
419.626	5.36
420.069	5.35
420.511	5.34
420.953	5.32
421.396	5.32
421.838	5.33
422.28	5.36
422.722	5.37
423.164	5.37
423.606	5.37
424.048	5.37
424.49	5.37
424.932	5.37
425.374	5.37
425.816	5.37
426.258	5.38
426.699	5.36
427.141	5.34
427.582	5.35
428.024	5.34
428.465	5.34
428.907	5.35
429.348	5.35
429.789	5.38
430.231	5.38
430.672	5.39
431.113	5.39
431.554	5.41
431.995	5.43
432.436	5.44
432.877	5.46
433.318	5.48
433.759	5.51
434.2	5.51
434.64	5.5
435.081	5.51
435.522	5.53
435.962	5.54
436.403	5.55
436.843	5.56
437.284	5.58
437.724	5.61
438.164	5.61
438.604	5.61
439.045	5.64
439.485	5.67
439.925	5.67
440.365	5.67
440.805	5.69
441.245	5.67
441.685	5.68
442.125	5.69
442.564	5.71
443.004	5.74
443.444	5.76
443.883	5.79
444.323	5.79
444.762	5.82
445.202	5.86
445.641	5.88
446.081	5.92
446.52	5.94
446.959	5.96
447.398	5.96
447.837	5.98
448.276	5.99
448.716	5.97
449.154	5.98
449.593	5.99
450.032	5.98
450.471	5.99
450.91	6.01
451.349	6.01
451.787	6.01
452.226	6
452.664	5.99
453.103	5.99
453.541	6.01
453.98	6.03
454.418	6.05
454.856	6.04
455.295	6.04
455.733	6.03
456.171	6.03
456.609	6.05
457.047	6.06
457.485	6.06
457.923	6.07
458.361	6.06
458.798	6.05
459.236	6.04
459.674	6.06
460.111	6.08
460.549	6.06
460.987	6.08
461.424	6.06
461.862	6.07
462.299	6.09
462.736	6.08
463.173	6.08
463.611	6.09
464.048	6.09
464.485	6.08
464.922	6.06
465.359	6.06
465.796	6.06
466.233	6.06
466.67	6.06
467.106	6.04
467.543	6.04
467.98	6.04
468.416	6.02
468.853	6.01
469.29	6
469.726	6.01
470.162	6
470.599	6
471.035	6
471.471	6
471.907	5.99
472.344	5.98
472.78	5.98
473.216	5.97
473.652	5.97
474.088	5.98
474.523	5.97
474.959	5.97
475.395	5.96
475.831	5.96
476.266	5.95
476.702	5.95
477.138	5.94
477.573	5.93
478.008	5.93
478.444	5.92
478.879	5.92
479.314	5.9
479.75	5.9
480.185	5.9
480.62	5.9
481.055	5.9
481.49	5.89
481.925	5.89
482.36	5.88
482.795	5.88
483.229	5.88
483.664	5.87
484.099	5.87
484.534	5.87
484.968	5.87
485.403	5.87
485.837	5.87
486.271	5.86
486.706	5.88
487.14	5.9
487.574	5.91
488.009	5.92
488.443	5.95
488.877	5.96
489.311	5.99
489.745	6.02
490.179	6.03
490.613	6.07
491.046	6.1
491.48	6.13
491.914	6.15
492.348	6.2
492.781	6.23
493.215	6.26
493.648	6.29
494.082	6.34
494.515	6.38
494.948	6.43
495.382	6.46
495.815	6.51
496.248	6.56
496.681	6.61
497.114	6.66
497.547	6.72
497.98	6.8
498.413	6.87
498.846	6.94
499.279	7.02
499.711	7.1
500.144	7.2
500.577	7.3
501.009	7.41
501.442	7.53
501.874	7.66
502.306	7.78
502.739	7.89
503.171	8.03
503.603	8.17
504.036	8.31
504.468	8.46
504.9	8.62
505.332	8.79
505.764	8.95
506.196	9.1
506.627	9.28
507.059	9.46
507.491	9.66
507.923	9.84
508.354	10.06
508.786	10.28
509.217	10.51
509.649	10.75
510.08	10.99
510.512	11.25
510.943	11.52
511.374	11.78
511.805	12.06
512.237	12.34
512.668	12.63
513.099	12.93
513.53	13.25
513.961	13.57
514.391	13.86
514.822	14.18
515.253	14.51
515.684	14.82
516.114	15.18
516.545	15.51
516.975	15.87
517.406	16.22
517.836	16.56
518.267	16.89
518.697	17.24
519.127	17.61
519.558	17.95
519.988	18.29
520.418	18.63
520.848	18.95
521.278	19.3
521.708	19.7
522.138	20.02
522.567	20.31
522.997	20.61
523.427	20.91
523.857	21.17
524.286	21.46
524.716	21.73
525.145	22.02
525.575	22.29
526.004	22.53
526.433	22.71
526.863	22.94
527.292	23.2
527.721	23.44
528.15	23.64
528.579	23.87
529.008	24.07
529.437	24.27
529.866	24.43
530.295	24.62
530.724	24.8
531.152	24.95
531.581	25.1
532.01	25.24
532.438	25.37
532.867	25.5
533.295	25.63
533.723	25.76
534.152	25.86
534.58	25.96
535.008	26.02
535.436	26.09
535.865	26.15
536.293	26.24
536.721	26.29
537.149	26.35
537.576	26.42
538.004	26.47
538.432	26.5
538.86	26.57
539.287	26.62
539.715	26.69
540.143	26.74
540.57	26.79
540.998	26.81
541.425	26.86
541.852	26.89
542.28	26.9
542.707	26.95
543.134	26.99
543.561	26.99
543.988	27.02
544.415	27.04
544.842	27.07
545.269	27.12
545.696	27.17
546.123	27.19
546.549	27.23
546.976	27.29
547.403	27.32
547.829	27.34
548.256	27.36
548.682	27.37
549.108	27.38
549.535	27.39
549.961	27.36
550.387	27.36
550.813	27.35
551.24	27.33
551.666	27.31
552.092	27.3
552.518	27.27
552.943	27.26
553.369	27.24
553.795	27.21
554.221	27.19
554.646	27.16
555.072	27.12
555.498	27.07
555.923	27.03
556.349	26.93
556.774	26.84
557.199	26.76
557.625	26.67
558.05	26.55
558.475	26.43
558.9	26.32
559.325	26.19
559.75	26.04
560.175	25.9
560.6	25.76
561.025	25.63
561.449	25.47
561.874	25.34
562.299	25.19
562.723	25.03
563.148	24.87
563.572	24.69
563.997	24.51
564.421	24.33
564.846	24.16
565.27	23.97
565.694	23.79
566.118	23.59
566.542	23.4
566.966	23.19
567.39	22.99
567.814	22.79
568.238	22.59
568.662	22.4
569.086	22.22
569.509	22.03
569.933	21.84
570.357	21.62
570.78	21.45
571.204	21.25
571.627	21.06
572.05	20.89
572.474	20.72
572.897	20.54
573.32	20.37
573.743	20.22
574.166	20.04
574.589	19.88
575.012	19.75
575.435	19.59
575.858	19.45
576.281	19.32
576.704	19.19
577.126	19.04
577.549	18.94
577.972	18.81
578.394	18.68
578.817	18.56
579.239	18.44
579.661	18.32
580.084	18.21
580.506	18.12
580.928	18
581.35	17.9
581.772	17.83
582.194	17.71
582.616	17.61
583.038	17.51
583.46	17.43
583.882	17.36
584.303	17.27
584.725	17.18
585.147	17.08
585.568	16.97
585.99	16.88
586.411	16.8
586.833	16.73
587.254	16.66
587.675	16.6
588.096	16.51
588.518	16.44
588.939	16.37
589.36	16.29
589.781	16.24
590.202	16.19
590.623	16.13
591.043	16.06
591.464	15.99
591.885	15.92
592.305	15.86
592.726	15.8
593.147	15.76
593.567	15.69
593.987	15.67
594.408	15.61
594.828	15.57
595.248	15.55
595.669	15.53
596.089	15.5
596.509	15.45
596.929	15.4
597.349	15.37
597.769	15.32
598.189	15.29
598.608	15.23
599.028	15.2
599.448	15.15
599.867	15.09
600.287	15.03
600.706	14.97
601.126	14.93
601.545	14.88
601.965	14.82
602.384	14.77
602.803	14.71
603.222	14.66
603.641	14.59
604.061	14.52
604.48	14.47
604.898	14.39
605.317	14.31
605.736	14.24
606.155	14.19
606.574	14.11
606.992	14.04
607.411	13.98
607.829	13.85
608.248	13.78
608.666	13.7
609.085	13.62
609.503	13.53
609.921	13.46
610.339	13.4
610.758	13.31
611.176	13.24
611.594	13.15
612.012	13.06
612.43	13.02
612.847	12.96
613.265	12.89
613.683	12.81
614.101	12.74
614.518	12.67
614.936	12.6
615.353	12.54
615.771	12.46
616.188	12.41
616.606	12.34
617.023	12.27
617.44	12.2
617.857	12.13
618.274	12.06
618.691	12.01
619.108	11.95
619.525	11.9
619.942	11.86
620.359	11.82
620.776	11.78
621.192	11.76
621.609	11.73
622.026	11.7
622.442	11.68
622.859	11.66
623.275	11.65
623.691	11.62
624.108	11.59
624.524	11.57
624.94	11.55
625.356	11.53
625.772	11.52
626.188	11.51
626.604	11.48
627.02	11.47
627.436	11.46
627.852	11.44
628.268	11.43
628.683	11.4
629.099	11.38
629.514	11.35
629.93	11.32
630.345	11.28
630.761	11.25
631.176	11.21
631.591	11.18
632.007	11.12
632.422	11.08
632.837	11.01
633.252	10.97
633.667	10.88
634.082	10.82
634.497	10.73
634.911	10.64
635.326	10.54
635.741	10.44
636.155	10.33
636.57	10.24
636.984	10.1
637.399	9.99
637.813	9.85
638.228	9.73
638.642	9.61
639.056	9.48
639.47	9.37
639.884	9.24
640.298	9.13
640.712	9
641.126	8.88
641.54	8.77
641.954	8.67
642.368	8.54
642.781	8.44
643.195	8.32
643.609	8.22
644.022	8.11
644.436	8.01
644.849	7.92
645.262	7.84
645.676	7.75
646.089	7.66
646.502	7.57
646.915	7.51
647.328	7.45
647.741	7.41
648.154	7.36
648.567	7.32
648.98	7.28
649.393	7.23
649.805	7.18
650.218	7.16
650.631	7.13
651.043	7.1
651.456	7.09
651.868	7.05
652.28	7.02
652.693	6.98
653.105	6.97
653.517	6.93
653.929	6.91
654.341	6.9
654.753	6.86
655.165	6.82
655.577	6.79
655.989	6.74
656.401	6.7
656.813	6.65
657.224	6.62
657.636	6.57
658.047	6.54
658.459	6.49
658.87	6.44
659.282	6.4
659.693	6.35
660.104	6.31
660.515	6.27
660.926	6.24
661.338	6.21
661.749	6.15
662.159	6.12
662.57	6.08
662.981	6.04
663.392	6
663.803	5.98
664.213	5.95
664.624	5.94
665.035	5.92
665.445	5.91
665.855	5.9
666.266	5.91
666.676	5.9
667.086	5.9
667.497	5.89
667.907	5.89
668.317	5.88
668.727	5.89
669.137	5.9
669.547	5.92
669.956	5.92
670.366	5.94
670.776	5.95
671.186	5.98
671.595	6.01
672.005	6.05
672.414	6.08
672.824	6.13
673.233	6.16
673.642	6.19
674.052	6.22
674.461	6.26
674.87	6.29
675.279	6.32
675.688	6.35
676.097	6.39
676.506	6.42
676.915	6.47
677.323	6.52
677.732	6.58
678.141	6.63
678.549	6.7
678.958	6.77
679.366	6.81
679.775	6.89
680.183	6.99
680.592	7.06
681	7.12
681.408	7.19
681.816	7.25
682.224	7.33
682.632	7.42
683.04	7.5
683.448	7.6
683.856	7.73
684.264	7.86
684.671	7.99
685.079	8.14
685.487	8.33
685.894	8.54
686.302	8.77
686.709	9
687.116	9.26
687.524	9.55
687.931	9.86
688.338	10.22
688.745	10.58
689.152	11
689.559	11.42
689.966	11.88
690.373	12.36
690.78	12.88
691.187	13.44
691.593	14.02
692	14.62
692.407	15.26
692.813	15.9
693.22	16.56
693.626	17.24
694.032	17.97
694.439	18.7
694.845	19.45
695.251	20.17
695.657	20.92
696.063	21.66
696.469	22.41
696.875	23.15
697.281	23.89
697.687	24.66
698.093	25.41
698.498	26.15
698.904	26.88
699.31	27.58
699.715	28.34
700.12	29.04
700.526	29.76
700.931	30.46
701.337	31.17
701.742	31.85
702.147	32.51
702.552	33.18
702.957	33.84
703.362	34.5
703.767	35.19
704.172	35.8
704.577	36.45
704.981	37.1
705.386	37.72
705.791	38.35
706.195	38.96
706.6	39.56
707.004	40.14
707.408	40.7
707.813	41.26
708.217	41.8
708.621	42.38
709.025	42.94
709.43	43.45
709.834	44.01
710.237	44.49
710.641	45.04
711.045	45.56
711.449	46.07
711.853	46.56
712.256	47.04
712.66	47.52
713.064	47.95
713.467	48.38
713.87	48.84
714.274	49.3
714.677	49.77
715.08	50.19
715.484	50.63
715.887	51.08
716.29	51.49
716.693	51.89
717.096	52.3
717.499	52.75
717.901	53.11
718.304	53.49
718.707	53.84
719.109	54.19
719.512	54.57
719.915	54.93
720.317	55.25
720.719	55.6
721.122	55.9
721.524	56.24
721.926	56.51
722.328	56.85
722.731	57.18
723.133	57.46
723.535	57.77
723.937	58
724.338	58.22
724.74	58.47
725.142	58.72
725.544	58.98
725.945	59.21
726.347	59.47
726.748	59.65
727.15	59.84
727.551	60.04
727.952	60.26
728.354	60.48
728.755	60.67
729.156	60.86
729.557	61.05
729.958	61.22
730.359	61.34
730.76	61.48
731.161	61.67
731.562	61.81
731.962	61.92
732.363	62.02
732.763	62.19
733.164	62.3
733.564	62.43
733.965	62.52
734.365	62.62
734.766	62.77
735.166	62.81
735.566	62.87
735.966	62.95
736.366	63.03
736.766	63.1
737.166	63.14
737.566	63.21
737.966	63.26
738.365	63.31
738.765	63.4
739.165	63.41
739.564	63.51
739.964	63.58
740.363	63.65
740.763	63.7
741.162	63.73
741.561	63.78
741.96	63.86
742.36	63.92
742.759	63.96
743.158	63.98
743.557	64.05
743.955	64.08
744.354	64.12
744.753	64.15
745.152	64.16
745.55	64.22
745.949	64.26
746.348	64.25
746.746	64.25
747.144	64.31
747.543	64.34
747.941	64.38
748.339	64.43
748.737	64.46
749.136	64.49
749.534	64.57
749.932	64.61
750.33	64.6
750.727	64.66
751.125	64.69
751.523	64.66
751.921	64.69
752.318	64.71
752.716	64.73
753.113	64.75
753.511	64.73
753.908	64.69
754.305	64.68
754.703	64.7
755.1	64.68
755.497	64.69
755.894	64.7
756.291	64.69
756.688	64.66
757.085	64.67
757.482	64.67
757.878	64.72
758.275	64.75
758.672	64.76
759.068	64.77
759.465	64.79
759.861	64.79
760.258	64.79
760.654	64.79
761.05	64.79
761.447	64.75
761.843	64.72
762.239	64.67
762.635	64.66
763.031	64.66
763.427	64.61
763.822	64.56
764.218	64.51
764.614	64.49
765.01	64.48
765.405	64.44
765.801	64.45
766.196	64.46
766.592	64.51
766.987	64.5
767.382	64.5
767.778	64.52
768.173	64.56
768.568	64.54
768.963	64.55
769.358	64.51
769.753	64.54
770.148	64.53
770.542	64.5
770.937	64.42
771.332	64.44
771.726	64.39
772.121	64.37
772.515	64.34
772.91	64.38
773.304	64.34
773.699	64.35
774.093	64.31
774.487	64.31
774.881	64.29
775.275	64.31
775.669	64.29
776.063	64.26
776.457	64.26
776.851	64.22
777.245	64.21
777.638	64.22
778.032	64.22
778.425	64.24
778.819	64.23
779.212	64.22
779.606	64.21
779.999	64.23
780.392	64.26
780.786	64.25
781.179	64.27
781.572	64.26
781.965	64.27
782.358	64.22
