Data from N_1_hir_wi_4n_041_Splice17_04.txt Node
Date: Sat Feb 29 13:50:13 EST 2020
User: sa697716
Spectrometer: FLMS03696
Trigger mode: 0
Integration Time (sec): 3.180400E-1
Scans to average: 20
Electric dark correction enabled: true
Nonlinearity correction enabled: true
Boxcar width: 5
XAxis mode: Wavelengths
Number of Pixels in Spectrum: 2048
>>>>>Begin Spectral Data<<<<<
187.83	58.36
188.298	65.11
188.766	62.23
189.233	54.68
189.701	60.84
190.169	72.51
190.636	75.08
191.104	62.33
191.571	79.28
192.039	166.71
192.506	-98.42
192.974	-1071.81
193.441	23.65
193.908	57.23
194.375	-19.39
194.842	89.85
195.31	107.48
195.777	142.19
196.244	87.29
196.711	77.29
197.177	76.43
197.644	75.4
198.111	76.01
198.578	76.19
199.045	76.66
199.511	77.34
199.978	77.21
200.445	76.8
200.911	76.53
201.378	76.56
201.844	76.99
202.31	77.13
202.777	77.42
203.243	77.65
203.709	77.14
204.176	76.34
204.642	75.62
205.108	74.73
205.574	74.83
206.04	74.49
206.506	73.59
206.972	73.05
207.438	72.32
207.903	71.3
208.369	69.6
208.835	69.31
209.301	68.74
209.766	67.19
210.232	66
210.697	64.64
211.163	63.31
211.628	62.02
212.094	60.83
212.559	59.54
213.024	58.34
213.49	57.02
213.955	55.21
214.42	53.49
214.885	51.91
215.35	50
215.815	47.05
216.28	44.3
216.745	41.24
217.21	37.76
217.675	34.62
218.14	31.7
218.604	29.17
219.069	27.01
219.534	25.19
219.998	23.59
220.463	22.23
220.927	21.17
221.392	20.14
221.856	19.31
222.32	18.65
222.785	18.03
223.249	17.53
223.713	17.11
224.177	16.68
224.642	16.31
225.106	15.96
225.57	15.65
226.034	15.37
226.497	15.07
226.961	14.78
227.425	14.43
227.889	14.18
228.353	13.89
228.816	13.63
229.28	13.36
229.744	13.12
230.207	12.93
230.671	12.71
231.134	12.49
231.597	12.31
232.061	12.14
232.524	12.02
232.987	11.86
233.45	11.7
233.914	11.59
234.377	11.47
234.84	11.35
235.303	11.2
235.766	11.07
236.229	10.96
236.691	10.85
237.154	10.73
237.617	10.62
238.08	10.54
238.542	10.44
239.005	10.34
239.468	10.23
239.93	10.13
240.393	10.05
240.855	9.96
241.317	9.87
241.78	9.82
242.242	9.74
242.704	9.66
243.166	9.56
243.629	9.5
244.091	9.43
244.553	9.38
245.015	9.31
245.477	9.24
245.939	9.18
246.4	9.13
246.862	9.06
247.324	9.02
247.786	8.96
248.247	8.9
248.709	8.85
249.17	8.8
249.632	8.75
250.093	8.7
250.555	8.65
251.016	8.61
251.477	8.56
251.939	8.51
252.4	8.46
252.861	8.43
253.322	8.39
253.783	8.35
254.244	8.29
254.705	8.26
255.166	8.23
255.627	8.2
256.088	8.15
256.549	8.12
257.009	8.08
257.47	8.04
257.931	7.99
258.391	7.94
258.852	7.9
259.312	7.87
259.773	7.83
260.233	7.78
260.694	7.74
261.154	7.7
261.614	7.66
262.074	7.62
262.534	7.58
262.994	7.54
263.455	7.51
263.915	7.48
264.374	7.44
264.834	7.4
265.294	7.38
265.754	7.35
266.214	7.33
266.673	7.31
267.133	7.29
267.593	7.28
268.052	7.27
268.512	7.24
268.971	7.22
269.431	7.22
269.89	7.2
270.349	7.19
270.809	7.17
271.268	7.16
271.727	7.15
272.186	7.13
272.645	7.11
273.104	7.1
273.563	7.1
274.022	7.09
274.481	7.08
274.94	7.06
275.399	7.05
275.857	7.04
276.316	7.03
276.775	7
277.233	6.99
277.692	6.98
278.15	6.96
278.609	6.93
279.067	6.91
279.525	6.9
279.984	6.89
280.442	6.88
280.9	6.87
281.358	6.85
281.816	6.86
282.274	6.84
282.732	6.84
283.19	6.84
283.648	6.85
284.106	6.83
284.564	6.83
285.021	6.82
285.479	6.82
285.937	6.8
286.394	6.79
286.852	6.78
287.309	6.78
287.767	6.78
288.224	6.76
288.682	6.75
289.139	6.75
289.596	6.74
290.053	6.72
290.511	6.7
290.968	6.69
291.425	6.68
291.882	6.66
292.339	6.64
292.796	6.61
293.252	6.6
293.709	6.58
294.166	6.57
294.623	6.56
295.079	6.55
295.536	6.54
295.992	6.52
296.449	6.51
296.905	6.51
297.362	6.49
297.818	6.49
298.274	6.48
298.731	6.47
299.187	6.47
299.643	6.47
300.099	6.46
300.555	6.45
301.011	6.46
301.467	6.46
301.923	6.45
302.379	6.46
302.835	6.46
303.291	6.45
303.746	6.44
304.202	6.43
304.658	6.42
305.113	6.42
305.569	6.42
306.024	6.42
306.479	6.42
306.935	6.41
307.39	6.42
307.845	6.42
308.301	6.41
308.756	6.42
309.211	6.43
309.666	6.43
310.121	6.44
310.576	6.44
311.031	6.44
311.486	6.45
311.94	6.45
312.395	6.45
312.85	6.46
313.305	6.46
313.759	6.47
314.214	6.46
314.668	6.45
315.123	6.45
315.577	6.46
316.032	6.45
316.486	6.44
316.94	6.43
317.394	6.41
317.849	6.4
318.303	6.39
318.757	6.38
319.211	6.37
319.665	6.37
320.119	6.36
320.572	6.35
321.026	6.35
321.48	6.34
321.934	6.34
322.387	6.34
322.841	6.34
323.295	6.34
323.748	6.33
324.202	6.33
324.655	6.33
325.108	6.3
325.562	6.28
326.015	6.28
326.468	6.27
326.921	6.26
327.374	6.25
327.827	6.24
328.28	6.22
328.733	6.21
329.186	6.21
329.639	6.2
330.092	6.21
330.545	6.22
330.997	6.21
331.45	6.22
331.903	6.22
332.355	6.22
332.808	6.21
333.26	6.22
333.713	6.23
334.165	6.24
334.617	6.24
335.069	6.23
335.522	6.23
335.974	6.22
336.426	6.21
336.878	6.2
337.33	6.19
337.782	6.2
338.234	6.19
338.686	6.18
339.137	6.18
339.589	6.17
340.041	6.17
340.493	6.16
340.944	6.15
341.396	6.15
341.847	6.14
342.299	6.13
342.75	6.11
343.201	6.09
343.653	6.07
344.104	6.05
344.555	6.03
345.006	6
345.457	5.99
345.908	5.97
346.359	5.96
346.81	5.95
347.261	5.92
347.712	5.92
348.163	5.92
348.613	5.91
349.064	5.89
349.515	5.88
349.965	5.87
350.416	5.86
350.866	5.86
351.317	5.85
351.767	5.84
352.217	5.84
352.668	5.83
353.118	5.83
353.568	5.82
354.018	5.83
354.468	5.83
354.918	5.84
355.368	5.84
355.818	5.83
356.268	5.84
356.718	5.85
357.168	5.84
357.617	5.83
358.067	5.82
358.517	5.82
358.966	5.81
359.416	5.81
359.865	5.81
360.315	5.81
360.764	5.81
361.213	5.8
361.663	5.8
362.112	5.8
362.561	5.8
363.01	5.82
363.459	5.81
363.908	5.8
364.357	5.81
364.806	5.8
365.255	5.8
365.703	5.78
366.152	5.79
366.601	5.79
367.05	5.79
367.498	5.78
367.947	5.77
368.395	5.78
368.844	5.79
369.292	5.77
369.74	5.78
370.189	5.77
370.637	5.78
371.085	5.78
371.533	5.76
371.981	5.77
372.429	5.77
372.877	5.76
373.325	5.76
373.773	5.76
374.221	5.77
374.669	5.77
375.116	5.78
375.564	5.78
376.012	5.78
376.459	5.79
376.907	5.8
377.354	5.79
377.801	5.81
378.249	5.82
378.696	5.83
379.143	5.84
379.591	5.85
380.038	5.87
380.485	5.89
380.932	5.9
381.379	5.91
381.826	5.92
382.273	5.94
382.72	5.96
383.166	5.96
383.613	5.97
384.06	5.98
384.506	5.99
384.953	6.01
385.4	6.01
385.846	6.01
386.292	6.03
386.739	6.04
387.185	6.07
387.631	6.08
388.078	6.1
388.524	6.1
388.97	6.13
389.416	6.13
389.862	6.15
390.308	6.17
390.754	6.2
391.2	6.21
391.645	6.23
392.091	6.23
392.537	6.24
392.983	6.26
393.428	6.29
393.874	6.3
394.319	6.32
394.765	6.33
395.21	6.34
395.655	6.35
396.101	6.36
396.546	6.38
396.991	6.4
397.436	6.41
397.881	6.42
398.326	6.45
398.771	6.47
399.216	6.49
399.661	6.52
400.106	6.55
400.551	6.55
400.995	6.55
401.44	6.55
401.885	6.56
402.329	6.56
402.774	6.57
403.218	6.57
403.663	6.57
404.107	6.58
404.551	6.58
404.995	6.57
405.44	6.57
405.884	6.58
406.328	6.59
406.772	6.6
407.216	6.6
407.66	6.61
408.104	6.61
408.547	6.63
408.991	6.63
409.435	6.63
409.879	6.63
410.322	6.65
410.766	6.66
411.209	6.67
411.653	6.67
412.096	6.68
412.54	6.68
412.983	6.68
413.426	6.71
413.869	6.72
414.312	6.73
414.756	6.76
415.199	6.76
415.642	6.79
416.085	6.81
416.527	6.83
416.97	6.84
417.413	6.84
417.856	6.83
418.298	6.81
418.741	6.81
419.184	6.81
419.626	6.79
420.069	6.78
420.511	6.77
420.953	6.78
421.396	6.78
421.838	6.78
422.28	6.79
422.722	6.81
423.164	6.83
423.606	6.83
424.048	6.81
424.49	6.82
424.932	6.84
425.374	6.83
425.816	6.79
426.258	6.78
426.699	6.75
427.141	6.73
427.582	6.71
428.024	6.7
428.465	6.69
428.907	6.69
429.348	6.67
429.789	6.66
430.231	6.66
430.672	6.67
431.113	6.68
431.554	6.69
431.995	6.7
432.436	6.7
432.877	6.69
433.318	6.7
433.759	6.7
434.2	6.71
434.64	6.72
435.081	6.71
435.522	6.74
435.962	6.73
436.403	6.76
436.843	6.77
437.284	6.79
437.724	6.8
438.164	6.8
438.604	6.82
439.045	6.83
439.485	6.83
439.925	6.83
440.365	6.8
440.805	6.81
441.245	6.78
441.685	6.77
442.125	6.76
442.564	6.75
443.004	6.75
443.444	6.73
443.883	6.72
444.323	6.7
444.762	6.71
445.202	6.73
445.641	6.71
446.081	6.73
446.52	6.72
446.959	6.72
447.398	6.74
447.837	6.75
448.276	6.75
448.716	6.76
449.154	6.78
449.593	6.75
450.032	6.73
450.471	6.73
450.91	6.68
451.349	6.67
451.787	6.64
452.226	6.6
452.664	6.56
453.103	6.54
453.541	6.51
453.98	6.49
454.418	6.47
454.856	6.43
455.295	6.41
455.733	6.39
456.171	6.38
456.609	6.37
457.047	6.35
457.485	6.32
457.923	6.32
458.361	6.3
458.798	6.3
459.236	6.31
459.674	6.31
460.111	6.3
460.549	6.3
460.987	6.3
461.424	6.3
461.862	6.32
462.299	6.32
462.736	6.32
463.173	6.32
463.611	6.32
464.048	6.32
464.485	6.32
464.922	6.32
465.359	6.33
465.796	6.31
466.233	6.31
466.67	6.32
467.106	6.32
467.543	6.32
467.98	6.33
468.416	6.34
468.853	6.34
469.29	6.34
469.726	6.34
470.162	6.32
470.599	6.33
471.035	6.33
471.471	6.3
471.907	6.29
472.344	6.29
472.78	6.27
473.216	6.25
473.652	6.23
474.088	6.23
474.523	6.21
474.959	6.2
475.395	6.17
475.831	6.16
476.266	6.16
476.702	6.14
477.138	6.11
477.573	6.09
478.008	6.08
478.444	6.07
478.879	6.04
479.314	6.03
479.75	6.01
480.185	6
480.62	5.98
481.055	5.96
481.49	5.94
481.925	5.92
482.36	5.89
482.795	5.86
483.229	5.83
483.664	5.82
484.099	5.8
484.534	5.78
484.968	5.77
485.403	5.77
485.837	5.75
486.271	5.74
486.706	5.71
487.14	5.73
487.574	5.73
488.009	5.75
488.443	5.74
488.877	5.73
489.311	5.73
489.745	5.73
490.179	5.73
490.613	5.73
491.046	5.75
491.48	5.76
491.914	5.76
492.348	5.76
492.781	5.75
493.215	5.76
493.648	5.77
494.082	5.79
494.515	5.78
494.948	5.8
495.382	5.8
495.815	5.81
496.248	5.83
496.681	5.82
497.114	5.84
497.547	5.85
497.98	5.86
498.413	5.87
498.846	5.87
499.279	5.89
499.711	5.9
500.144	5.92
500.577	5.93
501.009	5.95
501.442	6
501.874	6.02
502.306	6.05
502.739	6.06
503.171	6.09
503.603	6.14
504.036	6.18
504.468	6.23
504.9	6.28
505.332	6.33
505.764	6.39
506.196	6.44
506.627	6.5
507.059	6.57
507.491	6.65
507.923	6.73
508.354	6.8
508.786	6.87
509.217	6.94
509.649	7.02
510.08	7.1
510.512	7.18
510.943	7.27
511.374	7.37
511.805	7.46
512.237	7.56
512.668	7.64
513.099	7.76
513.53	7.89
513.961	8.02
514.391	8.14
514.822	8.27
515.253	8.41
515.684	8.53
516.114	8.68
516.545	8.84
516.975	8.99
517.406	9.15
517.836	9.31
518.267	9.47
518.697	9.64
519.127	9.82
519.558	9.99
519.988	10.16
520.418	10.32
520.848	10.5
521.278	10.66
521.708	10.7
522.138	10.86
522.567	11.01
522.997	11.16
523.427	11.31
523.857	11.47
524.286	11.63
524.716	11.79
525.145	11.97
525.575	12.11
526.004	12.26
526.433	12.54
526.863	12.69
527.292	12.85
527.721	12.99
528.15	13.11
528.579	13.23
529.008	13.33
529.437	13.44
529.866	13.54
530.295	13.65
530.724	13.75
531.152	13.85
531.581	13.94
532.01	14.02
532.438	14.11
532.867	14.18
533.295	14.26
533.723	14.34
534.152	14.42
534.58	14.47
535.008	14.52
535.436	14.58
535.865	14.61
536.293	14.67
536.721	14.71
537.149	14.75
537.576	14.8
538.004	14.83
538.432	14.85
538.86	14.87
539.287	14.92
539.715	14.95
540.143	14.97
540.57	15.03
540.998	15.06
541.425	15.09
541.852	15.12
542.28	15.14
542.707	15.17
543.134	15.2
543.561	15.22
543.988	15.24
544.415	15.26
544.842	15.3
545.269	15.31
545.696	15.32
546.123	15.34
546.549	15.35
546.976	15.37
547.403	15.38
547.829	15.4
548.256	15.43
548.682	15.43
549.108	15.44
549.535	15.44
549.961	15.44
550.387	15.46
550.813	15.45
551.24	15.44
551.666	15.45
552.092	15.47
552.518	15.46
552.943	15.46
553.369	15.45
553.795	15.42
554.221	15.39
554.646	15.36
555.072	15.33
555.498	15.3
555.923	15.25
556.349	15.18
556.774	15.12
557.199	15.06
557.625	14.98
558.05	14.91
558.475	14.86
558.9	14.79
559.325	14.71
559.75	14.64
560.175	14.56
560.6	14.48
561.025	14.37
561.449	14.27
561.874	14.18
562.299	14.08
562.723	13.99
563.148	13.88
563.572	13.78
563.997	13.68
564.421	13.56
564.846	13.44
565.27	13.33
565.694	13.23
566.118	13.12
566.542	13.01
566.966	12.88
567.39	12.75
567.814	12.62
568.238	12.51
568.662	12.39
569.086	12.28
569.509	12.17
569.933	12.06
570.357	11.95
570.78	11.83
571.204	11.71
571.627	11.62
572.05	11.52
572.474	11.43
572.897	11.32
573.32	11.21
573.743	11.12
574.166	11.03
574.589	10.94
575.012	10.86
575.435	10.78
575.858	10.71
576.281	10.62
576.704	10.56
577.126	10.49
577.549	10.44
577.972	10.38
578.394	10.31
578.817	10.25
579.239	10.21
579.661	10.15
580.084	10.1
580.506	10.05
580.928	10
581.35	9.93
581.772	9.89
582.194	9.83
582.616	9.79
583.038	9.75
583.46	9.71
583.882	9.66
584.303	9.62
584.725	9.59
585.147	9.54
585.568	9.51
585.99	9.47
586.411	9.43
586.833	9.4
587.254	9.36
587.675	9.33
588.096	9.29
588.518	9.27
588.939	9.23
589.36	9.19
589.781	9.17
590.202	9.14
590.623	9.12
591.043	9.09
591.464	9.06
591.885	9.02
592.305	9.01
592.726	8.97
593.147	8.94
593.567	8.93
593.987	8.92
594.408	8.89
594.828	8.87
595.248	8.85
595.669	8.84
596.089	8.82
596.509	8.78
596.929	8.75
597.349	8.73
597.769	8.71
598.189	8.68
598.608	8.65
599.028	8.63
599.448	8.61
599.867	8.58
600.287	8.54
600.706	8.51
601.126	8.49
601.545	8.48
601.965	8.45
602.384	8.42
602.803	8.39
603.222	8.35
603.641	8.3
604.061	8.26
604.48	8.23
604.898	8.2
605.317	8.18
605.736	8.15
606.155	8.1
606.574	8.07
606.992	8.03
607.411	8
607.829	7.93
608.248	7.9
608.666	7.86
609.085	7.83
609.503	7.79
609.921	7.74
610.339	7.71
610.758	7.68
611.176	7.65
611.594	7.61
612.012	7.57
612.43	7.57
612.847	7.53
613.265	7.5
613.683	7.45
614.101	7.42
614.518	7.38
614.936	7.35
615.353	7.31
615.771	7.27
616.188	7.25
616.606	7.23
617.023	7.21
617.44	7.18
617.857	7.16
618.274	7.15
618.691	7.13
619.108	7.12
619.525	7.08
619.942	7.06
620.359	7.06
620.776	7.04
621.192	7.02
621.609	7
622.026	6.99
622.442	6.98
622.859	6.96
623.275	6.96
623.691	6.95
624.108	6.96
624.524	6.95
624.94	6.94
625.356	6.92
625.772	6.91
626.188	6.91
626.604	6.9
627.02	6.89
627.436	6.88
627.852	6.87
628.268	6.88
628.683	6.86
629.099	6.86
629.514	6.86
629.93	6.85
630.345	6.84
630.761	6.83
631.176	6.82
631.591	6.81
632.007	6.78
632.422	6.77
632.837	6.74
633.252	6.72
633.667	6.68
634.082	6.65
634.497	6.62
634.911	6.6
635.326	6.57
635.741	6.55
636.155	6.52
636.57	6.5
636.984	6.46
637.399	6.42
637.813	6.38
638.228	6.34
638.642	6.31
639.056	6.28
639.47	6.24
639.884	6.2
640.298	6.16
640.712	6.12
641.126	6.08
641.54	6.05
641.954	6.03
642.368	5.99
642.781	5.97
643.195	5.94
643.609	5.9
644.022	5.88
644.436	5.85
644.849	5.82
645.262	5.81
645.676	5.79
646.089	5.76
646.502	5.73
646.915	5.72
647.328	5.7
647.741	5.69
648.154	5.69
648.567	5.68
648.98	5.67
649.393	5.66
649.805	5.64
650.218	5.63
650.631	5.62
651.043	5.61
651.456	5.62
651.868	5.61
652.28	5.6
652.693	5.57
653.105	5.56
653.517	5.55
653.929	5.54
654.341	5.54
654.753	5.53
655.165	5.53
655.577	5.52
655.989	5.51
656.401	5.48
656.813	5.47
657.224	5.48
657.636	5.47
658.047	5.47
658.459	5.46
658.87	5.45
659.282	5.45
659.693	5.43
660.104	5.42
660.515	5.41
660.926	5.42
661.338	5.41
661.749	5.38
662.159	5.36
662.57	5.35
662.981	5.35
663.392	5.33
663.803	5.33
664.213	5.32
664.624	5.33
665.035	5.32
665.445	5.32
665.855	5.33
666.266	5.34
666.676	5.35
667.086	5.34
667.497	5.33
667.907	5.34
668.317	5.33
668.727	5.35
669.137	5.34
669.547	5.36
669.956	5.36
670.366	5.36
670.776	5.38
671.186	5.39
671.595	5.41
672.005	5.44
672.414	5.44
672.824	5.46
673.233	5.48
673.642	5.49
674.052	5.5
674.461	5.52
674.87	5.55
675.279	5.57
675.688	5.57
676.097	5.59
676.506	5.61
676.915	5.64
677.323	5.66
677.732	5.68
678.141	5.71
678.549	5.75
678.958	5.76
679.366	5.76
679.775	5.79
680.183	5.82
680.592	5.84
681	5.85
681.408	5.87
681.816	5.88
682.224	5.91
682.632	5.93
683.04	5.93
683.448	5.96
683.856	5.99
684.264	6.02
684.671	6.05
685.079	6.08
685.487	6.14
685.894	6.19
686.302	6.25
686.709	6.3
687.116	6.37
687.524	6.46
687.931	6.56
688.338	6.68
688.745	6.79
689.152	6.92
689.559	7.07
689.966	7.21
690.373	7.39
690.78	7.59
691.187	7.8
691.593	8.03
692	8.27
692.407	8.52
692.813	8.81
693.22	9.12
693.626	9.42
694.032	9.76
694.439	10.13
694.845	10.5
695.251	10.86
695.657	11.22
696.063	11.61
696.469	12.02
696.875	12.44
697.281	12.83
697.687	13.27
698.093	13.72
698.498	14.16
698.904	14.6
699.31	15.03
699.715	15.5
700.12	15.97
700.526	16.44
700.931	16.91
701.337	17.39
701.742	17.87
702.147	18.33
702.552	18.81
702.957	19.28
703.362	19.74
703.767	20.23
704.172	20.69
704.577	21.17
704.981	21.65
705.386	22.11
705.791	22.58
706.195	23.05
706.6	23.51
707.004	23.95
707.408	24.42
707.813	24.88
708.217	25.32
708.621	25.79
709.025	26.26
709.43	26.71
709.834	27.2
710.237	27.65
710.641	28.13
711.045	28.59
711.449	29.08
711.853	29.54
712.256	30.02
712.66	30.48
713.064	30.91
713.467	31.32
713.87	31.76
714.274	32.19
714.677	32.63
715.08	33.02
715.484	33.44
715.887	33.84
716.29	34.25
716.693	34.65
717.096	35.09
717.499	35.51
717.901	35.95
718.304	36.36
718.707	36.74
719.109	37.11
719.512	37.55
719.915	37.94
720.317	38.34
720.719	38.69
721.122	39.06
721.524	39.41
721.926	39.76
722.328	40.09
722.731	40.4
723.133	40.75
723.535	41.12
723.937	41.4
724.338	41.72
724.74	42.02
725.142	42.31
725.544	42.62
725.945	42.91
726.347	43.19
726.748	43.44
727.15	43.74
727.551	43.99
727.952	44.22
728.354	44.48
728.755	44.73
729.156	44.94
729.557	45.21
729.958	45.44
730.359	45.64
730.76	45.83
731.161	46.05
731.562	46.23
731.962	46.43
732.363	46.59
732.763	46.77
733.164	46.91
733.564	47.08
733.965	47.19
734.365	47.32
734.766	47.45
735.166	47.59
735.566	47.72
735.966	47.82
736.366	47.93
736.766	48.06
737.166	48.16
737.566	48.29
737.966	48.38
738.365	48.52
738.765	48.6
739.165	48.7
739.564	48.76
739.964	48.83
740.363	48.94
740.763	49.04
741.162	49.12
741.561	49.24
741.96	49.3
742.36	49.38
742.759	49.43
743.158	49.48
743.557	49.54
743.955	49.64
744.354	49.74
744.753	49.83
745.152	49.88
745.55	49.94
745.949	49.99
746.348	50.04
746.746	50.08
747.144	50.15
747.543	50.23
747.941	50.3
748.339	50.34
748.737	50.4
749.136	50.43
749.534	50.46
749.932	50.46
750.33	50.5
750.727	50.57
751.125	50.62
751.523	50.65
751.921	50.7
752.318	50.71
752.716	50.75
753.113	50.74
753.511	50.73
753.908	50.73
754.305	50.76
754.703	50.74
755.1	50.69
755.497	50.7
755.894	50.66
756.291	50.59
756.688	50.56
757.085	50.48
757.482	50.45
757.878	50.44
758.275	50.39
758.672	50.37
759.068	50.36
759.465	50.34
759.861	50.29
760.258	50.25
760.654	50.25
761.05	50.27
761.447	50.27
761.843	50.27
762.239	50.27
762.635	50.29
763.031	50.32
763.427	50.36
763.822	50.38
764.218	50.42
764.614	50.48
765.01	50.53
765.405	50.53
765.801	50.6
766.196	50.63
766.592	50.65
766.987	50.68
767.382	50.67
767.778	50.69
768.173	50.74
768.568	50.75
768.963	50.77
769.358	50.77
769.753	50.81
770.148	50.81
770.542	50.8
770.937	50.83
771.332	50.85
771.726	50.85
772.121	50.85
772.515	50.85
772.91	50.83
773.304	50.84
773.699	50.85
774.093	50.81
774.487	50.81
774.881	50.83
775.275	50.85
775.669	50.87
776.063	50.88
776.457	50.85
776.851	50.82
777.245	50.84
777.638	50.83
778.032	50.84
778.425	50.87
778.819	50.87
779.212	50.85
779.606	50.83
779.999	50.78
780.392	50.79
780.786	50.81
781.179	50.85
781.572	50.87
781.965	50.88
782.358	50.85
782.751	50.82
783.143	50.85
783.536	50.88
783.929	50.9
784.322	50.93
784.714	50.95
785.107	50.97
785.499	50.95
785.891	50.95
