Data from N_1_dec_va_2n_009_Splice17_01.txt Node
Date: Sat Feb 29 13:36:13 EST 2020
User: sa697716
Spectrometer: FLMS03696
Trigger mode: 0
Integration Time (sec): 3.180400E-1
Scans to average: 20
Electric dark correction enabled: true
Nonlinearity correction enabled: true
Boxcar width: 5
XAxis mode: Wavelengths
Number of Pixels in Spectrum: 2048
>>>>>Begin Spectral Data<<<<<
187.83	88.44
188.298	101.89
188.766	86.76
189.233	80.93
189.701	95.85
190.169	90.96
190.636	89.94
191.104	79.23
191.571	223.27
192.039	141.49
192.506	146.23
192.974	4217.2
193.441	-245.71
193.908	34.6
194.375	12.9
194.842	134.02
195.31	58.29
195.777	10.57
196.244	-11.52
196.711	5.08
197.177	6.68
197.644	7.97
198.111	5.95
198.578	6.68
199.045	7.03
199.511	7.72
199.978	8.44
200.445	8.56
200.911	9.05
201.378	9.52
201.844	9.85
202.31	10.23
202.777	9.99
203.243	10.87
203.709	11.69
204.176	11.74
204.642	11.79
205.108	11.36
205.574	11.6
206.04	11.38
206.506	11.34
206.972	11.26
207.438	10.71
207.903	11
208.369	10.65
208.835	10.21
209.301	10.5
209.766	10.59
210.232	10.82
210.697	10.76
211.163	10.76
211.628	10.45
212.094	10.54
212.559	10.41
213.024	10.14
213.49	9.85
213.955	9.61
214.42	9.52
214.885	8.79
215.35	8.43
215.815	8.23
216.28	8.02
216.745	7.92
217.21	7.78
217.675	7.57
218.14	7.25
218.604	6.9
219.069	6.68
219.534	6.32
219.998	6.09
220.463	5.88
220.927	5.69
221.392	5.54
221.856	5.36
222.32	5.14
222.785	5.02
223.249	4.94
223.713	4.92
224.177	4.79
224.642	4.74
225.106	4.73
225.57	4.66
226.034	4.6
226.497	4.51
226.961	4.45
227.425	4.38
227.889	4.3
228.353	4.21
228.816	4.15
229.28	4.1
229.744	4.03
230.207	3.98
230.671	3.93
231.134	3.89
231.597	3.86
232.061	3.82
232.524	3.8
232.987	3.78
233.45	3.76
233.914	3.73
234.377	3.72
234.84	3.69
235.303	3.65
235.766	3.63
236.229	3.61
236.691	3.59
237.154	3.57
237.617	3.53
238.08	3.49
238.542	3.46
239.005	3.43
239.468	3.38
239.93	3.35
240.393	3.33
240.855	3.29
241.317	3.25
241.78	3.23
242.242	3.2
242.704	3.17
243.166	3.15
243.629	3.13
244.091	3.11
244.553	3.1
245.015	3.09
245.477	3.05
245.939	3.03
246.4	3
246.862	2.98
247.324	2.98
247.786	2.97
248.247	2.96
248.709	2.94
249.17	2.93
249.632	2.9
250.093	2.87
250.555	2.87
251.016	2.86
251.477	2.85
251.939	2.83
252.4	2.8
252.861	2.78
253.322	2.77
253.783	2.76
254.244	2.75
254.705	2.74
255.166	2.74
255.627	2.72
256.088	2.71
256.549	2.71
257.009	2.7
257.47	2.7
257.931	2.69
258.391	2.67
258.852	2.66
259.312	2.65
259.773	2.64
260.233	2.63
260.694	2.62
261.154	2.62
261.614	2.61
262.074	2.6
262.534	2.58
262.994	2.57
263.455	2.56
263.915	2.56
264.374	2.55
264.834	2.55
265.294	2.54
265.754	2.53
266.214	2.52
266.673	2.52
267.133	2.52
267.593	2.52
268.052	2.5
268.512	2.5
268.971	2.49
269.431	2.49
269.89	2.48
270.349	2.47
270.809	2.47
271.268	2.47
271.727	2.47
272.186	2.46
272.645	2.45
273.104	2.45
273.563	2.45
274.022	2.44
274.481	2.44
274.94	2.43
275.399	2.43
275.857	2.42
276.316	2.41
276.775	2.4
277.233	2.4
277.692	2.39
278.15	2.39
278.609	2.38
279.067	2.37
279.525	2.36
279.984	2.36
280.442	2.35
280.9	2.36
281.358	2.35
281.816	2.34
282.274	2.33
282.732	2.33
283.19	2.33
283.648	2.32
284.106	2.32
284.564	2.31
285.021	2.3
285.479	2.29
285.937	2.28
286.394	2.28
286.852	2.27
287.309	2.26
287.767	2.26
288.224	2.25
288.682	2.25
289.139	2.24
289.596	2.24
290.053	2.23
290.511	2.22
290.968	2.22
291.425	2.21
291.882	2.21
292.339	2.2
292.796	2.19
293.252	2.18
293.709	2.17
294.166	2.17
294.623	2.17
295.079	2.17
295.536	2.16
295.992	2.15
296.449	2.16
296.905	2.15
297.362	2.14
297.818	2.14
298.274	2.14
298.731	2.14
299.187	2.14
299.643	2.13
300.099	2.13
300.555	2.12
301.011	2.12
301.467	2.12
301.923	2.12
302.379	2.13
302.835	2.12
303.291	2.12
303.746	2.11
304.202	2.1
304.658	2.1
305.113	2.09
305.569	2.09
306.024	2.09
306.479	2.08
306.935	2.07
307.39	2.06
307.845	2.06
308.301	2.06
308.756	2.06
309.211	2.06
309.666	2.06
310.121	2.06
310.576	2.04
311.031	2.04
311.486	2.04
311.94	2.04
312.395	2.05
312.85	2.04
313.305	2.04
313.759	2.04
314.214	2.04
314.668	2.04
315.123	2.04
315.577	2.04
316.032	2.04
316.486	2.03
316.94	2.04
317.394	2.03
317.849	2.03
318.303	2.03
318.757	2.02
319.211	2
319.665	2
320.119	2
320.572	2
321.026	2
321.48	2.01
321.934	1.99
322.387	1.99
322.841	1.98
323.295	1.98
323.748	1.98
324.202	1.98
324.655	1.98
325.108	1.97
325.562	1.96
326.015	1.95
326.468	1.94
326.921	1.94
327.374	1.94
327.827	1.94
328.28	1.94
328.733	1.94
329.186	1.93
329.639	1.93
330.092	1.93
330.545	1.93
330.997	1.94
331.45	1.94
331.903	1.93
332.355	1.93
332.808	1.93
333.26	1.92
333.713	1.93
334.165	1.92
334.617	1.93
335.069	1.93
335.522	1.93
335.974	1.93
336.426	1.93
336.878	1.94
337.33	1.93
337.782	1.93
338.234	1.93
338.686	1.92
339.137	1.93
339.589	1.92
340.041	1.91
340.493	1.9
340.944	1.89
341.396	1.89
341.847	1.88
342.299	1.88
342.75	1.88
343.201	1.87
343.653	1.86
344.104	1.86
344.555	1.87
345.006	1.85
345.457	1.86
345.908	1.86
346.359	1.86
346.81	1.87
347.261	1.86
347.712	1.85
348.163	1.86
348.613	1.86
349.064	1.85
349.515	1.85
349.965	1.85
350.416	1.84
350.866	1.85
351.317	1.84
351.767	1.83
352.217	1.83
352.668	1.83
353.118	1.83
353.568	1.84
354.018	1.84
354.468	1.84
354.918	1.84
355.368	1.84
355.818	1.83
356.268	1.83
356.718	1.83
357.168	1.82
357.617	1.81
358.067	1.8
358.517	1.79
358.966	1.79
359.416	1.79
359.865	1.8
360.315	1.8
360.764	1.81
361.213	1.81
361.663	1.81
362.112	1.83
362.561	1.83
363.01	1.85
363.459	1.85
363.908	1.84
364.357	1.85
364.806	1.84
365.255	1.85
365.703	1.84
366.152	1.84
366.601	1.84
367.05	1.84
367.498	1.84
367.947	1.83
368.395	1.84
368.844	1.84
369.292	1.83
369.74	1.84
370.189	1.83
370.637	1.84
371.085	1.84
371.533	1.83
371.981	1.84
372.429	1.84
372.877	1.83
373.325	1.82
373.773	1.83
374.221	1.83
374.669	1.83
375.116	1.82
375.564	1.82
376.012	1.83
376.459	1.84
376.907	1.83
377.354	1.84
377.801	1.84
378.249	1.86
378.696	1.86
379.143	1.86
379.591	1.87
380.038	1.89
380.485	1.9
380.932	1.89
381.379	1.9
381.826	1.91
382.273	1.92
382.72	1.94
383.166	1.95
383.613	1.97
384.06	1.99
384.506	2
384.953	2.03
385.4	2.06
385.846	2.08
386.292	2.11
386.739	2.14
387.185	2.19
387.631	2.22
388.078	2.26
388.524	2.28
388.97	2.31
389.416	2.35
389.862	2.39
390.308	2.44
390.754	2.53
391.2	2.61
391.645	2.69
392.091	2.75
392.537	2.82
392.983	2.92
393.428	3.07
393.874	3.27
394.319	3.51
394.765	3.75
395.21	4.02
395.655	4.32
396.101	4.65
396.546	5.03
396.991	5.46
397.436	5.94
397.881	6.45
398.326	6.99
398.771	7.53
399.216	8.08
399.661	8.63
400.106	9.17
400.551	9.68
400.995	10.16
401.44	10.6
401.885	11.07
402.329	11.54
402.774	12.02
403.218	12.53
403.663	13.07
404.107	13.65
404.551	14.27
404.995	14.84
405.44	15.4
405.884	15.95
406.328	16.58
406.772	17.28
407.216	18
407.66	18.69
408.104	19.34
408.547	19.9
408.991	20.4
409.435	20.92
409.879	21.52
410.322	22.17
410.766	22.88
411.209	23.54
411.653	24.14
412.096	24.69
412.54	25.21
412.983	25.71
413.426	26.27
413.869	26.84
414.312	27.39
414.756	27.89
415.199	28.32
415.642	28.74
416.085	29.08
416.527	29.37
416.97	29.54
417.413	29.64
417.856	29.65
418.298	29.63
418.741	29.66
419.184	29.71
419.626	29.82
420.069	29.99
420.511	30.14
420.953	30.32
421.396	30.51
421.838	30.85
422.28	31.3
422.722	31.77
423.164	32.21
423.606	32.59
424.048	32.88
424.49	33.01
424.932	32.9
425.374	32.49
425.816	31.84
426.258	31.12
426.699	30.53
427.141	30.29
427.582	30.47
428.024	30.92
428.465	31.4
428.907	31.87
429.348	32.3
429.789	32.87
430.231	33.78
430.672	35.16
431.113	36.78
431.554	38.42
431.995	39.68
432.436	40.6
432.877	41.26
433.318	41.76
433.759	42.3
434.2	42.96
434.64	43.79
435.081	44.65
435.522	45.37
435.962	45.96
436.403	46.41
436.843	46.76
437.284	47.11
437.724	47.53
438.164	48.1
438.604	48.78
439.045	49.49
439.485	50.18
439.925	50.7
440.365	51.13
440.805	51.43
441.245	51.63
441.685	51.92
442.125	52.22
442.564	52.57
443.004	52.94
443.444	53.39
443.883	53.87
444.323	54.38
444.762	54.85
445.202	55.44
445.641	56.13
446.081	57
446.52	57.89
446.959	58.73
447.398	59.41
447.837	59.9
448.276	60.01
448.716	60.09
449.154	60.11
449.593	60.22
450.032	60.18
450.471	60.01
450.91	59.73
451.349	59.42
451.787	59.16
452.226	58.94
452.664	58.77
453.103	58.75
453.541	58.67
453.98	58.49
454.418	58.23
454.856	57.88
455.295	57.6
455.733	57.31
456.171	57.06
456.609	56.83
457.047	56.6
457.485	56.47
457.923	56.45
458.361	56.5
458.798	56.64
459.236	56.77
459.674	56.97
460.111	57.15
460.549	57.33
460.987	57.53
461.424	57.71
461.862	57.94
462.299	58.09
462.736	58.22
463.173	58.41
463.611	58.71
464.048	59.1
464.485	59.56
464.922	60.11
465.359	60.64
465.796	61.12
466.233	61.58
466.67	62.08
467.106	62.73
467.543	63.46
467.98	64.16
468.416	64.75
468.853	65.25
469.29	65.71
469.726	66.15
470.162	66.62
470.599	67.09
471.035	67.55
471.471	67.83
471.907	67.95
472.344	67.93
472.78	67.88
473.216	67.88
473.652	67.86
474.088	67.82
474.523	67.67
474.959	67.47
475.395	67.28
475.831	67.03
476.266	66.85
476.702	66.64
477.138	66.41
477.573	66.12
478.008	65.73
478.444	65.31
478.879	64.82
479.314	64.3
479.75	63.77
480.185	63.12
480.62	62.41
481.055	61.55
481.49	60.4
481.925	59.14
482.36	57.94
482.795	56.87
483.229	56.02
483.664	55.31
484.099	54.69
484.534	54.1
484.968	53.64
485.403	53.34
485.837	53.23
486.271	53.36
486.706	53.59
487.14	53.78
487.574	53.81
488.009	53.74
488.443	53.64
488.877	53.56
489.311	53.49
489.745	53.45
490.179	53.43
490.613	53.4
491.046	53.39
491.48	53.42
491.914	53.51
492.348	53.72
492.781	53.93
493.215	54.1
493.648	54.26
494.082	54.37
494.515	54.46
494.948	54.53
495.382	54.6
495.815	54.65
496.248	54.67
496.681	54.67
497.114	54.62
497.547	54.6
497.98	54.63
498.413	54.74
498.846	54.92
499.279	55.11
499.711	55.25
500.144	55.41
500.577	55.68
501.009	56.08
501.442	56.58
501.874	57.12
502.306	57.68
502.739	58.16
503.171	58.61
503.603	59.01
504.036	59.41
504.468	59.93
504.9	60.51
505.332	61.01
505.764	61.45
506.196	61.85
506.627	62.3
507.059	62.76
507.491	63.29
507.923	63.81
508.354	64.36
508.786	64.9
509.217	65.31
509.649	65.71
510.08	66.11
510.512	66.54
510.943	67.04
511.374	67.52
511.805	67.87
512.237	68.03
512.668	68.06
513.099	68.16
513.53	68.28
513.961	68.47
514.391	68.72
514.822	69.12
515.253	69.63
515.684	70.14
516.114	70.72
516.545	71.38
516.975	72.36
517.406	73.51
517.836	74.59
518.267	75.65
518.697	76.63
519.127	77.63
519.558	78.56
519.988	79.43
520.418	80.25
520.848	81.03
521.278	81.76
521.708	82.35
522.138	82.6
522.567	82.82
522.997	83.05
523.427	83.44
523.857	83.86
524.286	84.35
524.716	84.86
525.145	85.35
525.575	85.77
526.004	86.27
526.433	86.86
526.863	87.78
527.292	88.72
527.721	89.54
528.15	90.09
528.579	90.44
529.008	90.6
529.437	90.71
529.866	90.78
530.295	90.94
530.724	91.12
531.152	91.26
531.581	91.39
532.01	91.46
532.438	91.51
532.867	91.68
533.295	91.93
533.723	92.2
534.152	92.39
534.58	92.54
535.008	92.54
535.436	92.43
535.865	92.18
536.293	91.86
536.721	91.62
537.149	91.55
537.576	91.6
538.004	91.63
538.432	91.64
538.86	91.66
539.287	91.78
539.715	91.99
540.143	92.27
540.57	92.66
540.998	93.15
541.425	93.61
541.852	94.03
542.28	94.35
542.707	94.67
543.134	94.94
543.561	95.17
543.988	95.39
544.415	95.64
544.842	95.89
545.269	96.16
545.696	96.37
546.123	96.63
546.549	96.83
546.976	97.03
547.403	97.21
547.829	97.51
548.256	97.75
548.682	97.92
549.108	98.08
549.535	98.19
549.961	98.27
550.387	98.34
550.813	98.44
551.24	98.55
551.666	98.6
552.092	98.56
552.518	98.4
552.943	98.27
553.369	98.14
553.795	97.89
554.221	97.58
554.646	97.16
555.072	96.67
555.498	96.1
555.923	95.58
556.349	95.12
556.774	94.76
557.199	94.43
557.625	94.04
558.05	93.65
558.475	93.3
558.9	93.02
559.325	92.78
559.75	92.48
560.175	92.19
560.6	91.81
561.025	91.29
561.449	90.65
561.874	89.97
562.299	89.37
562.723	88.79
563.148	88.2
563.572	87.56
563.997	86.85
564.421	86.15
564.846	85.42
565.27	84.76
565.694	84.07
566.118	83.4
566.542	82.72
566.966	82.03
567.39	81.29
567.814	80.64
568.238	80.07
568.662	79.62
569.086	79.21
569.509	78.86
569.933	78.48
570.357	78.13
570.78	77.82
571.204	77.55
571.627	77.28
572.05	77.07
572.474	76.77
572.897	76.49
573.32	76.15
573.743	75.79
574.166	75.4
574.589	75.04
575.012	74.79
575.435	74.55
575.858	74.4
576.281	74.3
576.704	74.17
577.126	74.09
577.549	74.02
577.972	74.01
578.394	74.01
578.817	74.06
579.239	74.13
579.661	74.16
580.084	74.2
580.506	74.17
580.928	74.04
581.35	73.9
581.772	73.7
582.194	73.45
582.616	73.22
583.038	73
583.46	72.76
583.882	72.4
584.303	71.9
584.725	71.26
585.147	70.51
585.568	69.87
585.99	69.3
586.411	68.88
586.833	68.5
587.254	68.13
587.675	67.76
588.096	67.43
588.518	67.16
588.939	67.04
589.36	67.08
589.781	67.21
590.202	67.29
590.623	67.28
591.043	67.14
591.464	66.97
591.885	66.75
592.305	66.55
592.726	66.31
593.147	66.1
593.567	65.82
593.987	65.53
594.408	65.26
594.828	64.97
595.248	64.73
595.669	64.46
596.089	64.15
596.509	63.81
596.929	63.45
597.349	63.06
597.769	62.64
598.189	62.28
598.608	61.95
599.028	61.64
599.448	61.39
599.867	61.14
600.287	60.92
600.706	60.68
601.126	60.47
601.545	60.25
601.965	60.07
602.384	59.91
602.803	59.73
603.222	59.51
603.641	59.27
604.061	58.98
604.48	58.66
604.898	58.31
605.317	57.99
605.736	57.65
606.155	57.3
606.574	56.97
606.992	56.64
607.411	56.31
607.829	55.96
608.248	55.66
608.666	55.34
609.085	55.01
609.503	54.65
609.921	54.33
610.339	54.04
610.758	53.77
611.176	53.46
611.594	53.12
612.012	52.73
612.43	52.36
612.847	51.98
613.265	51.66
613.683	51.42
614.101	51.2
614.518	51.01
614.936	50.81
615.353	50.58
615.771	50.41
616.188	50.29
616.606	50.24
617.023	50.18
617.44	50.1
617.857	49.98
618.274	49.78
618.691	49.58
619.108	49.33
619.525	49.09
619.942	48.86
620.359	48.58
620.776	48.25
621.192	47.88
621.609	47.54
622.026	47.27
622.442	47.04
622.859	46.82
623.275	46.6
623.691	46.33
624.108	46.09
624.524	45.85
624.94	45.65
625.356	45.44
625.772	45.31
626.188	45.19
626.604	45
627.02	44.79
627.436	44.6
627.852	44.45
628.268	44.37
628.683	44.3
629.099	44.25
629.514	44.16
629.93	44.14
630.345	44.09
630.761	44.05
631.176	44.02
631.591	43.99
632.007	43.94
632.422	43.92
632.837	43.88
633.252	43.82
633.667	43.77
634.082	43.73
634.497	43.69
634.911	43.62
635.326	43.49
635.741	43.35
636.155	43.22
636.57	43.08
636.984	42.88
637.399	42.67
637.813	42.48
638.228	42.26
638.642	42.06
639.056	41.81
639.47	41.58
639.884	41.42
640.298	41.25
640.712	41.08
641.126	40.93
641.54	40.75
641.954	40.6
642.368	40.41
642.781	40.22
643.195	39.98
643.609	39.79
644.022	39.59
644.436	39.37
644.849	39.12
645.262	38.87
645.676	38.64
646.089	38.48
646.502	38.31
646.915	38.19
647.328	38.09
647.741	38.01
648.154	37.94
648.567	37.9
648.98	37.87
649.393	37.87
649.805	37.87
650.218	37.89
650.631	37.83
651.043	37.69
651.456	37.39
651.868	36.96
652.28	36.47
652.693	35.99
653.105	35.59
653.517	35.31
653.929	35.12
654.341	34.98
654.753	34.88
655.165	34.84
655.577	34.84
655.989	35.03
656.401	35.35
656.813	35.74
657.224	36.12
657.636	36.45
658.047	36.64
658.459	36.74
658.87	36.8
659.282	36.8
659.693	36.8
660.104	36.78
660.515	36.72
660.926	36.7
661.338	36.67
661.749	36.62
662.159	36.54
662.57	36.44
662.981	36.35
663.392	36.26
663.803	36.19
664.213	36.12
664.624	36.1
665.035	36.06
665.445	36.01
665.855	35.94
666.266	35.89
666.676	35.8
667.086	35.73
667.497	35.66
667.907	35.57
668.317	35.55
668.727	35.47
669.137	35.39
669.547	35.31
669.956	35.25
670.366	35.2
670.776	35.13
671.186	35.09
671.595	35.09
672.005	35.09
672.414	35.09
672.824	35.1
673.233	35.13
673.642	35.14
674.052	35.17
674.461	35.19
674.87	35.22
675.279	35.25
675.688	35.3
676.097	35.34
676.506	35.38
676.915	35.45
677.323	35.51
677.732	35.57
678.141	35.6
678.549	35.69
678.958	35.79
679.366	35.86
679.775	35.94
680.183	36.02
680.592	36.09
681	36.17
681.408	36.24
681.816	36.25
682.224	36.14
682.632	35.87
683.04	35.34
683.448	34.8
683.856	34.33
684.264	33.95
684.671	33.6
685.079	33.27
685.487	32.99
685.894	32.77
686.302	32.65
686.709	32.75
687.116	33.11
687.524	33.76
687.931	34.49
688.338	35.24
688.745	35.97
689.152	36.71
689.559	37.46
689.966	38.17
690.373	38.91
690.78	39.6
691.187	40.29
691.593	40.96
692	41.62
692.407	42.26
692.813	42.92
693.22	43.54
693.626	44.17
694.032	44.78
694.439	45.42
694.845	46.02
695.251	46.64
695.657	47.19
696.063	47.73
696.469	48.23
696.875	48.69
697.281	49.11
697.687	49.53
698.093	49.94
698.498	50.38
698.904	50.84
699.31	51.31
699.715	51.77
700.12	52.29
700.526	52.84
700.931	53.35
701.337	53.94
701.742	54.49
702.147	55.03
702.552	55.59
702.957	56.13
703.362	56.66
703.767	57.16
704.172	57.68
704.577	58.13
704.981	58.57
705.386	59.01
705.791	59.44
706.195	59.85
706.6	60.27
707.004	60.67
707.408	61.07
707.813	61.47
708.217	61.81
708.621	62.14
709.025	62.47
709.43	62.8
709.834	63.18
710.237	63.47
710.641	63.78
711.045	64.05
711.449	64.32
711.853	64.55
712.256	64.68
712.66	64.74
713.064	64.69
713.467	64.51
713.87	64.28
714.274	63.93
714.677	63.5
715.08	63.07
715.484	62.62
715.887	62.24
716.29	61.88
716.693	61.66
717.096	61.73
717.499	61.99
717.901	62.41
718.304	62.94
718.707	63.51
719.109	64.17
719.512	64.72
719.915	65.25
720.317	65.7
720.719	66.12
721.122	66.46
721.524	66.62
721.926	66.69
722.328	66.75
722.731	66.73
723.133	66.71
723.535	66.71
723.937	66.82
724.338	66.93
724.74	67.03
725.142	67.16
725.544	67.24
725.945	67.41
726.347	67.57
726.748	67.63
727.15	67.74
727.551	67.95
727.952	68.15
728.354	68.41
728.755	68.71
729.156	69.08
729.557	69.47
729.958	69.91
730.359	70.27
730.76	70.58
731.161	70.91
731.562	71.17
731.962	71.41
732.363	71.61
732.763	71.78
733.164	71.9
733.564	71.95
733.965	71.97
734.365	71.89
734.766	71.83
735.166	71.73
735.566	71.67
735.966	71.66
736.366	71.59
736.766	71.55
737.166	71.46
737.566	71.39
737.966	71.31
738.365	71.25
738.765	71.25
739.165	71.23
739.564	71.31
739.964	71.33
740.363	71.34
740.763	71.32
741.162	71.33
741.561	71.37
741.96	71.44
742.36	71.51
742.759	71.51
743.158	71.54
743.557	71.55
743.955	71.56
744.354	71.59
744.753	71.57
745.152	71.55
745.55	71.5
745.949	71.42
746.348	71.3
746.746	71.23
747.144	71.16
747.543	71.06
747.941	70.98
748.339	70.92
748.737	70.84
749.136	70.76
749.534	70.74
749.932	70.72
750.33	70.71
750.727	70.73
751.125	70.71
751.523	70.65
751.921	70.62
752.318	70.57
752.716	70.45
753.113	70.38
753.511	70.3
753.908	70.2
754.305	70.03
754.703	69.67
755.1	68.85
755.497	67.39
755.894	65.21
756.291	62.41
756.688	59.33
757.085	56.3
757.482	53.5
757.878	50.92
758.275	48.42
758.672	45.91
759.068	43.53
759.465	41.6
759.861	40.47
760.258	40.26
760.654	40.83
761.05	41.97
761.447	43.24
761.843	44.45
762.239	45.66
762.635	47.03
763.031	48.67
763.427	50.54
763.822	52.54
764.218	54.54
764.614	56.48
765.01	58.3
765.405	59.94
765.801	61.43
766.196	62.8
766.592	63.98
766.987	64.93
767.382	65.67
767.778	66.28
768.173	66.72
768.568	67.06
768.963	67.31
769.358	67.52
769.753	67.7
770.148	67.8
770.542	67.81
770.937	67.77
771.332	67.73
771.726	67.74
772.121	67.75
772.515	67.73
772.91	67.71
773.304	67.61
773.699	67.54
