Data from N_1_dec_oh_4n_013_Splice17_02.txt Node
Date: Sat Feb 29 13:38:15 EST 2020
User: sa697716
Spectrometer: FLMS03696
Trigger mode: 0
Integration Time (sec): 3.180400E-1
Scans to average: 20
Electric dark correction enabled: true
Nonlinearity correction enabled: true
Boxcar width: 5
XAxis mode: Wavelengths
Number of Pixels in Spectrum: 2048
>>>>>Begin Spectral Data<<<<<
187.83	69.47
188.298	64.74
188.766	63.07
189.233	55.53
189.701	68.97
190.169	72.16
190.636	84.14
191.104	66.68
191.571	151.37
192.039	65.64
192.506	203.75
192.974	5003.16
193.441	-436.23
193.908	81.09
194.375	55.33
194.842	118.36
195.31	37.08
195.777	78.7
196.244	12.68
196.711	14.91
197.177	13.39
197.644	14.16
198.111	14.33
198.578	13.9
199.045	14.9
199.511	15.49
199.978	16.74
200.445	17.15
200.911	17.34
201.378	17.62
201.844	18.38
202.31	18.88
202.777	19.1
203.243	19.49
203.709	20.07
204.176	19.99
204.642	19.96
205.108	19.42
205.574	20.04
206.04	19.64
206.506	19.36
206.972	18.9
207.438	18.7
207.903	19.1
208.369	18.72
208.835	18.49
209.301	18.54
209.766	18.63
210.232	18.71
210.697	18.34
211.163	18.25
211.628	18.02
212.094	18.02
212.559	18.04
213.024	17.4
213.49	17.49
213.955	17.5
214.42	16.95
214.885	16.5
215.35	16.15
215.815	15.61
216.28	15.32
216.745	14.95
217.21	14.27
217.675	13.69
218.14	13.1
218.604	12.42
219.069	11.99
219.534	11.73
219.998	11.39
220.463	11.11
220.927	10.9
221.392	10.66
221.856	10.42
222.32	10.24
222.785	10.05
223.249	9.93
223.713	9.82
224.177	9.62
224.642	9.48
225.106	9.33
225.57	9.18
226.034	9.05
226.497	8.91
226.961	8.78
227.425	8.64
227.889	8.53
228.353	8.4
228.816	8.31
229.28	8.19
229.744	8.1
230.207	8.01
230.671	7.9
231.134	7.8
231.597	7.71
232.061	7.63
232.524	7.55
232.987	7.46
233.45	7.38
233.914	7.28
234.377	7.22
234.84	7.14
235.303	7.08
235.766	7.01
236.229	6.95
236.691	6.88
237.154	6.81
237.617	6.75
238.08	6.67
238.542	6.61
239.005	6.54
239.468	6.46
239.93	6.4
240.393	6.32
240.855	6.24
241.317	6.17
241.78	6.12
242.242	6.06
242.704	6
243.166	5.94
243.629	5.89
244.091	5.84
244.553	5.81
245.015	5.77
245.477	5.71
245.939	5.67
246.4	5.62
246.862	5.58
247.324	5.55
247.786	5.52
248.247	5.48
248.709	5.44
249.17	5.4
249.632	5.36
250.093	5.3
250.555	5.27
251.016	5.24
251.477	5.2
251.939	5.16
252.4	5.11
252.861	5.08
253.322	5.05
253.783	5.03
254.244	5
254.705	4.97
255.166	4.96
255.627	4.93
256.088	4.91
256.549	4.89
257.009	4.87
257.47	4.85
257.931	4.82
258.391	4.8
258.852	4.76
259.312	4.74
259.773	4.72
260.233	4.69
260.694	4.68
261.154	4.66
261.614	4.64
262.074	4.61
262.534	4.58
262.994	4.56
263.455	4.53
263.915	4.51
264.374	4.49
264.834	4.47
265.294	4.45
265.754	4.41
266.214	4.39
266.673	4.37
267.133	4.35
267.593	4.34
268.052	4.31
268.512	4.29
268.971	4.28
269.431	4.26
269.89	4.24
270.349	4.22
270.809	4.22
271.268	4.2
271.727	4.18
272.186	4.17
272.645	4.15
273.104	4.14
273.563	4.13
274.022	4.11
274.481	4.1
274.94	4.08
275.399	4.07
275.857	4.05
276.316	4.04
276.775	4.02
277.233	4.01
277.692	4
278.15	3.99
278.609	3.97
279.067	3.95
279.525	3.94
279.984	3.93
280.442	3.91
280.9	3.9
281.358	3.89
281.816	3.88
282.274	3.87
282.732	3.86
283.19	3.84
283.648	3.83
284.106	3.82
284.564	3.82
285.021	3.81
285.479	3.8
285.937	3.79
286.394	3.78
286.852	3.77
287.309	3.76
287.767	3.75
288.224	3.73
288.682	3.72
289.139	3.71
289.596	3.69
290.053	3.67
290.511	3.65
290.968	3.64
291.425	3.63
291.882	3.62
292.339	3.61
292.796	3.59
293.252	3.58
293.709	3.56
294.166	3.55
294.623	3.54
295.079	3.54
295.536	3.53
295.992	3.52
296.449	3.5
296.905	3.49
297.362	3.48
297.818	3.48
298.274	3.47
298.731	3.46
299.187	3.45
299.643	3.44
300.099	3.43
300.555	3.42
301.011	3.42
301.467	3.41
301.923	3.4
302.379	3.4
302.835	3.39
303.291	3.39
303.746	3.38
304.202	3.37
304.658	3.36
305.113	3.35
305.569	3.35
306.024	3.34
306.479	3.33
306.935	3.33
307.39	3.32
307.845	3.31
308.301	3.31
308.756	3.31
309.211	3.31
309.666	3.31
310.121	3.29
310.576	3.28
311.031	3.27
311.486	3.27
311.94	3.26
312.395	3.25
312.85	3.25
313.305	3.23
313.759	3.23
314.214	3.23
314.668	3.22
315.123	3.22
315.577	3.22
316.032	3.21
316.486	3.21
316.94	3.21
317.394	3.2
317.849	3.2
318.303	3.19
318.757	3.17
319.211	3.16
319.665	3.15
320.119	3.14
320.572	3.14
321.026	3.12
321.48	3.12
321.934	3.12
322.387	3.11
322.841	3.1
323.295	3.1
323.748	3.1
324.202	3.09
324.655	3.08
325.108	3.08
325.562	3.07
326.015	3.06
326.468	3.05
326.921	3.03
327.374	3.03
327.827	3.02
328.28	3.01
328.733	3.01
329.186	3.01
329.639	3
330.092	2.99
330.545	2.99
330.997	2.98
331.45	2.98
331.903	2.97
332.355	2.97
332.808	2.97
333.26	2.97
333.713	2.97
334.165	2.95
334.617	2.96
335.069	2.96
335.522	2.97
335.974	2.97
336.426	2.98
336.878	2.97
337.33	2.96
337.782	2.96
338.234	2.97
338.686	2.96
339.137	2.97
339.589	2.95
340.041	2.96
340.493	2.93
340.944	2.93
341.396	2.92
341.847	2.92
342.299	2.91
342.75	2.89
343.201	2.88
343.653	2.86
344.104	2.85
344.555	2.84
345.006	2.83
345.457	2.84
345.908	2.84
346.359	2.83
346.81	2.84
347.261	2.84
347.712	2.83
348.163	2.82
348.613	2.82
349.064	2.82
349.515	2.81
349.965	2.8
350.416	2.8
350.866	2.79
351.317	2.78
351.767	2.78
352.217	2.77
352.668	2.77
353.118	2.78
353.568	2.78
354.018	2.79
354.468	2.79
354.918	2.81
355.368	2.82
355.818	2.81
356.268	2.82
356.718	2.82
357.168	2.82
357.617	2.83
358.067	2.83
358.517	2.83
358.966	2.83
359.416	2.84
359.865	2.84
360.315	2.85
360.764	2.86
361.213	2.87
361.663	2.88
362.112	2.91
362.561	2.94
363.01	2.96
363.459	2.97
363.908	2.99
364.357	3.01
364.806	3.04
365.255	3.08
365.703	3.1
366.152	3.13
366.601	3.16
367.05	3.19
367.498	3.22
367.947	3.25
368.395	3.3
368.844	3.34
369.292	3.38
369.74	3.44
370.189	3.47
370.637	3.53
371.085	3.59
371.533	3.64
371.981	3.69
372.429	3.74
372.877	3.8
373.325	3.86
373.773	3.93
374.221	3.98
374.669	4.04
375.116	4.1
375.564	4.16
376.012	4.22
376.459	4.29
376.907	4.36
377.354	4.42
377.801	4.5
378.249	4.58
378.696	4.65
379.143	4.74
379.591	4.8
380.038	4.89
380.485	4.97
380.932	5.04
381.379	5.11
381.826	5.17
382.273	5.25
382.72	5.31
383.166	5.37
383.613	5.44
384.06	5.5
384.506	5.57
384.953	5.62
385.4	5.68
385.846	5.73
386.292	5.79
386.739	5.84
387.185	5.91
387.631	5.96
388.078	6.02
388.524	6.05
388.97	6.1
389.416	6.14
389.862	6.18
390.308	6.21
390.754	6.24
391.2	6.28
391.645	6.32
392.091	6.34
392.537	6.37
392.983	6.39
393.428	6.43
393.874	6.45
394.319	6.47
394.765	6.48
395.21	6.5
395.655	6.52
396.101	6.52
396.546	6.52
396.991	6.53
397.436	6.51
397.881	6.5
398.326	6.5
398.771	6.5
399.216	6.49
399.661	6.49
400.106	6.49
400.551	6.47
400.995	6.46
401.44	6.44
401.885	6.43
402.329	6.43
402.774	6.42
403.218	6.4
403.663	6.36
404.107	6.35
404.551	6.34
404.995	6.32
405.44	6.3
405.884	6.28
406.328	6.25
406.772	6.24
407.216	6.23
407.66	6.22
408.104	6.19
408.547	6.19
408.991	6.15
409.435	6.12
409.879	6.1
410.322	6.08
410.766	6.08
411.209	6.06
411.653	6.03
412.096	6.01
412.54	5.99
412.983	5.98
413.426	5.98
413.869	5.97
414.312	5.97
414.756	5.97
415.199	5.97
415.642	5.96
416.085	5.96
416.527	5.96
416.97	5.96
417.413	5.94
417.856	5.92
418.298	5.88
418.741	5.87
419.184	5.85
419.626	5.83
420.069	5.82
420.511	5.79
420.953	5.78
421.396	5.78
421.838	5.77
422.28	5.8
422.722	5.81
423.164	5.81
423.606	5.8
424.048	5.78
424.49	5.78
424.932	5.77
425.374	5.76
425.816	5.73
426.258	5.71
426.699	5.68
427.141	5.64
427.582	5.62
428.024	5.61
428.465	5.61
428.907	5.62
429.348	5.6
429.789	5.59
430.231	5.59
430.672	5.59
431.113	5.61
431.554	5.62
431.995	5.62
432.436	5.62
432.877	5.62
433.318	5.61
433.759	5.6
434.2	5.59
434.64	5.6
435.081	5.61
435.522	5.62
435.962	5.62
436.403	5.62
436.843	5.62
437.284	5.63
437.724	5.66
438.164	5.69
438.604	5.72
439.045	5.75
439.485	5.78
439.925	5.78
440.365	5.8
440.805	5.8
441.245	5.82
441.685	5.86
442.125	5.87
442.564	5.88
443.004	5.9
443.444	5.92
443.883	5.94
444.323	5.95
444.762	6
445.202	6.04
445.641	6.09
446.081	6.14
446.52	6.15
446.959	6.17
447.398	6.24
447.837	6.28
448.276	6.31
448.716	6.33
449.154	6.37
449.593	6.38
450.032	6.38
450.471	6.4
450.91	6.4
451.349	6.43
451.787	6.45
452.226	6.44
452.664	6.43
453.103	6.44
453.541	6.45
453.98	6.45
454.418	6.46
454.856	6.44
455.295	6.44
455.733	6.44
456.171	6.44
456.609	6.45
457.047	6.44
457.485	6.46
457.923	6.48
458.361	6.49
458.798	6.5
459.236	6.52
459.674	6.55
460.111	6.56
460.549	6.57
460.987	6.59
461.424	6.6
461.862	6.61
462.299	6.63
462.736	6.63
463.173	6.65
463.611	6.65
464.048	6.66
464.485	6.65
464.922	6.65
465.359	6.66
465.796	6.65
466.233	6.67
466.67	6.68
467.106	6.65
467.543	6.66
467.98	6.66
468.416	6.64
468.853	6.64
469.29	6.66
469.726	6.67
470.162	6.67
470.599	6.67
471.035	6.67
471.471	6.68
471.907	6.69
472.344	6.71
472.78	6.69
473.216	6.7
473.652	6.7
474.088	6.7
474.523	6.71
474.959	6.7
475.395	6.7
475.831	6.7
476.266	6.7
476.702	6.7
477.138	6.68
477.573	6.69
478.008	6.69
478.444	6.7
478.879	6.69
479.314	6.69
479.75	6.7
480.185	6.69
480.62	6.7
481.055	6.7
481.49	6.69
481.925	6.7
482.36	6.69
482.795	6.69
483.229	6.7
483.664	6.72
484.099	6.74
484.534	6.74
484.968	6.77
485.403	6.78
485.837	6.8
486.271	6.84
486.706	6.87
487.14	6.92
487.574	6.95
488.009	7
488.443	7.03
488.877	7.08
489.311	7.12
489.745	7.18
490.179	7.25
490.613	7.31
491.046	7.38
491.48	7.46
491.914	7.52
492.348	7.61
492.781	7.69
493.215	7.77
493.648	7.85
494.082	7.95
494.515	8.03
494.948	8.13
495.382	8.23
495.815	8.33
496.248	8.44
496.681	8.55
497.114	8.65
497.547	8.77
497.98	8.9
498.413	9.04
498.846	9.19
499.279	9.34
499.711	9.49
500.144	9.64
500.577	9.81
501.009	9.98
501.442	10.17
501.874	10.36
502.306	10.56
502.739	10.75
503.171	10.95
503.603	11.16
504.036	11.36
504.468	11.59
504.9	11.85
505.332	12.07
505.764	12.31
506.196	12.57
506.627	12.83
507.059	13.11
507.491	13.39
507.923	13.67
508.354	13.97
508.786	14.29
509.217	14.57
509.649	14.87
510.08	15.19
510.512	15.52
510.943	15.86
511.374	16.2
511.805	16.52
512.237	16.84
512.668	17.16
513.099	17.51
513.53	17.84
513.961	18.2
514.391	18.54
514.822	18.89
515.253	19.23
515.684	19.56
516.114	19.9
516.545	20.28
516.975	20.64
517.406	21.02
517.836	21.36
518.267	21.74
518.697	22.08
519.127	22.45
519.558	22.82
519.988	23.15
520.418	23.49
520.848	23.82
521.278	24.14
521.708	24.55
522.138	24.83
522.567	25.12
522.997	25.37
523.427	25.64
523.857	25.89
524.286	26.14
524.716	26.42
525.145	26.68
525.575	26.92
526.004	27.16
526.433	27.3
526.863	27.54
527.292	27.78
527.721	28
528.15	28.21
528.579	28.41
529.008	28.59
529.437	28.76
529.866	28.9
530.295	29.06
530.724	29.22
531.152	29.37
531.581	29.48
532.01	29.59
532.438	29.72
532.867	29.85
533.295	29.96
533.723	30.07
534.152	30.16
534.58	30.26
535.008	30.34
535.436	30.42
535.865	30.47
536.293	30.54
536.721	30.61
537.149	30.67
537.576	30.74
538.004	30.8
538.432	30.84
538.86	30.9
539.287	30.95
539.715	30.98
540.143	31.02
540.57	31.07
540.998	31.13
541.425	31.17
541.852	31.21
542.28	31.25
542.707	31.28
543.134	31.31
543.561	31.31
543.988	31.35
544.415	31.41
544.842	31.44
545.269	31.49
545.696	31.51
546.123	31.54
546.549	31.55
546.976	31.57
547.403	31.6
547.829	31.65
548.256	31.7
548.682	31.71
549.108	31.73
549.535	31.77
549.961	31.74
550.387	31.76
550.813	31.76
551.24	31.77
551.666	31.76
552.092	31.77
552.518	31.73
552.943	31.72
553.369	31.7
553.795	31.66
554.221	31.62
554.646	31.61
555.072	31.57
555.498	31.52
555.923	31.5
556.349	31.45
556.774	31.37
557.199	31.33
557.625	31.26
558.05	31.18
558.475	31.1
558.9	31.05
559.325	30.96
559.75	30.86
560.175	30.79
560.6	30.68
561.025	30.58
561.449	30.46
561.874	30.32
562.299	30.21
562.723	30.08
563.148	29.96
563.572	29.82
563.997	29.69
564.421	29.55
564.846	29.39
565.27	29.24
565.694	29.09
566.118	28.94
566.542	28.83
566.966	28.69
567.39	28.54
567.814	28.38
568.238	28.19
568.662	28.03
569.086	27.88
569.509	27.73
569.933	27.58
570.357	27.42
570.78	27.27
571.204	27.09
571.627	26.92
572.05	26.78
572.474	26.66
572.897	26.52
573.32	26.36
573.743	26.21
574.166	26.07
574.589	25.93
575.012	25.79
575.435	25.66
575.858	25.54
576.281	25.43
576.704	25.3
577.126	25.16
577.549	25.06
577.972	24.96
578.394	24.86
578.817	24.76
579.239	24.68
579.661	24.58
580.084	24.49
580.506	24.4
580.928	24.28
581.35	24.19
581.772	24.1
582.194	24
582.616	23.91
583.038	23.81
583.46	23.72
583.882	23.62
584.303	23.53
584.725	23.44
585.147	23.35
585.568	23.27
585.99	23.21
586.411	23.12
586.833	23.05
587.254	23
587.675	22.92
588.096	22.85
588.518	22.79
588.939	22.73
589.36	22.68
589.781	22.62
590.202	22.57
590.623	22.49
591.043	22.44
591.464	22.37
591.885	22.3
592.305	22.26
592.726	22.2
593.147	22.15
593.567	22.09
593.987	22.05
594.408	22
594.828	21.95
595.248	21.91
595.669	21.88
596.089	21.84
596.509	21.79
596.929	21.72
597.349	21.68
597.769	21.63
598.189	21.59
598.608	21.55
599.028	21.49
599.448	21.44
599.867	21.4
600.287	21.35
600.706	21.31
601.126	21.24
601.545	21.21
601.965	21.15
602.384	21.09
602.803	21.03
603.222	20.96
603.641	20.9
604.061	20.84
604.48	20.78
604.898	20.7
605.317	20.62
605.736	20.57
606.155	20.49
606.574	20.42
606.992	20.36
607.411	20.3
607.829	20.18
608.248	20.1
608.666	20.01
609.085	19.93
609.503	19.85
609.921	19.77
610.339	19.71
610.758	19.62
611.176	19.54
611.594	19.45
612.012	19.36
612.43	19.32
612.847	19.26
613.265	19.17
613.683	19.1
614.101	19
614.518	18.92
614.936	18.84
615.353	18.77
615.771	18.7
616.188	18.64
616.606	18.57
617.023	18.49
617.44	18.41
617.857	18.34
618.274	18.27
618.691	18.21
619.108	18.15
619.525	18.09
619.942	18.05
620.359	18.01
620.776	17.96
621.192	17.93
621.609	17.9
622.026	17.89
622.442	17.87
622.859	17.84
623.275	17.84
623.691	17.82
624.108	17.82
624.524	17.79
624.94	17.76
625.356	17.74
625.772	17.72
626.188	17.72
626.604	17.68
627.02	17.67
627.436	17.67
627.852	17.64
628.268	17.62
628.683	17.58
629.099	17.56
629.514	17.52
629.93	17.49
630.345	17.45
630.761	17.4
631.176	17.35
631.591	17.29
632.007	17.23
632.422	17.16
632.837	17.07
633.252	16.99
633.667	16.89
634.082	16.79
634.497	16.67
634.911	16.55
635.326	16.41
635.741	16.27
636.155	16.15
636.57	15.98
636.984	15.82
637.399	15.64
637.813	15.44
638.228	15.26
638.642	15.08
639.056	14.91
639.47	14.73
639.884	14.55
640.298	14.35
640.712	14.15
641.126	13.95
641.54	13.76
641.954	13.6
642.368	13.44
642.781	13.27
643.195	13.09
643.609	12.92
644.022	12.75
644.436	12.59
644.849	12.44
645.262	12.29
645.676	12.15
646.089	12.02
646.502	11.91
646.915	11.79
647.328	11.69
647.741	11.58
648.154	11.5
648.567	11.43
648.98	11.37
649.393	11.31
649.805	11.25
650.218	11.22
650.631	11.16
651.043	11.11
651.456	11.08
651.868	11.04
652.28	11.01
652.693	10.95
653.105	10.9
653.517	10.85
653.929	10.8
654.341	10.76
654.753	10.7
655.165	10.66
655.577	10.58
655.989	10.49
656.401	10.4
656.813	10.32
657.224	10.24
657.636	10.15
658.047	10.05
658.459	9.94
658.87	9.83
659.282	9.72
659.693	9.61
660.104	9.5
660.515	9.39
660.926	9.29
661.338	9.17
661.749	9.05
662.159	8.94
662.57	8.83
662.981	8.73
663.392	8.63
663.803	8.54
664.213	8.45
664.624	8.37
665.035	8.28
665.445	8.2
665.855	8.13
666.266	8.07
666.676	8.01
667.086	7.96
667.497	7.9
667.907	7.84
668.317	7.79
668.727	7.74
669.137	7.71
669.547	7.7
669.956	7.67
670.366	7.68
670.776	7.66
671.186	7.64
671.595	7.63
672.005	7.64
672.414	7.66
672.824	7.67
673.233	7.7
673.642	7.71
674.052	7.72
674.461	7.75
674.87	7.78
675.279	7.83
675.688	7.87
676.097	7.92
676.506	7.98
676.915	8.05
677.323	8.12
677.732	8.19
678.141	8.28
678.549	8.37
678.958	8.48
679.366	8.58
679.775	8.71
680.183	8.86
680.592	9.02
681	9.18
681.408	9.35
681.816	9.53
682.224	9.75
682.632	9.98
683.04	10.23
683.448	10.48
683.856	10.76
684.264	11.09
684.671	11.44
685.079	11.79
685.487	12.19
685.894	12.62
686.302	13.07
686.709	13.55
687.116	14.06
687.524	14.61
687.931	15.19
688.338	15.77
688.745	16.37
689.152	16.99
689.559	17.64
689.966	18.31
690.373	18.98
690.78	19.67
691.187	20.36
691.593	21.05
692	21.74
692.407	22.44
692.813	23.15
693.22	23.86
693.626	24.55
694.032	25.25
694.439	25.94
694.845	26.62
695.251	27.3
695.657	27.97
696.063	28.62
696.469	29.27
696.875	29.88
697.281	30.48
697.687	31.1
698.093	31.69
698.498	32.27
698.904	32.85
699.31	33.38
699.715	33.94
700.12	34.45
700.526	34.98
700.931	35.49
701.337	35.99
701.742	36.47
702.147	36.95
702.552	37.41
702.957	37.84
703.362	38.28
703.767	38.71
704.172	39.12
704.577	39.53
704.981	39.92
705.386	40.3
705.791	40.69
706.195	41.06
706.6	41.4
707.004	41.74
707.408	42.09
707.813	42.4
708.217	42.72
708.621	43.01
709.025	43.35
709.43	43.64
709.834	43.96
710.237	44.23
710.641	44.51
711.045	44.78
711.449	45.05
711.853	45.33
712.256	45.6
712.66	45.86
713.064	46.08
713.467	46.3
713.87	46.52
714.274	46.74
714.677	46.96
715.08	47.13
715.484	47.33
715.887	47.53
716.29	47.7
716.693	47.88
717.096	48.08
717.499	48.33
717.901	48.49
718.304	48.69
718.707	48.84
719.109	49.02
719.512	49.25
719.915	49.44
720.317	49.63
720.719	49.78
721.122	49.95
721.524	50.1
721.926	50.23
722.328	50.4
722.731	50.54
723.133	50.68
723.535	50.82
723.937	50.93
724.338	51.02
724.74	51.11
725.142	51.26
725.544	51.36
725.945	51.46
726.347	51.55
726.748	51.6
727.15	51.68
727.551	51.77
727.952	51.83
728.354	51.95
728.755	52.05
729.156	52.15
729.557	52.21
729.958	52.33
730.359	52.41
730.76	52.48
731.161	52.58
731.562	52.64
731.962	52.73
732.363	52.79
732.763	52.84
733.164	52.88
733.564	52.94
733.965	52.94
734.365	52.94
734.766	52.96
735.166	52.95
735.566	52.97
735.966	52.98
736.366	52.96
736.766	52.99
737.166	53.03
737.566	53.08
737.966	53.09
738.365	53.17
738.765	53.22
739.165	53.2
739.564	53.27
739.964	53.3
740.363	53.35
740.763	53.39
741.162	53.4
741.561	53.4
741.96	53.41
742.36	53.44
742.759	53.42
743.158	53.4
743.557	53.51
743.955	53.53
744.354	53.56
744.753	53.59
745.152	53.6
745.55	53.62
745.949	53.63
746.348	53.62
746.746	53.61
747.144	53.64
747.543	53.65
747.941	53.63
748.339	53.65
748.737	53.66
749.136	53.66
749.534	53.67
749.932	53.7
750.33	53.72
750.727	53.75
751.125	53.77
751.523	53.74
751.921	53.76
752.318	53.73
752.716	53.72
753.113	53.72
753.511	53.7
753.908	53.7
754.305	53.69
754.703	53.65
755.1	53.64
755.497	53.57
755.894	53.54
756.291	53.47
756.688	53.38
757.085	53.31
757.482	53.21
757.878	53.15
758.275	53.07
758.672	53.02
759.068	52.98
759.465	52.92
759.861	52.92
760.258	52.9
760.654	52.89
761.05	52.93
761.447	52.95
761.843	53
762.239	52.99
762.635	53.02
763.031	53.07
763.427	53.12
763.822	53.12
764.218	53.14
764.614	53.17
765.01	53.21
765.405	53.23
765.801	53.23
766.196	53.25
766.592	53.28
766.987	53.32
767.382	53.31
767.778	53.3
768.173	53.35
768.568	53.34
768.963	53.36
769.358	53.37
769.753	53.4
770.148	53.39
770.542	53.36
770.937	53.34
771.332	53.3
771.726	53.26
772.121	53.23
772.515	53.16
772.91	53.19
773.304	53.12
773.699	53.13
774.093	53.06
774.487	53.06
774.881	53.06
775.275	53.07
775.669	53.07
776.063	53.07
776.457	53.05
776.851	53.03
777.245	53.03
777.638	53.09
778.032	53.07
778.425	53.11
778.819	53.11
779.212	53.09
779.606	53.08
779.999	53.07
780.392	53.06
780.786	53.09
781.179	53.12
