Data from N_1_dec_va_2n_009_Splice17_02.txt Node
Date: Sat Feb 29 13:36:14 EST 2020
User: sa697716
Spectrometer: FLMS03696
Trigger mode: 0
Integration Time (sec): 3.180400E-1
Scans to average: 20
Electric dark correction enabled: true
Nonlinearity correction enabled: true
Boxcar width: 5
XAxis mode: Wavelengths
Number of Pixels in Spectrum: 2048
>>>>>Begin Spectral Data<<<<<
187.83	172.39
188.298	180.67
188.766	159.69
189.233	161.17
189.701	164.76
190.169	157.4
190.636	171.75
191.104	165.67
191.571	467.53
192.039	337.19
192.506	-234.12
192.974	5344.71
193.441	219.13
193.908	69.78
194.375	127.22
194.842	214.63
195.31	130.31
195.777	166.97
196.244	35.63
196.711	23.31
197.177	18.55
197.644	18.59
198.111	16.18
198.578	17.16
199.045	17.42
199.511	17.37
199.978	17.9
200.445	17.86
200.911	18.19
201.378	18.31
201.844	18.08
202.31	19.01
202.777	19.24
203.243	20.31
203.709	20.76
204.176	20.09
204.642	20.41
205.108	20.32
205.574	20.73
206.04	20.48
206.506	20.44
206.972	20.81
207.438	20.73
207.903	20.75
208.369	20.24
208.835	20.08
209.301	20.62
209.766	20.29
210.232	20.15
210.697	19.97
211.163	19.75
211.628	19.45
212.094	19.25
212.559	18.94
213.024	18.69
213.49	18.53
213.955	18.5
214.42	18.31
214.885	18.06
215.35	17.75
215.815	17.26
216.28	16.84
216.745	16.45
217.21	16.03
217.675	15.37
218.14	14.77
218.604	14.22
219.069	13.81
219.534	13.35
219.998	13.01
220.463	12.75
220.927	12.52
221.392	12.27
221.856	12.03
222.32	11.83
222.785	11.66
223.249	11.51
223.713	11.41
224.177	11.2
224.642	11.09
225.106	10.96
225.57	10.81
226.034	10.67
226.497	10.56
226.961	10.45
227.425	10.31
227.889	10.18
228.353	10.06
228.816	9.94
229.28	9.84
229.744	9.72
230.207	9.64
230.671	9.54
231.134	9.43
231.597	9.31
232.061	9.2
232.524	9.11
232.987	9.02
233.45	8.92
233.914	8.82
234.377	8.73
234.84	8.65
235.303	8.55
235.766	8.46
236.229	8.39
236.691	8.33
237.154	8.27
237.617	8.19
238.08	8.11
238.542	8.03
239.005	7.96
239.468	7.86
239.93	7.78
240.393	7.71
240.855	7.63
241.317	7.54
241.78	7.46
242.242	7.39
242.704	7.33
243.166	7.29
243.629	7.23
244.091	7.19
244.553	7.16
245.015	7.11
245.477	7.05
245.939	7
246.4	6.95
246.862	6.91
247.324	6.87
247.786	6.81
248.247	6.76
248.709	6.7
249.17	6.65
249.632	6.61
250.093	6.56
250.555	6.52
251.016	6.49
251.477	6.46
251.939	6.43
252.4	6.4
252.861	6.37
253.322	6.33
253.783	6.31
254.244	6.28
254.705	6.25
255.166	6.24
255.627	6.22
256.088	6.19
256.549	6.16
257.009	6.13
257.47	6.11
257.931	6.08
258.391	6.05
258.852	6.02
259.312	5.99
259.773	5.96
260.233	5.93
260.694	5.91
261.154	5.88
261.614	5.85
262.074	5.82
262.534	5.79
262.994	5.77
263.455	5.75
263.915	5.73
264.374	5.71
264.834	5.7
265.294	5.67
265.754	5.65
266.214	5.64
266.673	5.63
267.133	5.61
267.593	5.6
268.052	5.58
268.512	5.56
268.971	5.55
269.431	5.53
269.89	5.53
270.349	5.51
270.809	5.51
271.268	5.5
271.727	5.49
272.186	5.48
272.645	5.46
273.104	5.45
273.563	5.44
274.022	5.43
274.481	5.42
274.94	5.4
275.399	5.38
275.857	5.37
276.316	5.35
276.775	5.33
277.233	5.31
277.692	5.3
278.15	5.29
278.609	5.27
279.067	5.25
279.525	5.23
279.984	5.22
280.442	5.21
280.9	5.2
281.358	5.18
281.816	5.17
282.274	5.16
282.732	5.15
283.19	5.13
283.648	5.12
284.106	5.11
284.564	5.1
285.021	5.1
285.479	5.09
285.937	5.08
286.394	5.07
286.852	5.05
287.309	5.05
287.767	5.04
288.224	5.03
288.682	5.02
289.139	5.01
289.596	5
290.053	4.98
290.511	4.96
290.968	4.95
291.425	4.93
291.882	4.91
292.339	4.89
292.796	4.87
293.252	4.84
293.709	4.83
294.166	4.82
294.623	4.8
295.079	4.8
295.536	4.79
295.992	4.78
296.449	4.78
296.905	4.77
297.362	4.76
297.818	4.76
298.274	4.75
298.731	4.74
299.187	4.73
299.643	4.72
300.099	4.71
300.555	4.7
301.011	4.69
301.467	4.68
301.923	4.67
302.379	4.66
302.835	4.65
303.291	4.65
303.746	4.64
304.202	4.64
304.658	4.63
305.113	4.63
305.569	4.63
306.024	4.63
306.479	4.63
306.935	4.63
307.39	4.62
307.845	4.62
308.301	4.62
308.756	4.62
309.211	4.62
309.666	4.61
310.121	4.61
310.576	4.6
311.031	4.6
311.486	4.59
311.94	4.58
312.395	4.59
312.85	4.58
313.305	4.56
313.759	4.56
314.214	4.55
314.668	4.54
315.123	4.54
315.577	4.54
316.032	4.52
316.486	4.52
316.94	4.5
317.394	4.5
317.849	4.48
318.303	4.49
318.757	4.48
319.211	4.47
319.665	4.46
320.119	4.46
320.572	4.44
321.026	4.44
321.48	4.43
321.934	4.42
322.387	4.42
322.841	4.42
323.295	4.41
323.748	4.41
324.202	4.4
324.655	4.4
325.108	4.38
325.562	4.38
326.015	4.37
326.468	4.37
326.921	4.36
327.374	4.34
327.827	4.33
328.28	4.33
328.733	4.31
329.186	4.31
329.639	4.3
330.092	4.31
330.545	4.3
330.997	4.3
331.45	4.3
331.903	4.3
332.355	4.3
332.808	4.3
333.26	4.29
333.713	4.28
334.165	4.28
334.617	4.27
335.069	4.26
335.522	4.27
335.974	4.28
336.426	4.27
336.878	4.27
337.33	4.27
337.782	4.27
338.234	4.27
338.686	4.27
339.137	4.27
339.589	4.27
340.041	4.26
340.493	4.25
340.944	4.24
341.396	4.24
341.847	4.23
342.299	4.21
342.75	4.19
343.201	4.17
343.653	4.17
344.104	4.16
344.555	4.15
345.006	4.14
345.457	4.13
345.908	4.12
346.359	4.12
346.81	4.13
347.261	4.12
347.712	4.12
348.163	4.11
348.613	4.1
349.064	4.09
349.515	4.09
349.965	4.08
350.416	4.08
350.866	4.07
351.317	4.05
351.767	4.04
352.217	4.03
352.668	4.03
353.118	4.04
353.568	4.04
354.018	4.04
354.468	4.03
354.918	4.04
355.368	4.03
355.818	4.02
356.268	4.02
356.718	4.03
357.168	4.03
357.617	4.02
358.067	4.01
358.517	4.01
358.966	4.02
359.416	4.03
359.865	4.02
360.315	4.02
360.764	4.02
361.213	4.02
361.663	4.02
362.112	4.02
362.561	4.02
363.01	4.03
363.459	4.02
363.908	4.02
364.357	4.02
364.806	4.01
365.255	4.02
365.703	4.02
366.152	4.01
366.601	4.02
367.05	4.03
367.498	4.03
367.947	4.02
368.395	4.03
368.844	4.03
369.292	4.03
369.74	4.03
370.189	4.03
370.637	4.03
371.085	4.04
371.533	4.04
371.981	4.04
372.429	4.04
372.877	4.04
373.325	4.04
373.773	4.03
374.221	4.04
374.669	4.03
375.116	4.03
375.564	4.03
376.012	4.03
376.459	4.03
376.907	4.05
377.354	4.04
377.801	4.06
378.249	4.08
378.696	4.09
379.143	4.11
379.591	4.13
380.038	4.16
380.485	4.18
380.932	4.19
381.379	4.2
381.826	4.21
382.273	4.23
382.72	4.25
383.166	4.26
383.613	4.27
384.06	4.29
384.506	4.31
384.953	4.31
385.4	4.32
385.846	4.32
386.292	4.34
386.739	4.35
387.185	4.38
387.631	4.39
388.078	4.4
388.524	4.4
388.97	4.42
389.416	4.42
389.862	4.43
390.308	4.46
390.754	4.49
391.2	4.51
391.645	4.54
392.091	4.54
392.537	4.57
392.983	4.58
393.428	4.61
393.874	4.63
394.319	4.65
394.765	4.66
395.21	4.67
395.655	4.67
396.101	4.68
396.546	4.69
396.991	4.69
397.436	4.67
397.881	4.68
398.326	4.69
398.771	4.71
399.216	4.72
399.661	4.73
400.106	4.75
400.551	4.73
400.995	4.73
401.44	4.72
401.885	4.73
402.329	4.76
402.774	4.75
403.218	4.74
403.663	4.71
404.107	4.72
404.551	4.72
404.995	4.71
405.44	4.7
405.884	4.7
406.328	4.71
406.772	4.7
407.216	4.7
407.66	4.7
408.104	4.7
408.547	4.73
408.991	4.73
409.435	4.72
409.879	4.72
410.322	4.74
410.766	4.74
411.209	4.75
411.653	4.75
412.096	4.74
412.54	4.74
412.983	4.74
413.426	4.74
413.869	4.75
414.312	4.76
414.756	4.77
415.199	4.76
415.642	4.77
416.085	4.77
416.527	4.79
416.97	4.8
417.413	4.79
417.856	4.77
418.298	4.74
418.741	4.74
419.184	4.73
419.626	4.71
420.069	4.7
420.511	4.7
420.953	4.7
421.396	4.69
421.838	4.7
422.28	4.71
422.722	4.74
423.164	4.75
423.606	4.74
424.048	4.73
424.49	4.75
424.932	4.75
425.374	4.73
425.816	4.71
426.258	4.7
426.699	4.68
427.141	4.66
427.582	4.63
428.024	4.64
428.465	4.63
428.907	4.64
429.348	4.64
429.789	4.65
430.231	4.65
430.672	4.66
431.113	4.66
431.554	4.66
431.995	4.68
432.436	4.69
432.877	4.69
433.318	4.7
433.759	4.69
434.2	4.69
434.64	4.7
435.081	4.7
435.522	4.73
435.962	4.75
436.403	4.79
436.843	4.78
437.284	4.77
437.724	4.8
438.164	4.8
438.604	4.81
439.045	4.82
439.485	4.83
439.925	4.83
440.365	4.82
440.805	4.81
441.245	4.79
441.685	4.81
442.125	4.8
442.564	4.79
443.004	4.8
443.444	4.81
443.883	4.83
444.323	4.82
444.762	4.85
445.202	4.89
445.641	4.9
446.081	4.92
446.52	4.91
446.959	4.94
447.398	4.97
447.837	4.99
448.276	5
448.716	5
449.154	5.04
449.593	5.04
450.032	5.05
450.471	5.08
450.91	5.08
451.349	5.12
451.787	5.13
452.226	5.12
452.664	5.11
453.103	5.12
453.541	5.13
453.98	5.11
454.418	5.11
454.856	5.09
455.295	5.06
455.733	5.05
456.171	5.04
456.609	5.05
457.047	5.04
457.485	5.06
457.923	5.04
458.361	5.03
458.798	5.05
459.236	5.05
459.674	5.05
460.111	5.07
460.549	5.07
460.987	5.08
461.424	5.06
461.862	5.06
462.299	5.06
462.736	5.08
463.173	5.07
463.611	5.07
464.048	5.07
464.485	5.07
464.922	5.07
465.359	5.07
465.796	5.06
466.233	5.08
466.67	5.08
467.106	5.06
467.543	5.05
467.98	5.06
468.416	5.05
468.853	5.04
469.29	5.03
469.726	5.03
470.162	5.03
470.599	5.03
471.035	5.04
471.471	5.02
471.907	5.03
472.344	5.04
472.78	5.03
473.216	5.02
473.652	5.02
474.088	5.04
474.523	5.03
474.959	5.03
475.395	5.01
475.831	5.02
476.266	5.03
476.702	5.01
477.138	5
477.573	4.99
478.008	4.99
478.444	4.99
478.879	4.98
479.314	4.97
479.75	4.98
480.185	4.97
480.62	4.96
481.055	4.95
481.49	4.94
481.925	4.94
482.36	4.94
482.795	4.93
483.229	4.93
483.664	4.92
484.099	4.93
484.534	4.92
484.968	4.93
485.403	4.93
485.837	4.94
486.271	4.94
486.706	4.94
487.14	4.97
487.574	4.98
488.009	5
488.443	5.02
488.877	5.05
489.311	5.07
489.745	5.09
490.179	5.11
490.613	5.13
491.046	5.17
491.48	5.21
491.914	5.23
492.348	5.25
492.781	5.29
493.215	5.31
493.648	5.35
494.082	5.4
494.515	5.43
494.948	5.48
495.382	5.53
495.815	5.59
496.248	5.64
496.681	5.7
497.114	5.76
497.547	5.82
497.98	5.91
498.413	5.97
498.846	6.04
499.279	6.12
499.711	6.2
500.144	6.28
500.577	6.37
501.009	6.45
501.442	6.55
501.874	6.67
502.306	6.78
502.739	6.88
503.171	7.02
503.603	7.16
504.036	7.3
504.468	7.44
504.9	7.6
505.332	7.75
505.764	7.93
506.196	8.11
506.627	8.27
507.059	8.46
507.491	8.66
507.923	8.85
508.354	9.05
508.786	9.26
509.217	9.49
509.649	9.73
510.08	9.98
510.512	10.22
510.943	10.48
511.374	10.73
511.805	10.99
512.237	11.26
512.668	11.53
513.099	11.83
513.53	12.11
513.961	12.42
514.391	12.71
514.822	13
515.253	13.3
515.684	13.59
516.114	13.91
516.545	14.24
516.975	14.57
517.406	14.9
517.836	15.2
518.267	15.53
518.697	15.85
519.127	16.18
519.558	16.5
519.988	16.84
520.418	17.16
520.848	17.47
521.278	17.78
521.708	18.18
522.138	18.48
522.567	18.79
522.997	19.07
523.427	19.35
523.857	19.63
524.286	19.89
524.716	20.16
525.145	20.44
525.575	20.71
526.004	20.95
526.433	21.12
526.863	21.35
527.292	21.59
527.721	21.82
528.15	22.03
528.579	22.24
529.008	22.45
529.437	22.64
529.866	22.8
530.295	22.98
530.724	23.17
531.152	23.3
531.581	23.44
532.01	23.57
532.438	23.7
532.867	23.81
533.295	23.92
533.723	24.04
534.152	24.14
534.58	24.23
535.008	24.28
535.436	24.33
535.865	24.41
536.293	24.49
536.721	24.56
537.149	24.61
537.576	24.67
538.004	24.74
538.432	24.78
538.86	24.82
539.287	24.89
539.715	24.97
540.143	25.01
540.57	25.05
540.998	25.09
541.425	25.16
541.852	25.2
542.28	25.23
542.707	25.27
543.134	25.3
543.561	25.32
543.988	25.33
544.415	25.36
544.842	25.39
545.269	25.43
545.696	25.45
546.123	25.46
546.549	25.49
546.976	25.52
547.403	25.54
547.829	25.56
548.256	25.57
548.682	25.57
549.108	25.59
549.535	25.6
549.961	25.6
550.387	25.6
550.813	25.58
551.24	25.59
551.666	25.6
552.092	25.58
552.518	25.55
552.943	25.54
553.369	25.54
553.795	25.5
554.221	25.47
554.646	25.43
555.072	25.38
555.498	25.35
555.923	25.29
556.349	25.21
556.774	25.14
557.199	25.08
557.625	25
558.05	24.91
558.475	24.81
558.9	24.72
559.325	24.61
559.75	24.48
560.175	24.36
560.6	24.24
561.025	24.12
561.449	23.97
561.874	23.83
562.299	23.66
562.723	23.5
563.148	23.33
563.572	23.16
563.997	23.01
564.421	22.84
564.846	22.65
565.27	22.46
565.694	22.26
566.118	22.06
566.542	21.89
566.966	21.74
567.39	21.56
567.814	21.38
568.238	21.19
568.662	20.97
569.086	20.79
569.509	20.6
569.933	20.41
570.357	20.23
570.78	20.07
571.204	19.9
571.627	19.71
572.05	19.54
572.474	19.39
572.897	19.23
573.32	19.06
573.743	18.92
574.166	18.77
574.589	18.63
575.012	18.5
575.435	18.35
575.858	18.2
576.281	18.08
576.704	17.95
577.126	17.82
577.549	17.72
577.972	17.6
578.394	17.48
578.817	17.39
579.239	17.28
579.661	17.18
580.084	17.08
580.506	16.98
580.928	16.86
581.35	16.76
581.772	16.66
582.194	16.56
582.616	16.48
583.038	16.37
583.46	16.27
583.882	16.19
584.303	16.1
584.725	16.02
585.147	15.92
585.568	15.85
585.99	15.79
586.411	15.7
586.833	15.62
587.254	15.55
587.675	15.49
588.096	15.43
588.518	15.38
588.939	15.31
589.36	15.25
589.781	15.19
590.202	15.13
590.623	15.07
591.043	15.02
591.464	14.95
591.885	14.9
592.305	14.84
592.726	14.78
593.147	14.73
593.567	14.69
593.987	14.65
594.408	14.6
594.828	14.55
595.248	14.5
595.669	14.47
596.089	14.44
596.509	14.39
596.929	14.34
597.349	14.29
597.769	14.24
598.189	14.2
598.608	14.15
599.028	14.11
599.448	14.08
599.867	14.04
600.287	13.99
600.706	13.94
601.126	13.9
601.545	13.86
601.965	13.82
602.384	13.77
602.803	13.71
603.222	13.65
603.641	13.6
604.061	13.53
604.48	13.46
604.898	13.4
605.317	13.33
605.736	13.26
606.155	13.19
606.574	13.12
606.992	13.04
607.411	12.97
607.829	12.86
608.248	12.79
608.666	12.71
609.085	12.65
609.503	12.58
609.921	12.5
610.339	12.43
610.758	12.36
611.176	12.28
611.594	12.2
612.012	12.12
612.43	12.09
612.847	12.01
613.265	11.94
613.683	11.86
614.101	11.78
614.518	11.71
614.936	11.63
615.353	11.56
615.771	11.49
616.188	11.43
616.606	11.36
617.023	11.3
617.44	11.24
617.857	11.18
618.274	11.13
618.691	11.09
619.108	11.04
619.525	11
619.942	10.96
620.359	10.93
620.776	10.89
621.192	10.87
621.609	10.83
622.026	10.8
622.442	10.78
622.859	10.76
623.275	10.74
623.691	10.72
624.108	10.71
624.524	10.69
624.94	10.66
625.356	10.65
625.772	10.64
626.188	10.64
626.604	10.62
627.02	10.61
627.436	10.59
627.852	10.56
628.268	10.56
628.683	10.52
629.099	10.51
629.514	10.48
629.93	10.46
630.345	10.43
630.761	10.39
631.176	10.37
631.591	10.32
632.007	10.28
632.422	10.23
632.837	10.16
633.252	10.11
633.667	10.03
634.082	9.97
634.497	9.89
634.911	9.81
635.326	9.71
635.741	9.59
636.155	9.5
636.57	9.39
636.984	9.26
637.399	9.14
637.813	9.02
638.228	8.9
638.642	8.77
639.056	8.64
639.47	8.52
639.884	8.4
640.298	8.28
640.712	8.15
641.126	8.02
641.54	7.9
641.954	7.81
642.368	7.7
642.781	7.58
643.195	7.46
643.609	7.37
644.022	7.25
644.436	7.15
644.849	7.07
645.262	6.99
645.676	6.91
646.089	6.84
646.502	6.76
646.915	6.7
647.328	6.65
647.741	6.6
648.154	6.55
648.567	6.54
648.98	6.49
649.393	6.45
649.805	6.41
650.218	6.39
650.631	6.36
651.043	6.34
651.456	6.31
651.868	6.28
652.28	6.27
652.693	6.23
653.105	6.18
653.517	6.16
653.929	6.14
654.341	6.12
654.753	6.08
655.165	6.05
655.577	6
655.989	5.96
656.401	5.91
656.813	5.86
657.224	5.82
657.636	5.79
658.047	5.76
658.459	5.7
658.87	5.65
659.282	5.62
659.693	5.57
660.104	5.53
660.515	5.48
660.926	5.44
661.338	5.4
661.749	5.36
662.159	5.32
662.57	5.27
662.981	5.24
663.392	5.2
663.803	5.16
664.213	5.13
664.624	5.11
665.035	5.08
665.445	5.06
665.855	5.05
666.266	5.05
666.676	5.04
667.086	5.03
667.497	5.02
667.907	5.01
668.317	5
668.727	5.01
669.137	5.03
669.547	5.05
669.956	5.07
670.366	5.08
670.776	5.09
671.186	5.11
671.595	5.14
672.005	5.18
672.414	5.21
672.824	5.26
673.233	5.28
673.642	5.3
674.052	5.34
674.461	5.37
674.87	5.4
675.279	5.44
675.688	5.48
676.097	5.52
676.506	5.57
676.915	5.62
677.323	5.67
677.732	5.73
678.141	5.8
678.549	5.85
678.958	5.92
679.366	5.98
679.775	6.04
680.183	6.13
680.592	6.2
681	6.26
681.408	6.33
681.816	6.4
682.224	6.47
682.632	6.57
683.04	6.66
683.448	6.76
683.856	6.89
684.264	7.02
684.671	7.17
685.079	7.32
685.487	7.5
685.894	7.71
686.302	7.93
686.709	8.17
687.116	8.45
687.524	8.74
687.931	9.07
688.338	9.42
688.745	9.78
689.152	10.18
689.559	10.6
689.966	11.05
690.373	11.56
690.78	12.07
691.187	12.61
691.593	13.17
692	13.75
692.407	14.35
692.813	14.97
693.22	15.6
693.626	16.26
694.032	16.92
694.439	17.62
694.845	18.28
695.251	18.99
695.657	19.66
696.063	20.37
696.469	21.06
696.875	21.73
697.281	22.42
697.687	23.13
698.093	23.81
698.498	24.5
698.904	25.17
699.31	25.82
699.715	26.49
700.12	27.15
700.526	27.79
700.931	28.45
701.337	29.11
701.742	29.75
702.147	30.37
702.552	31
702.957	31.59
703.362	32.2
703.767	32.79
704.172	33.37
704.577	33.95
704.981	34.53
705.386	35.08
705.791	35.63
706.195	36.15
706.6	36.67
707.004	37.2
707.408	37.71
707.813	38.22
708.217	38.73
708.621	39.24
709.025	39.73
709.43	40.19
709.834	40.69
710.237	41.15
710.641	41.6
711.045	42.04
711.449	42.47
711.853	42.92
712.256	43.37
712.66	43.79
713.064	44.2
713.467	44.61
713.87	45
714.274	45.4
714.677	45.82
715.08	46.2
715.484	46.61
715.887	46.99
716.29	47.35
716.693	47.72
717.096	48.1
717.499	48.49
717.901	48.82
718.304	49.17
718.707	49.48
719.109	49.83
719.512	50.17
719.915	50.48
720.317	50.8
720.719	51.12
721.122	51.4
721.524	51.67
721.926	51.92
722.328	52.21
722.731	52.47
723.133	52.75
723.535	53
723.937	53.27
724.338	53.51
724.74	53.73
725.142	53.97
725.544	54.18
725.945	54.43
726.347	54.65
726.748	54.79
727.15	55
727.551	55.16
727.952	55.32
728.354	55.5
728.755	55.69
729.156	55.87
729.557	56.03
729.958	56.23
730.359	56.35
730.76	56.49
731.161	56.65
731.562	56.76
731.962	56.92
732.363	57.07
732.763	57.16
733.164	57.27
733.564	57.36
733.965	57.44
734.365	57.5
734.766	57.59
735.166	57.65
735.566	57.72
735.966	57.79
736.366	57.8
736.766	57.84
737.166	57.9
737.566	57.96
737.966	58.05
738.365	58.12
738.765	58.19
739.165	58.21
739.564	58.3
739.964	58.39
740.363	58.46
740.763	58.54
741.162	58.57
741.561	58.64
741.96	58.69
742.36	58.75
742.759	58.76
743.158	58.79
743.557	58.87
743.955	58.9
744.354	58.95
744.753	58.99
745.152	59
745.55	59.06
745.949	59.08
746.348	59.08
746.746	59.09
747.144	59.15
747.543	59.17
747.941	59.17
748.339	59.23
748.737	59.25
749.136	59.24
749.534	59.3
749.932	59.31
750.33	59.33
750.727	59.36
751.125	59.37
751.523	59.36
751.921	59.41
752.318	59.44
752.716	59.42
753.113	59.43
753.511	59.44
753.908	59.43
754.305	59.44
754.703	59.42
755.1	59.4
755.497	59.4
755.894	59.38
756.291	59.33
756.688	59.28
757.085	59.27
757.482	59.25
757.878	59.26
758.275	59.24
758.672	59.24
759.068	59.2
759.465	59.19
759.861	59.17
760.258	59.16
760.654	59.18
761.05	59.2
761.447	59.16
761.843	59.14
762.239	59.11
762.635	59.09
763.031	59.08
763.427	59.09
763.822	59.08
764.218	59.09
764.614	59.09
765.01	59.07
765.405	59.04
765.801	59.03
766.196	59.04
766.592	59.06
766.987	59.1
767.382	59.13
767.778	59.13
768.173	59.13
768.568	59.1
768.963	59.08
769.358	59.07
769.753	59.1
770.148	59.1
770.542	59.08
770.937	59.08
771.332	59.03
771.726	58.98
772.121	58.95
772.515	58.94
772.91	58.94
773.304	58.9
773.699	58.87
774.093	58.83
774.487	58.82
774.881	58.84
775.275	58.79
775.669	58.79
776.063	58.74
776.457	58.73
776.851	58.71
777.245	58.74
777.638	58.76
778.032	58.77
778.425	58.78
778.819	58.78
779.212	58.72
779.606	58.73
779.999	58.73
780.392	58.79
780.786	58.8
781.179	58.81
781.572	58.8
781.965	58.81
782.358	58.78
782.751	58.78
783.143	58.77
783.536	58.82
