Data from N_1_dec_on_6n_017_Splice17_02.txt Node
Date: Sat Feb 29 13:40:07 EST 2020
User: sa697716
Spectrometer: FLMS03696
Trigger mode: 0
Integration Time (sec): 3.180400E-1
Scans to average: 20
Electric dark correction enabled: true
Nonlinearity correction enabled: true
Boxcar width: 5
XAxis mode: Wavelengths
Number of Pixels in Spectrum: 2048
>>>>>Begin Spectral Data<<<<<
187.83	63.23
188.298	62.5
188.766	65.52
189.233	58.24
189.701	67.55
190.169	69.75
190.636	69.66
191.104	52.99
191.571	176.07
192.039	147.87
192.506	18.42
192.974	2849.16
193.441	-80.77
193.908	85.4
194.375	122.27
194.842	112.16
195.31	63.55
195.777	94.2
196.244	26.13
196.711	16.01
197.177	10.12
197.644	8.69
198.111	7.95
198.578	8.43
199.045	8.82
199.511	8.55
199.978	9.33
200.445	9.41
200.911	9.64
201.378	9.42
201.844	9.91
202.31	10.54
202.777	10.6
203.243	11.35
203.709	11.92
204.176	11.43
204.642	11.79
205.108	11.72
205.574	12.3
206.04	12.21
206.506	12.35
206.972	11.9
207.438	11.7
207.903	12.06
208.369	11.53
208.835	11.03
209.301	11.52
209.766	11.38
210.232	11.41
210.697	11.3
211.163	11.29
211.628	10.99
212.094	10.89
212.559	10.93
213.024	10.56
213.49	10.38
213.955	10.37
214.42	10
214.885	9.51
215.35	9.4
215.815	9.19
216.28	8.66
216.745	8.6
217.21	8.38
217.675	8.01
218.14	7.68
218.604	7.33
219.069	7.08
219.534	6.8
219.998	6.6
220.463	6.42
220.927	6.21
221.392	6.04
221.856	5.85
222.32	5.64
222.785	5.52
223.249	5.44
223.713	5.36
224.177	5.25
224.642	5.2
225.106	5.13
225.57	5.02
226.034	4.94
226.497	4.88
226.961	4.82
227.425	4.76
227.889	4.7
228.353	4.64
228.816	4.6
229.28	4.52
229.744	4.47
230.207	4.45
230.671	4.41
231.134	4.36
231.597	4.31
232.061	4.27
232.524	4.24
232.987	4.21
233.45	4.16
233.914	4.14
234.377	4.12
234.84	4.07
235.303	4.04
235.766	4.01
236.229	3.97
236.691	3.95
237.154	3.92
237.617	3.88
238.08	3.85
238.542	3.81
239.005	3.77
239.468	3.71
239.93	3.68
240.393	3.64
240.855	3.59
241.317	3.57
241.78	3.54
242.242	3.51
242.704	3.48
243.166	3.45
243.629	3.42
244.091	3.39
244.553	3.37
245.015	3.35
245.477	3.33
245.939	3.31
246.4	3.28
246.862	3.26
247.324	3.25
247.786	3.23
248.247	3.22
248.709	3.21
249.17	3.19
249.632	3.18
250.093	3.15
250.555	3.12
251.016	3.12
251.477	3.1
251.939	3.09
252.4	3.07
252.861	3.05
253.322	3.03
253.783	3.01
254.244	3
254.705	3
255.166	2.99
255.627	2.99
256.088	2.96
256.549	2.95
257.009	2.94
257.47	2.93
257.931	2.91
258.391	2.89
258.852	2.88
259.312	2.86
259.773	2.84
260.233	2.82
260.694	2.8
261.154	2.79
261.614	2.78
262.074	2.78
262.534	2.76
262.994	2.74
263.455	2.74
263.915	2.72
264.374	2.71
264.834	2.7
265.294	2.68
265.754	2.67
266.214	2.66
266.673	2.65
267.133	2.64
267.593	2.63
268.052	2.62
268.512	2.61
268.971	2.6
269.431	2.6
269.89	2.6
270.349	2.59
270.809	2.58
271.268	2.58
271.727	2.56
272.186	2.56
272.645	2.55
273.104	2.55
273.563	2.54
274.022	2.53
274.481	2.53
274.94	2.52
275.399	2.51
275.857	2.5
276.316	2.5
276.775	2.48
277.233	2.47
277.692	2.47
278.15	2.46
278.609	2.45
279.067	2.43
279.525	2.43
279.984	2.42
280.442	2.41
280.9	2.4
281.358	2.39
281.816	2.39
282.274	2.38
282.732	2.37
283.19	2.36
283.648	2.36
284.106	2.36
284.564	2.35
285.021	2.35
285.479	2.34
285.937	2.33
286.394	2.32
286.852	2.32
287.309	2.32
287.767	2.31
288.224	2.31
288.682	2.31
289.139	2.3
289.596	2.3
290.053	2.29
290.511	2.29
290.968	2.29
291.425	2.29
291.882	2.28
292.339	2.28
292.796	2.27
293.252	2.26
293.709	2.25
294.166	2.25
294.623	2.24
295.079	2.24
295.536	2.24
295.992	2.23
296.449	2.23
296.905	2.23
297.362	2.22
297.818	2.22
298.274	2.22
298.731	2.21
299.187	2.21
299.643	2.21
300.099	2.2
300.555	2.2
301.011	2.19
301.467	2.19
301.923	2.19
302.379	2.19
302.835	2.19
303.291	2.19
303.746	2.18
304.202	2.18
304.658	2.18
305.113	2.18
305.569	2.17
306.024	2.17
306.479	2.16
306.935	2.16
307.39	2.16
307.845	2.16
308.301	2.16
308.756	2.17
309.211	2.17
309.666	2.17
310.121	2.17
310.576	2.17
311.031	2.17
311.486	2.17
311.94	2.17
312.395	2.17
312.85	2.17
313.305	2.17
313.759	2.16
314.214	2.16
314.668	2.16
315.123	2.16
315.577	2.16
316.032	2.15
316.486	2.15
316.94	2.14
317.394	2.13
317.849	2.13
318.303	2.13
318.757	2.13
319.211	2.11
319.665	2.11
320.119	2.11
320.572	2.12
321.026	2.11
321.48	2.11
321.934	2.12
322.387	2.12
322.841	2.12
323.295	2.12
323.748	2.11
324.202	2.12
324.655	2.11
325.108	2.11
325.562	2.09
326.015	2.1
326.468	2.1
326.921	2.09
327.374	2.09
327.827	2.1
328.28	2.1
328.733	2.1
329.186	2.11
329.639	2.12
330.092	2.13
330.545	2.14
330.997	2.16
331.45	2.17
331.903	2.18
332.355	2.19
332.808	2.2
333.26	2.22
333.713	2.24
334.165	2.25
334.617	2.26
335.069	2.27
335.522	2.29
335.974	2.29
336.426	2.3
336.878	2.3
337.33	2.29
337.782	2.31
338.234	2.32
338.686	2.32
339.137	2.34
339.589	2.35
340.041	2.36
340.493	2.36
340.944	2.37
341.396	2.38
341.847	2.39
342.299	2.4
342.75	2.4
343.201	2.4
343.653	2.39
344.104	2.39
344.555	2.39
345.006	2.39
345.457	2.39
345.908	2.39
346.359	2.4
346.81	2.41
347.261	2.42
347.712	2.42
348.163	2.42
348.613	2.42
349.064	2.41
349.515	2.41
349.965	2.41
350.416	2.41
350.866	2.41
351.317	2.4
351.767	2.4
352.217	2.4
352.668	2.41
353.118	2.41
353.568	2.42
354.018	2.44
354.468	2.44
354.918	2.46
355.368	2.46
355.818	2.47
356.268	2.48
356.718	2.49
357.168	2.49
357.617	2.49
358.067	2.5
358.517	2.49
358.966	2.5
359.416	2.52
359.865	2.52
360.315	2.53
360.764	2.54
361.213	2.54
361.663	2.55
362.112	2.57
362.561	2.57
363.01	2.59
363.459	2.6
363.908	2.6
364.357	2.61
364.806	2.62
365.255	2.63
365.703	2.63
366.152	2.65
366.601	2.66
367.05	2.68
367.498	2.69
367.947	2.69
368.395	2.71
368.844	2.72
369.292	2.72
369.74	2.74
370.189	2.74
370.637	2.75
371.085	2.77
371.533	2.78
371.981	2.79
372.429	2.8
372.877	2.81
373.325	2.82
373.773	2.83
374.221	2.84
374.669	2.85
375.116	2.86
375.564	2.87
376.012	2.88
376.459	2.89
376.907	2.9
377.354	2.91
377.801	2.92
378.249	2.93
378.696	2.95
379.143	2.96
379.591	2.97
380.038	2.99
380.485	2.99
380.932	3
381.379	3.01
381.826	3.03
382.273	3.04
382.72	3.06
383.166	3.08
383.613	3.09
384.06	3.11
384.506	3.13
384.953	3.15
385.4	3.18
385.846	3.2
386.292	3.23
386.739	3.25
387.185	3.29
387.631	3.33
388.078	3.37
388.524	3.39
388.97	3.41
389.416	3.44
389.862	3.47
390.308	3.52
390.754	3.57
391.2	3.63
391.645	3.68
392.091	3.72
392.537	3.75
392.983	3.8
393.428	3.89
393.874	4.01
394.319	4.14
394.765	4.27
395.21	4.39
395.655	4.55
396.101	4.7
396.546	4.87
396.991	5.07
397.436	5.27
397.881	5.49
398.326	5.71
398.771	5.92
399.216	6.1
399.661	6.28
400.106	6.46
400.551	6.6
400.995	6.72
401.44	6.83
401.885	6.94
402.329	7.06
402.774	7.17
403.218	7.29
403.663	7.43
404.107	7.61
404.551	7.79
404.995	7.94
405.44	8.08
405.884	8.24
406.328	8.42
406.772	8.63
407.216	8.86
407.66	9.08
408.104	9.28
408.547	9.43
408.991	9.57
409.435	9.71
409.879	9.88
410.322	10.11
410.766	10.34
411.209	10.55
411.653	10.72
412.096	10.86
412.54	11.02
412.983	11.16
413.426	11.34
413.869	11.51
414.312	11.7
414.756	11.87
415.199	12
415.642	12.12
416.085	12.23
416.527	12.35
416.97	12.43
417.413	12.43
417.856	12.44
418.298	12.42
418.741	12.42
419.184	12.42
419.626	12.45
420.069	12.51
420.511	12.56
420.953	12.62
421.396	12.69
421.838	12.79
422.28	12.95
422.722	13.1
423.164	13.26
423.606	13.42
424.048	13.53
424.49	13.58
424.932	13.52
425.374	13.37
425.816	13.13
426.258	12.88
426.699	12.67
427.141	12.6
427.582	12.66
428.024	12.82
428.465	12.98
428.907	13.17
429.348	13.32
429.789	13.53
430.231	13.86
430.672	14.37
431.113	14.94
431.554	15.54
431.995	16.01
432.436	16.35
432.877	16.61
433.318	16.8
433.759	16.99
434.2	17.24
434.64	17.57
435.081	17.88
435.522	18.16
435.962	18.37
436.403	18.54
436.843	18.67
437.284	18.81
437.724	18.97
438.164	19.22
438.604	19.46
439.045	19.74
439.485	20
439.925	20.2
440.365	20.35
440.805	20.47
441.245	20.55
441.685	20.67
442.125	20.8
442.564	20.94
443.004	21.09
443.444	21.28
443.883	21.48
444.323	21.65
444.762	21.85
445.202	22.12
445.641	22.39
446.081	22.75
446.52	23.09
446.959	23.41
447.398	23.7
447.837	23.87
448.276	23.94
448.716	23.97
449.154	24.02
449.593	24.07
450.032	24.09
450.471	24.07
450.91	23.97
451.349	23.88
451.787	23.83
452.226	23.73
452.664	23.7
453.103	23.69
453.541	23.72
453.98	23.68
454.418	23.59
454.856	23.48
455.295	23.38
455.733	23.31
456.171	23.24
456.609	23.16
457.047	23.14
457.485	23.12
457.923	23.14
458.361	23.15
458.798	23.23
459.236	23.32
459.674	23.38
460.111	23.46
460.549	23.53
460.987	23.62
461.424	23.7
461.862	23.79
462.299	23.86
462.736	23.93
463.173	24.04
463.611	24.15
464.048	24.34
464.485	24.57
464.922	24.8
465.359	25.06
465.796	25.27
466.233	25.47
466.67	25.68
467.106	25.94
467.543	26.26
467.98	26.57
468.416	26.84
468.853	27.08
469.29	27.31
469.726	27.54
470.162	27.77
470.599	28.02
471.035	28.25
471.471	28.44
471.907	28.59
472.344	28.64
472.78	28.71
473.216	28.79
473.652	28.87
474.088	28.92
474.523	28.95
474.959	28.97
475.395	29
475.831	29.04
476.266	29.05
476.702	29.05
477.138	29.07
477.573	29.03
478.008	28.98
478.444	28.89
478.879	28.76
479.314	28.62
479.75	28.46
480.185	28.25
480.62	28.01
481.055	27.66
481.49	27.17
481.925	26.59
482.36	26.05
482.795	25.59
483.229	25.23
483.664	24.97
484.099	24.74
484.534	24.52
484.968	24.36
485.403	24.28
485.837	24.31
486.271	24.48
486.706	24.69
487.14	24.86
487.574	24.92
488.009	24.94
488.443	24.95
488.877	24.95
489.311	24.97
489.745	24.98
490.179	24.99
490.613	25
491.046	25.03
491.48	25.07
491.914	25.16
492.348	25.31
492.781	25.43
493.215	25.52
493.648	25.6
494.082	25.64
494.515	25.69
494.948	25.73
495.382	25.76
495.815	25.76
496.248	25.76
496.681	25.72
497.114	25.67
497.547	25.64
497.98	25.64
498.413	25.69
498.846	25.78
499.279	25.87
499.711	25.93
500.144	26
500.577	26.13
501.009	26.34
501.442	26.62
501.874	26.9
502.306	27.19
502.739	27.46
503.171	27.68
503.603	27.88
504.036	28.09
504.468	28.36
504.9	28.64
505.332	28.88
505.764	29.08
506.196	29.26
506.627	29.47
507.059	29.72
507.491	29.97
507.923	30.24
508.354	30.5
508.786	30.74
509.217	30.92
509.649	31.09
510.08	31.29
510.512	31.51
510.943	31.76
511.374	31.97
511.805	32.09
512.237	32.12
512.668	32.1
513.099	32.11
513.53	32.15
513.961	32.25
514.391	32.37
514.822	32.53
515.253	32.76
515.684	32.98
516.114	33.24
516.545	33.57
516.975	34.07
517.406	34.66
517.836	35.22
518.267	35.77
518.697	36.25
519.127	36.77
519.558	37.26
519.988	37.72
520.418	38.15
520.848	38.57
521.278	38.95
521.708	39.11
522.138	39.23
522.567	39.34
522.997	39.45
523.427	39.64
523.857	39.85
524.286	40.06
524.716	40.28
525.145	40.5
525.575	40.69
526.004	40.91
526.433	41.33
526.863	41.77
527.292	42.22
527.721	42.57
528.15	42.8
528.579	42.94
529.008	43.03
529.437	43.07
529.866	43.08
530.295	43.16
530.724	43.25
531.152	43.33
531.581	43.37
532.01	43.39
532.438	43.45
532.867	43.55
533.295	43.66
533.723	43.8
534.152	43.91
534.58	43.98
535.008	43.96
535.436	43.87
535.865	43.72
536.293	43.58
536.721	43.49
537.149	43.43
537.576	43.45
538.004	43.45
538.432	43.4
538.86	43.39
539.287	43.44
539.715	43.56
540.143	43.71
540.57	43.88
540.998	44.1
541.425	44.27
541.852	44.45
542.28	44.59
542.707	44.72
543.134	44.87
543.561	44.96
543.988	45.03
544.415	45.14
544.842	45.22
545.269	45.33
545.696	45.42
546.123	45.53
546.549	45.63
546.976	45.71
547.403	45.8
547.829	45.9
548.256	46.01
548.682	46.09
549.108	46.14
549.535	46.22
549.961	46.26
550.387	46.29
550.813	46.33
551.24	46.38
551.666	46.41
552.092	46.4
552.518	46.36
552.943	46.31
553.369	46.24
553.795	46.13
554.221	45.97
554.646	45.78
555.072	45.58
555.498	45.35
555.923	45.1
556.349	44.92
556.774	44.75
557.199	44.64
557.625	44.48
558.05	44.33
558.475	44.19
558.9	44.09
559.325	43.98
559.75	43.85
560.175	43.7
560.6	43.56
561.025	43.33
561.449	43.06
561.874	42.74
562.299	42.49
562.723	42.22
563.148	41.95
563.572	41.68
563.997	41.39
564.421	41.1
564.846	40.81
565.27	40.51
565.694	40.23
566.118	39.94
566.542	39.66
566.966	39.34
567.39	39.04
567.814	38.78
568.238	38.53
568.662	38.34
569.086	38.17
569.509	38.01
569.933	37.84
570.357	37.65
570.78	37.5
571.204	37.35
571.627	37.24
572.05	37.12
572.474	36.97
572.897	36.82
573.32	36.62
573.743	36.41
574.166	36.2
574.589	36.01
575.012	35.87
575.435	35.74
575.858	35.64
576.281	35.54
576.704	35.45
577.126	35.37
577.549	35.32
577.972	35.31
578.394	35.29
578.817	35.31
579.239	35.33
579.661	35.33
580.084	35.33
580.506	35.3
580.928	35.24
581.35	35.17
581.772	35.08
582.194	34.96
582.616	34.83
583.038	34.75
583.46	34.65
583.882	34.51
584.303	34.31
584.725	34.05
585.147	33.75
585.568	33.5
585.99	33.3
586.411	33.12
586.833	33
587.254	32.89
587.675	32.76
588.096	32.63
588.518	32.52
588.939	32.51
589.36	32.56
589.781	32.65
590.202	32.73
590.623	32.74
591.043	32.73
591.464	32.69
591.885	32.66
592.305	32.61
592.726	32.58
593.147	32.54
593.567	32.47
593.987	32.4
594.408	32.31
594.828	32.22
595.248	32.18
595.669	32.11
596.089	32.03
596.509	31.88
596.929	31.77
597.349	31.61
597.769	31.47
598.189	31.36
598.608	31.26
599.028	31.18
599.448	31.13
599.867	31.05
600.287	30.98
600.706	30.93
601.126	30.9
601.545	30.85
601.965	30.82
602.384	30.79
602.803	30.73
603.222	30.65
603.641	30.57
604.061	30.44
604.48	30.33
604.898	30.19
605.317	30.04
605.736	29.89
606.155	29.75
606.574	29.6
606.992	29.45
607.411	29.31
607.829	29.14
608.248	29
608.666	28.87
609.085	28.73
609.503	28.58
609.921	28.45
610.339	28.34
610.758	28.23
611.176	28.11
611.594	27.96
612.012	27.81
612.43	27.68
612.847	27.51
613.265	27.39
613.683	27.28
614.101	27.2
614.518	27.11
614.936	27.01
615.353	26.89
615.771	26.83
616.188	26.8
616.606	26.76
617.023	26.75
617.44	26.73
617.857	26.65
618.274	26.57
618.691	26.5
619.108	26.41
619.525	26.32
619.942	26.22
620.359	26.1
620.776	25.97
621.192	25.85
621.609	25.71
622.026	25.6
622.442	25.51
622.859	25.42
623.275	25.33
623.691	25.22
624.108	25.12
624.524	25.03
624.94	24.96
625.356	24.9
625.772	24.84
626.188	24.79
626.604	24.71
627.02	24.64
627.436	24.56
627.852	24.49
628.268	24.47
628.683	24.47
629.099	24.46
629.514	24.43
629.93	24.39
630.345	24.36
630.761	24.33
631.176	24.34
631.591	24.32
632.007	24.3
632.422	24.3
632.837	24.26
633.252	24.21
633.667	24.17
634.082	24.14
634.497	24.1
634.911	24.05
635.326	23.97
635.741	23.88
636.155	23.82
636.57	23.74
636.984	23.61
637.399	23.48
637.813	23.36
638.228	23.26
638.642	23.13
639.056	23.02
639.47	22.9
639.884	22.81
640.298	22.72
640.712	22.61
641.126	22.52
641.54	22.43
641.954	22.37
642.368	22.27
642.781	22.14
643.195	22.03
643.609	21.93
644.022	21.84
644.436	21.74
644.849	21.62
645.262	21.5
645.676	21.37
646.089	21.26
646.502	21.17
646.915	21.12
647.328	21.05
647.741	21
648.154	20.96
648.567	20.92
648.98	20.89
649.393	20.89
649.805	20.88
650.218	20.9
650.631	20.87
651.043	20.8
651.456	20.65
651.868	20.43
652.28	20.2
652.693	19.95
653.105	19.78
653.517	19.63
653.929	19.51
654.341	19.44
654.753	19.38
655.165	19.35
655.577	19.35
655.989	19.42
656.401	19.56
656.813	19.74
657.224	19.92
657.636	20.03
658.047	20.1
658.459	20.14
658.87	20.13
659.282	20.13
659.693	20.11
660.104	20.1
660.515	20.07
660.926	20.05
661.338	20.02
661.749	19.97
662.159	19.91
662.57	19.86
662.981	19.83
663.392	19.77
663.803	19.72
664.213	19.67
664.624	19.64
665.035	19.6
665.445	19.57
665.855	19.52
666.266	19.47
666.676	19.45
667.086	19.42
667.497	19.36
667.907	19.32
668.317	19.28
668.727	19.25
669.137	19.2
669.547	19.17
669.956	19.14
670.366	19.14
670.776	19.12
671.186	19.1
671.595	19.1
672.005	19.1
672.414	19.1
672.824	19.1
673.233	19.12
673.642	19.13
674.052	19.14
674.461	19.14
674.87	19.15
675.279	19.17
675.688	19.17
676.097	19.19
676.506	19.22
676.915	19.27
677.323	19.3
677.732	19.33
678.141	19.39
678.549	19.44
678.958	19.48
679.366	19.51
679.775	19.56
680.183	19.61
680.592	19.67
681	19.69
681.408	19.73
681.816	19.76
682.224	19.72
682.632	19.59
683.04	19.37
683.448	19.16
683.856	18.98
684.264	18.84
684.671	18.71
685.079	18.58
685.487	18.52
685.894	18.48
686.302	18.48
686.709	18.56
687.116	18.78
687.524	19.12
687.931	19.51
688.338	19.92
688.745	20.31
689.152	20.74
689.559	21.15
689.966	21.56
690.373	21.98
690.78	22.39
691.187	22.8
691.593	23.2
692	23.61
692.407	24.04
692.813	24.47
693.22	24.87
693.626	25.29
694.032	25.69
694.439	26.1
694.845	26.49
695.251	26.89
695.657	27.28
696.063	27.67
696.469	28.06
696.875	28.38
697.281	28.7
697.687	29.04
698.093	29.36
698.498	29.71
698.904	30.07
699.31	30.41
699.715	30.78
700.12	31.16
700.526	31.53
700.931	31.9
701.337	32.31
701.742	32.68
702.147	33.08
702.552	33.47
702.957	33.87
703.362	34.24
703.767	34.62
704.172	34.98
704.577	35.3
704.981	35.62
705.386	35.93
705.791	36.26
706.195	36.56
706.6	36.85
707.004	37.15
707.408	37.43
707.813	37.71
708.217	37.97
708.621	38.2
709.025	38.51
709.43	38.76
709.834	39.05
710.237	39.27
710.641	39.53
711.045	39.76
711.449	39.98
711.853	40.2
712.256	40.4
712.66	40.56
713.064	40.68
713.467	40.71
713.87	40.73
714.274	40.71
714.677	40.65
715.08	40.58
715.484	40.51
715.887	40.45
716.29	40.39
716.693	40.37
717.096	40.47
717.499	40.66
717.901	40.9
718.304	41.23
718.707	41.53
719.109	41.88
719.512	42.2
719.915	42.5
720.317	42.78
720.719	43.02
721.122	43.26
721.524	43.42
721.926	43.54
722.328	43.64
722.731	43.72
723.133	43.8
723.535	43.88
723.937	43.99
724.338	44.09
724.74	44.19
725.142	44.32
725.544	44.41
725.945	44.54
726.347	44.64
726.748	44.7
727.15	44.77
727.551	44.88
727.952	45
728.354	45.15
728.755	45.32
729.156	45.52
729.557	45.73
729.958	45.96
730.359	46.14
730.76	46.33
731.161	46.51
731.562	46.67
731.962	46.82
732.363	46.94
732.763	47.02
733.164	47.08
733.564	47.14
733.965	47.16
734.365	47.13
734.766	47.1
735.166	47.05
735.566	47.02
735.966	47
736.366	46.97
736.766	46.95
737.166	46.94
737.566	46.91
737.966	46.9
738.365	46.88
738.765	46.9
739.165	46.9
739.564	46.94
739.964	46.95
740.363	46.99
740.763	47
741.162	47.01
741.561	47.05
741.96	47.08
742.36	47.08
742.759	47.07
743.158	47.05
743.557	47.06
743.955	47.09
744.354	47.11
744.753	47.1
745.152	47.06
745.55	47.06
745.949	47
746.348	46.95
746.746	46.88
747.144	46.87
747.543	46.84
747.941	46.82
748.339	46.79
748.737	46.76
749.136	46.69
749.534	46.69
749.932	46.65
750.33	46.64
750.727	46.61
751.125	46.62
751.523	46.54
751.921	46.52
752.318	46.45
752.716	46.38
753.113	46.32
753.511	46.24
753.908	46.15
754.305	46.05
754.703	45.84
755.1	45.52
755.497	44.93
755.894	44.09
756.291	43.02
756.688	41.86
757.085	40.7
757.482	39.63
757.878	38.7
758.275	37.77
758.672	36.84
759.068	35.99
759.465	35.25
759.861	34.86
760.258	34.8
760.654	34.99
761.05	35.36
761.447	35.8
761.843	36.2
762.239	36.6
762.635	37.08
763.031	37.64
763.427	38.27
763.822	38.93
764.218	39.61
764.614	40.24
765.01	40.85
765.405	41.43
765.801	41.92
766.196	42.39
766.592	42.78
766.987	43.08
767.382	43.3
767.778	43.49
768.173	43.63
768.568	43.67
768.963	43.76
769.358	43.8
769.753	43.82
770.148	43.86
770.542	43.84
770.937	43.81
771.332	43.78
771.726	43.72
772.121	43.68
772.515	43.66
772.91	43.68
773.304	43.63
773.699	43.56
774.093	43.48
774.487	43.43
774.881	43.37
775.275	43.3
