Data from N_1_div_pa_2n_001_Splice17_05.txt Node
Date: Sat Feb 29 13:32:42 EST 2020
User: sa697716
Spectrometer: FLMS03696
Trigger mode: 0
Integration Time (sec): 3.180400E-1
Scans to average: 20
Electric dark correction enabled: true
Nonlinearity correction enabled: true
Boxcar width: 5
XAxis mode: Wavelengths
Number of Pixels in Spectrum: 2048
>>>>>Begin Spectral Data<<<<<
187.83	26.95
188.298	18.65
188.766	10.71
189.233	9.55
189.701	19.69
190.169	25.98
190.636	7.06
191.104	-30.47
191.571	-314.35
192.039	-203.29
192.506	757.47
192.974	6994.56
193.441	-199.82
193.908	14.53
194.375	-71.63
194.842	-19.8
195.31	0.07
195.777	-1.2
196.244	7.96
196.711	10.88
197.177	9.48
197.644	11.12
198.111	11.48
198.578	12.74
199.045	12.8
199.511	13.64
199.978	14.4
200.445	14.7
200.911	14.92
201.378	14.76
201.844	15.05
202.31	15.82
202.777	16.12
203.243	16.95
203.709	17.04
204.176	17.4
204.642	17.49
205.108	17.09
205.574	17.5
206.04	17.2
206.506	17.38
206.972	17.88
207.438	17.93
207.903	18.18
208.369	17.72
208.835	17.67
209.301	18.12
209.766	18.12
210.232	18.09
210.697	17.84
211.163	17.87
211.628	17.55
212.094	17.18
212.559	16.83
213.024	16.48
213.49	16.45
213.955	16.38
214.42	15.52
214.885	15.09
215.35	15.07
215.815	14.64
216.28	14.17
216.745	14.12
217.21	13.81
217.675	13.59
218.14	13.05
218.604	12.66
219.069	12.43
219.534	12.19
219.998	11.93
220.463	11.7
220.927	11.52
221.392	11.34
221.856	11.13
222.32	10.97
222.785	10.82
223.249	10.73
223.713	10.58
224.177	10.39
224.642	10.27
225.106	10.15
225.57	9.98
226.034	9.88
226.497	9.76
226.961	9.62
227.425	9.48
227.889	9.36
228.353	9.2
228.816	9.09
229.28	8.96
229.744	8.87
230.207	8.77
230.671	8.68
231.134	8.58
231.597	8.48
232.061	8.41
232.524	8.33
232.987	8.24
233.45	8.18
233.914	8.11
234.377	8.04
234.84	7.95
235.303	7.86
235.766	7.8
236.229	7.71
236.691	7.64
237.154	7.55
237.617	7.46
238.08	7.39
238.542	7.32
239.005	7.24
239.468	7.15
239.93	7.08
240.393	7.04
240.855	6.97
241.317	6.91
241.78	6.85
242.242	6.79
242.704	6.74
243.166	6.67
243.629	6.62
244.091	6.57
244.553	6.54
245.015	6.5
245.477	6.44
245.939	6.37
246.4	6.32
246.862	6.28
247.324	6.24
247.786	6.21
248.247	6.17
248.709	6.13
249.17	6.09
249.632	6.04
250.093	5.98
250.555	5.95
251.016	5.92
251.477	5.89
251.939	5.85
252.4	5.81
252.861	5.76
253.322	5.72
253.783	5.69
254.244	5.66
254.705	5.63
255.166	5.61
255.627	5.57
256.088	5.54
256.549	5.51
257.009	5.48
257.47	5.46
257.931	5.43
258.391	5.4
258.852	5.37
259.312	5.34
259.773	5.3
260.233	5.28
260.694	5.26
261.154	5.22
261.614	5.19
262.074	5.16
262.534	5.12
262.994	5.09
263.455	5.07
263.915	5.05
264.374	5.02
264.834	5.01
265.294	4.97
265.754	4.95
266.214	4.94
266.673	4.93
267.133	4.91
267.593	4.9
268.052	4.89
268.512	4.86
268.971	4.85
269.431	4.83
269.89	4.82
270.349	4.8
270.809	4.78
271.268	4.77
271.727	4.75
272.186	4.73
272.645	4.71
273.104	4.69
273.563	4.68
274.022	4.66
274.481	4.65
274.94	4.62
275.399	4.61
275.857	4.6
276.316	4.57
276.775	4.55
277.233	4.53
277.692	4.51
278.15	4.49
278.609	4.47
279.067	4.44
279.525	4.42
279.984	4.41
280.442	4.39
280.9	4.37
281.358	4.36
281.816	4.34
282.274	4.32
282.732	4.31
283.19	4.3
283.648	4.29
284.106	4.27
284.564	4.26
285.021	4.26
285.479	4.24
285.937	4.23
286.394	4.21
286.852	4.2
287.309	4.18
287.767	4.16
288.224	4.14
288.682	4.13
289.139	4.12
289.596	4.1
290.053	4.07
290.511	4.04
290.968	4.03
291.425	4.02
291.882	4.01
292.339	4.01
292.796	3.99
293.252	3.97
293.709	3.95
294.166	3.94
294.623	3.93
295.079	3.93
295.536	3.92
295.992	3.91
296.449	3.9
296.905	3.88
297.362	3.87
297.818	3.86
298.274	3.85
298.731	3.83
299.187	3.83
299.643	3.81
300.099	3.8
300.555	3.78
301.011	3.77
301.467	3.75
301.923	3.75
302.379	3.74
302.835	3.73
303.291	3.72
303.746	3.71
304.202	3.7
304.658	3.68
305.113	3.67
305.569	3.67
306.024	3.65
306.479	3.64
306.935	3.64
307.39	3.63
307.845	3.62
308.301	3.62
308.756	3.63
309.211	3.62
309.666	3.61
310.121	3.61
310.576	3.6
311.031	3.6
311.486	3.59
311.94	3.58
312.395	3.58
312.85	3.57
313.305	3.56
313.759	3.55
314.214	3.55
314.668	3.53
315.123	3.52
315.577	3.52
316.032	3.52
316.486	3.51
316.94	3.5
317.394	3.49
317.849	3.48
318.303	3.47
318.757	3.45
319.211	3.43
319.665	3.43
320.119	3.42
320.572	3.41
321.026	3.41
321.48	3.4
321.934	3.39
322.387	3.39
322.841	3.39
323.295	3.39
323.748	3.39
324.202	3.39
324.655	3.39
325.108	3.38
325.562	3.37
326.015	3.36
326.468	3.34
326.921	3.34
327.374	3.33
327.827	3.33
328.28	3.32
328.733	3.31
329.186	3.3
329.639	3.29
330.092	3.28
330.545	3.28
330.997	3.27
331.45	3.27
331.903	3.26
332.355	3.25
332.808	3.24
333.26	3.23
333.713	3.24
334.165	3.24
334.617	3.24
335.069	3.23
335.522	3.22
335.974	3.22
336.426	3.22
336.878	3.22
337.33	3.22
337.782	3.22
338.234	3.22
338.686	3.2
339.137	3.21
339.589	3.2
340.041	3.19
340.493	3.18
340.944	3.17
341.396	3.16
341.847	3.15
342.299	3.14
342.75	3.12
343.201	3.12
343.653	3.11
344.104	3.1
344.555	3.09
345.006	3.08
345.457	3.07
345.908	3.06
346.359	3.05
346.81	3.06
347.261	3.05
347.712	3.04
348.163	3.03
348.613	3.01
349.064	3
349.515	2.99
349.965	2.98
350.416	2.98
350.866	2.98
351.317	2.97
351.767	2.95
352.217	2.95
352.668	2.95
353.118	2.95
353.568	2.96
354.018	2.97
354.468	2.96
354.918	2.97
355.368	2.98
355.818	2.97
356.268	2.97
356.718	2.96
357.168	2.96
357.617	2.95
358.067	2.94
358.517	2.93
358.966	2.92
359.416	2.92
359.865	2.91
360.315	2.9
360.764	2.89
361.213	2.89
361.663	2.89
362.112	2.9
362.561	2.89
363.01	2.9
363.459	2.89
363.908	2.89
364.357	2.89
364.806	2.89
365.255	2.9
365.703	2.9
366.152	2.9
366.601	2.9
367.05	2.9
367.498	2.9
367.947	2.89
368.395	2.9
368.844	2.89
369.292	2.89
369.74	2.89
370.189	2.88
370.637	2.88
371.085	2.89
371.533	2.88
371.981	2.89
372.429	2.88
372.877	2.88
373.325	2.88
373.773	2.88
374.221	2.88
374.669	2.88
375.116	2.87
375.564	2.87
376.012	2.86
376.459	2.86
376.907	2.86
377.354	2.85
377.801	2.86
378.249	2.87
378.696	2.88
379.143	2.89
379.591	2.89
380.038	2.91
380.485	2.93
380.932	2.93
381.379	2.94
381.826	2.95
382.273	2.96
382.72	2.97
383.166	2.98
383.613	2.99
384.06	2.99
384.506	3
384.953	3
385.4	3
385.846	3.02
386.292	3.03
386.739	3.04
387.185	3.07
387.631	3.08
388.078	3.09
388.524	3.09
388.97	3.1
389.416	3.11
389.862	3.12
390.308	3.13
390.754	3.14
391.2	3.16
391.645	3.18
392.091	3.18
392.537	3.18
392.983	3.2
393.428	3.21
393.874	3.23
394.319	3.24
394.765	3.25
395.21	3.26
395.655	3.29
396.101	3.29
396.546	3.29
396.991	3.3
397.436	3.31
397.881	3.33
398.326	3.35
398.771	3.37
399.216	3.39
399.661	3.41
400.106	3.43
400.551	3.42
400.995	3.42
401.44	3.43
401.885	3.43
402.329	3.45
402.774	3.44
403.218	3.43
403.663	3.43
404.107	3.43
404.551	3.42
404.995	3.42
405.44	3.43
405.884	3.43
406.328	3.43
406.772	3.45
407.216	3.45
407.66	3.46
408.104	3.47
408.547	3.47
408.991	3.47
409.435	3.49
409.879	3.49
410.322	3.5
410.766	3.51
411.209	3.53
411.653	3.52
412.096	3.52
412.54	3.52
412.983	3.52
413.426	3.55
413.869	3.55
414.312	3.58
414.756	3.59
415.199	3.59
415.642	3.61
416.085	3.61
416.527	3.63
416.97	3.63
417.413	3.63
417.856	3.63
418.298	3.61
418.741	3.61
419.184	3.59
419.626	3.58
420.069	3.57
420.511	3.56
420.953	3.55
421.396	3.54
421.838	3.55
422.28	3.57
422.722	3.58
423.164	3.59
423.606	3.58
424.048	3.57
424.49	3.59
424.932	3.59
425.374	3.58
425.816	3.58
426.258	3.57
426.699	3.56
427.141	3.54
427.582	3.55
428.024	3.56
428.465	3.55
428.907	3.57
429.348	3.56
429.789	3.58
430.231	3.58
430.672	3.61
431.113	3.61
431.554	3.63
431.995	3.64
432.436	3.64
432.877	3.62
433.318	3.64
433.759	3.64
434.2	3.63
434.64	3.63
435.081	3.63
435.522	3.63
435.962	3.65
436.403	3.64
436.843	3.65
437.284	3.65
437.724	3.67
438.164	3.67
438.604	3.68
439.045	3.7
439.485	3.72
439.925	3.71
440.365	3.71
440.805	3.69
441.245	3.69
441.685	3.69
442.125	3.68
442.564	3.68
443.004	3.7
443.444	3.7
443.883	3.7
444.323	3.67
444.762	3.7
445.202	3.7
445.641	3.75
446.081	3.77
446.52	3.77
446.959	3.8
447.398	3.84
447.837	3.86
448.276	3.86
448.716	3.87
449.154	3.9
449.593	3.91
450.032	3.94
450.471	3.92
450.91	3.92
451.349	3.94
451.787	3.94
452.226	3.91
452.664	3.88
453.103	3.88
453.541	3.89
453.98	3.88
454.418	3.86
454.856	3.84
455.295	3.84
455.733	3.84
456.171	3.84
456.609	3.85
457.047	3.85
457.485	3.87
457.923	3.88
458.361	3.86
458.798	3.87
459.236	3.88
459.674	3.88
460.111	3.9
460.549	3.9
460.987	3.89
461.424	3.87
461.862	3.87
462.299	3.87
462.736	3.86
463.173	3.88
463.611	3.88
464.048	3.89
464.485	3.9
464.922	3.91
465.359	3.91
465.796	3.93
466.233	3.95
466.67	3.96
467.106	3.95
467.543	3.96
467.98	3.95
468.416	3.96
468.853	3.94
469.29	3.95
469.726	3.92
470.162	3.9
470.599	3.89
471.035	3.89
471.471	3.88
471.907	3.88
472.344	3.87
472.78	3.88
473.216	3.88
473.652	3.88
474.088	3.89
474.523	3.9
474.959	3.89
475.395	3.86
475.831	3.87
476.266	3.88
476.702	3.88
477.138	3.89
477.573	3.87
478.008	3.87
478.444	3.88
478.879	3.86
479.314	3.87
479.75	3.87
480.185	3.88
480.62	3.87
481.055	3.86
481.49	3.84
481.925	3.83
482.36	3.83
482.795	3.83
483.229	3.82
483.664	3.82
484.099	3.82
484.534	3.82
484.968	3.83
485.403	3.83
485.837	3.83
486.271	3.84
486.706	3.84
487.14	3.86
487.574	3.87
488.009	3.89
488.443	3.91
488.877	3.92
489.311	3.95
489.745	3.97
490.179	3.98
490.613	4.02
491.046	4.05
491.48	4.09
491.914	4.11
492.348	4.13
492.781	4.16
493.215	4.2
493.648	4.22
494.082	4.26
494.515	4.3
494.948	4.34
495.382	4.38
495.815	4.43
496.248	4.47
496.681	4.52
497.114	4.58
497.547	4.64
497.98	4.71
498.413	4.78
498.846	4.84
499.279	4.92
499.711	5.01
500.144	5.09
500.577	5.17
501.009	5.26
501.442	5.36
501.874	5.45
502.306	5.56
502.739	5.66
503.171	5.78
503.603	5.91
504.036	6.03
504.468	6.17
504.9	6.31
505.332	6.46
505.764	6.62
506.196	6.78
506.627	6.94
507.059	7.1
507.491	7.28
507.923	7.46
508.354	7.64
508.786	7.84
509.217	8.02
509.649	8.23
510.08	8.44
510.512	8.65
510.943	8.88
511.374	9.11
511.805	9.34
512.237	9.58
512.668	9.81
513.099	10.06
513.53	10.32
513.961	10.6
514.391	10.84
514.822	11.12
515.253	11.37
515.684	11.64
516.114	11.94
516.545	12.22
516.975	12.49
517.406	12.78
517.836	13.07
518.267	13.35
518.697	13.63
519.127	13.94
519.558	14.22
519.988	14.52
520.418	14.79
520.848	15.06
521.278	15.33
521.708	15.71
522.138	15.97
522.567	16.21
522.997	16.45
523.427	16.71
523.857	16.93
524.286	17.18
524.716	17.4
525.145	17.63
525.575	17.84
526.004	18.05
526.433	18.14
526.863	18.36
527.292	18.56
527.721	18.76
528.15	18.92
528.579	19.11
529.008	19.28
529.437	19.42
529.866	19.57
530.295	19.72
530.724	19.89
531.152	20.04
531.581	20.15
532.01	20.29
532.438	20.4
532.867	20.51
533.295	20.62
533.723	20.73
534.152	20.83
534.58	20.91
535.008	20.99
535.436	21.05
535.865	21.11
536.293	21.18
536.721	21.24
537.149	21.29
537.576	21.36
538.004	21.39
538.432	21.42
538.86	21.48
539.287	21.54
539.715	21.56
540.143	21.59
540.57	21.63
540.998	21.66
541.425	21.69
541.852	21.73
542.28	21.73
542.707	21.77
543.134	21.8
543.561	21.81
543.988	21.86
544.415	21.9
544.842	21.94
545.269	21.96
545.696	21.99
546.123	22
546.549	22.02
546.976	22.07
547.403	22.07
547.829	22.09
548.256	22.12
548.682	22.11
549.108	22.12
549.535	22.11
549.961	22.11
550.387	22.11
550.813	22.11
551.24	22.12
551.666	22.12
552.092	22.13
552.518	22.12
552.943	22.09
553.369	22.07
553.795	22.03
554.221	22.01
554.646	21.97
555.072	21.94
555.498	21.88
555.923	21.82
556.349	21.74
556.774	21.67
557.199	21.59
557.625	21.54
558.05	21.44
558.475	21.38
558.9	21.29
559.325	21.22
559.75	21.12
560.175	21.02
560.6	20.91
561.025	20.81
561.449	20.69
561.874	20.56
562.299	20.43
562.723	20.32
563.148	20.19
563.572	20.06
563.997	19.92
564.421	19.76
564.846	19.61
565.27	19.47
565.694	19.31
566.118	19.16
566.542	19.03
566.966	18.89
567.39	18.74
567.814	18.59
568.238	18.42
568.662	18.25
569.086	18.11
569.509	17.96
569.933	17.8
570.357	17.66
570.78	17.52
571.204	17.36
571.627	17.2
572.05	17.05
572.474	16.91
572.897	16.75
573.32	16.61
573.743	16.47
574.166	16.35
574.589	16.21
575.012	16.09
575.435	15.95
575.858	15.85
576.281	15.73
576.704	15.62
577.126	15.49
577.549	15.41
577.972	15.31
578.394	15.2
578.817	15.1
579.239	15.02
579.661	14.94
580.084	14.85
580.506	14.76
580.928	14.66
581.35	14.57
581.772	14.51
582.194	14.42
582.616	14.36
583.038	14.28
583.46	14.19
583.882	14.12
584.303	14.03
584.725	13.95
585.147	13.88
585.568	13.8
585.99	13.75
586.411	13.67
586.833	13.6
587.254	13.54
587.675	13.48
588.096	13.45
588.518	13.38
588.939	13.35
589.36	13.29
589.781	13.25
590.202	13.22
590.623	13.14
591.043	13.1
591.464	13.06
591.885	13.03
592.305	12.98
592.726	12.92
593.147	12.89
593.567	12.83
593.987	12.8
594.408	12.76
594.828	12.72
595.248	12.7
595.669	12.69
596.089	12.66
596.509	12.61
596.929	12.58
597.349	12.55
597.769	12.51
598.189	12.48
598.608	12.46
599.028	12.43
599.448	12.38
599.867	12.35
600.287	12.29
600.706	12.26
601.126	12.23
601.545	12.18
601.965	12.14
602.384	12.09
602.803	12.06
603.222	12
603.641	11.94
604.061	11.89
604.48	11.83
604.898	11.76
605.317	11.7
605.736	11.63
606.155	11.57
606.574	11.5
606.992	11.42
607.411	11.35
607.829	11.24
608.248	11.17
608.666	11.1
609.085	11.04
609.503	10.96
609.921	10.88
610.339	10.81
610.758	10.74
611.176	10.68
611.594	10.6
612.012	10.5
612.43	10.49
612.847	10.41
613.265	10.33
613.683	10.25
614.101	10.19
614.518	10.11
614.936	10.03
615.353	9.97
615.771	9.9
616.188	9.84
616.606	9.8
617.023	9.73
617.44	9.68
617.857	9.62
618.274	9.57
618.691	9.53
619.108	9.49
619.525	9.45
619.942	9.41
620.359	9.38
620.776	9.35
621.192	9.32
621.609	9.3
622.026	9.28
622.442	9.25
622.859	9.23
623.275	9.23
623.691	9.22
624.108	9.21
624.524	9.19
624.94	9.17
625.356	9.16
625.772	9.15
626.188	9.14
626.604	9.11
627.02	9.12
627.436	9.1
627.852	9.08
628.268	9.06
628.683	9.05
629.099	9.05
629.514	9.04
629.93	9.02
630.345	8.99
630.761	8.96
631.176	8.95
631.591	8.91
632.007	8.88
632.422	8.84
632.837	8.79
633.252	8.74
633.667	8.67
634.082	8.62
634.497	8.55
634.911	8.49
635.326	8.41
635.741	8.32
636.155	8.24
636.57	8.15
636.984	8.06
637.399	7.97
637.813	7.86
638.228	7.77
638.642	7.65
639.056	7.55
639.47	7.44
639.884	7.35
640.298	7.25
640.712	7.13
641.126	7.02
641.54	6.93
641.954	6.83
642.368	6.74
642.781	6.65
643.195	6.55
643.609	6.46
644.022	6.37
644.436	6.27
644.849	6.19
645.262	6.12
645.676	6.04
646.089	5.96
646.502	5.89
646.915	5.82
647.328	5.75
647.741	5.69
648.154	5.64
648.567	5.61
648.98	5.58
649.393	5.54
649.805	5.5
650.218	5.48
650.631	5.47
651.043	5.44
651.456	5.42
651.868	5.39
652.28	5.37
652.693	5.34
653.105	5.3
653.517	5.26
653.929	5.23
654.341	5.2
654.753	5.16
655.165	5.11
655.577	5.07
655.989	5.01
656.401	4.94
656.813	4.88
657.224	4.84
657.636	4.79
658.047	4.73
658.459	4.65
658.87	4.59
659.282	4.53
659.693	4.47
660.104	4.42
660.515	4.37
660.926	4.33
661.338	4.27
661.749	4.2
662.159	4.15
662.57	4.11
662.981	4.06
663.392	4.02
663.803	3.97
664.213	3.93
664.624	3.89
665.035	3.86
665.445	3.83
665.855	3.81
666.266	3.8
666.676	3.78
667.086	3.76
667.497	3.76
667.907	3.74
668.317	3.74
668.727	3.74
669.137	3.74
669.547	3.74
669.956	3.75
670.366	3.76
670.776	3.76
671.186	3.77
671.595	3.79
672.005	3.8
672.414	3.82
672.824	3.85
673.233	3.86
673.642	3.87
674.052	3.89
674.461	3.92
674.87	3.94
675.279	3.96
675.688	3.98
676.097	4.01
676.506	4.04
676.915	4.07
677.323	4.1
677.732	4.13
678.141	4.17
678.549	4.21
678.958	4.26
679.366	4.29
679.775	4.34
680.183	4.4
680.592	4.46
681	4.5
681.408	4.56
681.816	4.63
682.224	4.7
682.632	4.79
683.04	4.88
683.448	4.96
683.856	5.08
684.264	5.2
684.671	5.34
685.079	5.49
685.487	5.68
685.894	5.87
686.302	6.07
686.709	6.29
687.116	6.54
687.524	6.81
687.931	7.11
688.338	7.42
688.745	7.76
689.152	8.13
689.559	8.51
689.966	8.91
690.373	9.34
690.78	9.79
691.187	10.26
691.593	10.75
692	11.25
692.407	11.78
692.813	12.32
693.22	12.87
693.626	13.41
694.032	13.98
694.439	14.58
694.845	15.17
695.251	15.76
695.657	16.35
696.063	16.92
696.469	17.53
696.875	18.12
697.281	18.69
697.687	19.26
698.093	19.84
698.498	20.43
698.904	20.98
699.31	21.52
699.715	22.09
700.12	22.64
700.526	23.2
700.931	23.72
701.337	24.25
701.742	24.79
702.147	25.31
702.552	25.82
702.957	26.33
703.362	26.82
703.767	27.32
704.172	27.8
704.577	28.27
704.981	28.72
705.386	29.18
705.791	29.62
706.195	30.04
706.6	30.47
707.004	30.89
707.408	31.28
707.813	31.68
708.217	32.08
708.621	32.45
709.025	32.84
709.43	33.22
709.834	33.65
710.237	34.01
710.641	34.41
711.045	34.78
711.449	35.13
711.853	35.5
712.256	35.84
712.66	36.19
713.064	36.53
713.467	36.87
713.87	37.17
714.274	37.46
714.677	37.79
715.08	38.07
715.484	38.38
715.887	38.7
716.29	38.98
716.693	39.28
717.096	39.55
717.499	39.81
717.901	40.08
718.304	40.37
718.707	40.61
719.109	40.86
719.512	41.14
719.915	41.35
720.317	41.59
720.719	41.81
721.122	42.01
721.524	42.27
721.926	42.51
722.328	42.7
722.731	42.88
723.133	43.1
723.535	43.32
723.937	43.5
724.338	43.67
724.74	43.83
725.142	44
725.544	44.17
725.945	44.31
726.347	44.46
726.748	44.6
727.15	44.73
727.551	44.88
727.952	44.98
728.354	45.12
728.755	45.25
729.156	45.38
729.557	45.49
729.958	45.63
730.359	45.74
730.76	45.83
731.161	45.96
731.562	46.09
731.962	46.15
732.363	46.27
732.763	46.37
733.164	46.48
733.564	46.57
733.965	46.62
734.365	46.67
734.766	46.76
735.166	46.79
735.566	46.82
735.966	46.86
736.366	46.93
736.766	46.95
737.166	46.99
737.566	47.02
737.966	47.08
738.365	47.18
738.765	47.26
739.165	47.27
739.564	47.37
739.964	47.45
740.363	47.51
740.763	47.54
741.162	47.58
741.561	47.63
741.96	47.7
742.36	47.72
742.759	47.74
743.158	47.74
743.557	47.78
743.955	47.82
744.354	47.87
744.753	47.91
745.152	47.96
745.55	47.98
745.949	47.96
746.348	47.98
746.746	47.99
747.144	48.04
747.543	48.06
747.941	48.11
748.339	48.11
748.737	48.13
749.136	48.14
749.534	48.17
749.932	48.19
750.33	48.23
750.727	48.24
751.125	48.28
751.523	48.25
751.921	48.29
752.318	48.3
752.716	48.28
753.113	48.28
753.511	48.3
753.908	48.3
754.305	48.28
754.703	48.28
755.1	48.27
755.497	48.27
755.894	48.27
756.291	48.23
756.688	48.2
757.085	48.19
757.482	48.19
757.878	48.17
758.275	48.16
758.672	48.19
759.068	48.19
759.465	48.19
759.861	48.2
760.258	48.2
760.654	48.2
761.05	48.21
761.447	48.23
761.843	48.22
762.239	48.2
762.635	48.19
763.031	48.2
763.427	48.19
763.822	48.21
764.218	48.18
764.614	48.17
765.01	48.16
765.405	48.12
765.801	48.13
766.196	48.15
766.592	48.17
766.987	48.19
767.382	48.17
767.778	48.16
768.173	48.15
768.568	48.12
768.963	48.12
769.358	48.13
769.753	48.19
770.148	48.17
770.542	48.17
770.937	48.15
771.332	48.12
771.726	48.12
772.121	48.1
772.515	48.1
772.91	48.12
773.304	48.12
773.699	48.13
774.093	48.08
774.487	48.09
774.881	48.07
775.275	48.09
775.669	48.08
776.063	48.07
776.457	48.07
776.851	48.02
777.245	48.03
777.638	48.05
778.032	48.06
778.425	48.05
778.819	48.05
779.212	48.02
779.606	47.97
779.999	47.98
780.392	47.97
780.786	47.95
781.179	47.99
781.572	47.98
781.965	48
782.358	47.93
782.751	47.92
783.143	47.9
783.536	47.93
783.929	47.98
