Data from N_1_dec_on_6n_017_Splice17_09.txt Node
Date: Sat Feb 29 13:40:22 EST 2020
User: sa697716
Spectrometer: FLMS03696
Trigger mode: 0
Integration Time (sec): 3.180400E-1
Scans to average: 20
Electric dark correction enabled: true
Nonlinearity correction enabled: true
Boxcar width: 5
XAxis mode: Wavelengths
Number of Pixels in Spectrum: 2048
>>>>>Begin Spectral Data<<<<<
187.83	98.29
188.298	99.27
188.766	78.02
189.233	83.49
189.701	88.58
190.169	93.34
190.636	92.31
191.104	75.08
191.571	69.48
192.039	201.55
192.506	-145.9
192.974	2641.93
193.441	288.1
193.908	22.82
194.375	-15.45
194.842	33.59
195.31	103.83
195.777	103.68
196.244	35.83
196.711	24.97
197.177	22.4
197.644	22.6
198.111	21.84
198.578	22.93
199.045	22.96
199.511	24.11
199.978	24.44
200.445	23.73
200.911	24.13
201.378	24.33
201.844	24.87
202.31	25.63
202.777	26.3
203.243	26.92
203.709	27.07
204.176	26.96
204.642	26.79
205.108	26.66
205.574	27.33
206.04	27.3
206.506	27.48
206.972	27.33
207.438	27.07
207.903	26.81
208.369	26.06
208.835	26.1
209.301	26
209.766	25.83
210.232	25.95
210.697	25.82
211.163	25.57
211.628	24.84
212.094	24.83
212.559	24.58
213.024	23.85
213.49	23.9
213.955	23.32
214.42	22.65
214.885	21.98
215.35	21.51
215.815	20.39
216.28	19.79
216.745	18.97
217.21	17.96
217.675	17.13
218.14	16.33
218.604	15.43
219.069	14.86
219.534	14.4
219.998	13.86
220.463	13.43
220.927	13.16
221.392	12.8
221.856	12.58
222.32	12.36
222.785	12.14
223.249	12.01
223.713	11.92
224.177	11.75
224.642	11.6
225.106	11.48
225.57	11.35
226.034	11.22
226.497	11.09
226.961	10.96
227.425	10.83
227.889	10.72
228.353	10.59
228.816	10.46
229.28	10.32
229.744	10.22
230.207	10.12
230.671	10
231.134	9.89
231.597	9.79
232.061	9.68
232.524	9.61
232.987	9.51
233.45	9.42
233.914	9.32
234.377	9.27
234.84	9.17
235.303	9.09
235.766	9.01
236.229	8.94
236.691	8.87
237.154	8.8
237.617	8.71
238.08	8.64
238.542	8.58
239.005	8.53
239.468	8.42
239.93	8.36
240.393	8.3
240.855	8.22
241.317	8.16
241.78	8.09
242.242	8.02
242.704	7.95
243.166	7.88
243.629	7.81
244.091	7.74
244.553	7.7
245.015	7.65
245.477	7.59
245.939	7.54
246.4	7.48
246.862	7.42
247.324	7.39
247.786	7.36
248.247	7.31
248.709	7.26
249.17	7.22
249.632	7.16
250.093	7.1
250.555	7.05
251.016	7.02
251.477	6.97
251.939	6.93
252.4	6.89
252.861	6.84
253.322	6.8
253.783	6.76
254.244	6.72
254.705	6.69
255.166	6.67
255.627	6.64
256.088	6.58
256.549	6.56
257.009	6.53
257.47	6.5
257.931	6.47
258.391	6.43
258.852	6.39
259.312	6.36
259.773	6.32
260.233	6.29
260.694	6.26
261.154	6.22
261.614	6.19
262.074	6.15
262.534	6.1
262.994	6.06
263.455	6.04
263.915	6
264.374	5.97
264.834	5.94
265.294	5.9
265.754	5.87
266.214	5.84
266.673	5.82
267.133	5.8
267.593	5.78
268.052	5.75
268.512	5.72
268.971	5.7
269.431	5.67
269.89	5.65
270.349	5.63
270.809	5.61
271.268	5.59
271.727	5.57
272.186	5.55
272.645	5.52
273.104	5.51
273.563	5.5
274.022	5.48
274.481	5.47
274.94	5.45
275.399	5.44
275.857	5.41
276.316	5.39
276.775	5.36
277.233	5.34
277.692	5.32
278.15	5.29
278.609	5.27
279.067	5.24
279.525	5.21
279.984	5.2
280.442	5.17
280.9	5.16
281.358	5.15
281.816	5.14
282.274	5.12
282.732	5.11
283.19	5.11
283.648	5.11
284.106	5.1
284.564	5.1
285.021	5.1
285.479	5.11
285.937	5.1
286.394	5.1
286.852	5.11
287.309	5.11
287.767	5.11
288.224	5.1
288.682	5.1
289.139	5.11
289.596	5.09
290.053	5.08
290.511	5.05
290.968	5.04
291.425	5.01
291.882	4.99
292.339	4.96
292.796	4.94
293.252	4.92
293.709	4.9
294.166	4.87
294.623	4.86
295.079	4.85
295.536	4.84
295.992	4.82
296.449	4.82
296.905	4.8
297.362	4.79
297.818	4.78
298.274	4.77
298.731	4.76
299.187	4.75
299.643	4.74
300.099	4.73
300.555	4.71
301.011	4.7
301.467	4.69
301.923	4.69
302.379	4.68
302.835	4.67
303.291	4.66
303.746	4.65
304.202	4.64
304.658	4.63
305.113	4.63
305.569	4.63
306.024	4.62
306.479	4.61
306.935	4.61
307.39	4.59
307.845	4.59
308.301	4.59
308.756	4.6
309.211	4.59
309.666	4.59
310.121	4.59
310.576	4.59
311.031	4.58
311.486	4.58
311.94	4.58
312.395	4.59
312.85	4.59
313.305	4.6
313.759	4.59
314.214	4.59
314.668	4.58
315.123	4.58
315.577	4.58
316.032	4.57
316.486	4.57
316.94	4.56
317.394	4.55
317.849	4.55
318.303	4.53
318.757	4.53
319.211	4.51
319.665	4.52
320.119	4.51
320.572	4.5
321.026	4.51
321.48	4.5
321.934	4.49
322.387	4.48
322.841	4.47
323.295	4.46
323.748	4.44
324.202	4.44
324.655	4.42
325.108	4.4
325.562	4.39
326.015	4.37
326.468	4.36
326.921	4.34
327.374	4.35
327.827	4.35
328.28	4.34
328.733	4.34
329.186	4.33
329.639	4.32
330.092	4.31
330.545	4.32
330.997	4.31
331.45	4.3
331.903	4.3
332.355	4.29
332.808	4.28
333.26	4.28
333.713	4.28
334.165	4.28
334.617	4.3
335.069	4.29
335.522	4.29
335.974	4.29
336.426	4.3
336.878	4.3
337.33	4.3
337.782	4.3
338.234	4.3
338.686	4.3
339.137	4.31
339.589	4.3
340.041	4.3
340.493	4.28
340.944	4.28
341.396	4.28
341.847	4.28
342.299	4.26
342.75	4.25
343.201	4.24
343.653	4.22
344.104	4.22
344.555	4.2
345.006	4.19
345.457	4.18
345.908	4.17
346.359	4.17
346.81	4.15
347.261	4.15
347.712	4.15
348.163	4.14
348.613	4.14
349.064	4.13
349.515	4.12
349.965	4.13
350.416	4.12
350.866	4.12
351.317	4.11
351.767	4.11
352.217	4.1
352.668	4.1
353.118	4.1
353.568	4.1
354.018	4.11
354.468	4.11
354.918	4.12
355.368	4.13
355.818	4.13
356.268	4.14
356.718	4.15
357.168	4.16
357.617	4.17
358.067	4.18
358.517	4.19
358.966	4.2
359.416	4.22
359.865	4.23
360.315	4.25
360.764	4.27
361.213	4.29
361.663	4.3
362.112	4.33
362.561	4.35
363.01	4.38
363.459	4.39
363.908	4.41
364.357	4.43
364.806	4.45
365.255	4.47
365.703	4.48
366.152	4.5
366.601	4.52
367.05	4.54
367.498	4.55
367.947	4.56
368.395	4.58
368.844	4.59
369.292	4.62
369.74	4.64
370.189	4.65
370.637	4.67
371.085	4.69
371.533	4.7
371.981	4.72
372.429	4.73
372.877	4.75
373.325	4.77
373.773	4.78
374.221	4.8
374.669	4.82
375.116	4.83
375.564	4.85
376.012	4.86
376.459	4.88
376.907	4.9
377.354	4.91
377.801	4.92
378.249	4.94
378.696	4.96
379.143	4.97
379.591	4.99
380.038	5.01
380.485	5.03
380.932	5.03
381.379	5.03
381.826	5.04
382.273	5.05
382.72	5.07
383.166	5.07
383.613	5.08
384.06	5.09
384.506	5.1
384.953	5.1
385.4	5.09
385.846	5.1
386.292	5.12
386.739	5.13
387.185	5.15
387.631	5.15
388.078	5.16
388.524	5.15
388.97	5.15
389.416	5.15
389.862	5.15
390.308	5.16
390.754	5.17
391.2	5.19
391.645	5.19
392.091	5.18
392.537	5.18
392.983	5.18
393.428	5.19
393.874	5.21
394.319	5.21
394.765	5.21
395.21	5.2
395.655	5.2
396.101	5.18
396.546	5.19
396.991	5.18
397.436	5.18
397.881	5.18
398.326	5.19
398.771	5.18
399.216	5.18
399.661	5.19
400.106	5.2
400.551	5.18
400.995	5.16
401.44	5.14
401.885	5.14
402.329	5.13
402.774	5.11
403.218	5.07
403.663	5.05
404.107	5.04
404.551	5.03
404.995	5
405.44	5
405.884	5
406.328	4.99
406.772	4.98
407.216	4.97
407.66	4.97
408.104	4.96
408.547	4.96
408.991	4.95
409.435	4.93
409.879	4.92
410.322	4.92
410.766	4.91
411.209	4.91
411.653	4.89
412.096	4.89
412.54	4.88
412.983	4.88
413.426	4.89
413.869	4.9
414.312	4.91
414.756	4.92
415.199	4.92
415.642	4.93
416.085	4.94
416.527	4.95
416.97	4.97
417.413	4.96
417.856	4.95
418.298	4.92
418.741	4.93
419.184	4.91
419.626	4.9
420.069	4.9
420.511	4.88
420.953	4.86
421.396	4.86
421.838	4.87
422.28	4.89
422.722	4.92
423.164	4.93
423.606	4.93
424.048	4.94
424.49	4.94
424.932	4.94
425.374	4.93
425.816	4.91
426.258	4.9
426.699	4.86
427.141	4.83
427.582	4.82
428.024	4.8
428.465	4.8
428.907	4.8
429.348	4.79
429.789	4.79
430.231	4.8
430.672	4.82
431.113	4.83
431.554	4.86
431.995	4.87
432.436	4.88
432.877	4.88
433.318	4.89
433.759	4.91
434.2	4.91
434.64	4.93
435.081	4.92
435.522	4.92
435.962	4.94
436.403	4.94
436.843	4.94
437.284	4.95
437.724	4.97
438.164	4.98
438.604	4.98
439.045	4.99
439.485	4.99
439.925	5.01
440.365	5.01
440.805	5
441.245	5
441.685	5.02
442.125	5.03
442.564	5.04
443.004	5.05
443.444	5.06
443.883	5.09
444.323	5.08
444.762	5.09
445.202	5.13
445.641	5.15
446.081	5.19
446.52	5.19
446.959	5.2
447.398	5.22
447.837	5.24
448.276	5.24
448.716	5.26
449.154	5.29
449.593	5.33
450.032	5.34
450.471	5.38
450.91	5.38
451.349	5.4
451.787	5.4
452.226	5.38
452.664	5.37
453.103	5.39
453.541	5.37
453.98	5.38
454.418	5.36
454.856	5.33
455.295	5.3
455.733	5.29
456.171	5.27
456.609	5.28
457.047	5.27
457.485	5.28
457.923	5.26
458.361	5.27
458.798	5.27
459.236	5.27
459.674	5.27
460.111	5.28
460.549	5.29
460.987	5.29
461.424	5.29
461.862	5.31
462.299	5.3
462.736	5.31
463.173	5.3
463.611	5.31
464.048	5.32
464.485	5.32
464.922	5.31
465.359	5.3
465.796	5.32
466.233	5.32
466.67	5.31
467.106	5.3
467.543	5.31
467.98	5.31
468.416	5.3
468.853	5.3
469.29	5.3
469.726	5.31
470.162	5.33
470.599	5.32
471.035	5.32
471.471	5.32
471.907	5.33
472.344	5.3
472.78	5.3
473.216	5.29
473.652	5.28
474.088	5.3
474.523	5.28
474.959	5.26
475.395	5.24
475.831	5.25
476.266	5.24
476.702	5.22
477.138	5.22
477.573	5.21
478.008	5.2
478.444	5.18
478.879	5.17
479.314	5.17
479.75	5.18
480.185	5.18
480.62	5.17
481.055	5.16
481.49	5.14
481.925	5.14
482.36	5.14
482.795	5.14
483.229	5.14
483.664	5.12
484.099	5.12
484.534	5.1
484.968	5.11
485.403	5.1
485.837	5.11
486.271	5.12
486.706	5.13
487.14	5.14
487.574	5.15
488.009	5.16
488.443	5.18
488.877	5.19
489.311	5.19
489.745	5.21
490.179	5.23
490.613	5.24
491.046	5.26
491.48	5.29
491.914	5.31
492.348	5.32
492.781	5.34
493.215	5.36
493.648	5.4
494.082	5.44
494.515	5.46
494.948	5.49
495.382	5.53
495.815	5.57
496.248	5.61
496.681	5.64
497.114	5.69
497.547	5.74
497.98	5.79
498.413	5.84
498.846	5.9
499.279	5.96
499.711	6.01
500.144	6.06
500.577	6.15
501.009	6.21
501.442	6.29
501.874	6.37
502.306	6.45
502.739	6.53
503.171	6.62
503.603	6.72
504.036	6.83
504.468	6.95
504.9	7.06
505.332	7.17
505.764	7.3
506.196	7.44
506.627	7.58
507.059	7.72
507.491	7.88
507.923	8.04
508.354	8.2
508.786	8.37
509.217	8.54
509.649	8.72
510.08	8.92
510.512	9.11
510.943	9.31
511.374	9.52
511.805	9.73
512.237	9.95
512.668	10.16
513.099	10.39
513.53	10.61
513.961	10.87
514.391	11.1
514.822	11.35
515.253	11.59
515.684	11.83
516.114	12.11
516.545	12.37
516.975	12.65
517.406	12.92
517.836	13.19
518.267	13.46
518.697	13.74
519.127	14.03
519.558	14.3
519.988	14.56
520.418	14.83
520.848	15.1
521.278	15.38
521.708	15.53
522.138	15.78
522.567	16.03
522.997	16.28
523.427	16.52
523.857	16.76
524.286	17.01
524.716	17.24
525.145	17.48
525.575	17.69
526.004	17.9
526.433	18.22
526.863	18.43
527.292	18.65
527.721	18.84
528.15	19.01
528.579	19.19
529.008	19.37
529.437	19.53
529.866	19.68
530.295	19.82
530.724	19.98
531.152	20.12
531.581	20.25
532.01	20.35
532.438	20.47
532.867	20.58
533.295	20.69
533.723	20.77
534.152	20.87
534.58	20.95
535.008	21.02
535.436	21.07
535.865	21.12
536.293	21.19
536.721	21.25
537.149	21.3
537.576	21.36
538.004	21.4
538.432	21.43
538.86	21.48
539.287	21.52
539.715	21.58
540.143	21.6
540.57	21.64
540.998	21.68
541.425	21.73
541.852	21.77
542.28	21.78
542.707	21.82
543.134	21.84
543.561	21.86
543.988	21.89
544.415	21.89
544.842	21.94
545.269	21.98
545.696	21.99
546.123	22.01
546.549	22.04
546.976	22.07
547.403	22.1
547.829	22.15
548.256	22.19
548.682	22.2
549.108	22.24
549.535	22.25
549.961	22.25
550.387	22.24
550.813	22.22
551.24	22.21
551.666	22.19
552.092	22.19
552.518	22.15
552.943	22.11
553.369	22.09
553.795	22.05
554.221	22.02
554.646	21.96
555.072	21.95
555.498	21.92
555.923	21.88
556.349	21.8
556.774	21.72
557.199	21.67
557.625	21.59
558.05	21.5
558.475	21.41
558.9	21.33
559.325	21.25
559.75	21.12
560.175	21.01
560.6	20.92
561.025	20.81
561.449	20.69
561.874	20.54
562.299	20.43
562.723	20.3
563.148	20.15
563.572	20
563.997	19.87
564.421	19.72
564.846	19.57
565.27	19.39
565.694	19.24
566.118	19.11
566.542	18.97
566.966	18.81
567.39	18.65
567.814	18.49
568.238	18.31
568.662	18.14
569.086	17.99
569.509	17.82
569.933	17.66
570.357	17.48
570.78	17.31
571.204	17.14
571.627	16.98
572.05	16.83
572.474	16.69
572.897	16.55
573.32	16.41
573.743	16.26
574.166	16.13
574.589	15.99
575.012	15.88
575.435	15.75
575.858	15.63
576.281	15.52
576.704	15.41
577.126	15.3
577.549	15.2
577.972	15.09
578.394	14.99
578.817	14.9
579.239	14.81
579.661	14.71
580.084	14.62
580.506	14.53
580.928	14.45
581.35	14.36
581.772	14.28
582.194	14.21
582.616	14.14
583.038	14.07
583.46	14.01
583.882	13.94
584.303	13.87
584.725	13.82
585.147	13.74
585.568	13.66
585.99	13.6
586.411	13.53
586.833	13.49
587.254	13.44
587.675	13.38
588.096	13.32
588.518	13.27
588.939	13.22
589.36	13.17
589.781	13.13
590.202	13.1
590.623	13.04
591.043	13
591.464	12.94
591.885	12.88
592.305	12.85
592.726	12.8
593.147	12.78
593.567	12.73
593.987	12.71
594.408	12.69
594.828	12.65
595.248	12.62
595.669	12.59
596.089	12.57
596.509	12.52
596.929	12.48
597.349	12.45
597.769	12.39
598.189	12.37
598.608	12.32
599.028	12.26
599.448	12.22
599.867	12.18
600.287	12.13
600.706	12.09
601.126	12.05
601.545	12.01
601.965	11.97
602.384	11.94
602.803	11.88
603.222	11.82
603.641	11.78
604.061	11.74
604.48	11.68
604.898	11.62
605.317	11.56
605.736	11.51
606.155	11.45
606.574	11.4
606.992	11.32
607.411	11.28
607.829	11.18
608.248	11.12
608.666	11.05
609.085	11
609.503	10.93
609.921	10.87
610.339	10.82
610.758	10.75
611.176	10.68
611.594	10.63
612.012	10.55
612.43	10.55
612.847	10.49
613.265	10.44
613.683	10.37
614.101	10.32
614.518	10.27
614.936	10.19
615.353	10.14
615.771	10.09
616.188	10.04
616.606	10
617.023	9.93
617.44	9.89
617.857	9.83
618.274	9.78
618.691	9.74
619.108	9.71
619.525	9.69
619.942	9.65
620.359	9.63
620.776	9.59
621.192	9.56
621.609	9.55
622.026	9.52
622.442	9.5
622.859	9.48
623.275	9.47
623.691	9.44
624.108	9.44
624.524	9.44
624.94	9.42
625.356	9.4
625.772	9.39
626.188	9.38
626.604	9.37
627.02	9.37
627.436	9.37
627.852	9.36
628.268	9.35
628.683	9.32
629.099	9.32
629.514	9.29
629.93	9.28
630.345	9.26
630.761	9.22
631.176	9.19
631.591	9.16
632.007	9.12
632.422	9.08
632.837	9.04
633.252	9
633.667	8.93
634.082	8.88
634.497	8.81
634.911	8.74
635.326	8.67
635.741	8.59
636.155	8.5
636.57	8.42
636.984	8.32
637.399	8.23
637.813	8.11
638.228	8.01
638.642	7.93
639.056	7.84
639.47	7.75
639.884	7.65
640.298	7.56
640.712	7.47
641.126	7.37
641.54	7.29
641.954	7.21
642.368	7.14
642.781	7.06
643.195	6.96
643.609	6.88
644.022	6.8
644.436	6.73
644.849	6.67
645.262	6.61
645.676	6.54
646.089	6.48
646.502	6.42
646.915	6.37
647.328	6.33
647.741	6.3
648.154	6.27
648.567	6.25
648.98	6.23
649.393	6.2
649.805	6.17
650.218	6.15
650.631	6.12
651.043	6.09
651.456	6.08
651.868	6.06
652.28	6.03
652.693	6
653.105	5.98
653.517	5.96
653.929	5.94
654.341	5.93
654.753	5.92
655.165	5.91
655.577	5.88
655.989	5.86
656.401	5.82
656.813	5.79
657.224	5.77
657.636	5.73
658.047	5.69
658.459	5.65
658.87	5.59
659.282	5.56
659.693	5.51
660.104	5.49
660.515	5.46
660.926	5.43
661.338	5.4
661.749	5.35
662.159	5.32
662.57	5.29
662.981	5.27
663.392	5.25
663.803	5.23
664.213	5.22
664.624	5.21
665.035	5.18
665.445	5.17
665.855	5.17
666.266	5.18
666.676	5.19
667.086	5.18
667.497	5.18
667.907	5.17
668.317	5.17
668.727	5.17
669.137	5.17
669.547	5.2
669.956	5.21
670.366	5.23
670.776	5.24
671.186	5.27
671.595	5.3
672.005	5.33
672.414	5.37
672.824	5.4
673.233	5.44
673.642	5.46
674.052	5.48
674.461	5.52
674.87	5.55
675.279	5.59
675.688	5.62
676.097	5.65
676.506	5.69
676.915	5.73
677.323	5.78
677.732	5.83
678.141	5.89
678.549	5.95
678.958	6.01
679.366	6.05
679.775	6.11
680.183	6.18
680.592	6.24
681	6.29
681.408	6.36
681.816	6.41
682.224	6.49
682.632	6.55
683.04	6.62
683.448	6.7
683.856	6.8
684.264	6.9
684.671	7.02
685.079	7.15
685.487	7.31
685.894	7.47
686.302	7.65
686.709	7.82
687.116	8.04
687.524	8.26
687.931	8.52
688.338	8.81
688.745	9.12
689.152	9.44
689.559	9.8
689.966	10.17
690.373	10.6
690.78	11.02
691.187	11.48
691.593	11.94
692	12.44
692.407	12.94
692.813	13.47
693.22	14.02
693.626	14.57
694.032	15.17
694.439	15.77
694.845	16.37
695.251	16.99
695.657	17.62
696.063	18.29
696.469	18.93
696.875	19.56
697.281	20.18
697.687	20.84
698.093	21.48
698.498	22.1
698.904	22.74
699.31	23.37
699.715	24
700.12	24.63
700.526	25.24
700.931	25.87
701.337	26.48
701.742	27.08
702.147	27.66
702.552	28.26
702.957	28.86
703.362	29.45
703.767	30.02
704.172	30.59
704.577	31.16
704.981	31.71
705.386	32.26
705.791	32.83
706.195	33.39
706.6	33.93
707.004	34.46
707.408	34.97
707.813	35.47
708.217	35.99
708.621	36.5
709.025	37.01
709.43	37.46
709.834	37.97
710.237	38.42
710.641	38.91
711.045	39.4
711.449	39.86
711.853	40.3
712.256	40.74
712.66	41.15
713.064	41.57
713.467	41.97
713.87	42.4
714.274	42.81
714.677	43.25
715.08	43.62
715.484	43.98
715.887	44.39
716.29	44.81
716.693	45.18
717.096	45.57
717.499	45.96
717.901	46.32
718.304	46.69
718.707	47.04
719.109	47.37
719.512	47.78
719.915	48.12
720.317	48.44
720.719	48.73
721.122	49.07
721.524	49.4
721.926	49.68
722.328	50.01
722.731	50.3
723.133	50.6
723.535	50.89
723.937	51.15
724.338	51.42
724.74	51.7
725.142	51.95
725.544	52.17
725.945	52.43
726.347	52.7
726.748	52.89
727.15	53.09
727.551	53.3
727.952	53.48
728.354	53.65
728.755	53.83
729.156	54.03
729.557	54.21
729.958	54.4
730.359	54.51
730.76	54.63
731.161	54.8
731.562	54.99
731.962	55.13
732.363	55.29
732.763	55.43
733.164	55.54
733.564	55.65
733.965	55.75
734.365	55.83
734.766	55.96
735.166	56.04
735.566	56.09
735.966	56.15
736.366	56.23
736.766	56.29
737.166	56.35
737.566	56.41
737.966	56.5
738.365	56.59
738.765	56.71
739.165	56.74
739.564	56.83
739.964	56.9
740.363	56.97
740.763	56.99
741.162	57.02
741.561	57.08
741.96	57.13
742.36	57.16
742.759	57.17
743.158	57.17
743.557	57.24
743.955	57.32
744.354	57.4
744.753	57.47
745.152	57.51
745.55	57.58
745.949	57.62
746.348	57.68
746.746	57.71
747.144	57.8
747.543	57.85
747.941	57.88
748.339	57.9
748.737	57.93
749.136	57.91
749.534	57.98
749.932	57.97
750.33	57.99
750.727	58.01
751.125	58.05
751.523	58.02
751.921	58.04
752.318	58.05
752.716	58.04
753.113	58.04
753.511	58.04
753.908	58.04
754.305	58.06
754.703	58.05
755.1	58.03
755.497	58.04
755.894	58.05
756.291	58.04
756.688	58.06
757.085	58.08
757.482	58.07
757.878	58.09
758.275	58.12
758.672	58.15
759.068	58.19
759.465	58.22
759.861	58.21
760.258	58.21
760.654	58.24
761.05	58.22
761.447	58.18
761.843	58.18
762.239	58.17
762.635	58.12
763.031	58.1
763.427	58.05
763.822	57.98
764.218	57.99
764.614	57.97
765.01	57.95
765.405	57.9
765.801	57.89
766.196	57.84
766.592	57.83
766.987	57.83
767.382	57.8
767.778	57.84
768.173	57.83
768.568	57.78
768.963	57.79
769.358	57.78
769.753	57.81
770.148	57.82
770.542	57.84
770.937	57.81
771.332	57.8
771.726	57.81
772.121	57.77
772.515	57.78
772.91	57.79
773.304	57.77
773.699	57.73
774.093	57.72
774.487	57.71
774.881	57.74
775.275	57.75
775.669	57.75
776.063	57.7
776.457	57.67
776.851	57.6
777.245	57.58
777.638	57.57
778.032	57.6
778.425	57.59
778.819	57.58
779.212	57.51
779.606	57.5
779.999	57.48
780.392	57.54
780.786	57.56
781.179	57.62
781.572	57.63
781.965	57.64
782.358	57.6
782.751	57.6
783.143	57.63
783.536	57.7
783.929	57.77
784.322	57.8
784.714	57.8
785.107	57.82
