Data from N_1_dec_oh_4n_013_Splice17_01.txt Node
Date: Sat Feb 29 13:38:14 EST 2020
User: sa697716
Spectrometer: FLMS03696
Trigger mode: 0
Integration Time (sec): 3.180400E-1
Scans to average: 20
Electric dark correction enabled: true
Nonlinearity correction enabled: true
Boxcar width: 5
XAxis mode: Wavelengths
Number of Pixels in Spectrum: 2048
>>>>>Begin Spectral Data<<<<<
187.83	50.59
188.298	50.35
188.766	45.61
189.233	29.72
189.701	48.85
190.169	54.21
190.636	56.41
191.104	66.56
191.571	240.84
192.039	132.07
192.506	23.76
192.974	3093.21
193.441	137.17
193.908	42.02
194.375	8.26
194.842	135.39
195.31	104.67
195.777	123.4
196.244	27.77
196.711	7.91
197.177	3.56
197.644	2.12
198.111	1.3
198.578	2.03
199.045	1.52
199.511	1.4
199.978	1.25
200.445	1.31
200.911	1.31
201.378	1.2
201.844	1.17
202.31	1.1
202.777	1.39
203.243	1.95
203.709	2.21
204.176	2.06
204.642	2.08
205.108	2.31
205.574	2.51
206.04	2.48
206.506	2.81
206.972	2.95
207.438	2.77
207.903	3.35
208.369	3.37
208.835	2.89
209.301	3.07
209.766	3.06
210.232	3.08
210.697	2.97
211.163	2.98
211.628	2.73
212.094	2.8
212.559	3.27
213.024	2.83
213.49	2.59
213.955	2.96
214.42	3.11
214.885	2.93
215.35	2.93
215.815	2.78
216.28	2.63
216.745	2.63
217.21	2.56
217.675	2.2
218.14	2.02
218.604	1.87
219.069	1.75
219.534	1.6
219.998	1.46
220.463	1.36
220.927	1.3
221.392	1.29
221.856	1.19
222.32	1.08
222.785	1.06
223.249	1.06
223.713	1.03
224.177	0.94
224.642	0.92
225.106	0.93
225.57	0.89
226.034	0.9
226.497	0.85
226.961	0.84
227.425	0.79
227.889	0.77
228.353	0.72
228.816	0.73
229.28	0.73
229.744	0.73
230.207	0.72
230.671	0.73
231.134	0.7
231.597	0.7
232.061	0.69
232.524	0.72
232.987	0.72
233.45	0.73
233.914	0.72
234.377	0.72
234.84	0.7
235.303	0.69
235.766	0.68
236.229	0.68
236.691	0.69
237.154	0.68
237.617	0.67
238.08	0.65
238.542	0.65
239.005	0.63
239.468	0.62
239.93	0.63
240.393	0.63
240.855	0.62
241.317	0.6
241.78	0.6
242.242	0.6
242.704	0.59
243.166	0.59
243.629	0.57
244.091	0.58
244.553	0.59
245.015	0.59
245.477	0.57
245.939	0.56
246.4	0.56
246.862	0.55
247.324	0.55
247.786	0.54
248.247	0.54
248.709	0.54
249.17	0.54
249.632	0.54
250.093	0.51
250.555	0.52
251.016	0.52
251.477	0.52
251.939	0.52
252.4	0.52
252.861	0.53
253.322	0.52
253.783	0.51
254.244	0.5
254.705	0.5
255.166	0.51
255.627	0.51
256.088	0.51
256.549	0.51
257.009	0.5
257.47	0.5
257.931	0.5
258.391	0.5
258.852	0.49
259.312	0.5
259.773	0.49
260.233	0.48
260.694	0.49
261.154	0.48
261.614	0.48
262.074	0.48
262.534	0.47
262.994	0.47
263.455	0.48
263.915	0.48
264.374	0.47
264.834	0.48
265.294	0.48
265.754	0.47
266.214	0.47
266.673	0.47
267.133	0.47
267.593	0.47
268.052	0.46
268.512	0.46
268.971	0.46
269.431	0.46
269.89	0.45
270.349	0.45
270.809	0.46
271.268	0.46
271.727	0.46
272.186	0.46
272.645	0.46
273.104	0.46
273.563	0.46
274.022	0.46
274.481	0.46
274.94	0.46
275.399	0.46
275.857	0.46
276.316	0.45
276.775	0.45
277.233	0.44
277.692	0.45
278.15	0.44
278.609	0.44
279.067	0.44
279.525	0.43
279.984	0.43
280.442	0.43
280.9	0.44
281.358	0.44
281.816	0.45
282.274	0.45
282.732	0.45
283.19	0.45
283.648	0.45
284.106	0.45
284.564	0.46
285.021	0.46
285.479	0.45
285.937	0.45
286.394	0.44
286.852	0.45
287.309	0.45
287.767	0.45
288.224	0.45
288.682	0.44
289.139	0.45
289.596	0.44
290.053	0.44
290.511	0.44
290.968	0.45
291.425	0.45
291.882	0.45
292.339	0.45
292.796	0.44
293.252	0.44
293.709	0.44
294.166	0.44
294.623	0.44
295.079	0.44
295.536	0.44
295.992	0.44
296.449	0.43
296.905	0.43
297.362	0.43
297.818	0.43
298.274	0.43
298.731	0.43
299.187	0.44
299.643	0.43
300.099	0.43
300.555	0.43
301.011	0.42
301.467	0.43
301.923	0.43
302.379	0.43
302.835	0.43
303.291	0.43
303.746	0.42
304.202	0.42
304.658	0.42
305.113	0.42
305.569	0.43
306.024	0.43
306.479	0.42
306.935	0.42
307.39	0.41
307.845	0.42
308.301	0.42
308.756	0.42
309.211	0.43
309.666	0.43
310.121	0.44
310.576	0.43
311.031	0.43
311.486	0.43
311.94	0.44
312.395	0.44
312.85	0.43
313.305	0.43
313.759	0.43
314.214	0.42
314.668	0.42
315.123	0.42
315.577	0.42
316.032	0.43
316.486	0.42
316.94	0.42
317.394	0.42
317.849	0.43
318.303	0.43
318.757	0.44
319.211	0.44
319.665	0.44
320.119	0.44
320.572	0.44
321.026	0.43
321.48	0.44
321.934	0.44
322.387	0.44
322.841	0.44
323.295	0.44
323.748	0.43
324.202	0.44
324.655	0.44
325.108	0.43
325.562	0.43
326.015	0.43
326.468	0.43
326.921	0.42
327.374	0.42
327.827	0.42
328.28	0.42
328.733	0.42
329.186	0.42
329.639	0.42
330.092	0.42
330.545	0.42
330.997	0.43
331.45	0.43
331.903	0.43
332.355	0.44
332.808	0.43
333.26	0.42
333.713	0.43
334.165	0.43
334.617	0.44
335.069	0.43
335.522	0.44
335.974	0.44
336.426	0.43
336.878	0.43
337.33	0.43
337.782	0.42
338.234	0.43
338.686	0.42
339.137	0.42
339.589	0.41
340.041	0.41
340.493	0.4
340.944	0.4
341.396	0.42
341.847	0.42
342.299	0.42
342.75	0.42
343.201	0.42
343.653	0.42
344.104	0.43
344.555	0.42
345.006	0.42
345.457	0.43
345.908	0.43
346.359	0.42
346.81	0.43
347.261	0.43
347.712	0.43
348.163	0.42
348.613	0.42
349.064	0.41
349.515	0.41
349.965	0.4
350.416	0.4
350.866	0.4
351.317	0.4
351.767	0.39
352.217	0.39
352.668	0.38
353.118	0.39
353.568	0.4
354.018	0.41
354.468	0.41
354.918	0.43
355.368	0.43
355.818	0.43
356.268	0.43
356.718	0.42
357.168	0.42
357.617	0.43
358.067	0.42
358.517	0.41
358.966	0.41
359.416	0.42
359.865	0.41
360.315	0.42
360.764	0.42
361.213	0.42
361.663	0.43
362.112	0.44
362.561	0.44
363.01	0.45
363.459	0.44
363.908	0.44
364.357	0.44
364.806	0.43
365.255	0.43
365.703	0.43
366.152	0.44
366.601	0.45
367.05	0.45
367.498	0.45
367.947	0.45
368.395	0.47
368.844	0.47
369.292	0.47
369.74	0.48
370.189	0.48
370.637	0.49
371.085	0.49
371.533	0.48
371.981	0.49
372.429	0.48
372.877	0.49
373.325	0.48
373.773	0.48
374.221	0.49
374.669	0.49
375.116	0.48
375.564	0.49
376.012	0.49
376.459	0.5
376.907	0.51
377.354	0.52
377.801	0.53
378.249	0.55
378.696	0.56
379.143	0.57
379.591	0.58
380.038	0.6
380.485	0.6
380.932	0.61
381.379	0.62
381.826	0.64
382.273	0.64
382.72	0.66
383.166	0.67
383.613	0.68
384.06	0.7
384.506	0.73
384.953	0.76
385.4	0.79
385.846	0.82
386.292	0.86
386.739	0.89
387.185	0.95
387.631	1
388.078	1.05
388.524	1.08
388.97	1.12
389.416	1.15
389.862	1.2
390.308	1.26
390.754	1.35
391.2	1.43
391.645	1.52
392.091	1.57
392.537	1.64
392.983	1.72
393.428	1.87
393.874	2.05
394.319	2.26
394.765	2.48
395.21	2.7
395.655	2.94
396.101	3.18
396.546	3.46
396.991	3.77
397.436	4.11
397.881	4.48
398.326	4.83
398.771	5.17
399.216	5.49
399.661	5.8
400.106	6.09
400.551	6.36
400.995	6.6
401.44	6.83
401.885	7.06
402.329	7.3
402.774	7.52
403.218	7.78
403.663	8.04
404.107	8.35
404.551	8.68
404.995	8.98
405.44	9.26
405.884	9.55
406.328	9.88
406.772	10.26
407.216	10.67
407.66	11.07
408.104	11.43
408.547	11.76
408.991	12.04
409.435	12.32
409.879	12.66
410.322	13.06
410.766	13.47
411.209	13.87
411.653	14.22
412.096	14.54
412.54	14.84
412.983	15.15
413.426	15.49
413.869	15.84
414.312	16.2
414.756	16.51
415.199	16.78
415.642	17.05
416.085	17.28
416.527	17.47
416.97	17.6
417.413	17.66
417.856	17.68
418.298	17.7
418.741	17.75
419.184	17.8
419.626	17.9
420.069	18.01
420.511	18.15
420.953	18.29
421.396	18.47
421.838	18.69
422.28	19
422.722	19.32
423.164	19.61
423.606	19.88
424.048	20.1
424.49	20.23
424.932	20.18
425.374	19.95
425.816	19.56
426.258	19.12
426.699	18.78
427.141	18.67
427.582	18.81
428.024	19.13
428.465	19.47
428.907	19.84
429.348	20.17
429.789	20.58
430.231	21.2
430.672	22.12
431.113	23.21
431.554	24.31
431.995	25.21
432.436	25.87
432.877	26.34
433.318	26.76
433.759	27.14
434.2	27.61
434.64	28.22
435.081	28.84
435.522	29.4
435.962	29.82
436.403	30.18
436.843	30.48
437.284	30.8
437.724	31.12
438.164	31.56
438.604	32.08
439.045	32.62
439.485	33.13
439.925	33.54
440.365	33.91
440.805	34.22
441.245	34.45
441.685	34.68
442.125	34.91
442.564	35.22
443.004	35.51
443.444	35.87
443.883	36.28
444.323	36.69
444.762	37.11
445.202	37.53
445.641	38.03
446.081	38.67
446.52	39.33
446.959	40.03
447.398	40.58
447.837	40.98
448.276	41.12
448.716	41.25
449.154	41.33
449.593	41.44
450.032	41.52
450.471	41.48
450.91	41.35
451.349	41.22
451.787	41.09
452.226	41.01
452.664	40.99
453.103	41.04
453.541	41.08
453.98	41.06
454.418	40.96
454.856	40.8
455.295	40.7
455.733	40.6
456.171	40.52
456.609	40.44
457.047	40.41
457.485	40.43
457.923	40.48
458.361	40.59
458.798	40.8
459.236	41.01
459.674	41.23
460.111	41.43
460.549	41.62
460.987	41.84
461.424	42.05
461.862	42.26
462.299	42.44
462.736	42.64
463.173	42.88
463.611	43.15
464.048	43.48
464.485	43.91
464.922	44.45
465.359	44.94
465.796	45.4
466.233	45.83
466.67	46.3
467.106	46.87
467.543	47.52
467.98	48.2
468.416	48.81
468.853	49.35
469.29	49.82
469.726	50.27
470.162	50.81
470.599	51.37
471.035	51.89
471.471	52.29
471.907	52.53
472.344	52.7
472.78	52.79
473.216	52.94
473.652	53.14
474.088	53.31
474.523	53.4
474.959	53.43
475.395	53.46
475.831	53.46
476.266	53.51
476.702	53.58
477.138	53.59
477.573	53.63
478.008	53.52
478.444	53.33
478.879	53.12
479.314	52.86
479.75	52.56
480.185	52.19
480.62	51.75
481.055	51.05
481.49	50.07
481.925	48.97
482.36	47.89
482.795	46.96
483.229	46.27
483.664	45.74
484.099	45.32
484.534	44.94
484.968	44.64
485.403	44.53
485.837	44.65
486.271	45.03
486.706	45.51
487.14	45.9
487.574	46.13
488.009	46.23
488.443	46.27
488.877	46.32
489.311	46.38
489.745	46.48
490.179	46.59
490.613	46.69
491.046	46.79
491.48	46.93
491.914	47.14
492.348	47.46
492.781	47.79
493.215	48.07
493.648	48.3
494.082	48.45
494.515	48.56
494.948	48.65
495.382	48.75
495.815	48.8
496.248	48.84
496.681	48.82
497.114	48.79
497.547	48.75
497.98	48.77
498.413	48.91
498.846	49.15
499.279	49.39
499.711	49.55
500.144	49.73
500.577	50.04
501.009	50.47
501.442	51.06
501.874	51.69
502.306	52.34
502.739	52.87
503.171	53.34
503.603	53.74
504.036	54.17
504.468	54.72
504.9	55.29
505.332	55.79
505.764	56.23
506.196	56.6
506.627	56.99
507.059	57.43
507.491	57.95
507.923	58.45
508.354	58.97
508.786	59.46
509.217	59.8
509.649	60.12
510.08	60.45
510.512	60.78
510.943	61.15
511.374	61.45
511.805	61.64
512.237	61.58
512.668	61.36
513.099	61.2
513.53	61.1
513.961	61.07
514.391	61.11
514.822	61.3
515.253	61.59
515.684	61.91
516.114	62.31
516.545	62.85
516.975	63.71
517.406	64.77
517.836	65.81
518.267	66.76
518.697	67.64
519.127	68.55
519.558	69.39
519.988	70.17
520.418	70.89
520.848	71.56
521.278	72.11
521.708	72.57
522.138	72.61
522.567	72.58
522.997	72.59
523.427	72.73
523.857	72.92
524.286	73.16
524.716	73.46
525.145	73.72
525.575	73.94
526.004	74.24
526.433	74.61
526.863	75.37
527.292	76.18
527.721	76.85
528.15	77.28
528.579	77.46
529.008	77.48
529.437	77.39
529.866	77.3
530.295	77.3
530.724	77.33
531.152	77.35
531.581	77.36
532.01	77.29
532.438	77.25
532.867	77.32
533.295	77.47
533.723	77.66
534.152	77.82
534.58	77.92
535.008	77.85
535.436	77.67
535.865	77.34
536.293	76.93
536.721	76.65
537.149	76.53
537.576	76.5
538.004	76.49
538.432	76.46
538.86	76.43
539.287	76.51
539.715	76.71
540.143	76.97
540.57	77.34
540.998	77.84
541.425	78.29
541.852	78.67
542.28	79.04
542.707	79.37
543.134	79.65
543.561	79.88
543.988	80.1
544.415	80.33
544.842	80.56
545.269	80.84
545.696	81.04
546.123	81.27
546.549	81.49
546.976	81.67
547.403	81.86
547.829	82.13
548.256	82.42
548.682	82.59
549.108	82.79
549.535	82.96
549.961	83.1
550.387	83.28
550.813	83.46
551.24	83.63
551.666	83.77
552.092	83.81
552.518	83.76
552.943	83.68
553.369	83.67
553.795	83.54
554.221	83.31
554.646	82.97
555.072	82.56
555.498	82.11
555.923	81.72
556.349	81.39
556.774	81.19
557.199	81.01
557.625	80.78
558.05	80.56
558.475	80.37
558.9	80.28
559.325	80.22
559.75	80.12
560.175	80.04
560.6	79.83
561.025	79.53
561.449	79.1
561.874	78.63
562.299	78.29
562.723	77.91
563.148	77.56
563.572	77.2
563.997	76.76
564.421	76.32
564.846	75.88
565.27	75.47
565.694	75.05
566.118	74.61
566.542	74.17
566.966	73.69
567.39	73.25
567.814	72.87
568.238	72.49
568.662	72.3
569.086	72.13
569.509	72
569.933	71.84
570.357	71.71
570.78	71.64
571.204	71.56
571.627	71.51
572.05	71.44
572.474	71.32
572.897	71.2
573.32	70.99
573.743	70.74
574.166	70.44
574.589	70.17
575.012	70.01
575.435	69.88
575.858	69.87
576.281	69.87
576.704	69.87
577.126	69.87
577.549	69.9
577.972	70.01
578.394	70.15
578.817	70.37
579.239	70.62
579.661	70.8
580.084	71
580.506	71.08
580.928	71.09
581.35	71.09
581.772	71.02
582.194	70.92
582.616	70.81
583.038	70.73
583.46	70.64
583.882	70.44
584.303	70.07
584.725	69.52
585.147	68.94
585.568	68.41
585.99	68.04
586.411	67.76
586.833	67.54
587.254	67.35
587.675	67.16
588.096	67.02
588.518	66.92
588.939	66.98
589.36	67.21
589.781	67.53
590.202	67.82
590.623	67.96
591.043	67.99
591.464	67.99
591.885	67.94
592.305	67.88
592.726	67.78
593.147	67.7
593.567	67.57
593.987	67.44
594.408	67.26
594.828	67.11
595.248	66.96
595.669	66.84
596.089	66.66
596.509	66.42
596.929	66.14
597.349	65.83
597.769	65.51
598.189	65.24
598.608	65.02
599.028	64.85
599.448	64.72
599.867	64.59
600.287	64.49
600.706	64.35
601.126	64.29
601.545	64.21
601.965	64.16
602.384	64.1
602.803	64.03
603.222	63.92
603.641	63.78
604.061	63.57
604.48	63.31
604.898	63.02
605.317	62.77
605.736	62.47
606.155	62.16
606.574	61.89
606.992	61.6
607.411	61.34
607.829	61.02
608.248	60.73
608.666	60.44
609.085	60.2
609.503	59.9
609.921	59.64
610.339	59.41
610.758	59.2
611.176	58.95
611.594	58.67
612.012	58.36
612.43	58.07
612.847	57.77
613.265	57.54
613.683	57.35
614.101	57.21
614.518	57.07
614.936	56.95
615.353	56.83
615.771	56.77
616.188	56.76
616.606	56.75
617.023	56.77
617.44	56.74
617.857	56.65
618.274	56.49
618.691	56.34
619.108	56.14
619.525	55.92
619.942	55.67
620.359	55.39
620.776	55.04
621.192	54.7
621.609	54.38
622.026	54.1
622.442	53.88
622.859	53.67
623.275	53.45
623.691	53.2
624.108	52.97
624.524	52.76
624.94	52.57
625.356	52.39
625.772	52.27
626.188	52.15
626.604	52.01
627.02	51.81
627.436	51.65
627.852	51.49
628.268	51.44
628.683	51.39
629.099	51.35
629.514	51.3
629.93	51.28
630.345	51.27
630.761	51.24
631.176	51.24
631.591	51.24
632.007	51.21
632.422	51.24
632.837	51.22
633.252	51.18
633.667	51.16
634.082	51.16
634.497	51.16
634.911	51.09
635.326	51
635.741	50.88
636.155	50.74
636.57	50.64
636.984	50.43
637.399	50.22
637.813	50.02
638.228	49.83
638.642	49.6
639.056	49.36
639.47	49.14
639.884	48.98
640.298	48.8
640.712	48.65
641.126	48.5
641.54	48.34
641.954	48.19
642.368	47.99
642.781	47.79
643.195	47.56
643.609	47.36
644.022	47.18
644.436	46.94
644.849	46.68
645.262	46.4
645.676	46.1
646.089	45.91
646.502	45.75
646.915	45.62
647.328	45.49
647.741	45.39
648.154	45.31
648.567	45.21
648.98	45.19
649.393	45.19
649.805	45.2
650.218	45.22
650.631	45.14
651.043	44.96
651.456	44.6
651.868	44.07
652.28	43.45
652.693	42.84
653.105	42.37
653.517	41.96
653.929	41.69
654.341	41.5
654.753	41.38
655.165	41.29
655.577	41.26
655.989	41.47
656.401	41.81
656.813	42.29
657.224	42.75
657.636	43.07
658.047	43.31
658.459	43.41
658.87	43.42
659.282	43.4
659.693	43.36
660.104	43.31
660.515	43.2
660.926	43.16
661.338	43.05
661.749	42.92
662.159	42.79
662.57	42.64
662.981	42.5
663.392	42.39
663.803	42.26
664.213	42.15
664.624	42.07
665.035	41.96
665.445	41.82
665.855	41.67
666.266	41.55
666.676	41.41
667.086	41.29
667.497	41.14
667.907	40.99
668.317	40.86
668.727	40.73
669.137	40.59
669.547	40.46
669.956	40.36
670.366	40.28
670.776	40.18
671.186	40.1
671.595	40.04
672.005	40.02
672.414	39.98
672.824	39.95
673.233	39.93
673.642	39.9
674.052	39.9
674.461	39.9
674.87	39.9
675.279	39.92
675.688	39.93
676.097	39.96
676.506	39.96
676.915	39.99
677.323	40.05
677.732	40.11
678.141	40.19
678.549	40.26
678.958	40.34
679.366	40.41
679.775	40.47
680.183	40.55
680.592	40.62
681	40.68
681.408	40.76
681.816	40.78
682.224	40.61
682.632	40.27
683.04	39.69
683.448	39.06
683.856	38.5
684.264	38.05
684.671	37.63
685.079	37.22
685.487	36.88
685.894	36.61
686.302	36.42
686.709	36.47
687.116	36.78
687.524	37.39
687.931	38.11
688.338	38.84
688.745	39.53
689.152	40.22
689.559	40.87
689.966	41.51
690.373	42.11
690.78	42.65
691.187	43.19
691.593	43.67
692	44.12
692.407	44.57
692.813	44.99
693.22	45.35
693.626	45.71
694.032	46.07
694.439	46.42
694.845	46.73
695.251	47.04
695.657	47.26
696.063	47.5
696.469	47.69
696.875	47.8
697.281	47.89
697.687	47.98
698.093	48.04
698.498	48.15
698.904	48.25
699.31	48.36
699.715	48.55
700.12	48.74
700.526	48.97
700.931	49.2
701.337	49.43
701.742	49.66
702.147	49.9
702.552	50.17
702.957	50.4
703.362	50.66
703.767	50.87
704.172	51.04
704.577	51.2
704.981	51.34
705.386	51.46
705.791	51.6
706.195	51.74
706.6	51.89
707.004	52.01
707.408	52.12
707.813	52.18
708.217	52.25
708.621	52.33
709.025	52.4
709.43	52.45
709.834	52.54
710.237	52.57
710.641	52.62
711.045	52.62
711.449	52.63
711.853	52.61
712.256	52.57
712.66	52.4
713.064	52.14
713.467	51.79
713.87	51.34
714.274	50.81
714.677	50.24
715.08	49.63
715.484	49.04
715.887	48.47
716.29	47.96
716.693	47.56
717.096	47.42
717.499	47.48
717.901	47.68
718.304	48
718.707	48.35
719.109	48.74
719.512	49.13
719.915	49.46
720.317	49.74
720.719	49.98
721.122	50.14
721.524	50.16
721.926	50.11
722.328	50
722.731	49.88
723.133	49.79
723.535	49.72
723.937	49.67
724.338	49.66
724.74	49.64
725.142	49.63
725.544	49.6
725.945	49.67
726.347	49.68
726.748	49.68
727.15	49.67
727.551	49.72
727.952	49.83
728.354	49.97
728.755	50.15
729.156	50.4
729.557	50.71
729.958	51.02
730.359	51.27
730.76	51.49
731.161	51.72
731.562	51.92
731.962	52.07
732.363	52.14
732.763	52.25
733.164	52.32
733.564	52.34
733.965	52.27
734.365	52.18
734.766	52.05
735.166	51.95
735.566	51.82
735.966	51.73
736.366	51.64
736.766	51.56
737.166	51.45
737.566	51.32
737.966	51.19
738.365	51.13
738.765	51.11
739.165	51.11
739.564	51.13
739.964	51.2
740.363	51.2
740.763	51.22
741.162	51.24
741.561	51.29
741.96	51.35
742.36	51.38
742.759	51.36
743.158	51.33
743.557	51.3
743.955	51.29
744.354	51.26
744.753	51.25
745.152	51.17
745.55	51.09
745.949	50.98
746.348	50.89
746.746	50.76
747.144	50.68
747.543	50.65
747.941	50.54
748.339	50.46
748.737	50.36
749.136	50.23
749.534	50.2
749.932	50.16
750.33	50.13
750.727	50.07
751.125	50.03
751.523	49.97
751.921	49.89
752.318	49.87
752.716	49.75
753.113	49.68
753.511	49.61
753.908	49.48
754.305	49.29
754.703	48.97
755.1	48.26
755.497	46.98
755.894	44.99
756.291	42.45
756.688	39.65
757.085	36.92
757.482	34.4
757.878	32.08
758.275	29.82
758.672	27.52
759.068	25.36
759.465	23.59
759.861	22.56
760.258	22.35
760.654	22.86
761.05	23.83
761.447	24.95
761.843	26
762.239	27.03
762.635	28.22
763.031	29.67
763.427	31.28
763.822	33.03
764.218	34.8
764.614	36.47
765.01	38.03
765.405	39.45
765.801	40.74
766.196	41.89
766.592	42.88
766.987	43.7
767.382	44.34
767.778	44.84
768.173	45.19
768.568	45.4
768.963	45.58
769.358	45.73
769.753	45.83
770.148	45.9
770.542	45.87
770.937	45.85
771.332	45.82
771.726	45.78
772.121	45.74
772.515	45.7
772.91	45.66
773.304	45.63
773.699	45.53
774.093	45.41
774.487	45.32
774.881	45.29
