Data from N_1_dec_ct_2n_033_Splice17_14.txt Node
Date: Sat Feb 29 13:47:22 EST 2020
User: sa697716
Spectrometer: FLMS03696
Trigger mode: 0
Integration Time (sec): 3.180400E-1
Scans to average: 20
Electric dark correction enabled: true
Nonlinearity correction enabled: true
Boxcar width: 5
XAxis mode: Wavelengths
Number of Pixels in Spectrum: 2048
>>>>>Begin Spectral Data<<<<<
187.83	96.48
188.298	95.53
188.766	89.39
189.233	90.79
189.701	97.49
190.169	89.32
190.636	84.72
191.104	60.29
191.571	52.14
192.039	103.59
192.506	299.42
192.974	4464.62
193.441	-267.42
193.908	71.49
194.375	17.25
194.842	107.54
195.31	56.41
195.777	16.98
196.244	40.25
196.711	52.81
197.177	53.31
197.644	53.95
198.111	54.26
198.578	54.2
199.045	54.46
199.511	55.36
199.978	55.87
200.445	55.76
200.911	56.12
201.378	56.53
201.844	57.11
202.31	57.32
202.777	57.4
203.243	57.55
203.709	58.03
204.176	58.09
204.642	58.01
205.108	57.78
205.574	58.05
206.04	57.98
206.506	57.32
206.972	56.89
207.438	56.53
207.903	56.31
208.369	55.79
208.835	55.59
209.301	55.33
209.766	55.3
210.232	54.93
210.697	54.41
211.163	54.08
211.628	53.49
212.094	53.18
212.559	53.04
213.024	52.43
213.49	52.07
213.955	51.4
214.42	50.75
214.885	50
215.35	49.14
215.815	48.12
216.28	47.07
216.745	46.15
217.21	44.94
217.675	43.55
218.14	42.4
218.604	41.26
219.069	40.4
219.534	39.72
219.998	38.9
220.463	38.35
220.927	37.81
221.392	37.28
221.856	36.8
222.32	36.4
222.785	36.03
223.249	35.64
223.713	35.36
224.177	35
224.642	34.62
225.106	34.31
225.57	33.95
226.034	33.64
226.497	33.27
226.961	32.86
227.425	32.5
227.889	32.13
228.353	31.79
228.816	31.43
229.28	31.08
229.744	30.76
230.207	30.42
230.671	30.09
231.134	29.77
231.597	29.47
232.061	29.19
232.524	28.88
232.987	28.58
233.45	28.29
233.914	27.99
234.377	27.71
234.84	27.45
235.303	27.18
235.766	26.89
236.229	26.6
236.691	26.37
237.154	26.15
237.617	25.9
238.08	25.67
238.542	25.45
239.005	25.23
239.468	24.99
239.93	24.8
240.393	24.6
240.855	24.39
241.317	24.21
241.78	24.02
242.242	23.83
242.704	23.65
243.166	23.48
243.629	23.29
244.091	23.11
244.553	22.96
245.015	22.77
245.477	22.6
245.939	22.46
246.4	22.29
246.862	22.14
247.324	22
247.786	21.86
248.247	21.73
248.709	21.58
249.17	21.45
249.632	21.3
250.093	21.15
250.555	21.03
251.016	20.91
251.477	20.81
251.939	20.69
252.4	20.58
252.861	20.46
253.322	20.37
253.783	20.31
254.244	20.23
254.705	20.18
255.166	20.13
255.627	20.06
256.088	19.98
256.549	19.92
257.009	19.87
257.47	19.8
257.931	19.72
258.391	19.65
258.852	19.58
259.312	19.54
259.773	19.46
260.233	19.41
260.694	19.35
261.154	19.31
261.614	19.26
262.074	19.21
262.534	19.16
262.994	19.13
263.455	19.09
263.915	19.06
264.374	19
264.834	18.98
265.294	18.95
265.754	18.92
266.214	18.89
266.673	18.87
267.133	18.84
267.593	18.84
268.052	18.82
268.512	18.8
268.971	18.78
269.431	18.78
269.89	18.76
270.349	18.75
270.809	18.75
271.268	18.74
271.727	18.73
272.186	18.73
272.645	18.7
273.104	18.68
273.563	18.68
274.022	18.66
274.481	18.64
274.94	18.63
275.399	18.6
275.857	18.57
276.316	18.54
276.775	18.51
277.233	18.47
277.692	18.46
278.15	18.42
278.609	18.38
279.067	18.34
279.525	18.31
279.984	18.28
280.442	18.26
280.9	18.23
281.358	18.21
281.816	18.2
282.274	18.17
282.732	18.15
283.19	18.16
283.648	18.16
284.106	18.16
284.564	18.16
285.021	18.16
285.479	18.16
285.937	18.17
286.394	18.17
286.852	18.17
287.309	18.19
287.767	18.19
288.224	18.18
288.682	18.17
289.139	18.17
289.596	18.15
290.053	18.12
290.511	18.1
290.968	18.07
291.425	18.04
291.882	18.02
292.339	17.99
292.796	17.97
293.252	17.95
293.709	17.93
294.166	17.92
294.623	17.93
295.079	17.91
295.536	17.92
295.992	17.92
296.449	17.93
296.905	17.91
297.362	17.91
297.818	17.91
298.274	17.91
298.731	17.92
299.187	17.9
299.643	17.88
300.099	17.89
300.555	17.87
301.011	17.86
301.467	17.85
301.923	17.86
302.379	17.87
302.835	17.87
303.291	17.86
303.746	17.84
304.202	17.83
304.658	17.83
305.113	17.83
305.569	17.83
306.024	17.83
306.479	17.81
306.935	17.81
307.39	17.79
307.845	17.79
308.301	17.79
308.756	17.8
309.211	17.8
309.666	17.82
310.121	17.81
310.576	17.82
311.031	17.82
311.486	17.84
311.94	17.84
312.395	17.85
312.85	17.86
313.305	17.87
313.759	17.87
314.214	17.87
314.668	17.86
315.123	17.86
315.577	17.85
316.032	17.84
316.486	17.83
316.94	17.82
317.394	17.81
317.849	17.78
318.303	17.75
318.757	17.73
319.211	17.7
319.665	17.68
320.119	17.66
320.572	17.64
321.026	17.62
321.48	17.6
321.934	17.57
322.387	17.56
322.841	17.55
323.295	17.54
323.748	17.52
324.202	17.51
324.655	17.48
325.108	17.45
325.562	17.43
326.015	17.41
326.468	17.38
326.921	17.36
327.374	17.33
327.827	17.31
328.28	17.28
328.733	17.26
329.186	17.27
329.639	17.26
330.092	17.25
330.545	17.24
330.997	17.24
331.45	17.24
331.903	17.23
332.355	17.22
332.808	17.21
333.26	17.22
333.713	17.22
334.165	17.2
334.617	17.2
335.069	17.2
335.522	17.19
335.974	17.19
336.426	17.18
336.878	17.18
337.33	17.19
337.782	17.2
338.234	17.18
338.686	17.17
339.137	17.17
339.589	17.16
340.041	17.15
340.493	17.13
340.944	17.1
341.396	17.08
341.847	17.06
342.299	17.03
342.75	16.98
343.201	16.95
343.653	16.92
344.104	16.88
344.555	16.85
345.006	16.79
345.457	16.74
345.908	16.72
346.359	16.7
346.81	16.68
347.261	16.64
347.712	16.62
348.163	16.59
348.613	16.56
349.064	16.53
349.515	16.51
349.965	16.51
350.416	16.51
350.866	16.5
351.317	16.48
351.767	16.46
352.217	16.46
352.668	16.45
353.118	16.45
353.568	16.46
354.018	16.47
354.468	16.47
354.918	16.47
355.368	16.47
355.818	16.46
356.268	16.47
356.718	16.46
357.168	16.45
357.617	16.45
358.067	16.44
358.517	16.43
358.966	16.43
359.416	16.44
359.865	16.43
360.315	16.43
360.764	16.43
361.213	16.42
361.663	16.42
362.112	16.45
362.561	16.45
363.01	16.45
363.459	16.44
363.908	16.44
364.357	16.43
364.806	16.43
365.255	16.44
365.703	16.45
366.152	16.45
366.601	16.44
367.05	16.43
367.498	16.44
367.947	16.44
368.395	16.47
368.844	16.5
369.292	16.51
369.74	16.53
370.189	16.56
370.637	16.56
371.085	16.59
371.533	16.61
371.981	16.64
372.429	16.64
372.877	16.67
373.325	16.69
373.773	16.71
374.221	16.76
374.669	16.79
375.116	16.82
375.564	16.85
376.012	16.9
376.459	16.95
376.907	17.02
377.354	17.11
377.801	17.18
378.249	17.26
378.696	17.34
379.143	17.41
379.591	17.49
380.038	17.58
380.485	17.69
380.932	17.78
381.379	17.86
381.826	17.95
382.273	18.03
382.72	18.12
383.166	18.21
383.613	18.31
384.06	18.4
384.506	18.48
384.953	18.57
385.4	18.65
385.846	18.73
386.292	18.84
386.739	18.94
387.185	19.03
387.631	19.13
388.078	19.23
388.524	19.29
388.97	19.35
389.416	19.43
389.862	19.5
390.308	19.58
390.754	19.64
391.2	19.7
391.645	19.77
392.091	19.83
392.537	19.88
392.983	19.95
393.428	20.04
393.874	20.13
394.319	20.18
394.765	20.23
395.21	20.25
395.655	20.3
396.101	20.32
396.546	20.36
396.991	20.39
397.436	20.4
397.881	20.42
398.326	20.44
398.771	20.47
399.216	20.5
399.661	20.55
400.106	20.6
400.551	20.61
400.995	20.62
401.44	20.6
401.885	20.59
402.329	20.59
402.774	20.58
403.218	20.55
403.663	20.53
404.107	20.53
404.551	20.51
404.995	20.49
405.44	20.47
405.884	20.45
406.328	20.43
406.772	20.41
407.216	20.4
407.66	20.38
408.104	20.37
408.547	20.34
408.991	20.29
409.435	20.25
409.879	20.2
410.322	20.18
410.766	20.15
411.209	20.14
411.653	20.11
412.096	20.06
412.54	20.02
412.983	19.99
413.426	19.98
413.869	19.96
414.312	19.96
414.756	19.97
415.199	19.96
415.642	19.97
416.085	19.96
416.527	19.96
416.97	19.96
417.413	19.96
417.856	19.92
418.298	19.87
418.741	19.83
419.184	19.78
419.626	19.74
420.069	19.72
420.511	19.68
420.953	19.62
421.396	19.57
421.838	19.55
422.28	19.54
422.722	19.55
423.164	19.54
423.606	19.54
424.048	19.5
424.49	19.51
424.932	19.48
425.374	19.45
425.816	19.45
426.258	19.41
426.699	19.34
427.141	19.25
427.582	19.22
428.024	19.22
428.465	19.22
428.907	19.25
429.348	19.24
429.789	19.23
430.231	19.22
430.672	19.24
431.113	19.28
431.554	19.34
431.995	19.39
432.436	19.4
432.877	19.4
433.318	19.37
433.759	19.37
434.2	19.36
434.64	19.39
435.081	19.4
435.522	19.42
435.962	19.45
436.403	19.48
436.843	19.54
437.284	19.57
437.724	19.6
438.164	19.64
438.604	19.68
439.045	19.71
439.485	19.74
439.925	19.75
440.365	19.76
440.805	19.77
441.245	19.77
441.685	19.8
442.125	19.84
442.564	19.91
443.004	19.96
443.444	20
443.883	20.06
444.323	20.12
444.762	20.21
445.202	20.29
445.641	20.36
446.081	20.46
446.52	20.51
446.959	20.57
447.398	20.65
447.837	20.76
448.276	20.81
448.716	20.9
449.154	20.94
449.593	21.02
450.032	21.11
450.471	21.2
450.91	21.22
451.349	21.27
451.787	21.34
452.226	21.38
452.664	21.37
453.103	21.42
453.541	21.43
453.98	21.47
454.418	21.5
454.856	21.49
455.295	21.49
455.733	21.54
456.171	21.59
456.609	21.62
457.047	21.62
457.485	21.69
457.923	21.73
458.361	21.75
458.798	21.82
459.236	21.85
459.674	21.89
460.111	21.93
460.549	21.95
460.987	21.96
461.424	21.96
461.862	21.98
462.299	22.01
462.736	22.01
463.173	22.05
463.611	22.05
464.048	22.07
464.485	22.08
464.922	22.09
465.359	22.11
465.796	22.12
466.233	22.16
466.67	22.19
467.106	22.19
467.543	22.22
467.98	22.22
468.416	22.22
468.853	22.22
469.29	22.2
469.726	22.2
470.162	22.19
470.599	22.17
471.035	22.17
471.471	22.15
471.907	22.15
472.344	22.13
472.78	22.1
473.216	22.09
473.652	22.06
474.088	22.08
474.523	22.07
474.959	22.05
475.395	22.06
475.831	22.06
476.266	22.06
476.702	22.03
477.138	22.01
477.573	21.99
478.008	21.98
478.444	21.97
478.879	21.94
479.314	21.94
479.75	21.94
480.185	21.93
480.62	21.92
481.055	21.94
481.49	21.94
481.925	21.95
482.36	21.97
482.795	22
483.229	22.03
483.664	22.09
484.099	22.12
484.534	22.16
484.968	22.21
485.403	22.26
485.837	22.32
486.271	22.39
486.706	22.47
487.14	22.55
487.574	22.65
488.009	22.76
488.443	22.87
488.877	22.99
489.311	23.1
489.745	23.23
490.179	23.37
490.613	23.52
491.046	23.68
491.48	23.86
491.914	24.04
492.348	24.2
492.781	24.38
493.215	24.56
493.648	24.77
494.082	24.99
494.515	25.22
494.948	25.45
495.382	25.68
495.815	25.92
496.248	26.17
496.681	26.41
497.114	26.7
497.547	26.96
497.98	27.25
498.413	27.52
498.846	27.83
499.279	28.14
499.711	28.43
500.144	28.74
500.577	29.08
501.009	29.42
501.442	29.79
501.874	30.14
502.306	30.51
502.739	30.89
503.171	31.29
503.603	31.68
504.036	32.07
504.468	32.5
504.9	32.93
505.332	33.34
505.764	33.79
506.196	34.23
506.627	34.7
507.059	35.15
507.491	35.61
507.923	36.07
508.354	36.55
508.786	37.02
509.217	37.47
509.649	37.96
510.08	38.45
510.512	38.88
510.943	39.38
511.374	39.83
511.805	40.31
512.237	40.78
512.668	41.24
513.099	41.74
513.53	42.22
513.961	42.72
514.391	43.15
514.822	43.61
515.253	44.08
515.684	44.49
516.114	44.95
516.545	45.37
516.975	45.84
517.406	46.28
517.836	46.64
518.267	47.04
518.697	47.44
519.127	47.85
519.558	48.22
519.988	48.57
520.418	48.94
520.848	49.25
521.278	49.58
521.708	49.77
522.138	50.04
522.567	50.38
522.997	50.68
523.427	50.97
523.857	51.2
524.286	51.47
524.716	51.74
525.145	51.97
525.575	52.23
526.004	52.46
526.433	52.81
526.863	53.08
527.292	53.28
527.721	53.49
528.15	53.66
528.579	53.9
529.008	54.09
529.437	54.3
529.866	54.49
530.295	54.67
530.724	54.86
531.152	55.02
531.581	55.15
532.01	55.29
532.438	55.44
532.867	55.58
533.295	55.7
533.723	55.82
534.152	55.91
534.58	56.02
535.008	56.11
535.436	56.21
535.865	56.28
536.293	56.38
536.721	56.49
537.149	56.57
537.576	56.67
538.004	56.74
538.432	56.82
538.86	56.91
539.287	56.99
539.715	57.08
540.143	57.12
540.57	57.18
540.998	57.24
541.425	57.29
541.852	57.33
542.28	57.36
542.707	57.43
543.134	57.48
543.561	57.51
543.988	57.57
544.415	57.61
544.842	57.64
545.269	57.7
545.696	57.73
546.123	57.77
546.549	57.81
546.976	57.86
547.403	57.85
547.829	57.88
548.256	57.9
548.682	57.88
549.108	57.91
549.535	57.94
549.961	57.94
550.387	57.94
550.813	57.95
551.24	57.96
551.666	57.98
552.092	58
552.518	58.03
552.943	58.1
553.369	58.13
553.795	58.15
554.221	58.17
554.646	58.21
555.072	58.22
555.498	58.19
555.923	58.19
556.349	58.15
556.774	58.16
557.199	58.14
557.625	58.06
558.05	58.03
558.475	57.99
558.9	57.96
559.325	57.94
559.75	57.89
560.175	57.85
560.6	57.76
561.025	57.72
561.449	57.65
561.874	57.57
562.299	57.52
562.723	57.47
563.148	57.4
563.572	57.33
563.997	57.23
564.421	57.14
564.846	57.06
565.27	57
565.694	56.88
566.118	56.79
566.542	56.68
566.966	56.57
567.39	56.43
567.814	56.31
568.238	56.15
568.662	56.04
569.086	55.94
569.509	55.81
569.933	55.66
570.357	55.53
570.78	55.37
571.204	55.24
571.627	55.11
572.05	55.01
572.474	54.87
572.897	54.75
573.32	54.61
573.743	54.45
574.166	54.3
574.589	54.18
575.012	54.08
575.435	53.99
575.858	53.88
576.281	53.79
576.704	53.65
577.126	53.55
577.549	53.48
577.972	53.38
578.394	53.29
578.817	53.22
579.239	53.14
579.661	53.06
580.084	52.98
580.506	52.91
580.928	52.79
581.35	52.72
581.772	52.68
582.194	52.58
582.616	52.53
583.038	52.48
583.46	52.45
583.882	52.38
584.303	52.34
584.725	52.28
585.147	52.21
585.568	52.16
585.99	52.11
586.411	52.02
586.833	51.95
587.254	51.86
587.675	51.82
588.096	51.75
588.518	51.7
588.939	51.63
589.36	51.56
589.781	51.5
590.202	51.45
590.623	51.39
591.043	51.35
591.464	51.31
591.885	51.3
592.305	51.22
592.726	51.17
593.147	51.13
593.567	51.08
593.987	51.04
594.408	51
594.828	50.92
595.248	50.89
595.669	50.83
596.089	50.78
596.509	50.71
596.929	50.66
597.349	50.6
597.769	50.53
598.189	50.47
598.608	50.37
599.028	50.29
599.448	50.26
599.867	50.19
600.287	50.14
600.706	50.07
601.126	50.03
601.545	49.98
601.965	49.94
602.384	49.89
602.803	49.83
603.222	49.78
603.641	49.74
604.061	49.68
604.48	49.58
604.898	49.51
605.317	49.44
605.736	49.34
606.155	49.25
606.574	49.17
606.992	49.09
607.411	49.01
607.829	48.93
608.248	48.83
608.666	48.76
609.085	48.69
609.503	48.6
609.921	48.53
610.339	48.47
610.758	48.39
611.176	48.29
611.594	48.19
612.012	48.1
612.43	48.04
612.847	47.98
613.265	47.91
613.683	47.83
614.101	47.75
614.518	47.66
614.936	47.56
615.353	47.49
615.771	47.42
616.188	47.37
616.606	47.28
617.023	47.22
617.44	47.13
617.857	47.05
618.274	46.99
618.691	46.93
619.108	46.88
619.525	46.82
619.942	46.77
620.359	46.74
620.776	46.68
621.192	46.63
621.609	46.59
622.026	46.55
622.442	46.54
622.859	46.53
623.275	46.5
623.691	46.49
624.108	46.51
624.524	46.5
624.94	46.49
625.356	46.49
625.772	46.52
626.188	46.52
626.604	46.52
627.02	46.5
627.436	46.48
627.852	46.47
628.268	46.44
628.683	46.38
629.099	46.37
629.514	46.31
629.93	46.28
630.345	46.2
630.761	46.13
631.176	46.07
631.591	45.99
632.007	45.91
632.422	45.83
632.837	45.72
633.252	45.6
633.667	45.44
634.082	45.28
634.497	45.1
634.911	44.93
635.326	44.73
635.741	44.53
636.155	44.29
636.57	44.04
636.984	43.76
637.399	43.49
637.813	43.23
638.228	42.95
638.642	42.66
639.056	42.35
639.47	42.04
639.884	41.73
640.298	41.38
640.712	41.06
641.126	40.73
641.54	40.4
641.954	40.08
642.368	39.75
642.781	39.41
643.195	39.07
643.609	38.75
644.022	38.42
644.436	38.11
644.849	37.8
645.262	37.51
645.676	37.23
646.089	36.95
646.502	36.67
646.915	36.42
647.328	36.21
647.741	36.01
648.154	35.85
648.567	35.69
648.98	35.53
649.393	35.42
649.805	35.29
650.218	35.18
650.631	35.09
651.043	35.01
651.456	34.95
651.868	34.88
652.28	34.82
652.693	34.72
653.105	34.63
653.517	34.57
653.929	34.47
654.341	34.39
654.753	34.29
655.165	34.19
655.577	34.07
655.989	33.92
656.401	33.73
656.813	33.57
657.224	33.41
657.636	33.24
658.047	33.07
658.459	32.85
658.87	32.64
659.282	32.44
659.693	32.22
660.104	32
660.515	31.78
660.926	31.59
661.338	31.36
661.749	31.13
662.159	30.88
662.57	30.62
662.981	30.4
663.392	30.2
663.803	29.97
664.213	29.75
664.624	29.56
665.035	29.36
665.445	29.18
665.855	29.01
666.266	28.85
666.676	28.7
667.086	28.6
667.497	28.47
667.907	28.36
668.317	28.25
668.727	28.17
669.137	28.09
669.547	28.03
669.956	27.97
670.366	27.94
670.776	27.91
671.186	27.89
671.595	27.88
672.005	27.9
672.414	27.89
672.824	27.93
673.233	27.98
673.642	28.02
674.052	28.09
674.461	28.17
674.87	28.26
675.279	28.38
675.688	28.5
676.097	28.62
676.506	28.78
676.915	28.97
677.323	29.16
677.732	29.37
678.141	29.61
678.549	29.88
678.958	30.17
679.366	30.5
679.775	30.88
680.183	31.26
680.592	31.68
681	32.14
681.408	32.62
681.816	33.15
682.224	33.71
682.632	34.33
683.04	34.95
683.448	35.62
683.856	36.32
684.264	37.08
684.671	37.86
685.079	38.68
685.487	39.54
685.894	40.42
686.302	41.31
686.709	42.23
687.116	43.15
687.524	44.09
687.931	44.99
688.338	45.91
688.745	46.82
689.152	47.73
689.559	48.64
689.966	49.5
690.373	50.38
690.78	51.22
691.187	52.06
691.593	52.87
692	53.65
692.407	54.44
692.813	55.2
693.22	55.88
693.626	56.6
694.032	57.28
694.439	57.97
694.845	58.59
695.251	59.21
695.657	59.78
696.063	60.32
696.469	60.87
696.875	61.38
697.281	61.85
697.687	62.36
698.093	62.79
698.498	63.22
698.904	63.64
699.31	64.02
699.715	64.4
700.12	64.74
700.526	65.11
700.931	65.43
701.337	65.77
701.742	66.07
702.147	66.36
702.552	66.64
702.957	66.93
703.362	67.2
703.767	67.43
704.172	67.68
704.577	67.93
704.981	68.17
705.386	68.38
705.791	68.59
706.195	68.78
706.6	68.94
707.004	69.11
707.408	69.27
707.813	69.4
708.217	69.56
708.621	69.69
709.025	69.85
709.43	69.98
709.834	70.14
710.237	70.25
710.641	70.4
711.045	70.53
711.449	70.7
711.853	70.84
712.256	71.01
712.66	71.16
713.064	71.3
713.467	71.4
713.87	71.51
714.274	71.63
714.677	71.73
715.08	71.81
715.484	71.95
715.887	72.05
716.29	72.13
716.693	72.18
717.096	72.25
717.499	72.34
717.901	72.42
718.304	72.51
718.707	72.58
719.109	72.7
719.512	72.81
719.915	72.88
720.317	72.93
720.719	73.01
721.122	73.12
721.524	73.21
721.926	73.3
722.328	73.38
722.731	73.47
723.133	73.5
723.535	73.6
723.937	73.65
724.338	73.67
724.74	73.73
725.142	73.75
725.544	73.79
725.945	73.82
726.347	73.86
726.748	73.88
727.15	73.92
727.551	74.01
727.952	74.02
728.354	74.1
728.755	74.18
729.156	74.22
729.557	74.27
729.958	74.31
730.359	74.31
730.76	74.28
731.161	74.35
731.562	74.36
731.962	74.35
732.363	74.36
732.763	74.37
733.164	74.36
733.564	74.34
733.965	74.34
734.365	74.32
734.766	74.32
735.166	74.31
735.566	74.27
735.966	74.25
736.366	74.24
736.766	74.24
737.166	74.24
737.566	74.25
737.966	74.26
738.365	74.27
738.765	74.32
739.165	74.31
739.564	74.35
739.964	74.34
740.363	74.34
740.763	74.32
741.162	74.3
741.561	74.29
741.96	74.28
742.36	74.3
742.759	74.29
743.158	74.23
743.557	74.25
743.955	74.29
744.354	74.33
744.753	74.41
745.152	74.45
745.55	74.49
745.949	74.48
746.348	74.49
746.746	74.47
747.144	74.52
747.543	74.58
747.941	74.61
748.339	74.62
748.737	74.62
749.136	74.63
749.534	74.64
749.932	74.61
750.33	74.61
750.727	74.62
751.125	74.64
751.523	74.59
751.921	74.62
752.318	74.61
752.716	74.59
753.113	74.6
753.511	74.54
753.908	74.51
754.305	74.48
754.703	74.44
755.1	74.41
755.497	74.39
755.894	74.4
756.291	74.36
756.688	74.33
757.085	74.33
757.482	74.31
757.878	74.37
758.275	74.35
758.672	74.38
759.068	74.41
759.465	74.42
759.861	74.43
760.258	74.37
760.654	74.35
761.05	74.31
761.447	74.27
761.843	74.23
762.239	74.13
