Data from N_1_dec_va_2n_009_Splice17_06.txt Node
Date: Sat Feb 29 13:36:22 EST 2020
User: sa697716
Spectrometer: FLMS03696
Trigger mode: 0
Integration Time (sec): 3.180400E-1
Scans to average: 20
Electric dark correction enabled: true
Nonlinearity correction enabled: true
Boxcar width: 5
XAxis mode: Wavelengths
Number of Pixels in Spectrum: 2048
>>>>>Begin Spectral Data<<<<<
187.83	104.79
188.298	102.9
188.766	92.88
189.233	76.92
189.701	90.6
190.169	90.78
190.636	98.98
191.104	101.06
191.571	292.82
192.039	279.95
192.506	-193.94
192.974	1536.61
193.441	431.15
193.908	-6.44
194.375	-160.23
194.842	11.04
195.31	-17.91
195.777	-56.5
196.244	-1.27
196.711	18.05
197.177	18.2
197.644	18.44
198.111	17.88
198.578	19.03
199.045	19.96
199.511	20.31
199.978	20.32
200.445	20.84
200.911	21.45
201.378	21.45
201.844	21.28
202.31	22.03
202.777	22.33
203.243	23.05
203.709	23.09
204.176	22.4
204.642	22.45
205.108	22.46
205.574	22.74
206.04	22.65
206.506	22.68
206.972	22.6
207.438	22.19
207.903	22.56
208.369	21.91
208.835	21.92
209.301	22.05
209.766	21.97
210.232	21.78
210.697	21.23
211.163	21.15
211.628	20.93
212.094	21.04
212.559	21.14
213.024	20.75
213.49	20.8
213.955	20.56
214.42	20.49
214.885	20.07
215.35	19.7
215.815	19.54
216.28	19.06
216.745	18.54
217.21	17.9
217.675	17.21
218.14	16.51
218.604	15.86
219.069	15.37
219.534	14.89
219.998	14.55
220.463	14.29
220.927	13.99
221.392	13.7
221.856	13.49
222.32	13.27
222.785	13.07
223.249	12.95
223.713	12.8
224.177	12.64
224.642	12.49
225.106	12.34
225.57	12.18
226.034	12.07
226.497	11.93
226.961	11.76
227.425	11.6
227.889	11.44
228.353	11.28
228.816	11.14
229.28	10.99
229.744	10.86
230.207	10.75
230.671	10.62
231.134	10.48
231.597	10.35
232.061	10.22
232.524	10.13
232.987	10.02
233.45	9.9
233.914	9.79
234.377	9.7
234.84	9.58
235.303	9.47
235.766	9.36
236.229	9.27
236.691	9.17
237.154	9.1
237.617	9.01
238.08	8.93
238.542	8.85
239.005	8.78
239.468	8.68
239.93	8.6
240.393	8.54
240.855	8.46
241.317	8.39
241.78	8.32
242.242	8.22
242.704	8.15
243.166	8.07
243.629	8.01
244.091	7.95
244.553	7.91
245.015	7.86
245.477	7.79
245.939	7.72
246.4	7.66
246.862	7.62
247.324	7.59
247.786	7.55
248.247	7.51
248.709	7.46
249.17	7.4
249.632	7.35
250.093	7.28
250.555	7.23
251.016	7.2
251.477	7.15
251.939	7.1
252.4	7.06
252.861	7.01
253.322	6.97
253.783	6.93
254.244	6.89
254.705	6.85
255.166	6.83
255.627	6.81
256.088	6.78
256.549	6.75
257.009	6.73
257.47	6.7
257.931	6.66
258.391	6.62
258.852	6.58
259.312	6.56
259.773	6.53
260.233	6.49
260.694	6.45
261.154	6.43
261.614	6.39
262.074	6.36
262.534	6.32
262.994	6.3
263.455	6.28
263.915	6.25
264.374	6.22
264.834	6.21
265.294	6.18
265.754	6.16
266.214	6.14
266.673	6.13
267.133	6.11
267.593	6.09
268.052	6.07
268.512	6.05
268.971	6.04
269.431	6.03
269.89	6.01
270.349	6
270.809	5.99
271.268	5.97
271.727	5.96
272.186	5.95
272.645	5.93
273.104	5.92
273.563	5.91
274.022	5.89
274.481	5.87
274.94	5.85
275.399	5.83
275.857	5.82
276.316	5.8
276.775	5.78
277.233	5.76
277.692	5.75
278.15	5.73
278.609	5.72
279.067	5.71
279.525	5.7
279.984	5.68
280.442	5.67
280.9	5.65
281.358	5.64
281.816	5.63
282.274	5.61
282.732	5.6
283.19	5.59
283.648	5.58
284.106	5.57
284.564	5.56
285.021	5.55
285.479	5.54
285.937	5.52
286.394	5.5
286.852	5.49
287.309	5.49
287.767	5.48
288.224	5.46
288.682	5.44
289.139	5.44
289.596	5.41
290.053	5.39
290.511	5.37
290.968	5.37
291.425	5.35
291.882	5.34
292.339	5.32
292.796	5.3
293.252	5.28
293.709	5.27
294.166	5.25
294.623	5.24
295.079	5.23
295.536	5.23
295.992	5.21
296.449	5.2
296.905	5.18
297.362	5.17
297.818	5.16
298.274	5.16
298.731	5.15
299.187	5.14
299.643	5.12
300.099	5.12
300.555	5.1
301.011	5.09
301.467	5.08
301.923	5.08
302.379	5.07
302.835	5.07
303.291	5.05
303.746	5.05
304.202	5.04
304.658	5.04
305.113	5.02
305.569	5.02
306.024	5.02
306.479	5.01
306.935	5.01
307.39	5
307.845	5
308.301	5
308.756	4.99
309.211	5
309.666	5
310.121	5
310.576	5
311.031	4.99
311.486	4.99
311.94	4.98
312.395	4.98
312.85	4.98
313.305	4.97
313.759	4.98
314.214	4.97
314.668	4.97
315.123	4.97
315.577	4.96
316.032	4.95
316.486	4.95
316.94	4.94
317.394	4.94
317.849	4.93
318.303	4.92
318.757	4.9
319.211	4.88
319.665	4.87
320.119	4.85
320.572	4.85
321.026	4.85
321.48	4.84
321.934	4.83
322.387	4.82
322.841	4.81
323.295	4.81
323.748	4.81
324.202	4.8
324.655	4.8
325.108	4.79
325.562	4.78
326.015	4.77
326.468	4.75
326.921	4.75
327.374	4.74
327.827	4.73
328.28	4.72
328.733	4.71
329.186	4.7
329.639	4.7
330.092	4.69
330.545	4.69
330.997	4.69
331.45	4.68
331.903	4.68
332.355	4.68
332.808	4.68
333.26	4.67
333.713	4.68
334.165	4.67
334.617	4.68
335.069	4.67
335.522	4.67
335.974	4.67
336.426	4.67
336.878	4.67
337.33	4.67
337.782	4.67
338.234	4.67
338.686	4.67
339.137	4.67
339.589	4.66
340.041	4.65
340.493	4.64
340.944	4.62
341.396	4.62
341.847	4.62
342.299	4.61
342.75	4.59
343.201	4.58
343.653	4.56
344.104	4.55
344.555	4.54
345.006	4.53
345.457	4.52
345.908	4.52
346.359	4.51
346.81	4.5
347.261	4.49
347.712	4.49
348.163	4.49
348.613	4.48
349.064	4.47
349.515	4.46
349.965	4.45
350.416	4.45
350.866	4.46
351.317	4.45
351.767	4.45
352.217	4.44
352.668	4.43
353.118	4.44
353.568	4.44
354.018	4.45
354.468	4.44
354.918	4.45
355.368	4.46
355.818	4.46
356.268	4.46
356.718	4.45
357.168	4.46
357.617	4.45
358.067	4.44
358.517	4.44
358.966	4.43
359.416	4.44
359.865	4.43
360.315	4.42
360.764	4.41
361.213	4.41
361.663	4.41
362.112	4.41
362.561	4.42
363.01	4.43
363.459	4.43
363.908	4.43
364.357	4.43
364.806	4.43
365.255	4.43
365.703	4.42
366.152	4.42
366.601	4.43
367.05	4.42
367.498	4.42
367.947	4.4
368.395	4.41
368.844	4.4
369.292	4.4
369.74	4.41
370.189	4.41
370.637	4.42
371.085	4.41
371.533	4.4
371.981	4.41
372.429	4.41
372.877	4.41
373.325	4.4
373.773	4.41
374.221	4.41
374.669	4.41
375.116	4.4
375.564	4.39
376.012	4.4
376.459	4.42
376.907	4.43
377.354	4.44
377.801	4.45
378.249	4.47
378.696	4.48
379.143	4.49
379.591	4.49
380.038	4.52
380.485	4.54
380.932	4.55
381.379	4.56
381.826	4.58
382.273	4.58
382.72	4.59
383.166	4.6
383.613	4.61
384.06	4.63
384.506	4.65
384.953	4.66
385.4	4.66
385.846	4.67
386.292	4.68
386.739	4.68
387.185	4.72
387.631	4.73
388.078	4.75
388.524	4.75
388.97	4.76
389.416	4.76
389.862	4.78
390.308	4.8
390.754	4.82
391.2	4.84
391.645	4.87
392.091	4.87
392.537	4.89
392.983	4.9
393.428	4.92
393.874	4.94
394.319	4.95
394.765	4.96
395.21	4.96
395.655	4.98
396.101	4.99
396.546	5
396.991	5
397.436	5
397.881	5.01
398.326	5.04
398.771	5.05
399.216	5.07
399.661	5.08
400.106	5.09
400.551	5.08
400.995	5.08
401.44	5.07
401.885	5.08
402.329	5.09
402.774	5.08
403.218	5.07
403.663	5.06
404.107	5.06
404.551	5.06
404.995	5.05
405.44	5.05
405.884	5.05
406.328	5.04
406.772	5.04
407.216	5.04
407.66	5.05
408.104	5.05
408.547	5.06
408.991	5.05
409.435	5.04
409.879	5.05
410.322	5.06
410.766	5.06
411.209	5.07
411.653	5.05
412.096	5.04
412.54	5.03
412.983	5.03
413.426	5.04
413.869	5.04
414.312	5.06
414.756	5.06
415.199	5.06
415.642	5.07
416.085	5.07
416.527	5.09
416.97	5.09
417.413	5.08
417.856	5.08
418.298	5.06
418.741	5.05
419.184	5.03
419.626	5.02
420.069	5.02
420.511	5.02
420.953	5
421.396	5.02
421.838	5.03
422.28	5.05
422.722	5.05
423.164	5.06
423.606	5.07
424.048	5.06
424.49	5.08
424.932	5.07
425.374	5.06
425.816	5.06
426.258	5.03
426.699	5
427.141	4.97
427.582	4.97
428.024	4.97
428.465	4.98
428.907	4.98
429.348	4.97
429.789	4.98
430.231	4.98
430.672	5
431.113	5.02
431.554	5.04
431.995	5.05
432.436	5.04
432.877	5.03
433.318	5.03
433.759	5.06
434.2	5.07
434.64	5.09
435.081	5.1
435.522	5.1
435.962	5.13
436.403	5.16
436.843	5.17
437.284	5.19
437.724	5.22
438.164	5.22
438.604	5.22
439.045	5.22
439.485	5.22
439.925	5.22
440.365	5.21
440.805	5.21
441.245	5.21
441.685	5.22
442.125	5.21
442.564	5.23
443.004	5.24
443.444	5.26
443.883	5.28
444.323	5.3
444.762	5.32
445.202	5.37
445.641	5.39
446.081	5.42
446.52	5.45
446.959	5.47
447.398	5.49
447.837	5.53
448.276	5.55
448.716	5.58
449.154	5.61
449.593	5.63
450.032	5.63
450.471	5.65
450.91	5.64
451.349	5.65
451.787	5.66
452.226	5.65
452.664	5.62
453.103	5.62
453.541	5.62
453.98	5.6
454.418	5.59
454.856	5.59
455.295	5.58
455.733	5.57
456.171	5.56
456.609	5.56
457.047	5.56
457.485	5.58
457.923	5.57
458.361	5.56
458.798	5.58
459.236	5.57
459.674	5.57
460.111	5.59
460.549	5.59
460.987	5.6
461.424	5.61
461.862	5.61
462.299	5.6
462.736	5.61
463.173	5.63
463.611	5.63
464.048	5.64
464.485	5.64
464.922	5.62
465.359	5.63
465.796	5.61
466.233	5.6
466.67	5.61
467.106	5.6
467.543	5.61
467.98	5.6
468.416	5.59
468.853	5.57
469.29	5.56
469.726	5.57
470.162	5.55
470.599	5.56
471.035	5.57
471.471	5.55
471.907	5.55
472.344	5.55
472.78	5.54
473.216	5.53
473.652	5.51
474.088	5.52
474.523	5.52
474.959	5.51
475.395	5.52
475.831	5.52
476.266	5.53
476.702	5.51
477.138	5.49
477.573	5.46
478.008	5.47
478.444	5.49
478.879	5.48
479.314	5.48
479.75	5.48
480.185	5.46
480.62	5.45
481.055	5.44
481.49	5.44
481.925	5.44
482.36	5.46
482.795	5.44
483.229	5.45
483.664	5.44
484.099	5.44
484.534	5.44
484.968	5.45
485.403	5.44
485.837	5.45
486.271	5.46
486.706	5.45
487.14	5.45
487.574	5.45
488.009	5.47
488.443	5.48
488.877	5.51
489.311	5.53
489.745	5.54
490.179	5.57
490.613	5.59
491.046	5.63
491.48	5.66
491.914	5.7
492.348	5.74
492.781	5.77
493.215	5.8
493.648	5.83
494.082	5.89
494.515	5.93
494.948	5.98
495.382	6.03
495.815	6.08
496.248	6.13
496.681	6.18
497.114	6.24
497.547	6.3
497.98	6.38
498.413	6.44
498.846	6.5
499.279	6.59
499.711	6.67
500.144	6.75
500.577	6.83
501.009	6.92
501.442	7.03
501.874	7.13
502.306	7.25
502.739	7.36
503.171	7.49
503.603	7.63
504.036	7.75
504.468	7.89
504.9	8.06
505.332	8.22
505.764	8.39
506.196	8.56
506.627	8.74
507.059	8.92
507.491	9.11
507.923	9.32
508.354	9.52
508.786	9.73
509.217	9.95
509.649	10.18
510.08	10.44
510.512	10.68
510.943	10.93
511.374	11.19
511.805	11.46
512.237	11.74
512.668	12
513.099	12.3
513.53	12.6
513.961	12.92
514.391	13.21
514.822	13.52
515.253	13.84
515.684	14.16
516.114	14.5
516.545	14.83
516.975	15.17
517.406	15.52
517.836	15.85
518.267	16.19
518.697	16.55
519.127	16.91
519.558	17.23
519.988	17.56
520.418	17.9
520.848	18.23
521.278	18.54
521.708	18.96
522.138	19.27
522.567	19.58
522.997	19.9
523.427	20.17
523.857	20.45
524.286	20.74
524.716	21.02
525.145	21.29
525.575	21.55
526.004	21.8
526.433	21.96
526.863	22.23
527.292	22.47
527.721	22.7
528.15	22.91
528.579	23.13
529.008	23.34
529.437	23.55
529.866	23.73
530.295	23.9
530.724	24.1
531.152	24.26
531.581	24.4
532.01	24.53
532.438	24.68
532.867	24.81
533.295	24.95
533.723	25.06
534.152	25.16
534.58	25.27
535.008	25.36
535.436	25.44
535.865	25.51
536.293	25.6
536.721	25.67
537.149	25.74
537.576	25.81
538.004	25.86
538.432	25.92
538.86	25.96
539.287	26.03
539.715	26.09
540.143	26.14
540.57	26.19
540.998	26.22
541.425	26.26
541.852	26.29
542.28	26.3
542.707	26.34
543.134	26.36
543.561	26.4
543.988	26.42
544.415	26.43
544.842	26.47
545.269	26.5
545.696	26.52
546.123	26.54
546.549	26.57
546.976	26.61
547.403	26.62
547.829	26.63
548.256	26.64
548.682	26.66
549.108	26.7
549.535	26.69
549.961	26.69
550.387	26.7
550.813	26.69
551.24	26.68
551.666	26.67
552.092	26.65
552.518	26.64
552.943	26.63
553.369	26.6
553.795	26.56
554.221	26.52
554.646	26.48
555.072	26.43
555.498	26.38
555.923	26.31
556.349	26.24
556.774	26.18
557.199	26.12
557.625	26.03
558.05	25.93
558.475	25.83
558.9	25.71
559.325	25.59
559.75	25.48
560.175	25.34
560.6	25.2
561.025	25.06
561.449	24.89
561.874	24.73
562.299	24.58
562.723	24.41
563.148	24.23
563.572	24.08
563.997	23.9
564.421	23.71
564.846	23.53
565.27	23.36
565.694	23.18
566.118	22.99
566.542	22.82
566.966	22.63
567.39	22.43
567.814	22.25
568.238	22.04
568.662	21.86
569.086	21.67
569.509	21.49
569.933	21.29
570.357	21.1
570.78	20.92
571.204	20.73
571.627	20.54
572.05	20.39
572.474	20.22
572.897	20.04
573.32	19.87
573.743	19.69
574.166	19.52
574.589	19.36
575.012	19.21
575.435	19.05
575.858	18.92
576.281	18.77
576.704	18.62
577.126	18.48
577.549	18.36
577.972	18.24
578.394	18.11
578.817	17.98
579.239	17.87
579.661	17.76
580.084	17.66
580.506	17.54
580.928	17.44
581.35	17.32
581.772	17.21
582.194	17.12
582.616	17.03
583.038	16.96
583.46	16.9
583.882	16.8
584.303	16.71
584.725	16.61
585.147	16.51
585.568	16.42
585.99	16.35
586.411	16.26
586.833	16.19
587.254	16.09
587.675	16.02
588.096	15.93
588.518	15.86
588.939	15.79
589.36	15.73
589.781	15.67
590.202	15.63
590.623	15.55
591.043	15.51
591.464	15.44
591.885	15.4
592.305	15.35
592.726	15.29
593.147	15.25
593.567	15.2
593.987	15.17
594.408	15.12
594.828	15.07
595.248	15.03
595.669	15
596.089	14.96
596.509	14.9
596.929	14.85
597.349	14.81
597.769	14.77
598.189	14.73
598.608	14.67
599.028	14.64
599.448	14.6
599.867	14.55
600.287	14.5
600.706	14.45
601.126	14.42
601.545	14.37
601.965	14.32
602.384	14.27
602.803	14.2
603.222	14.14
603.641	14.08
604.061	14.03
604.48	13.96
604.898	13.9
605.317	13.84
605.736	13.76
606.155	13.7
606.574	13.62
606.992	13.55
607.411	13.48
607.829	13.36
608.248	13.29
608.666	13.19
609.085	13.11
609.503	13.02
609.921	12.92
610.339	12.85
610.758	12.77
611.176	12.69
611.594	12.63
612.012	12.55
612.43	12.52
612.847	12.45
613.265	12.39
613.683	12.32
614.101	12.24
614.518	12.17
614.936	12.1
615.353	12.02
615.771	11.95
616.188	11.88
616.606	11.82
617.023	11.75
617.44	11.68
617.857	11.61
618.274	11.56
618.691	11.52
619.108	11.48
619.525	11.43
619.942	11.4
620.359	11.37
620.776	11.34
621.192	11.31
621.609	11.28
622.026	11.26
622.442	11.24
622.859	11.22
623.275	11.22
623.691	11.18
624.108	11.16
624.524	11.13
624.94	11.11
625.356	11.09
625.772	11.08
626.188	11.08
626.604	11.06
627.02	11.04
627.436	11.03
627.852	10.99
628.268	10.98
628.683	10.96
629.099	10.96
629.514	10.93
629.93	10.89
630.345	10.86
630.761	10.81
631.176	10.77
631.591	10.74
632.007	10.69
632.422	10.64
632.837	10.59
633.252	10.54
633.667	10.45
634.082	10.38
634.497	10.29
634.911	10.2
635.326	10.09
635.741	9.99
636.155	9.87
636.57	9.76
636.984	9.64
637.399	9.51
637.813	9.36
638.228	9.24
638.642	9.12
639.056	9
639.47	8.89
639.884	8.79
640.298	8.66
640.712	8.53
641.126	8.41
641.54	8.29
641.954	8.21
642.368	8.1
642.781	8
643.195	7.88
643.609	7.78
644.022	7.67
644.436	7.57
644.849	7.48
645.262	7.41
645.676	7.31
646.089	7.22
646.502	7.13
646.915	7.08
647.328	7.01
647.741	6.97
648.154	6.92
648.567	6.88
648.98	6.83
649.393	6.81
649.805	6.76
650.218	6.75
650.631	6.73
651.043	6.71
651.456	6.68
651.868	6.66
652.28	6.65
652.693	6.62
653.105	6.59
653.517	6.56
653.929	6.53
654.341	6.52
654.753	6.48
655.165	6.45
655.577	6.4
655.989	6.35
656.401	6.3
656.813	6.24
657.224	6.2
657.636	6.16
658.047	6.13
658.459	6.07
658.87	6.03
659.282	5.99
659.693	5.94
660.104	5.89
660.515	5.85
660.926	5.82
661.338	5.78
661.749	5.73
662.159	5.7
662.57	5.65
662.981	5.63
663.392	5.59
663.803	5.56
664.213	5.53
664.624	5.51
665.035	5.5
665.445	5.49
665.855	5.49
666.266	5.49
666.676	5.48
667.086	5.48
667.497	5.48
667.907	5.47
668.317	5.47
668.727	5.48
669.137	5.48
669.547	5.5
669.956	5.51
670.366	5.52
670.776	5.54
671.186	5.57
671.595	5.6
672.005	5.61
672.414	5.64
672.824	5.68
673.233	5.72
673.642	5.74
674.052	5.77
674.461	5.81
674.87	5.85
675.279	5.89
675.688	5.92
676.097	5.96
676.506	6.01
676.915	6.06
677.323	6.11
677.732	6.16
678.141	6.23
678.549	6.29
678.958	6.36
679.366	6.4
679.775	6.46
680.183	6.54
680.592	6.61
681	6.67
681.408	6.76
681.816	6.83
682.224	6.9
682.632	7
683.04	7.09
683.448	7.19
683.856	7.32
684.264	7.44
684.671	7.59
685.079	7.73
685.487	7.92
685.894	8.12
686.302	8.33
686.709	8.57
687.116	8.83
687.524	9.14
687.931	9.45
688.338	9.8
688.745	10.18
689.152	10.59
689.559	11.02
689.966	11.47
690.373	11.98
690.78	12.5
691.187	13.06
691.593	13.63
692	14.21
692.407	14.83
692.813	15.49
693.22	16.14
693.626	16.82
694.032	17.52
694.439	18.25
694.845	18.96
695.251	19.67
695.657	20.38
696.063	21.14
696.469	21.9
696.875	22.63
697.281	23.35
697.687	24.11
698.093	24.85
698.498	25.58
698.904	26.29
699.31	27.02
699.715	27.77
700.12	28.49
700.526	29.2
700.931	29.88
701.337	30.59
701.742	31.27
702.147	31.95
702.552	32.62
702.957	33.28
703.362	33.93
703.767	34.55
704.172	35.2
704.577	35.84
704.981	36.45
705.386	37.07
705.791	37.66
706.195	38.27
706.6	38.86
707.004	39.42
707.408	39.99
707.813	40.55
708.217	41.12
708.621	41.66
709.025	42.18
709.43	42.7
709.834	43.25
710.237	43.76
710.641	44.27
711.045	44.74
711.449	45.24
711.853	45.77
712.256	46.26
712.66	46.74
713.064	47.18
713.467	47.62
713.87	48.08
714.274	48.5
714.677	48.93
715.08	49.34
715.484	49.81
715.887	50.24
716.29	50.61
716.693	51
717.096	51.39
717.499	51.8
717.901	52.2
718.304	52.56
718.707	52.91
719.109	53.28
719.512	53.69
719.915	54.03
720.317	54.38
720.719	54.69
721.122	55.04
721.524	55.37
721.926	55.69
722.328	55.99
722.731	56.3
723.133	56.6
723.535	56.9
723.937	57.15
724.338	57.36
724.74	57.62
725.142	57.89
725.544	58.12
725.945	58.34
726.347	58.58
726.748	58.78
727.15	58.99
727.551	59.22
727.952	59.39
728.354	59.59
728.755	59.8
729.156	59.97
729.557	60.13
729.958	60.3
730.359	60.43
730.76	60.54
731.161	60.69
731.562	60.84
731.962	60.94
732.363	61.05
732.763	61.16
733.164	61.29
733.564	61.39
733.965	61.47
734.365	61.58
734.766	61.71
735.166	61.8
735.566	61.88
735.966	61.93
736.366	62.02
736.766	62.12
737.166	62.19
737.566	62.22
737.966	62.32
738.365	62.41
738.765	62.5
739.165	62.51
739.564	62.57
739.964	62.64
740.363	62.7
740.763	62.73
741.162	62.78
741.561	62.84
741.96	62.93
742.36	62.95
742.759	62.99
743.158	62.97
743.557	63.07
743.955	63.15
744.354	63.22
744.753	63.27
745.152	63.32
745.55	63.39
745.949	63.44
746.348	63.47
746.746	63.49
747.144	63.55
747.543	63.62
747.941	63.66
748.339	63.7
748.737	63.74
749.136	63.79
749.534	63.84
749.932	63.84
750.33	63.84
750.727	63.85
751.125	63.91
751.523	63.89
751.921	63.91
752.318	63.91
752.716	63.9
753.113	63.89
753.511	63.88
753.908	63.86
754.305	63.85
754.703	63.84
755.1	63.83
755.497	63.83
755.894	63.83
756.291	63.82
756.688	63.81
757.085	63.83
757.482	63.82
757.878	63.85
758.275	63.89
758.672	63.9
759.068	63.92
759.465	63.93
759.861	63.94
760.258	63.92
760.654	63.94
761.05	63.93
761.447	63.91
761.843	63.89
762.239	63.84
762.635	63.82
763.031	63.81
763.427	63.8
763.822	63.74
764.218	63.71
764.614	63.68
765.01	63.66
765.405	63.62
765.801	63.59
766.196	63.56
766.592	63.58
766.987	63.54
767.382	63.5
767.778	63.5
768.173	63.52
768.568	63.48
768.963	63.5
769.358	63.49
769.753	63.55
770.148	63.56
770.542	63.55
770.937	63.51
771.332	63.5
771.726	63.5
772.121	63.47
772.515	63.47
772.91	63.47
773.304	63.45
773.699	63.42
774.093	63.36
774.487	63.37
774.881	63.4
775.275	63.39
775.669	63.39
776.063	63.35
776.457	63.33
776.851	63.29
777.245	63.29
777.638	63.28
778.032	63.3
778.425	63.32
778.819	63.28
779.212	63.23
779.606	63.26
779.999	63.27
780.392	63.3
780.786	63.31
781.179	63.3
781.572	63.29
781.965	63.32
782.358	63.26
782.751	63.24
783.143	63.24
