Data from N_1_div_wi_4n_029_Splice17_05.txt Node
Date: Sat Feb 29 13:45:21 EST 2020
User: sa697716
Spectrometer: FLMS03696
Trigger mode: 0
Integration Time (sec): 3.180400E-1
Scans to average: 20
Electric dark correction enabled: true
Nonlinearity correction enabled: true
Boxcar width: 5
XAxis mode: Wavelengths
Number of Pixels in Spectrum: 2048
>>>>>Begin Spectral Data<<<<<
187.83	54.54
188.298	35.31
188.766	23.21
189.233	22.26
189.701	34.9
190.169	52.62
190.636	43.73
191.104	15.31
191.571	-153.95
192.039	21.87
192.506	236.56
192.974	1254.5
193.441	461.33
193.908	-85.66
194.375	-202.77
194.842	-75.67
195.31	51.01
195.777	29.65
196.244	36.98
196.711	36.72
197.177	35.65
197.644	37.03
198.111	35.52
198.578	35.19
199.045	35.2
199.511	34.96
199.978	34.78
200.445	34.57
200.911	34.83
201.378	34.66
201.844	34.79
202.31	35.11
202.777	35.26
203.243	36.42
203.709	37.2
204.176	37.47
204.642	38.16
205.108	38.29
205.574	38.78
206.04	38.66
206.506	38.53
206.972	38.28
207.438	38.13
207.903	37.69
208.369	36.62
208.835	36.09
209.301	36.37
209.766	35.6
210.232	35.34
210.697	35.14
211.163	34.87
211.628	34.59
212.094	34.61
212.559	34.23
213.024	33.73
213.49	33.81
213.955	33.71
214.42	33.15
214.885	32.9
215.35	32.38
215.815	31.49
216.28	30.93
216.745	30.08
217.21	28.96
217.675	28.16
218.14	27.38
218.604	26.56
219.069	25.84
219.534	25.22
219.998	24.63
220.463	24.22
220.927	23.78
221.392	23.35
221.856	23.03
222.32	22.76
222.785	22.48
223.249	22.26
223.713	22.06
224.177	21.8
224.642	21.55
225.106	21.34
225.57	21.11
226.034	20.93
226.497	20.73
226.961	20.51
227.425	20.28
227.889	20.08
228.353	19.85
228.816	19.64
229.28	19.43
229.744	19.25
230.207	19.09
230.671	18.87
231.134	18.68
231.597	18.47
232.061	18.29
232.524	18.12
232.987	17.94
233.45	17.77
233.914	17.59
234.377	17.44
234.84	17.28
235.303	17.11
235.766	16.98
236.229	16.84
236.691	16.75
237.154	16.65
237.617	16.52
238.08	16.41
238.542	16.29
239.005	16.19
239.468	16.07
239.93	15.96
240.393	15.87
240.855	15.76
241.317	15.65
241.78	15.53
242.242	15.39
242.704	15.28
243.166	15.18
243.629	15.08
244.091	14.98
244.553	14.89
245.015	14.81
245.477	14.7
245.939	14.62
246.4	14.55
246.862	14.48
247.324	14.42
247.786	14.34
248.247	14.27
248.709	14.2
249.17	14.14
249.632	14.07
250.093	13.99
250.555	13.94
251.016	13.89
251.477	13.81
251.939	13.76
252.4	13.71
252.861	13.67
253.322	13.63
253.783	13.59
254.244	13.54
254.705	13.49
255.166	13.46
255.627	13.43
256.088	13.37
256.549	13.34
257.009	13.29
257.47	13.27
257.931	13.23
258.391	13.19
258.852	13.16
259.312	13.15
259.773	13.12
260.233	13.09
260.694	13.07
261.154	13.04
261.614	13
262.074	12.99
262.534	12.94
262.994	12.93
263.455	12.9
263.915	12.88
264.374	12.84
264.834	12.82
265.294	12.81
265.754	12.78
266.214	12.78
266.673	12.77
267.133	12.75
267.593	12.75
268.052	12.74
268.512	12.73
268.971	12.73
269.431	12.73
269.89	12.71
270.349	12.71
270.809	12.71
271.268	12.7
271.727	12.69
272.186	12.68
272.645	12.67
273.104	12.66
273.563	12.65
274.022	12.64
274.481	12.63
274.94	12.62
275.399	12.61
275.857	12.6
276.316	12.58
276.775	12.56
277.233	12.54
277.692	12.52
278.15	12.5
278.609	12.48
279.067	12.44
279.525	12.42
279.984	12.4
280.442	12.39
280.9	12.38
281.358	12.36
281.816	12.36
282.274	12.35
282.732	12.34
283.19	12.32
283.648	12.31
284.106	12.3
284.564	12.3
285.021	12.29
285.479	12.28
285.937	12.25
286.394	12.24
286.852	12.23
287.309	12.22
287.767	12.22
288.224	12.21
288.682	12.21
289.139	12.2
289.596	12.18
290.053	12.14
290.511	12.12
290.968	12.11
291.425	12.09
291.882	12.06
292.339	12.04
292.796	12.01
293.252	11.98
293.709	11.96
294.166	11.95
294.623	11.93
295.079	11.93
295.536	11.91
295.992	11.89
296.449	11.88
296.905	11.86
297.362	11.85
297.818	11.83
298.274	11.83
298.731	11.81
299.187	11.79
299.643	11.77
300.099	11.76
300.555	11.75
301.011	11.74
301.467	11.73
301.923	11.72
302.379	11.71
302.835	11.71
303.291	11.7
303.746	11.69
304.202	11.68
304.658	11.68
305.113	11.67
305.569	11.66
306.024	11.65
306.479	11.65
306.935	11.64
307.39	11.63
307.845	11.62
308.301	11.62
308.756	11.63
309.211	11.62
309.666	11.64
310.121	11.63
310.576	11.64
311.031	11.64
311.486	11.65
311.94	11.64
312.395	11.65
312.85	11.65
313.305	11.64
313.759	11.64
314.214	11.63
314.668	11.62
315.123	11.62
315.577	11.62
316.032	11.63
316.486	11.62
316.94	11.62
317.394	11.61
317.849	11.6
318.303	11.59
318.757	11.57
319.211	11.55
319.665	11.54
320.119	11.52
320.572	11.51
321.026	11.48
321.48	11.47
321.934	11.45
322.387	11.44
322.841	11.43
323.295	11.43
323.748	11.41
324.202	11.41
324.655	11.41
325.108	11.39
325.562	11.37
326.015	11.36
326.468	11.34
326.921	11.33
327.374	11.31
327.827	11.29
328.28	11.27
328.733	11.26
329.186	11.25
329.639	11.23
330.092	11.23
330.545	11.22
330.997	11.22
331.45	11.21
331.903	11.2
332.355	11.2
332.808	11.2
333.26	11.21
333.713	11.21
334.165	11.22
334.617	11.22
335.069	11.23
335.522	11.23
335.974	11.25
336.426	11.26
336.878	11.25
337.33	11.25
337.782	11.26
338.234	11.26
338.686	11.25
339.137	11.25
339.589	11.24
340.041	11.24
340.493	11.24
340.944	11.23
341.396	11.21
341.847	11.21
342.299	11.2
342.75	11.17
343.201	11.16
343.653	11.14
344.104	11.12
344.555	11.1
345.006	11.07
345.457	11.05
345.908	11.04
346.359	11.04
346.81	11.03
347.261	11.01
347.712	11.01
348.163	11
348.613	10.99
349.064	10.98
349.515	10.96
349.965	10.96
350.416	10.94
350.866	10.93
351.317	10.91
351.767	10.9
352.217	10.89
352.668	10.89
353.118	10.89
353.568	10.91
354.018	10.92
354.468	10.92
354.918	10.93
355.368	10.94
355.818	10.93
356.268	10.95
356.718	10.95
357.168	10.95
357.617	10.95
358.067	10.95
358.517	10.93
358.966	10.94
359.416	10.95
359.865	10.94
360.315	10.95
360.764	10.96
361.213	10.95
361.663	10.95
362.112	10.97
362.561	10.98
363.01	10.99
363.459	10.98
363.908	10.99
364.357	10.98
364.806	10.99
365.255	11
365.703	10.99
366.152	11.01
366.601	11.01
367.05	11.01
367.498	11.01
367.947	11.02
368.395	11.04
368.844	11.05
369.292	11.07
369.74	11.09
370.189	11.1
370.637	11.13
371.085	11.14
371.533	11.17
371.981	11.19
372.429	11.2
372.877	11.24
373.325	11.25
373.773	11.27
374.221	11.29
374.669	11.3
375.116	11.31
375.564	11.33
376.012	11.35
376.459	11.38
376.907	11.4
377.354	11.43
377.801	11.45
378.249	11.48
378.696	11.5
379.143	11.53
379.591	11.57
380.038	11.6
380.485	11.63
380.932	11.66
381.379	11.67
381.826	11.69
382.273	11.71
382.72	11.74
383.166	11.77
383.613	11.8
384.06	11.81
384.506	11.82
384.953	11.83
385.4	11.85
385.846	11.86
386.292	11.87
386.739	11.89
387.185	11.92
387.631	11.94
388.078	11.95
388.524	11.95
388.97	11.95
389.416	11.96
389.862	11.97
390.308	11.98
390.754	11.99
391.2	12.01
391.645	12.02
392.091	12.02
392.537	12.03
392.983	12.05
393.428	12.08
393.874	12.11
394.319	12.12
394.765	12.14
395.21	12.12
395.655	12.13
396.101	12.13
396.546	12.13
396.991	12.14
397.436	12.12
397.881	12.11
398.326	12.12
398.771	12.13
399.216	12.17
399.661	12.17
400.106	12.21
400.551	12.23
400.995	12.23
401.44	12.21
401.885	12.19
402.329	12.2
402.774	12.19
403.218	12.18
403.663	12.16
404.107	12.16
404.551	12.15
404.995	12.11
405.44	12.09
405.884	12.09
406.328	12.1
406.772	12.11
407.216	12.1
407.66	12.1
408.104	12.08
408.547	12.08
408.991	12.04
409.435	12.02
409.879	12.01
410.322	12.02
410.766	12
411.209	11.99
411.653	11.98
412.096	11.96
412.54	11.96
412.983	11.96
413.426	11.96
413.869	11.98
414.312	12
414.756	12.01
415.199	12
415.642	12.02
416.085	12.04
416.527	12.05
416.97	12.07
417.413	12.06
417.856	12.04
418.298	12
418.741	12
419.184	11.97
419.626	11.95
420.069	11.94
420.511	11.92
420.953	11.89
421.396	11.88
421.838	11.88
422.28	11.88
422.722	11.9
423.164	11.91
423.606	11.92
424.048	11.92
424.49	11.93
424.932	11.93
425.374	11.94
425.816	11.93
426.258	11.9
426.699	11.87
427.141	11.84
427.582	11.83
428.024	11.82
428.465	11.81
428.907	11.82
429.348	11.8
429.789	11.81
430.231	11.8
430.672	11.81
431.113	11.83
431.554	11.86
431.995	11.87
432.436	11.88
432.877	11.89
433.318	11.87
433.759	11.87
434.2	11.88
434.64	11.88
435.081	11.87
435.522	11.89
435.962	11.9
436.403	11.92
436.843	11.94
437.284	11.97
437.724	11.99
438.164	11.99
438.604	12.01
439.045	12.01
439.485	12.01
439.925	12.02
440.365	11.98
440.805	11.98
441.245	11.93
441.685	11.94
442.125	11.91
442.564	11.91
443.004	11.93
443.444	11.92
443.883	11.93
444.323	11.93
444.762	11.95
445.202	12
445.641	12
446.081	12.05
446.52	12.04
446.959	12.06
447.398	12.06
447.837	12.08
448.276	12.09
448.716	12.08
449.154	12.1
449.593	12.11
450.032	12.1
450.471	12.12
450.91	12.12
451.349	12.13
451.787	12.13
452.226	12.11
452.664	12.1
453.103	12.08
453.541	12.08
453.98	12.06
454.418	12.02
454.856	12
455.295	11.99
455.733	11.98
456.171	11.96
456.609	11.95
457.047	11.95
457.485	11.94
457.923	11.96
458.361	11.94
458.798	11.95
459.236	11.97
459.674	11.98
460.111	11.97
460.549	11.94
460.987	11.96
461.424	11.94
461.862	11.96
462.299	11.96
462.736	11.95
463.173	11.97
463.611	11.95
464.048	11.96
464.485	11.95
464.922	11.95
465.359	11.97
465.796	11.96
466.233	11.97
466.67	11.97
467.106	11.95
467.543	11.94
467.98	11.93
468.416	11.96
468.853	11.93
469.29	11.93
469.726	11.93
470.162	11.91
470.599	11.89
471.035	11.9
471.471	11.89
471.907	11.89
472.344	11.9
472.78	11.91
473.216	11.88
473.652	11.86
474.088	11.86
474.523	11.85
474.959	11.83
475.395	11.83
475.831	11.8
476.266	11.79
476.702	11.79
477.138	11.78
477.573	11.75
478.008	11.75
478.444	11.75
478.879	11.73
479.314	11.72
479.75	11.73
480.185	11.7
480.62	11.68
481.055	11.66
481.49	11.64
481.925	11.61
482.36	11.59
482.795	11.58
483.229	11.56
483.664	11.54
484.099	11.52
484.534	11.51
484.968	11.51
485.403	11.5
485.837	11.49
486.271	11.48
486.706	11.49
487.14	11.48
487.574	11.48
488.009	11.49
488.443	11.5
488.877	11.49
489.311	11.48
489.745	11.48
490.179	11.49
490.613	11.49
491.046	11.5
491.48	11.49
491.914	11.5
492.348	11.5
492.781	11.5
493.215	11.51
493.648	11.52
494.082	11.53
494.515	11.53
494.948	11.55
495.382	11.56
495.815	11.57
496.248	11.57
496.681	11.59
497.114	11.6
497.547	11.62
497.98	11.64
498.413	11.65
498.846	11.65
499.279	11.68
499.711	11.69
500.144	11.7
500.577	11.73
501.009	11.76
501.442	11.79
501.874	11.8
502.306	11.83
502.739	11.85
503.171	11.9
503.603	11.95
504.036	11.99
504.468	12.05
504.9	12.13
505.332	12.18
505.764	12.25
506.196	12.31
506.627	12.38
507.059	12.46
507.491	12.54
507.923	12.62
508.354	12.71
508.786	12.8
509.217	12.89
509.649	12.98
510.08	13.1
510.512	13.19
510.943	13.32
511.374	13.43
511.805	13.55
512.237	13.67
512.668	13.79
513.099	13.93
513.53	14.07
513.961	14.21
514.391	14.34
514.822	14.47
515.253	14.64
515.684	14.78
516.114	14.96
516.545	15.13
516.975	15.3
517.406	15.49
517.836	15.64
518.267	15.83
518.697	16.01
519.127	16.21
519.558	16.39
519.988	16.57
520.418	16.76
520.848	16.93
521.278	17.11
521.708	17.16
522.138	17.31
522.567	17.5
522.997	17.66
523.427	17.85
523.857	18.01
524.286	18.19
524.716	18.36
525.145	18.53
525.575	18.69
526.004	18.85
526.433	19.15
526.863	19.31
527.292	19.47
527.721	19.62
528.15	19.74
528.579	19.88
529.008	20.01
529.437	20.14
529.866	20.25
530.295	20.36
530.724	20.48
531.152	20.58
531.581	20.7
532.01	20.79
532.438	20.88
532.867	20.97
533.295	21.07
533.723	21.14
534.152	21.22
534.58	21.29
535.008	21.37
535.436	21.42
535.865	21.47
536.293	21.52
536.721	21.57
537.149	21.62
537.576	21.67
538.004	21.7
538.432	21.72
538.86	21.76
539.287	21.79
539.715	21.82
540.143	21.85
540.57	21.88
540.998	21.91
541.425	21.95
541.852	21.98
542.28	22
542.707	22.04
543.134	22.07
543.561	22.08
543.988	22.1
544.415	22.14
544.842	22.17
545.269	22.19
545.696	22.21
546.123	22.22
546.549	22.22
546.976	22.24
547.403	22.23
547.829	22.23
548.256	22.26
548.682	22.28
549.108	22.28
549.535	22.28
549.961	22.28
550.387	22.28
550.813	22.26
551.24	22.27
551.666	22.28
552.092	22.28
552.518	22.27
552.943	22.25
553.369	22.25
553.795	22.24
554.221	22.2
554.646	22.16
555.072	22.13
555.498	22.11
555.923	22.06
556.349	21.98
556.774	21.94
557.199	21.89
557.625	21.82
558.05	21.73
558.475	21.65
558.9	21.58
559.325	21.5
559.75	21.41
560.175	21.34
560.6	21.24
561.025	21.16
561.449	21.05
561.874	20.97
562.299	20.88
562.723	20.79
563.148	20.69
563.572	20.59
563.997	20.49
564.421	20.39
564.846	20.26
565.27	20.14
565.694	20.02
566.118	19.93
566.542	19.8
566.966	19.68
567.39	19.55
567.814	19.42
568.238	19.28
568.662	19.16
569.086	19.03
569.509	18.92
569.933	18.8
570.357	18.69
570.78	18.56
571.204	18.44
571.627	18.32
572.05	18.22
572.474	18.13
572.897	18.04
573.32	17.93
573.743	17.83
574.166	17.72
574.589	17.63
575.012	17.54
575.435	17.45
575.858	17.37
576.281	17.3
576.704	17.22
577.126	17.13
577.549	17.05
577.972	16.98
578.394	16.9
578.817	16.85
579.239	16.77
579.661	16.69
580.084	16.63
580.506	16.57
580.928	16.49
581.35	16.44
581.772	16.39
582.194	16.33
582.616	16.27
583.038	16.23
583.46	16.17
583.882	16.13
584.303	16.09
584.725	16.05
585.147	15.97
585.568	15.92
585.99	15.86
586.411	15.82
586.833	15.77
587.254	15.74
587.675	15.7
588.096	15.66
588.518	15.61
588.939	15.57
589.36	15.52
589.781	15.49
590.202	15.46
590.623	15.42
591.043	15.37
591.464	15.33
591.885	15.29
592.305	15.27
592.726	15.23
593.147	15.22
593.567	15.18
593.987	15.18
594.408	15.15
594.828	15.12
595.248	15.11
595.669	15.1
596.089	15.08
596.509	15.04
596.929	15.01
597.349	14.99
597.769	14.95
598.189	14.93
598.608	14.89
599.028	14.86
599.448	14.85
599.867	14.81
600.287	14.78
600.706	14.76
601.126	14.74
601.545	14.71
601.965	14.68
602.384	14.66
602.803	14.62
603.222	14.59
603.641	14.57
604.061	14.52
604.48	14.5
604.898	14.47
605.317	14.44
605.736	14.4
606.155	14.36
606.574	14.32
606.992	14.26
607.411	14.24
607.829	14.15
608.248	14.12
608.666	14.07
609.085	14.03
609.503	13.97
609.921	13.91
610.339	13.88
610.758	13.85
611.176	13.82
611.594	13.79
612.012	13.75
612.43	13.75
612.847	13.71
613.265	13.67
613.683	13.62
614.101	13.59
614.518	13.55
614.936	13.5
615.353	13.46
615.771	13.41
616.188	13.38
616.606	13.34
617.023	13.31
617.44	13.27
617.857	13.23
618.274	13.21
618.691	13.2
619.108	13.17
619.525	13.15
619.942	13.13
620.359	13.11
620.776	13.09
621.192	13.07
621.609	13.05
622.026	13.02
622.442	12.99
622.859	12.98
623.275	12.97
623.691	12.95
624.108	12.96
624.524	12.94
624.94	12.94
625.356	12.92
625.772	12.92
626.188	12.93
626.604	12.91
627.02	12.9
627.436	12.9
627.852	12.87
628.268	12.85
628.683	12.82
629.099	12.81
629.514	12.78
629.93	12.76
630.345	12.72
630.761	12.67
631.176	12.65
631.591	12.63
632.007	12.6
632.422	12.57
632.837	12.55
633.252	12.52
633.667	12.48
634.082	12.45
634.497	12.4
634.911	12.37
635.326	12.34
635.741	12.3
636.155	12.24
636.57	12.2
636.984	12.15
637.399	12.08
637.813	12.02
638.228	11.97
638.642	11.92
639.056	11.87
639.47	11.81
639.884	11.76
640.298	11.71
640.712	11.66
641.126	11.6
641.54	11.55
641.954	11.52
642.368	11.46
642.781	11.41
643.195	11.37
643.609	11.32
644.022	11.28
644.436	11.23
644.849	11.2
645.262	11.18
645.676	11.15
646.089	11.1
646.502	11.05
646.915	11.03
647.328	11.01
647.741	10.98
648.154	10.96
648.567	10.95
648.98	10.94
649.393	10.92
649.805	10.9
650.218	10.89
650.631	10.89
651.043	10.9
651.456	10.9
651.868	10.9
652.28	10.89
652.693	10.88
653.105	10.87
653.517	10.86
653.929	10.86
654.341	10.85
654.753	10.84
655.165	10.83
655.577	10.8
655.989	10.79
656.401	10.76
656.813	10.74
657.224	10.72
657.636	10.71
658.047	10.69
658.459	10.67
658.87	10.65
659.282	10.64
659.693	10.63
660.104	10.61
660.515	10.59
660.926	10.57
661.338	10.55
661.749	10.55
662.159	10.53
662.57	10.52
662.981	10.5
663.392	10.48
663.803	10.47
664.213	10.44
664.624	10.45
665.035	10.43
665.445	10.42
665.855	10.44
666.266	10.44
666.676	10.43
667.086	10.44
667.497	10.44
667.907	10.44
668.317	10.43
668.727	10.44
669.137	10.45
669.547	10.47
669.956	10.49
670.366	10.51
670.776	10.52
671.186	10.55
671.595	10.56
672.005	10.58
672.414	10.6
672.824	10.65
673.233	10.69
673.642	10.7
674.052	10.74
674.461	10.76
674.87	10.77
675.279	10.78
675.688	10.81
676.097	10.84
676.506	10.86
676.915	10.91
677.323	10.91
677.732	10.95
678.141	10.97
678.549	11
678.958	11.05
679.366	11.08
679.775	11.12
680.183	11.16
680.592	11.2
681	11.23
681.408	11.25
681.816	11.28
682.224	11.31
682.632	11.37
683.04	11.39
683.448	11.42
683.856	11.46
684.264	11.51
684.671	11.56
685.079	11.62
685.487	11.7
685.894	11.78
686.302	11.86
686.709	11.95
687.116	12.04
687.524	12.16
687.931	12.29
688.338	12.46
688.745	12.62
689.152	12.8
689.559	13.01
689.966	13.21
690.373	13.47
690.78	13.73
691.187	13.99
691.593	14.29
692	14.61
692.407	14.95
692.813	15.3
693.22	15.66
693.626	16.03
694.032	16.42
694.439	16.86
694.845	17.27
695.251	17.72
695.657	18.22
696.063	18.71
696.469	19.19
696.875	19.66
697.281	20.14
697.687	20.66
698.093	21.18
698.498	21.68
698.904	22.18
699.31	22.69
699.715	23.22
700.12	23.71
700.526	24.23
700.931	24.76
701.337	25.29
701.742	25.8
702.147	26.34
702.552	26.86
702.957	27.37
703.362	27.91
703.767	28.41
704.172	28.92
704.577	29.44
704.981	29.93
705.386	30.42
705.791	30.94
706.195	31.45
706.6	31.93
707.004	32.41
707.408	32.92
707.813	33.38
708.217	33.88
708.621	34.34
709.025	34.81
709.43	35.27
709.834	35.75
710.237	36.19
710.641	36.67
711.045	37.09
711.449	37.56
711.853	38.01
712.256	38.46
712.66	38.89
713.064	39.34
713.467	39.77
713.87	40.21
714.274	40.66
714.677	41.07
715.08	41.47
715.484	41.91
715.887	42.3
716.29	42.69
716.693	43.07
717.096	43.49
717.499	43.88
717.901	44.27
718.304	44.64
718.707	44.97
719.109	45.33
719.512	45.67
719.915	46.03
720.317	46.41
720.719	46.75
721.122	47.14
721.524	47.46
721.926	47.81
722.328	48.12
722.731	48.46
723.133	48.77
723.535	49.11
723.937	49.41
724.338	49.66
724.74	49.91
725.142	50.16
725.544	50.38
725.945	50.63
726.347	50.88
726.748	51.14
727.15	51.37
727.551	51.62
727.952	51.8
728.354	52.06
728.755	52.3
729.156	52.53
729.557	52.78
729.958	53.01
730.359	53.21
730.76	53.34
731.161	53.5
731.562	53.7
731.962	53.87
732.363	54.01
732.763	54.16
733.164	54.31
733.564	54.45
733.965	54.55
734.365	54.67
734.766	54.77
735.166	54.92
735.566	55.04
735.966	55.11
736.366	55.18
736.766	55.31
737.166	55.4
737.566	55.49
737.966	55.59
738.365	55.68
738.765	55.77
739.165	55.83
739.564	55.92
739.964	55.98
740.363	56.05
740.763	56.14
741.162	56.2
741.561	56.28
741.96	56.33
742.36	56.4
742.759	56.43
743.158	56.49
743.557	56.59
743.955	56.64
744.354	56.7
744.753	56.76
745.152	56.81
745.55	56.87
745.949	56.9
746.348	56.99
746.746	57
747.144	57.07
747.543	57.12
747.941	57.18
748.339	57.22
748.737	57.28
749.136	57.33
749.534	57.39
749.932	57.41
750.33	57.45
750.727	57.44
751.125	57.49
751.523	57.52
751.921	57.55
752.318	57.55
752.716	57.56
753.113	57.58
753.511	57.55
753.908	57.53
754.305	57.5
754.703	57.48
755.1	57.46
755.497	57.46
755.894	57.45
756.291	57.42
756.688	57.43
757.085	57.43
757.482	57.4
757.878	57.42
758.275	57.43
758.672	57.51
759.068	57.53
759.465	57.57
759.861	57.58
760.258	57.6
760.654	57.6
761.05	57.59
761.447	57.56
761.843	57.52
762.239	57.51
762.635	57.51
