Data from N_1_hir_wi_4n_041_Splice17_11.txt Node
Date: Sat Feb 29 13:50:27 EST 2020
User: sa697716
Spectrometer: FLMS03696
Trigger mode: 0
Integration Time (sec): 3.180400E-1
Scans to average: 20
Electric dark correction enabled: true
Nonlinearity correction enabled: true
Boxcar width: 5
XAxis mode: Wavelengths
Number of Pixels in Spectrum: 2048
>>>>>Begin Spectral Data<<<<<
187.83	83.34
188.298	92.86
188.766	87.83
189.233	67.67
189.701	66.06
190.169	75.55
190.636	68.96
191.104	80.34
191.571	312.22
192.039	320.36
192.506	-427.17
192.974	-5507.56
193.441	441.16
193.908	9.95
194.375	-52.48
194.842	48.44
195.31	31.82
195.777	27.45
196.244	81.51
196.711	78.53
197.177	76.19
197.644	76.41
198.111	78.34
198.578	78.4
199.045	79.12
199.511	78.7
199.978	77.82
200.445	77.9
200.911	77.75
201.378	77.25
201.844	78.01
202.31	78.37
202.777	77.97
203.243	78.22
203.709	77.92
204.176	77.29
204.642	76.71
205.108	76.27
205.574	76.39
206.04	75.99
206.506	75.31
206.972	74.38
207.438	74.09
207.903	73.89
208.369	71.94
208.835	70.64
209.301	69.44
209.766	67.72
210.232	66.78
210.697	65.4
211.163	64.18
211.628	62.96
212.094	61.66
212.559	60.08
213.024	58.25
213.49	56.83
213.955	55.83
214.42	54.19
214.885	52.84
215.35	50.76
215.815	48.02
216.28	44.92
216.745	41.78
217.21	38.55
217.675	35.6
218.14	32.89
218.604	30.38
219.069	28.16
219.534	26.29
219.998	24.68
220.463	23.36
220.927	22.27
221.392	21.32
221.856	20.49
222.32	19.76
222.785	19.08
223.249	18.55
223.713	18.13
224.177	17.68
224.642	17.31
225.106	16.95
225.57	16.59
226.034	16.28
226.497	15.96
226.961	15.69
227.425	15.37
227.889	15.07
228.353	14.78
228.816	14.51
229.28	14.24
229.744	14.04
230.207	13.8
230.671	13.59
231.134	13.38
231.597	13.19
232.061	13.01
232.524	12.86
232.987	12.72
233.45	12.57
233.914	12.43
234.377	12.31
234.84	12.15
235.303	12.03
235.766	11.9
236.229	11.78
236.691	11.68
237.154	11.56
237.617	11.47
238.08	11.37
238.542	11.26
239.005	11.17
239.468	11.06
239.93	11
240.393	10.9
240.855	10.8
241.317	10.73
241.78	10.65
242.242	10.57
242.704	10.48
243.166	10.41
243.629	10.34
244.091	10.25
244.553	10.19
245.015	10.11
245.477	10.05
245.939	9.99
246.4	9.92
246.862	9.86
247.324	9.8
247.786	9.74
248.247	9.68
248.709	9.64
249.17	9.58
249.632	9.53
250.093	9.46
250.555	9.41
251.016	9.38
251.477	9.31
251.939	9.26
252.4	9.22
252.861	9.18
253.322	9.14
253.783	9.1
254.244	9.06
254.705	9.01
255.166	9
255.627	8.96
256.088	8.9
256.549	8.86
257.009	8.82
257.47	8.77
257.931	8.73
258.391	8.67
258.852	8.62
259.312	8.58
259.773	8.54
260.233	8.5
260.694	8.46
261.154	8.42
261.614	8.39
262.074	8.36
262.534	8.33
262.994	8.3
263.455	8.27
263.915	8.24
264.374	8.21
264.834	8.18
265.294	8.14
265.754	8.11
266.214	8.09
266.673	8.07
267.133	8.04
267.593	8.01
268.052	7.98
268.512	7.97
268.971	7.95
269.431	7.94
269.89	7.92
270.349	7.9
270.809	7.89
271.268	7.88
271.727	7.87
272.186	7.86
272.645	7.84
273.104	7.84
273.563	7.83
274.022	7.81
274.481	7.79
274.94	7.78
275.399	7.77
275.857	7.75
276.316	7.73
276.775	7.71
277.233	7.7
277.692	7.69
278.15	7.66
278.609	7.64
279.067	7.62
279.525	7.61
279.984	7.6
280.442	7.59
280.9	7.58
281.358	7.57
281.816	7.55
282.274	7.53
282.732	7.53
283.19	7.53
283.648	7.53
284.106	7.52
284.564	7.52
285.021	7.51
285.479	7.5
285.937	7.49
286.394	7.49
286.852	7.48
287.309	7.48
287.767	7.47
288.224	7.47
288.682	7.45
289.139	7.45
289.596	7.44
290.053	7.43
290.511	7.41
290.968	7.4
291.425	7.38
291.882	7.38
292.339	7.36
292.796	7.35
293.252	7.33
293.709	7.32
294.166	7.3
294.623	7.3
295.079	7.29
295.536	7.28
295.992	7.26
296.449	7.27
296.905	7.26
297.362	7.25
297.818	7.24
298.274	7.24
298.731	7.23
299.187	7.23
299.643	7.22
300.099	7.23
300.555	7.22
301.011	7.23
301.467	7.22
301.923	7.22
302.379	7.22
302.835	7.23
303.291	7.23
303.746	7.23
304.202	7.23
304.658	7.23
305.113	7.23
305.569	7.23
306.024	7.23
306.479	7.23
306.935	7.22
307.39	7.22
307.845	7.21
308.301	7.21
308.756	7.22
309.211	7.22
309.666	7.23
310.121	7.23
310.576	7.24
311.031	7.24
311.486	7.23
311.94	7.24
312.395	7.25
312.85	7.25
313.305	7.26
313.759	7.26
314.214	7.27
314.668	7.27
315.123	7.28
315.577	7.28
316.032	7.28
316.486	7.28
316.94	7.28
317.394	7.27
317.849	7.27
318.303	7.26
318.757	7.25
319.211	7.23
319.665	7.22
320.119	7.21
320.572	7.2
321.026	7.19
321.48	7.18
321.934	7.18
322.387	7.18
322.841	7.17
323.295	7.16
323.748	7.15
324.202	7.14
324.655	7.12
325.108	7.11
325.562	7.1
326.015	7.09
326.468	7.08
326.921	7.06
327.374	7.04
327.827	7.03
328.28	7.01
328.733	7.01
329.186	7.01
329.639	7.01
330.092	7.01
330.545	7.01
330.997	7
331.45	7
331.903	7
332.355	6.99
332.808	6.99
333.26	7
333.713	7.01
334.165	7
334.617	7.01
335.069	7.02
335.522	7.02
335.974	7.02
336.426	7.03
336.878	7.03
337.33	7.04
337.782	7.04
338.234	7.04
338.686	7.03
339.137	7.04
339.589	7.02
340.041	7
340.493	7
340.944	6.99
341.396	6.98
341.847	6.97
342.299	6.96
342.75	6.93
343.201	6.92
343.653	6.9
344.104	6.87
344.555	6.86
345.006	6.85
345.457	6.83
345.908	6.81
346.359	6.8
346.81	6.78
347.261	6.76
347.712	6.75
348.163	6.74
348.613	6.72
349.064	6.7
349.515	6.68
349.965	6.67
350.416	6.66
350.866	6.65
351.317	6.64
351.767	6.64
352.217	6.62
352.668	6.62
353.118	6.61
353.568	6.6
354.018	6.61
354.468	6.61
354.918	6.61
355.368	6.62
355.818	6.62
356.268	6.62
356.718	6.62
357.168	6.62
357.617	6.62
358.067	6.61
358.517	6.61
358.966	6.62
359.416	6.64
359.865	6.63
360.315	6.63
360.764	6.62
361.213	6.62
361.663	6.61
362.112	6.61
362.561	6.61
363.01	6.62
363.459	6.6
363.908	6.59
364.357	6.57
364.806	6.57
365.255	6.57
365.703	6.57
366.152	6.58
366.601	6.58
367.05	6.57
367.498	6.57
367.947	6.57
368.395	6.59
368.844	6.59
369.292	6.58
369.74	6.59
370.189	6.58
370.637	6.58
371.085	6.58
371.533	6.57
371.981	6.57
372.429	6.58
372.877	6.57
373.325	6.56
373.773	6.55
374.221	6.56
374.669	6.56
375.116	6.55
375.564	6.56
376.012	6.56
376.459	6.57
376.907	6.58
377.354	6.58
377.801	6.6
378.249	6.62
378.696	6.64
379.143	6.64
379.591	6.65
380.038	6.67
380.485	6.68
380.932	6.69
381.379	6.7
381.826	6.71
382.273	6.72
382.72	6.72
383.166	6.73
383.613	6.74
384.06	6.75
384.506	6.77
384.953	6.76
385.4	6.78
385.846	6.8
386.292	6.82
386.739	6.82
387.185	6.84
387.631	6.86
388.078	6.88
388.524	6.88
388.97	6.89
389.416	6.9
389.862	6.92
390.308	6.93
390.754	6.95
391.2	6.96
391.645	6.99
392.091	7
392.537	7.01
392.983	7.02
393.428	7.05
393.874	7.07
394.319	7.08
394.765	7.1
395.21	7.09
395.655	7.11
396.101	7.13
396.546	7.14
396.991	7.15
397.436	7.15
397.881	7.17
398.326	7.2
398.771	7.22
399.216	7.23
399.661	7.25
400.106	7.3
400.551	7.3
400.995	7.3
401.44	7.3
401.885	7.31
402.329	7.33
402.774	7.32
403.218	7.32
403.663	7.32
404.107	7.34
404.551	7.36
404.995	7.35
405.44	7.34
405.884	7.36
406.328	7.36
406.772	7.36
407.216	7.37
407.66	7.37
408.104	7.36
408.547	7.37
408.991	7.35
409.435	7.34
409.879	7.34
410.322	7.36
410.766	7.36
411.209	7.36
411.653	7.36
412.096	7.36
412.54	7.37
412.983	7.39
413.426	7.4
413.869	7.42
414.312	7.45
414.756	7.47
415.199	7.48
415.642	7.49
416.085	7.51
416.527	7.52
416.97	7.54
417.413	7.53
417.856	7.52
418.298	7.5
418.741	7.49
419.184	7.47
419.626	7.44
420.069	7.42
420.511	7.43
420.953	7.43
421.396	7.43
421.838	7.44
422.28	7.46
422.722	7.48
423.164	7.47
423.606	7.49
424.048	7.49
424.49	7.5
424.932	7.51
425.374	7.49
425.816	7.47
426.258	7.47
426.699	7.42
427.141	7.41
427.582	7.39
428.024	7.39
428.465	7.39
428.907	7.39
429.348	7.38
429.789	7.37
430.231	7.38
430.672	7.4
431.113	7.41
431.554	7.43
431.995	7.44
432.436	7.44
432.877	7.42
433.318	7.42
433.759	7.42
434.2	7.41
434.64	7.41
435.081	7.38
435.522	7.39
435.962	7.39
436.403	7.41
436.843	7.42
437.284	7.44
437.724	7.48
438.164	7.47
438.604	7.49
439.045	7.51
439.485	7.52
439.925	7.53
440.365	7.51
440.805	7.49
441.245	7.45
441.685	7.44
442.125	7.42
442.564	7.42
443.004	7.41
443.444	7.39
443.883	7.37
444.323	7.35
444.762	7.37
445.202	7.38
445.641	7.41
446.081	7.45
446.52	7.41
446.959	7.42
447.398	7.44
447.837	7.46
448.276	7.46
448.716	7.48
449.154	7.48
449.593	7.47
450.032	7.45
450.471	7.41
450.91	7.38
451.349	7.37
451.787	7.34
452.226	7.29
452.664	7.25
453.103	7.21
453.541	7.19
453.98	7.16
454.418	7.15
454.856	7.1
455.295	7.08
455.733	7.06
456.171	7.03
456.609	7.02
457.047	7
457.485	6.99
457.923	6.99
458.361	6.97
458.798	6.97
459.236	6.96
459.674	6.98
460.111	6.98
460.549	6.98
460.987	6.97
461.424	6.95
461.862	6.95
462.299	6.95
462.736	6.97
463.173	6.96
463.611	6.95
464.048	6.97
464.485	6.95
464.922	6.94
465.359	6.95
465.796	6.96
466.233	6.97
466.67	6.98
467.106	6.98
467.543	6.98
467.98	6.99
468.416	7
468.853	6.99
469.29	7
469.726	7
470.162	6.99
470.599	6.98
471.035	6.99
471.471	6.97
471.907	6.96
472.344	6.96
472.78	6.95
473.216	6.92
473.652	6.9
474.088	6.89
474.523	6.88
474.959	6.88
475.395	6.86
475.831	6.83
476.266	6.82
476.702	6.79
477.138	6.76
477.573	6.74
478.008	6.71
478.444	6.7
478.879	6.68
479.314	6.66
479.75	6.64
480.185	6.62
480.62	6.61
481.055	6.6
481.49	6.58
481.925	6.56
482.36	6.55
482.795	6.54
483.229	6.52
483.664	6.51
484.099	6.49
484.534	6.47
484.968	6.46
485.403	6.45
485.837	6.43
486.271	6.43
486.706	6.41
487.14	6.4
487.574	6.38
488.009	6.38
488.443	6.37
488.877	6.37
489.311	6.36
489.745	6.36
490.179	6.35
490.613	6.36
491.046	6.36
491.48	6.37
491.914	6.38
492.348	6.39
492.781	6.39
493.215	6.38
493.648	6.38
494.082	6.4
494.515	6.4
494.948	6.41
495.382	6.41
495.815	6.42
496.248	6.43
496.681	6.44
497.114	6.44
497.547	6.45
497.98	6.47
498.413	6.48
498.846	6.49
499.279	6.51
499.711	6.53
500.144	6.56
500.577	6.57
501.009	6.59
501.442	6.62
501.874	6.65
502.306	6.68
502.739	6.7
503.171	6.74
503.603	6.77
504.036	6.81
504.468	6.85
504.9	6.9
505.332	6.95
505.764	7
506.196	7.05
506.627	7.11
507.059	7.17
507.491	7.24
507.923	7.3
508.354	7.37
508.786	7.44
509.217	7.5
509.649	7.58
510.08	7.68
510.512	7.77
510.943	7.86
511.374	7.95
511.805	8.06
512.237	8.16
512.668	8.27
513.099	8.38
513.53	8.5
513.961	8.64
514.391	8.75
514.822	8.87
515.253	9
515.684	9.12
516.114	9.26
516.545	9.4
516.975	9.55
517.406	9.7
517.836	9.84
518.267	10.01
518.697	10.17
519.127	10.33
519.558	10.48
519.988	10.65
520.418	10.82
520.848	10.98
521.278	11.17
521.708	11.19
522.138	11.33
522.567	11.5
522.997	11.65
523.427	11.79
523.857	11.94
524.286	12.1
524.716	12.24
525.145	12.39
525.575	12.53
526.004	12.65
526.433	12.92
526.863	13.07
527.292	13.21
527.721	13.34
528.15	13.47
528.579	13.6
529.008	13.71
529.437	13.82
529.866	13.91
530.295	14.02
530.724	14.14
531.152	14.24
531.581	14.33
532.01	14.4
532.438	14.47
532.867	14.53
533.295	14.61
533.723	14.69
534.152	14.76
534.58	14.82
535.008	14.88
535.436	14.93
535.865	14.97
536.293	15.01
536.721	15.06
537.149	15.1
537.576	15.15
538.004	15.17
538.432	15.19
538.86	15.23
539.287	15.25
539.715	15.26
540.143	15.29
540.57	15.31
540.998	15.36
541.425	15.38
541.852	15.41
542.28	15.42
542.707	15.45
543.134	15.48
543.561	15.48
543.988	15.51
544.415	15.52
544.842	15.54
545.269	15.56
545.696	15.57
546.123	15.58
546.549	15.6
546.976	15.64
547.403	15.63
547.829	15.64
548.256	15.66
548.682	15.68
549.108	15.7
549.535	15.71
549.961	15.71
550.387	15.7
550.813	15.7
551.24	15.72
551.666	15.7
552.092	15.71
552.518	15.7
552.943	15.7
553.369	15.69
553.795	15.66
554.221	15.64
554.646	15.62
555.072	15.59
555.498	15.57
555.923	15.52
556.349	15.47
556.774	15.42
557.199	15.37
557.625	15.31
558.05	15.23
558.475	15.17
558.9	15.09
559.325	15.02
559.75	14.92
560.175	14.84
560.6	14.75
561.025	14.67
561.449	14.57
561.874	14.46
562.299	14.38
562.723	14.31
563.148	14.23
563.572	14.13
563.997	14.02
564.421	13.91
564.846	13.81
565.27	13.7
565.694	13.59
566.118	13.48
566.542	13.38
566.966	13.25
567.39	13.12
567.814	13.01
568.238	12.89
568.662	12.78
569.086	12.69
569.509	12.57
569.933	12.45
570.357	12.33
570.78	12.23
571.204	12.12
571.627	12.01
572.05	11.91
572.474	11.8
572.897	11.71
573.32	11.61
573.743	11.5
574.166	11.42
574.589	11.35
575.012	11.27
575.435	11.19
575.858	11.11
576.281	11.04
576.704	10.98
577.126	10.92
577.549	10.86
577.972	10.81
578.394	10.75
578.817	10.7
579.239	10.64
579.661	10.57
580.084	10.51
580.506	10.48
580.928	10.43
581.35	10.37
581.772	10.33
582.194	10.29
582.616	10.24
583.038	10.19
583.46	10.15
583.882	10.12
584.303	10.08
584.725	10.05
585.147	9.99
585.568	9.94
585.99	9.91
586.411	9.86
586.833	9.81
587.254	9.79
587.675	9.76
588.096	9.74
588.518	9.71
588.939	9.68
589.36	9.66
589.781	9.64
590.202	9.62
590.623	9.58
591.043	9.55
591.464	9.52
591.885	9.48
592.305	9.46
592.726	9.44
593.147	9.43
593.567	9.4
593.987	9.39
594.408	9.36
594.828	9.35
595.248	9.33
595.669	9.33
596.089	9.31
596.509	9.28
596.929	9.24
597.349	9.2
597.769	9.17
598.189	9.16
598.608	9.13
599.028	9.11
599.448	9.07
599.867	9.04
600.287	9.01
600.706	9
601.126	8.98
601.545	8.96
601.965	8.93
602.384	8.9
602.803	8.85
603.222	8.82
603.641	8.79
604.061	8.77
604.48	8.72
604.898	8.69
605.317	8.65
605.736	8.61
606.155	8.57
606.574	8.53
606.992	8.49
607.411	8.46
607.829	8.38
608.248	8.34
608.666	8.3
609.085	8.28
609.503	8.24
609.921	8.2
610.339	8.18
610.758	8.15
611.176	8.12
611.594	8.09
612.012	8.05
612.43	8.06
612.847	8.03
613.265	8
613.683	7.94
614.101	7.91
614.518	7.87
614.936	7.83
615.353	7.8
615.771	7.77
616.188	7.74
616.606	7.73
617.023	7.69
617.44	7.66
617.857	7.64
618.274	7.63
618.691	7.61
619.108	7.6
619.525	7.57
619.942	7.55
620.359	7.54
620.776	7.52
621.192	7.5
621.609	7.49
622.026	7.49
622.442	7.48
622.859	7.46
623.275	7.46
623.691	7.45
624.108	7.46
624.524	7.45
624.94	7.45
625.356	7.44
625.772	7.44
626.188	7.44
626.604	7.42
627.02	7.42
627.436	7.42
627.852	7.41
628.268	7.41
628.683	7.4
629.099	7.4
629.514	7.39
629.93	7.39
630.345	7.38
630.761	7.36
631.176	7.36
631.591	7.34
632.007	7.33
632.422	7.31
632.837	7.29
633.252	7.27
633.667	7.26
634.082	7.24
634.497	7.2
634.911	7.17
635.326	7.14
635.741	7.11
636.155	7.08
636.57	7.04
636.984	7.01
637.399	6.96
637.813	6.92
638.228	6.88
638.642	6.84
639.056	6.81
639.47	6.78
639.884	6.75
640.298	6.72
640.712	6.69
641.126	6.65
641.54	6.62
641.954	6.6
642.368	6.57
642.781	6.54
643.195	6.51
643.609	6.47
644.022	6.45
644.436	6.43
644.849	6.41
645.262	6.39
645.676	6.36
646.089	6.34
646.502	6.31
646.915	6.3
647.328	6.29
647.741	6.25
648.154	6.25
648.567	6.23
648.98	6.23
649.393	6.22
649.805	6.2
650.218	6.21
650.631	6.21
651.043	6.2
651.456	6.2
651.868	6.19
652.28	6.21
652.693	6.2
653.105	6.18
653.517	6.18
653.929	6.17
654.341	6.16
654.753	6.14
655.165	6.12
655.577	6.1
655.989	6.08
656.401	6.07
656.813	6.03
657.224	6.02
657.636	6.01
658.047	6
658.459	5.97
658.87	5.95
659.282	5.96
659.693	5.96
660.104	5.96
660.515	5.94
660.926	5.95
661.338	5.97
661.749	5.96
662.159	5.95
662.57	5.94
662.981	5.95
663.392	5.94
663.803	5.93
664.213	5.91
664.624	5.92
665.035	5.92
665.445	5.92
665.855	5.92
666.266	5.93
666.676	5.94
667.086	5.94
667.497	5.93
667.907	5.93
668.317	5.93
668.727	5.94
669.137	5.94
669.547	5.95
669.956	5.95
670.366	5.95
670.776	5.94
671.186	5.94
671.595	5.97
672.005	5.99
672.414	6.01
672.824	6.03
673.233	6.05
673.642	6.05
674.052	6.06
674.461	6.07
674.87	6.09
675.279	6.12
675.688	6.12
676.097	6.14
676.506	6.15
676.915	6.16
677.323	6.19
677.732	6.2
678.141	6.23
678.549	6.26
678.958	6.29
679.366	6.29
679.775	6.32
680.183	6.35
680.592	6.38
681	6.4
681.408	6.42
681.816	6.44
682.224	6.45
682.632	6.48
683.04	6.5
683.448	6.52
683.856	6.57
684.264	6.59
684.671	6.63
685.079	6.65
685.487	6.7
685.894	6.75
686.302	6.8
686.709	6.86
687.116	6.92
687.524	6.98
687.931	7.07
688.338	7.16
688.745	7.27
689.152	7.39
689.559	7.55
689.966	7.69
690.373	7.87
690.78	8.04
691.187	8.24
691.593	8.46
692	8.7
692.407	8.96
692.813	9.25
693.22	9.53
693.626	9.83
694.032	10.13
694.439	10.47
694.845	10.81
695.251	11.17
695.657	11.53
696.063	11.93
696.469	12.34
696.875	12.74
697.281	13.14
697.687	13.56
698.093	13.99
698.498	14.44
698.904	14.9
699.31	15.34
699.715	15.81
700.12	16.24
700.526	16.71
700.931	17.17
701.337	17.65
701.742	18.11
702.147	18.6
702.552	19.09
702.957	19.55
703.362	20.03
703.767	20.52
704.172	20.99
704.577	21.51
704.981	21.98
705.386	22.46
705.791	22.93
706.195	23.41
706.6	23.86
707.004	24.3
707.408	24.77
707.813	25.23
708.217	25.7
708.621	26.15
709.025	26.61
709.43	27.05
709.834	27.54
710.237	27.98
710.641	28.43
711.045	28.9
711.449	29.36
711.853	29.82
712.256	30.28
712.66	30.71
713.064	31.17
713.467	31.61
713.87	32.06
714.274	32.48
714.677	32.92
715.08	33.34
715.484	33.8
715.887	34.22
716.29	34.63
716.693	35.01
717.096	35.45
717.499	35.84
717.901	36.23
718.304	36.63
718.707	37.02
719.109	37.42
719.512	37.82
719.915	38.16
720.317	38.55
720.719	38.94
721.122	39.31
721.524	39.67
721.926	40.05
722.328	40.42
722.731	40.79
723.133	41.12
723.535	41.46
723.937	41.8
724.338	42.12
724.74	42.42
725.142	42.67
725.544	42.97
725.945	43.23
726.347	43.53
726.748	43.73
727.15	43.97
727.551	44.21
727.952	44.44
728.354	44.71
728.755	44.96
729.156	45.19
729.557	45.47
729.958	45.68
730.359	45.88
730.76	46.03
731.161	46.28
731.562	46.5
731.962	46.67
732.363	46.85
732.763	46.97
733.164	47.12
733.564	47.27
733.965	47.41
734.365	47.55
734.766	47.71
735.166	47.85
735.566	47.97
735.966	48.06
736.366	48.2
736.766	48.29
737.166	48.42
737.566	48.53
737.966	48.65
738.365	48.78
738.765	48.9
739.165	48.95
739.564	49.06
739.964	49.14
740.363	49.24
740.763	49.31
741.162	49.39
741.561	49.48
741.96	49.55
742.36	49.62
742.759	49.67
743.158	49.72
743.557	49.82
743.955	49.92
744.354	50.01
744.753	50.08
745.152	50.16
745.55	50.25
745.949	50.29
746.348	50.38
746.746	50.43
747.144	50.47
747.543	50.54
747.941	50.63
748.339	50.7
748.737	50.74
749.136	50.77
749.534	50.82
749.932	50.85
750.33	50.91
750.727	50.94
751.125	51
751.523	51.04
751.921	51.07
752.318	51.06
752.716	51.06
753.113	51.08
753.511	51.13
753.908	51.14
754.305	51.14
754.703	51.12
755.1	51.1
755.497	51.08
755.894	51.06
756.291	51.04
756.688	51.03
757.085	50.98
757.482	50.97
757.878	50.94
758.275	50.89
758.672	50.9
759.068	50.9
759.465	50.91
759.861	50.9
760.258	50.88
760.654	50.87
761.05	50.89
761.447	50.89
761.843	50.86
762.239	50.87
762.635	50.91
763.031	50.92
763.427	50.91
763.822	50.89
764.218	50.93
764.614	50.96
765.01	50.98
765.405	50.98
765.801	51
766.196	51.05
766.592	51.09
766.987	51.09
767.382	51.1
767.778	51.14
768.173	51.16
768.568	51.16
768.963	51.19
769.358	51.2
769.753	51.22
770.148	51.28
770.542	51.27
770.937	51.26
771.332	51.28
771.726	51.26
772.121	51.27
772.515	51.28
772.91	51.28
773.304	51.27
773.699	51.26
774.093	51.22
774.487	51.17
774.881	51.21
775.275	51.2
775.669	51.18
776.063	51.17
776.457	51.14
776.851	51.13
777.245	51.16
777.638	51.17
778.032	51.18
778.425	51.21
778.819	51.21
779.212	51.17
779.606	51.19
779.999	51.17
780.392	51.21
780.786	51.23
781.179	51.23
781.572	51.2
781.965	51.22
782.358	51.18
782.751	51.21
783.143	51.23
783.536	51.29
783.929	51.29
784.322	51.34
784.714	51.35
785.107	51.37
785.499	51.38
785.891	51.38
786.284	51.34
