Data from N_1_dec_nc_4n_037_Splice17_03.txt Node
Date: Sat Feb 29 13:48:32 EST 2020
User: sa697716
Spectrometer: FLMS03696
Trigger mode: 0
Integration Time (sec): 3.180400E-1
Scans to average: 20
Electric dark correction enabled: true
Nonlinearity correction enabled: true
Boxcar width: 5
XAxis mode: Wavelengths
Number of Pixels in Spectrum: 2048
>>>>>Begin Spectral Data<<<<<
187.83	117.76
188.298	136.94
188.766	123.3
189.233	120.77
189.701	124.8
190.169	127.56
190.636	120.87
191.104	101.72
191.571	153.75
192.039	35.26
192.506	255.27
192.974	1043.95
193.441	-404.67
193.908	79.57
194.375	144.81
194.842	196.91
195.31	135.55
195.777	89.92
196.244	69.06
196.711	76.85
197.177	76.55
197.644	75.65
198.111	76.31
198.578	76.68
199.045	77.87
199.511	77.53
199.978	77.96
200.445	77.49
200.911	77.5
201.378	77.4
201.844	77.66
202.31	77.74
202.777	77.6
203.243	77.75
203.709	77.58
204.176	76.91
204.642	76.38
205.108	75.66
205.574	75.58
206.04	75.06
206.506	74.56
206.972	73.6
207.438	72.69
207.903	71.83
208.369	70.48
208.835	69.59
209.301	68.4
209.766	66.98
210.232	65.45
210.697	64.01
211.163	62.4
211.628	60.63
212.094	59.17
212.559	57.87
213.024	56.67
213.49	55.24
213.955	53.59
214.42	51.74
214.885	49.69
215.35	47.52
215.815	44.45
216.28	41.37
216.745	37.87
217.21	34.22
217.675	30.78
218.14	27.51
218.604	24.61
219.069	22.19
219.534	20.27
219.998	18.57
220.463	17.09
220.927	15.94
221.392	14.87
221.856	13.95
222.32	13.22
222.785	12.59
223.249	12.08
223.713	11.63
224.177	11.17
224.642	10.74
225.106	10.38
225.57	10.05
226.034	9.76
226.497	9.49
226.961	9.25
227.425	8.98
227.889	8.72
228.353	8.46
228.816	8.24
229.28	8.01
229.744	7.83
230.207	7.68
230.671	7.53
231.134	7.34
231.597	7.18
232.061	7.03
232.524	6.91
232.987	6.79
233.45	6.67
233.914	6.56
234.377	6.48
234.84	6.36
235.303	6.27
235.766	6.18
236.229	6.1
236.691	6.04
237.154	5.98
237.617	5.9
238.08	5.84
238.542	5.78
239.005	5.72
239.468	5.64
239.93	5.59
240.393	5.52
240.855	5.46
241.317	5.39
241.78	5.34
242.242	5.27
242.704	5.21
243.166	5.16
243.629	5.1
244.091	5.06
244.553	5.02
245.015	4.97
245.477	4.91
245.939	4.86
246.4	4.8
246.862	4.75
247.324	4.71
247.786	4.67
248.247	4.63
248.709	4.58
249.17	4.54
249.632	4.48
250.093	4.43
250.555	4.39
251.016	4.37
251.477	4.33
251.939	4.28
252.4	4.25
252.861	4.21
253.322	4.17
253.783	4.14
254.244	4.1
254.705	4.08
255.166	4.06
255.627	4.02
256.088	3.97
256.549	3.94
257.009	3.91
257.47	3.87
257.931	3.83
258.391	3.79
258.852	3.75
259.312	3.71
259.773	3.67
260.233	3.62
260.694	3.58
261.154	3.55
261.614	3.51
262.074	3.48
262.534	3.44
262.994	3.41
263.455	3.38
263.915	3.35
264.374	3.32
264.834	3.29
265.294	3.27
265.754	3.24
266.214	3.22
266.673	3.19
267.133	3.17
267.593	3.15
268.052	3.13
268.512	3.11
268.971	3.09
269.431	3.07
269.89	3.06
270.349	3.05
270.809	3.04
271.268	3.03
271.727	3.02
272.186	3
272.645	2.99
273.104	2.98
273.563	2.97
274.022	2.96
274.481	2.94
274.94	2.93
275.399	2.93
275.857	2.91
276.316	2.9
276.775	2.89
277.233	2.88
277.692	2.88
278.15	2.87
278.609	2.86
279.067	2.86
279.525	2.86
279.984	2.86
280.442	2.85
280.9	2.85
281.358	2.86
281.816	2.86
282.274	2.85
282.732	2.85
283.19	2.86
283.648	2.86
284.106	2.86
284.564	2.86
285.021	2.86
285.479	2.86
285.937	2.86
286.394	2.85
286.852	2.85
287.309	2.85
287.767	2.84
288.224	2.83
288.682	2.81
289.139	2.8
289.596	2.78
290.053	2.76
290.511	2.73
290.968	2.72
291.425	2.7
291.882	2.68
292.339	2.66
292.796	2.64
293.252	2.63
293.709	2.62
294.166	2.61
294.623	2.6
295.079	2.6
295.536	2.59
295.992	2.58
296.449	2.57
296.905	2.56
297.362	2.55
297.818	2.54
298.274	2.53
298.731	2.52
299.187	2.51
299.643	2.51
300.099	2.51
300.555	2.5
301.011	2.49
301.467	2.49
301.923	2.49
302.379	2.49
302.835	2.49
303.291	2.49
303.746	2.49
304.202	2.49
304.658	2.49
305.113	2.48
305.569	2.48
306.024	2.48
306.479	2.49
306.935	2.49
307.39	2.49
307.845	2.49
308.301	2.48
308.756	2.49
309.211	2.49
309.666	2.49
310.121	2.5
310.576	2.5
311.031	2.5
311.486	2.5
311.94	2.5
312.395	2.51
312.85	2.52
313.305	2.53
313.759	2.54
314.214	2.54
314.668	2.54
315.123	2.54
315.577	2.54
316.032	2.54
316.486	2.53
316.94	2.52
317.394	2.51
317.849	2.5
318.303	2.48
318.757	2.47
319.211	2.46
319.665	2.44
320.119	2.43
320.572	2.43
321.026	2.41
321.48	2.41
321.934	2.4
322.387	2.39
322.841	2.39
323.295	2.38
323.748	2.38
324.202	2.38
324.655	2.38
325.108	2.38
325.562	2.37
326.015	2.37
326.468	2.36
326.921	2.37
327.374	2.37
327.827	2.37
328.28	2.37
328.733	2.37
329.186	2.38
329.639	2.38
330.092	2.37
330.545	2.38
330.997	2.38
331.45	2.39
331.903	2.38
332.355	2.39
332.808	2.39
333.26	2.4
333.713	2.41
334.165	2.41
334.617	2.42
335.069	2.43
335.522	2.44
335.974	2.45
336.426	2.46
336.878	2.46
337.33	2.46
337.782	2.46
338.234	2.46
338.686	2.46
339.137	2.47
339.589	2.46
340.041	2.45
340.493	2.44
340.944	2.42
341.396	2.41
341.847	2.4
342.299	2.39
342.75	2.37
343.201	2.36
343.653	2.35
344.104	2.34
344.555	2.32
345.006	2.31
345.457	2.31
345.908	2.3
346.359	2.3
346.81	2.31
347.261	2.29
347.712	2.3
348.163	2.29
348.613	2.28
349.064	2.27
349.515	2.26
349.965	2.27
350.416	2.26
350.866	2.26
351.317	2.25
351.767	2.25
352.217	2.25
352.668	2.25
353.118	2.26
353.568	2.27
354.018	2.28
354.468	2.28
354.918	2.29
355.368	2.3
355.818	2.29
356.268	2.31
356.718	2.31
357.168	2.32
357.617	2.33
358.067	2.32
358.517	2.31
358.966	2.32
359.416	2.34
359.865	2.33
360.315	2.33
360.764	2.34
361.213	2.33
361.663	2.33
362.112	2.33
362.561	2.34
363.01	2.37
363.459	2.36
363.908	2.35
364.357	2.36
364.806	2.36
365.255	2.37
365.703	2.37
366.152	2.38
366.601	2.38
367.05	2.4
367.498	2.4
367.947	2.39
368.395	2.4
368.844	2.41
369.292	2.41
369.74	2.41
370.189	2.41
370.637	2.42
371.085	2.44
371.533	2.44
371.981	2.44
372.429	2.43
372.877	2.45
373.325	2.44
373.773	2.45
374.221	2.46
374.669	2.46
375.116	2.46
375.564	2.46
376.012	2.46
376.459	2.47
376.907	2.47
377.354	2.49
377.801	2.5
378.249	2.52
378.696	2.54
379.143	2.54
379.591	2.56
380.038	2.59
380.485	2.6
380.932	2.61
381.379	2.62
381.826	2.63
382.273	2.64
382.72	2.65
383.166	2.66
383.613	2.66
384.06	2.68
384.506	2.69
384.953	2.69
385.4	2.72
385.846	2.72
386.292	2.75
386.739	2.77
387.185	2.8
387.631	2.81
388.078	2.83
388.524	2.84
388.97	2.85
389.416	2.87
389.862	2.89
390.308	2.9
390.754	2.92
391.2	2.94
391.645	2.96
392.091	2.97
392.537	2.99
392.983	3
393.428	3.03
393.874	3.06
394.319	3.07
394.765	3.08
395.21	3.09
395.655	3.11
396.101	3.11
396.546	3.12
396.991	3.13
397.436	3.13
397.881	3.15
398.326	3.17
398.771	3.18
399.216	3.19
399.661	3.22
400.106	3.23
400.551	3.23
400.995	3.22
401.44	3.21
401.885	3.22
402.329	3.22
402.774	3.23
403.218	3.22
403.663	3.21
404.107	3.22
404.551	3.21
404.995	3.2
405.44	3.2
405.884	3.21
406.328	3.23
406.772	3.22
407.216	3.24
407.66	3.22
408.104	3.22
408.547	3.22
408.991	3.22
409.435	3.22
409.879	3.23
410.322	3.24
410.766	3.24
411.209	3.25
411.653	3.25
412.096	3.24
412.54	3.25
412.983	3.26
413.426	3.29
413.869	3.3
414.312	3.33
414.756	3.34
415.199	3.37
415.642	3.39
416.085	3.39
416.527	3.41
416.97	3.44
417.413	3.44
417.856	3.42
418.298	3.4
418.741	3.4
419.184	3.39
419.626	3.38
420.069	3.36
420.511	3.36
420.953	3.36
421.396	3.37
421.838	3.37
422.28	3.4
422.722	3.43
423.164	3.43
423.606	3.43
424.048	3.42
424.49	3.44
424.932	3.43
425.374	3.42
425.816	3.41
426.258	3.39
426.699	3.35
427.141	3.32
427.582	3.33
428.024	3.34
428.465	3.35
428.907	3.36
429.348	3.36
429.789	3.37
430.231	3.38
430.672	3.4
431.113	3.42
431.554	3.45
431.995	3.48
432.436	3.48
432.877	3.47
433.318	3.48
433.759	3.5
434.2	3.53
434.64	3.55
435.081	3.55
435.522	3.58
435.962	3.6
436.403	3.64
436.843	3.64
437.284	3.66
437.724	3.69
438.164	3.7
438.604	3.72
439.045	3.72
439.485	3.72
439.925	3.73
440.365	3.72
440.805	3.71
441.245	3.69
441.685	3.72
442.125	3.73
442.564	3.73
443.004	3.75
443.444	3.76
443.883	3.76
444.323	3.77
444.762	3.82
445.202	3.85
445.641	3.88
446.081	3.93
446.52	3.91
446.959	3.92
447.398	3.95
447.837	3.98
448.276	3.98
448.716	4.01
449.154	4.03
449.593	4.02
450.032	4.01
450.471	4.01
450.91	4
451.349	4
451.787	4.02
452.226	3.99
452.664	3.95
453.103	3.95
453.541	3.93
453.98	3.91
454.418	3.89
454.856	3.87
455.295	3.84
455.733	3.82
456.171	3.81
456.609	3.79
457.047	3.78
457.485	3.77
457.923	3.76
458.361	3.75
458.798	3.75
459.236	3.76
459.674	3.76
460.111	3.77
460.549	3.78
460.987	3.77
461.424	3.78
461.862	3.78
462.299	3.8
462.736	3.79
463.173	3.8
463.611	3.8
464.048	3.82
464.485	3.83
464.922	3.82
465.359	3.84
465.796	3.85
466.233	3.87
466.67	3.89
467.106	3.89
467.543	3.91
467.98	3.92
468.416	3.93
468.853	3.94
469.29	3.93
469.726	3.94
470.162	3.92
470.599	3.92
471.035	3.91
471.471	3.89
471.907	3.89
472.344	3.88
472.78	3.86
473.216	3.85
473.652	3.83
474.088	3.83
474.523	3.82
474.959	3.81
475.395	3.82
475.831	3.8
476.266	3.79
476.702	3.77
477.138	3.75
477.573	3.73
478.008	3.72
478.444	3.68
478.879	3.65
479.314	3.63
479.75	3.62
480.185	3.6
480.62	3.58
481.055	3.56
481.49	3.56
481.925	3.54
482.36	3.53
482.795	3.52
483.229	3.53
483.664	3.53
484.099	3.53
484.534	3.52
484.968	3.53
485.403	3.52
485.837	3.53
486.271	3.52
486.706	3.53
487.14	3.54
487.574	3.55
488.009	3.56
488.443	3.57
488.877	3.58
489.311	3.59
489.745	3.61
490.179	3.65
490.613	3.67
491.046	3.71
491.48	3.75
491.914	3.78
492.348	3.81
492.781	3.85
493.215	3.89
493.648	3.93
494.082	3.99
494.515	4.03
494.948	4.07
495.382	4.12
495.815	4.18
496.248	4.24
496.681	4.31
497.114	4.38
497.547	4.45
497.98	4.53
498.413	4.61
498.846	4.7
499.279	4.79
499.711	4.87
500.144	4.98
500.577	5.08
501.009	5.17
501.442	5.28
501.874	5.41
502.306	5.53
502.739	5.66
503.171	5.8
503.603	5.95
504.036	6.11
504.468	6.28
504.9	6.45
505.332	6.63
505.764	6.81
506.196	7.01
506.627	7.19
507.059	7.41
507.491	7.63
507.923	7.85
508.354	8.08
508.786	8.31
509.217	8.53
509.649	8.79
510.08	9.04
510.512	9.3
510.943	9.59
511.374	9.87
511.805	10.15
512.237	10.44
512.668	10.73
513.099	11.03
513.53	11.35
513.961	11.69
514.391	12
514.822	12.33
515.253	12.66
515.684	12.98
516.114	13.33
516.545	13.67
516.975	14.03
517.406	14.37
517.836	14.71
518.267	15.05
518.697	15.39
519.127	15.75
519.558	16.09
519.988	16.42
520.418	16.75
520.848	17.07
521.278	17.4
521.708	17.57
522.138	17.88
522.567	18.18
522.997	18.49
523.427	18.78
523.857	19.05
524.286	19.34
524.716	19.6
525.145	19.88
525.575	20.14
526.004	20.39
526.433	20.77
526.863	21.02
527.292	21.24
527.721	21.46
528.15	21.66
528.579	21.89
529.008	22.08
529.437	22.27
529.866	22.43
530.295	22.61
530.724	22.79
531.152	22.95
531.581	23.1
532.01	23.26
532.438	23.39
532.867	23.53
533.295	23.63
533.723	23.76
534.152	23.87
534.58	23.98
535.008	24.07
535.436	24.15
535.865	24.22
536.293	24.3
536.721	24.35
537.149	24.44
537.576	24.51
538.004	24.58
538.432	24.6
538.86	24.65
539.287	24.71
539.715	24.74
540.143	24.77
540.57	24.83
540.998	24.88
541.425	24.92
541.852	24.95
542.28	24.97
542.707	24.99
543.134	25.04
543.561	25.07
543.988	25.12
544.415	25.17
544.842	25.21
545.269	25.24
545.696	25.25
546.123	25.28
546.549	25.31
546.976	25.34
547.403	25.36
547.829	25.38
548.256	25.4
548.682	25.39
549.108	25.4
549.535	25.41
549.961	25.42
550.387	25.42
550.813	25.43
551.24	25.41
551.666	25.41
552.092	25.42
552.518	25.4
552.943	25.4
553.369	25.4
553.795	25.37
554.221	25.34
554.646	25.3
555.072	25.27
555.498	25.22
555.923	25.18
556.349	25.12
556.774	25.05
557.199	25
557.625	24.91
558.05	24.82
558.475	24.72
558.9	24.63
559.325	24.53
559.75	24.4
560.175	24.28
560.6	24.16
561.025	24.03
561.449	23.9
561.874	23.76
562.299	23.61
562.723	23.48
563.148	23.34
563.572	23.17
563.997	23.03
564.421	22.86
564.846	22.7
565.27	22.53
565.694	22.37
566.118	22.18
566.542	22
566.966	21.83
567.39	21.63
567.814	21.46
568.238	21.28
568.662	21.11
569.086	20.94
569.509	20.76
569.933	20.58
570.357	20.39
570.78	20.22
571.204	20.05
571.627	19.88
572.05	19.71
572.474	19.53
572.897	19.36
573.32	19.19
573.743	19.03
574.166	18.87
574.589	18.72
575.012	18.59
575.435	18.43
575.858	18.29
576.281	18.16
576.704	18.05
577.126	17.93
577.549	17.83
577.972	17.7
578.394	17.58
578.817	17.45
579.239	17.36
579.661	17.25
580.084	17.16
580.506	17.05
580.928	16.95
581.35	16.83
581.772	16.74
582.194	16.63
582.616	16.55
583.038	16.46
583.46	16.39
583.882	16.29
584.303	16.19
584.725	16.11
585.147	16.03
585.568	15.95
585.99	15.89
586.411	15.81
586.833	15.74
587.254	15.67
587.675	15.6
588.096	15.54
588.518	15.47
588.939	15.42
589.36	15.36
589.781	15.3
590.202	15.25
590.623	15.18
591.043	15.12
591.464	15.07
591.885	15.02
592.305	14.99
592.726	14.94
593.147	14.9
593.567	14.84
593.987	14.82
594.408	14.77
594.828	14.71
595.248	14.68
595.669	14.64
596.089	14.59
596.509	14.55
596.929	14.5
597.349	14.45
597.769	14.41
598.189	14.39
598.608	14.32
599.028	14.27
599.448	14.24
599.867	14.19
600.287	14.15
600.706	14.1
601.126	14.04
601.545	13.98
601.965	13.93
602.384	13.86
602.803	13.78
603.222	13.71
603.641	13.65
604.061	13.58
604.48	13.5
604.898	13.42
605.317	13.33
605.736	13.27
606.155	13.19
606.574	13.11
606.992	13.03
607.411	12.95
607.829	12.84
608.248	12.76
608.666	12.68
609.085	12.61
609.503	12.51
609.921	12.43
610.339	12.35
610.758	12.27
611.176	12.18
611.594	12.1
612.012	12
612.43	11.96
612.847	11.88
613.265	11.8
613.683	11.72
614.101	11.64
614.518	11.56
614.936	11.49
615.353	11.41
615.771	11.34
616.188	11.27
616.606	11.21
617.023	11.14
617.44	11.07
617.857	11.01
618.274	10.95
618.691	10.9
619.108	10.86
619.525	10.8
619.942	10.74
620.359	10.7
620.776	10.67
621.192	10.64
621.609	10.6
622.026	10.57
622.442	10.53
622.859	10.52
623.275	10.5
623.691	10.48
624.108	10.45
624.524	10.44
624.94	10.42
625.356	10.4
625.772	10.39
626.188	10.39
626.604	10.38
627.02	10.37
627.436	10.36
627.852	10.34
628.268	10.33
628.683	10.31
629.099	10.3
629.514	10.28
629.93	10.26
630.345	10.21
630.761	10.17
631.176	10.14
631.591	10.08
632.007	10.03
632.422	9.99
632.837	9.93
633.252	9.87
633.667	9.79
634.082	9.7
634.497	9.61
634.911	9.54
635.326	9.44
635.741	9.34
636.155	9.24
636.57	9.12
636.984	8.98
637.399	8.84
637.813	8.71
638.228	8.59
638.642	8.47
639.056	8.34
639.47	8.21
639.884	8.07
640.298	7.95
640.712	7.81
641.126	7.68
641.54	7.56
641.954	7.46
642.368	7.34
642.781	7.21
643.195	7.07
643.609	6.96
644.022	6.84
644.436	6.73
644.849	6.61
645.262	6.52
645.676	6.43
646.089	6.34
646.502	6.26
646.915	6.18
647.328	6.12
647.741	6.07
648.154	6.03
648.567	5.98
648.98	5.94
649.393	5.9
649.805	5.86
650.218	5.83
650.631	5.79
651.043	5.75
651.456	5.73
651.868	5.68
652.28	5.66
652.693	5.62
653.105	5.58
653.517	5.54
653.929	5.5
654.341	5.46
654.753	5.4
655.165	5.36
655.577	5.3
655.989	5.23
656.401	5.18
656.813	5.1
657.224	5.03
657.636	4.97
658.047	4.91
658.459	4.82
658.87	4.76
659.282	4.7
659.693	4.63
660.104	4.56
660.515	4.48
660.926	4.42
661.338	4.36
661.749	4.29
662.159	4.22
662.57	4.16
662.981	4.11
663.392	4.05
663.803	4
664.213	3.94
664.624	3.92
665.035	3.89
665.445	3.85
665.855	3.84
666.266	3.84
666.676	3.81
667.086	3.8
667.497	3.79
667.907	3.78
668.317	3.77
668.727	3.77
669.137	3.75
669.547	3.76
669.956	3.76
670.366	3.75
670.776	3.74
671.186	3.76
671.595	3.78
672.005	3.8
672.414	3.82
672.824	3.86
673.233	3.9
673.642	3.93
674.052	3.95
674.461	3.99
674.87	4.04
675.279	4.08
675.688	4.1
676.097	4.13
676.506	4.17
676.915	4.22
677.323	4.26
677.732	4.32
678.141	4.36
678.549	4.43
678.958	4.49
679.366	4.54
679.775	4.61
680.183	4.69
680.592	4.76
681	4.84
681.408	4.92
681.816	5.01
682.224	5.11
682.632	5.22
683.04	5.35
683.448	5.48
683.856	5.64
684.264	5.81
684.671	6
685.079	6.2
685.487	6.44
685.894	6.7
686.302	6.99
686.709	7.29
687.116	7.63
687.524	7.97
687.931	8.35
688.338	8.78
688.745	9.23
689.152	9.71
689.559	10.23
689.966	10.75
690.373	11.32
690.78	11.88
691.187	12.48
691.593	13.09
692	13.74
692.407	14.4
692.813	15.07
693.22	15.74
693.626	16.44
694.032	17.13
694.439	17.85
694.845	18.53
695.251	19.25
695.657	19.96
696.063	20.67
696.469	21.36
696.875	22.05
697.281	22.72
697.687	23.42
698.093	24.1
698.498	24.78
698.904	25.45
699.31	26.1
699.715	26.73
700.12	27.36
700.526	27.99
700.931	28.6
701.337	29.22
701.742	29.8
702.147	30.35
702.552	30.91
702.957	31.45
703.362	31.98
703.767	32.5
704.172	33
704.577	33.51
704.981	34.01
705.386	34.5
705.791	34.99
706.195	35.48
706.6	35.97
707.004	36.4
707.408	36.86
707.813	37.32
708.217	37.75
708.621	38.18
709.025	38.59
709.43	38.99
709.834	39.4
710.237	39.77
710.641	40.15
711.045	40.52
711.449	40.89
711.853	41.22
712.256	41.57
712.66	41.94
713.064	42.3
713.467	42.66
713.87	42.99
714.274	43.32
714.677	43.67
715.08	43.97
715.484	44.3
715.887	44.6
716.29	44.95
716.693	45.24
717.096	45.55
717.499	45.83
717.901	46.08
718.304	46.36
718.707	46.62
719.109	46.88
719.512	47.2
719.915	47.47
720.317	47.74
720.719	47.97
721.122	48.22
721.524	48.45
721.926	48.69
722.328	48.92
722.731	49.13
723.133	49.33
723.535	49.53
723.937	49.69
724.338	49.85
724.74	50.01
725.142	50.15
725.544	50.31
725.945	50.46
726.347	50.65
726.748	50.76
727.15	50.91
727.551	51.08
727.952	51.2
728.354	51.34
728.755	51.5
729.156	51.67
729.557	51.82
729.958	51.93
730.359	52.04
730.76	52.1
731.161	52.26
731.562	52.38
731.962	52.48
732.363	52.57
732.763	52.68
733.164	52.73
733.564	52.78
733.965	52.82
734.365	52.91
734.766	52.99
735.166	53.05
735.566	53.06
735.966	53.12
736.366	53.14
736.766	53.2
737.166	53.26
737.566	53.31
737.966	53.38
738.365	53.46
738.765	53.53
739.165	53.54
739.564	53.6
739.964	53.66
740.363	53.71
740.763	53.77
741.162	53.81
741.561	53.83
741.96	53.87
742.36	53.9
742.759	53.91
743.158	53.87
743.557	53.93
743.955	53.96
744.354	54.02
744.753	54.05
745.152	54.03
745.55	54.07
745.949	54.06
746.348	54.08
746.746	54.08
747.144	54.12
747.543	54.18
747.941	54.22
748.339	54.28
748.737	54.29
749.136	54.3
749.534	54.37
749.932	54.37
750.33	54.41
750.727	54.43
751.125	54.45
751.523	54.44
751.921	54.45
752.318	54.42
752.716	54.41
753.113	54.41
753.511	54.39
753.908	54.35
754.305	54.3
754.703	54.26
755.1	54.25
755.497	54.25
755.894	54.25
756.291	54.21
756.688	54.23
757.085	54.22
757.482	54.19
757.878	54.2
758.275	54.19
758.672	54.25
759.068	54.29
759.465	54.27
759.861	54.27
760.258	54.26
760.654	54.28
761.05	54.28
761.447	54.25
761.843	54.26
762.239	54.22
762.635	54.22
763.031	54.2
763.427	54.18
763.822	54.17
764.218	54.14
764.614	54.14
765.01	54.13
765.405	54.1
765.801	54.07
766.196	54.01
766.592	54.02
766.987	54.04
767.382	54.01
767.778	53.99
768.173	53.98
768.568	53.96
768.963	53.94
769.358	53.9
769.753	53.92
770.148	53.92
770.542	53.97
770.937	53.98
771.332	53.95
771.726	53.96
772.121	53.95
772.515	53.93
772.91	53.96
773.304	53.94
773.699	53.98
774.093	53.97
774.487	53.98
774.881	53.97
775.275	53.98
775.669	53.98
776.063	53.96
776.457	53.95
776.851	53.93
777.245	53.94
777.638	53.96
778.032	53.93
778.425	53.93
778.819	53.91
779.212	53.9
779.606	53.89
779.999	53.89
780.392	53.94
780.786	53.97
781.179	54.02
781.572	54.01
781.965	54.01
782.358	54
782.751	54
783.143	54.01
