Data from N_1_div_pa_2n_001_Splice17_18.txt Node
Date: Sat Feb 29 13:33:09 EST 2020
User: sa697716
Spectrometer: FLMS03696
Trigger mode: 0
Integration Time (sec): 3.180400E-1
Scans to average: 20
Electric dark correction enabled: true
Nonlinearity correction enabled: true
Boxcar width: 5
XAxis mode: Wavelengths
Number of Pixels in Spectrum: 2048
>>>>>Begin Spectral Data<<<<<
187.83	82.91
188.298	79.35
188.766	75.85
189.233	59.94
189.701	70.11
190.169	79.46
190.636	86.7
191.104	76.03
191.571	174.35
192.039	103.37
192.506	268.34
192.974	1521.78
193.441	158.64
193.908	27.38
194.375	-77.35
194.842	-2.64
195.31	13.69
195.777	41.09
196.244	7.73
196.711	15.87
197.177	11.41
197.644	11.9
198.111	12.94
198.578	12.91
199.045	13.6
199.511	14.04
199.978	14.61
200.445	14.98
200.911	15.31
201.378	15.85
201.844	16.28
202.31	17.06
202.777	17.11
203.243	17.36
203.709	18.05
204.176	17.77
204.642	17.92
205.108	17.82
205.574	18.3
206.04	17.74
206.506	17.61
206.972	17.38
207.438	17.45
207.903	18.16
208.369	17.95
208.835	17.7
209.301	18.01
209.766	18.14
210.232	18.14
210.697	17.99
211.163	18.28
211.628	18.09
212.094	18.09
212.559	17.99
213.024	17.35
213.49	17.46
213.955	17.61
214.42	17.3
214.885	16.84
215.35	16.74
215.815	16.45
216.28	16.1
216.745	15.74
217.21	15.39
217.675	14.92
218.14	14.44
218.604	13.93
219.069	13.59
219.534	13.26
219.998	12.92
220.463	12.61
220.927	12.35
221.392	12.12
221.856	11.91
222.32	11.68
222.785	11.49
223.249	11.38
223.713	11.24
224.177	11.04
224.642	10.91
225.106	10.83
225.57	10.72
226.034	10.57
226.497	10.47
226.961	10.32
227.425	10.17
227.889	10.04
228.353	9.89
228.816	9.76
229.28	9.62
229.744	9.5
230.207	9.35
230.671	9.22
231.134	9.13
231.597	9.02
232.061	8.93
232.524	8.85
232.987	8.75
233.45	8.65
233.914	8.56
234.377	8.49
234.84	8.42
235.303	8.36
235.766	8.28
236.229	8.21
236.691	8.12
237.154	8.05
237.617	7.97
238.08	7.91
238.542	7.85
239.005	7.77
239.468	7.69
239.93	7.6
240.393	7.52
240.855	7.44
241.317	7.37
241.78	7.31
242.242	7.23
242.704	7.17
243.166	7.1
243.629	7.04
244.091	6.98
244.553	6.94
245.015	6.9
245.477	6.83
245.939	6.79
246.4	6.73
246.862	6.68
247.324	6.65
247.786	6.59
248.247	6.55
248.709	6.5
249.17	6.46
249.632	6.41
250.093	6.34
250.555	6.31
251.016	6.27
251.477	6.23
251.939	6.18
252.4	6.14
252.861	6.11
253.322	6.07
253.783	6.03
254.244	6
254.705	5.97
255.166	5.95
255.627	5.92
256.088	5.89
256.549	5.86
257.009	5.83
257.47	5.8
257.931	5.77
258.391	5.73
258.852	5.69
259.312	5.66
259.773	5.63
260.233	5.6
260.694	5.56
261.154	5.53
261.614	5.5
262.074	5.47
262.534	5.43
262.994	5.41
263.455	5.39
263.915	5.36
264.374	5.32
264.834	5.29
265.294	5.26
265.754	5.23
266.214	5.2
266.673	5.18
267.133	5.16
267.593	5.14
268.052	5.11
268.512	5.09
268.971	5.08
269.431	5.07
269.89	5.05
270.349	5.04
270.809	5.03
271.268	5.02
271.727	5
272.186	4.98
272.645	4.96
273.104	4.95
273.563	4.93
274.022	4.9
274.481	4.88
274.94	4.86
275.399	4.84
275.857	4.82
276.316	4.8
276.775	4.77
277.233	4.74
277.692	4.73
278.15	4.71
278.609	4.69
279.067	4.66
279.525	4.64
279.984	4.62
280.442	4.6
280.9	4.58
281.358	4.57
281.816	4.55
282.274	4.53
282.732	4.52
283.19	4.51
283.648	4.49
284.106	4.48
284.564	4.47
285.021	4.46
285.479	4.45
285.937	4.43
286.394	4.4
286.852	4.39
287.309	4.37
287.767	4.35
288.224	4.34
288.682	4.32
289.139	4.3
289.596	4.29
290.053	4.27
290.511	4.24
290.968	4.23
291.425	4.22
291.882	4.21
292.339	4.19
292.796	4.18
293.252	4.16
293.709	4.15
294.166	4.14
294.623	4.12
295.079	4.11
295.536	4.1
295.992	4.08
296.449	4.08
296.905	4.07
297.362	4.06
297.818	4.05
298.274	4.03
298.731	4.03
299.187	4
299.643	3.99
300.099	3.98
300.555	3.97
301.011	3.96
301.467	3.95
301.923	3.93
302.379	3.92
302.835	3.91
303.291	3.89
303.746	3.88
304.202	3.88
304.658	3.87
305.113	3.85
305.569	3.85
306.024	3.83
306.479	3.83
306.935	3.82
307.39	3.81
307.845	3.8
308.301	3.8
308.756	3.79
309.211	3.79
309.666	3.79
310.121	3.78
310.576	3.77
311.031	3.76
311.486	3.76
311.94	3.75
312.395	3.74
312.85	3.73
313.305	3.72
313.759	3.71
314.214	3.7
314.668	3.69
315.123	3.69
315.577	3.69
316.032	3.68
316.486	3.67
316.94	3.66
317.394	3.65
317.849	3.64
318.303	3.63
318.757	3.62
319.211	3.61
319.665	3.59
320.119	3.59
320.572	3.58
321.026	3.57
321.48	3.56
321.934	3.56
322.387	3.55
322.841	3.54
323.295	3.54
323.748	3.53
324.202	3.53
324.655	3.53
325.108	3.51
325.562	3.5
326.015	3.48
326.468	3.47
326.921	3.46
327.374	3.45
327.827	3.45
328.28	3.44
328.733	3.44
329.186	3.43
329.639	3.42
330.092	3.41
330.545	3.41
330.997	3.42
331.45	3.42
331.903	3.41
332.355	3.4
332.808	3.4
333.26	3.39
333.713	3.39
334.165	3.38
334.617	3.38
335.069	3.38
335.522	3.37
335.974	3.36
336.426	3.36
336.878	3.37
337.33	3.36
337.782	3.35
338.234	3.35
338.686	3.34
339.137	3.33
339.589	3.33
340.041	3.33
340.493	3.32
340.944	3.31
341.396	3.3
341.847	3.28
342.299	3.27
342.75	3.25
343.201	3.24
343.653	3.23
344.104	3.22
344.555	3.22
345.006	3.19
345.457	3.18
345.908	3.19
346.359	3.18
346.81	3.19
347.261	3.17
347.712	3.17
348.163	3.17
348.613	3.17
349.064	3.15
349.515	3.14
349.965	3.13
350.416	3.13
350.866	3.11
351.317	3.1
351.767	3.09
352.217	3.09
352.668	3.08
353.118	3.07
353.568	3.07
354.018	3.07
354.468	3.07
354.918	3.08
355.368	3.08
355.818	3.08
356.268	3.09
356.718	3.08
357.168	3.07
357.617	3.07
358.067	3.06
358.517	3.05
358.966	3.07
359.416	3.07
359.865	3.07
360.315	3.06
360.764	3.06
361.213	3.04
361.663	3.04
362.112	3.05
362.561	3.05
363.01	3.06
363.459	3.05
363.908	3.04
364.357	3.03
364.806	3.03
365.255	3.03
365.703	3.02
366.152	3.03
366.601	3.03
367.05	3.03
367.498	3.03
367.947	3.02
368.395	3.03
368.844	3.02
369.292	3.02
369.74	3.02
370.189	3.01
370.637	3.01
371.085	3.01
371.533	3
371.981	3
372.429	3
372.877	2.99
373.325	2.99
373.773	2.99
374.221	2.99
374.669	2.99
375.116	2.99
375.564	2.99
376.012	2.99
376.459	3
376.907	3
377.354	3
377.801	3
378.249	3.01
378.696	3.02
379.143	3.02
379.591	3.03
380.038	3.05
380.485	3.06
380.932	3.07
381.379	3.07
381.826	3.09
382.273	3.09
382.72	3.1
383.166	3.1
383.613	3.11
384.06	3.11
384.506	3.13
384.953	3.13
385.4	3.14
385.846	3.13
386.292	3.14
386.739	3.15
387.185	3.17
387.631	3.18
388.078	3.2
388.524	3.2
388.97	3.2
389.416	3.21
389.862	3.22
390.308	3.23
390.754	3.24
391.2	3.27
391.645	3.29
392.091	3.3
392.537	3.32
392.983	3.34
393.428	3.37
393.874	3.39
394.319	3.39
394.765	3.4
395.21	3.41
395.655	3.44
396.101	3.45
396.546	3.45
396.991	3.47
397.436	3.45
397.881	3.47
398.326	3.49
398.771	3.49
399.216	3.51
399.661	3.52
400.106	3.54
400.551	3.54
400.995	3.52
401.44	3.52
401.885	3.52
402.329	3.55
402.774	3.54
403.218	3.55
403.663	3.55
404.107	3.56
404.551	3.57
404.995	3.57
405.44	3.57
405.884	3.58
406.328	3.59
406.772	3.6
407.216	3.6
407.66	3.61
408.104	3.61
408.547	3.62
408.991	3.61
409.435	3.6
409.879	3.61
410.322	3.63
410.766	3.64
411.209	3.65
411.653	3.64
412.096	3.64
412.54	3.64
412.983	3.64
413.426	3.65
413.869	3.66
414.312	3.69
414.756	3.69
415.199	3.69
415.642	3.7
416.085	3.72
416.527	3.74
416.97	3.75
417.413	3.75
417.856	3.75
418.298	3.73
418.741	3.73
419.184	3.71
419.626	3.7
420.069	3.71
420.511	3.7
420.953	3.69
421.396	3.71
421.838	3.72
422.28	3.73
422.722	3.75
423.164	3.75
423.606	3.76
424.048	3.76
424.49	3.78
424.932	3.77
425.374	3.78
425.816	3.75
426.258	3.72
426.699	3.7
427.141	3.68
427.582	3.68
428.024	3.69
428.465	3.68
428.907	3.7
429.348	3.7
429.789	3.7
430.231	3.7
430.672	3.72
431.113	3.74
431.554	3.75
431.995	3.76
432.436	3.77
432.877	3.75
433.318	3.76
433.759	3.76
434.2	3.75
434.64	3.75
435.081	3.74
435.522	3.75
435.962	3.76
436.403	3.77
436.843	3.79
437.284	3.78
437.724	3.8
438.164	3.81
438.604	3.82
439.045	3.85
439.485	3.86
439.925	3.87
440.365	3.86
440.805	3.85
441.245	3.85
441.685	3.84
442.125	3.84
442.564	3.86
443.004	3.86
443.444	3.87
443.883	3.86
444.323	3.86
444.762	3.89
445.202	3.93
445.641	3.96
446.081	3.98
446.52	4
446.959	4.02
447.398	4.04
447.837	4.07
448.276	4.08
448.716	4.1
449.154	4.13
449.593	4.14
450.032	4.13
450.471	4.14
450.91	4.13
451.349	4.15
451.787	4.15
452.226	4.14
452.664	4.13
453.103	4.13
453.541	4.12
453.98	4.12
454.418	4.12
454.856	4.12
455.295	4.11
455.733	4.12
456.171	4.1
456.609	4.1
457.047	4.11
457.485	4.12
457.923	4.12
458.361	4.13
458.798	4.14
459.236	4.13
459.674	4.12
460.111	4.13
460.549	4.12
460.987	4.13
461.424	4.12
461.862	4.12
462.299	4.12
462.736	4.11
463.173	4.1
463.611	4.09
464.048	4.1
464.485	4.11
464.922	4.1
465.359	4.11
465.796	4.1
466.233	4.11
466.67	4.13
467.106	4.11
467.543	4.13
467.98	4.14
468.416	4.14
468.853	4.14
469.29	4.14
469.726	4.15
470.162	4.15
470.599	4.14
471.035	4.13
471.471	4.11
471.907	4.11
472.344	4.09
472.78	4.1
473.216	4.09
473.652	4.08
474.088	4.09
474.523	4.09
474.959	4.07
475.395	4.07
475.831	4.08
476.266	4.09
476.702	4.09
477.138	4.09
477.573	4.07
478.008	4.06
478.444	4.06
478.879	4.05
479.314	4.04
479.75	4.05
480.185	4.06
480.62	4.04
481.055	4.04
481.49	4.03
481.925	4.04
482.36	4.04
482.795	4.04
483.229	4.04
483.664	4.04
484.099	4.05
484.534	4.04
484.968	4.05
485.403	4.05
485.837	4.05
486.271	4.06
486.706	4.06
487.14	4.07
487.574	4.08
488.009	4.09
488.443	4.1
488.877	4.11
489.311	4.14
489.745	4.16
490.179	4.18
490.613	4.21
491.046	4.24
491.48	4.28
491.914	4.32
492.348	4.35
492.781	4.39
493.215	4.42
493.648	4.46
494.082	4.51
494.515	4.55
494.948	4.6
495.382	4.63
495.815	4.68
496.248	4.72
496.681	4.77
497.114	4.83
497.547	4.89
497.98	4.96
498.413	5.03
498.846	5.1
499.279	5.19
499.711	5.26
500.144	5.35
500.577	5.44
501.009	5.54
501.442	5.64
501.874	5.75
502.306	5.86
502.739	5.97
503.171	6.09
503.603	6.22
504.036	6.35
504.468	6.5
504.9	6.66
505.332	6.81
505.764	6.98
506.196	7.15
506.627	7.33
507.059	7.51
507.491	7.69
507.923	7.88
508.354	8.08
508.786	8.28
509.217	8.48
509.649	8.71
510.08	8.94
510.512	9.16
510.943	9.4
511.374	9.63
511.805	9.86
512.237	10.11
512.668	10.37
513.099	10.65
513.53	10.93
513.961	11.22
514.391	11.48
514.822	11.77
515.253	12.06
515.684	12.33
516.114	12.64
516.545	12.94
516.975	13.24
517.406	13.53
517.836	13.82
518.267	14.12
518.697	14.42
519.127	14.74
519.558	15.04
519.988	15.33
520.418	15.63
520.848	15.93
521.278	16.23
521.708	16.62
522.138	16.92
522.567	17.21
522.997	17.47
523.427	17.72
523.857	17.96
524.286	18.19
524.716	18.42
525.145	18.67
525.575	18.88
526.004	19.09
526.433	19.2
526.863	19.4
527.292	19.61
527.721	19.81
528.15	20
528.579	20.2
529.008	20.39
529.437	20.55
529.866	20.68
530.295	20.84
530.724	21.01
531.152	21.16
531.581	21.3
532.01	21.41
532.438	21.51
532.867	21.63
533.295	21.73
533.723	21.84
534.152	21.95
534.58	22.04
535.008	22.1
535.436	22.18
535.865	22.24
536.293	22.3
536.721	22.37
537.149	22.43
537.576	22.49
538.004	22.54
538.432	22.58
538.86	22.63
539.287	22.68
539.715	22.74
540.143	22.75
540.57	22.79
540.998	22.84
541.425	22.87
541.852	22.92
542.28	22.92
542.707	22.95
543.134	22.98
543.561	22.98
543.988	23.01
544.415	23.05
544.842	23.09
545.269	23.1
545.696	23.13
546.123	23.15
546.549	23.17
546.976	23.22
547.403	23.24
547.829	23.26
548.256	23.28
548.682	23.29
549.108	23.31
549.535	23.32
549.961	23.33
550.387	23.31
550.813	23.3
551.24	23.3
551.666	23.3
552.092	23.31
552.518	23.29
552.943	23.29
553.369	23.29
553.795	23.24
554.221	23.2
554.646	23.16
555.072	23.12
555.498	23.06
555.923	23.01
556.349	22.93
556.774	22.85
557.199	22.79
557.625	22.69
558.05	22.6
558.475	22.5
558.9	22.4
559.325	22.32
559.75	22.21
560.175	22.13
560.6	22.01
561.025	21.92
561.449	21.8
561.874	21.68
562.299	21.57
562.723	21.44
563.148	21.31
563.572	21.19
563.997	21.05
564.421	20.89
564.846	20.75
565.27	20.59
565.694	20.42
566.118	20.26
566.542	20.1
566.966	19.93
567.39	19.77
567.814	19.61
568.238	19.45
568.662	19.3
569.086	19.13
569.509	18.97
569.933	18.81
570.357	18.63
570.78	18.46
571.204	18.3
571.627	18.16
572.05	18.01
572.474	17.86
572.897	17.7
573.32	17.53
573.743	17.39
574.166	17.24
574.589	17.11
575.012	16.99
575.435	16.85
575.858	16.72
576.281	16.6
576.704	16.46
577.126	16.36
577.549	16.26
577.972	16.15
578.394	16.05
578.817	15.94
579.239	15.84
579.661	15.73
580.084	15.67
580.506	15.59
580.928	15.49
581.35	15.4
581.772	15.31
582.194	15.22
582.616	15.16
583.038	15.07
583.46	14.99
583.882	14.91
584.303	14.83
584.725	14.75
585.147	14.65
585.568	14.58
585.99	14.51
586.411	14.44
586.833	14.38
587.254	14.31
587.675	14.27
588.096	14.21
588.518	14.15
588.939	14.1
589.36	14.05
589.781	14
590.202	13.95
590.623	13.89
591.043	13.84
591.464	13.81
591.885	13.76
592.305	13.72
592.726	13.69
593.147	13.65
593.567	13.61
593.987	13.58
594.408	13.54
594.828	13.51
595.248	13.48
595.669	13.45
596.089	13.41
596.509	13.37
596.929	13.32
597.349	13.27
597.769	13.23
598.189	13.2
598.608	13.15
599.028	13.13
599.448	13.09
599.867	13.05
600.287	13
600.706	12.95
601.126	12.92
601.545	12.88
601.965	12.84
602.384	12.8
602.803	12.73
603.222	12.66
603.641	12.6
604.061	12.55
604.48	12.5
604.898	12.43
605.317	12.37
605.736	12.3
606.155	12.22
606.574	12.16
606.992	12.08
607.411	12.02
607.829	11.91
608.248	11.84
608.666	11.75
609.085	11.66
609.503	11.59
609.921	11.51
610.339	11.43
610.758	11.35
611.176	11.27
611.594	11.2
612.012	11.1
612.43	11.1
612.847	11.03
613.265	10.98
613.683	10.91
614.101	10.82
614.518	10.73
614.936	10.67
615.353	10.6
615.771	10.52
616.188	10.46
616.606	10.4
617.023	10.32
617.44	10.26
617.857	10.19
618.274	10.13
618.691	10.1
619.108	10.07
619.525	10.02
619.942	9.98
620.359	9.96
620.776	9.93
621.192	9.9
621.609	9.87
622.026	9.84
622.442	9.82
622.859	9.8
623.275	9.78
623.691	9.76
624.108	9.76
624.524	9.73
624.94	9.71
625.356	9.7
625.772	9.69
626.188	9.69
626.604	9.67
627.02	9.66
627.436	9.64
627.852	9.63
628.268	9.61
628.683	9.58
629.099	9.58
629.514	9.56
629.93	9.53
630.345	9.51
630.761	9.47
631.176	9.45
631.591	9.42
632.007	9.38
632.422	9.34
632.837	9.29
633.252	9.24
633.667	9.16
634.082	9.1
634.497	9.03
634.911	8.96
635.326	8.88
635.741	8.78
636.155	8.7
636.57	8.61
636.984	8.51
637.399	8.41
637.813	8.3
638.228	8.22
638.642	8.12
639.056	8.02
639.47	7.91
639.884	7.81
640.298	7.71
640.712	7.59
641.126	7.48
641.54	7.37
641.954	7.27
642.368	7.17
642.781	7.04
643.195	6.93
643.609	6.83
644.022	6.72
644.436	6.63
644.849	6.54
645.262	6.46
645.676	6.38
646.089	6.31
646.502	6.22
646.915	6.16
647.328	6.1
647.741	6.04
648.154	5.99
648.567	5.95
648.98	5.91
649.393	5.87
649.805	5.82
650.218	5.8
650.631	5.76
651.043	5.74
651.456	5.71
651.868	5.68
652.28	5.66
652.693	5.63
653.105	5.6
653.517	5.56
653.929	5.53
654.341	5.5
654.753	5.45
655.165	5.41
655.577	5.36
655.989	5.31
656.401	5.25
656.813	5.18
657.224	5.12
657.636	5.06
658.047	4.99
658.459	4.93
658.87	4.86
659.282	4.81
659.693	4.75
660.104	4.7
660.515	4.64
660.926	4.58
661.338	4.53
661.749	4.48
662.159	4.42
662.57	4.38
662.981	4.32
663.392	4.28
663.803	4.22
664.213	4.17
664.624	4.13
665.035	4.1
665.445	4.08
665.855	4.07
666.266	4.05
666.676	4.03
667.086	4.01
667.497	4
667.907	3.98
668.317	3.97
668.727	3.96
669.137	3.95
669.547	3.96
669.956	3.94
670.366	3.94
670.776	3.94
671.186	3.94
671.595	3.94
672.005	3.95
672.414	3.98
672.824	4
673.233	4.01
673.642	4.03
674.052	4.04
674.461	4.06
674.87	4.08
675.279	4.1
675.688	4.13
676.097	4.17
676.506	4.19
676.915	4.23
677.323	4.26
677.732	4.3
678.141	4.34
678.549	4.38
678.958	4.42
679.366	4.47
679.775	4.52
680.183	4.57
680.592	4.63
681	4.69
681.408	4.73
681.816	4.8
682.224	4.88
682.632	4.97
683.04	5.06
683.448	5.16
683.856	5.29
684.264	5.41
684.671	5.55
685.079	5.7
685.487	5.9
685.894	6.12
686.302	6.34
686.709	6.59
687.116	6.85
687.524	7.13
687.931	7.44
688.338	7.79
688.745	8.15
689.152	8.55
689.559	8.96
689.966	9.4
690.373	9.85
690.78	10.34
691.187	10.83
691.593	11.35
692	11.88
692.407	12.43
692.813	12.98
693.22	13.56
693.626	14.13
694.032	14.72
694.439	15.33
694.845	15.93
695.251	16.55
695.657	17.15
696.063	17.79
696.469	18.42
696.875	19.05
697.281	19.65
697.687	20.29
698.093	20.9
698.498	21.53
698.904	22.13
699.31	22.72
699.715	23.31
700.12	23.89
700.526	24.46
700.931	25.01
701.337	25.58
701.742	26.13
702.147	26.66
702.552	27.22
702.957	27.72
703.362	28.26
703.767	28.75
704.172	29.24
704.577	29.75
704.981	30.23
705.386	30.72
705.791	31.19
706.195	31.64
706.6	32.09
707.004	32.52
707.408	32.96
707.813	33.37
708.217	33.79
708.621	34.22
709.025	34.61
709.43	35.01
709.834	35.43
710.237	35.83
710.641	36.24
711.045	36.6
711.449	36.99
711.853	37.36
712.256	37.73
712.66	38.09
713.064	38.44
713.467	38.8
713.87	39.16
714.274	39.48
714.677	39.79
715.08	40.1
715.484	40.43
715.887	40.76
716.29	41.06
716.693	41.34
717.096	41.63
717.499	41.96
717.901	42.22
718.304	42.5
718.707	42.74
719.109	43.02
719.512	43.28
719.915	43.55
720.317	43.79
720.719	44.05
721.122	44.31
721.524	44.56
721.926	44.75
722.328	44.97
722.731	45.2
723.133	45.42
723.535	45.63
723.937	45.84
724.338	46
724.74	46.18
725.142	46.38
725.544	46.52
725.945	46.71
726.347	46.88
726.748	47.02
727.15	47.13
727.551	47.28
727.952	47.42
728.354	47.57
728.755	47.72
729.156	47.86
729.557	47.95
729.958	48.09
730.359	48.21
730.76	48.32
731.161	48.46
731.562	48.6
731.962	48.69
732.363	48.78
732.763	48.89
733.164	48.95
733.564	49.03
733.965	49.09
734.365	49.12
734.766	49.21
735.166	49.25
735.566	49.28
735.966	49.32
736.366	49.36
736.766	49.42
737.166	49.46
737.566	49.52
737.966	49.58
738.365	49.66
738.765	49.75
739.165	49.74
739.564	49.81
739.964	49.87
740.363	49.95
740.763	50
741.162	50.02
741.561	50.07
741.96	50.13
742.36	50.15
742.759	50.19
743.158	50.19
743.557	50.23
743.955	50.3
744.354	50.35
744.753	50.38
745.152	50.44
745.55	50.47
745.949	50.51
746.348	50.54
746.746	50.55
747.144	50.59
747.543	50.65
747.941	50.67
748.339	50.68
748.737	50.71
749.136	50.72
749.534	50.72
749.932	50.73
750.33	50.72
750.727	50.71
751.125	50.75
751.523	50.74
751.921	50.77
752.318	50.79
752.716	50.79
753.113	50.77
753.511	50.76
753.908	50.74
754.305	50.75
754.703	50.74
755.1	50.76
755.497	50.78
755.894	50.78
756.291	50.75
756.688	50.75
757.085	50.72
757.482	50.75
757.878	50.79
758.275	50.8
758.672	50.79
759.068	50.81
759.465	50.81
759.861	50.77
760.258	50.73
760.654	50.73
761.05	50.71
761.447	50.73
761.843	50.74
762.239	50.7
762.635	50.7
763.031	50.73
763.427	50.71
763.822	50.69
764.218	50.7
764.614	50.73
765.01	50.74
765.405	50.74
765.801	50.71
766.196	50.68
766.592	50.69
766.987	50.69
767.382	50.63
767.778	50.64
768.173	50.62
768.568	50.61
768.963	50.57
769.358	50.55
769.753	50.57
770.148	50.57
770.542	50.54
770.937	50.52
771.332	50.49
771.726	50.51
772.121	50.52
772.515	50.53
772.91	50.51
773.304	50.52
773.699	50.51
774.093	50.47
774.487	50.51
774.881	50.56
775.275	50.56
775.669	50.56
776.063	50.55
776.457	50.52
776.851	50.48
777.245	50.51
777.638	50.51
778.032	50.5
778.425	50.53
778.819	50.48
779.212	50.4
779.606	50.4
779.999	50.39
780.392	50.4
780.786	50.39
781.179	50.45
781.572	50.42
781.965	50.44
782.358	50.45
782.751	50.45
783.143	50.45
783.536	50.49
783.929	50.49
784.322	50.55
784.714	50.55
