Data from N_1_dec_oh_4n_013_Splice17_14.txt Node
Date: Sat Feb 29 13:38:41 EST 2020
User: sa697716
Spectrometer: FLMS03696
Trigger mode: 0
Integration Time (sec): 3.180400E-1
Scans to average: 20
Electric dark correction enabled: true
Nonlinearity correction enabled: true
Boxcar width: 5
XAxis mode: Wavelengths
Number of Pixels in Spectrum: 2048
>>>>>Begin Spectral Data<<<<<
187.83	117.82
188.298	136.1
188.766	124.27
189.233	116.58
189.701	116.31
190.169	119.5
190.636	111.2
191.104	97.63
191.571	118.97
192.039	88.09
192.506	143.66
192.974	3808.61
193.441	-452.8
193.908	139.02
194.375	124.41
194.842	127.69
195.31	98.24
195.777	88.66
196.244	38.4
196.711	26.6
197.177	22.99
197.644	22
198.111	21.42
198.578	21.59
199.045	21.11
199.511	21.54
199.978	22.2
200.445	22.08
200.911	22.11
201.378	22.01
201.844	22.2
202.31	22.82
202.777	23.13
203.243	23.08
203.709	23.25
204.176	23.17
204.642	23.34
205.108	23.1
205.574	23.25
206.04	23.12
206.506	22.93
206.972	22.61
207.438	21.94
207.903	22.25
208.369	22.25
208.835	22.13
209.301	22.37
209.766	22.12
210.232	21.82
210.697	21.65
211.163	21.27
211.628	20.99
212.094	20.81
212.559	20.72
213.024	20.13
213.49	19.72
213.955	19.61
214.42	18.97
214.885	18.59
215.35	18.14
215.815	17.69
216.28	17.25
216.745	16.69
217.21	15.94
217.675	15.16
218.14	14.41
218.604	13.85
219.069	13.28
219.534	12.91
219.998	12.5
220.463	12.16
220.927	11.84
221.392	11.55
221.856	11.26
222.32	11.04
222.785	10.86
223.249	10.66
223.713	10.51
224.177	10.34
224.642	10.17
225.106	10.01
225.57	9.83
226.034	9.69
226.497	9.53
226.961	9.38
227.425	9.22
227.889	9.07
228.353	8.94
228.816	8.8
229.28	8.65
229.744	8.54
230.207	8.43
230.671	8.34
231.134	8.23
231.597	8.13
232.061	8.03
232.524	7.95
232.987	7.85
233.45	7.78
233.914	7.68
234.377	7.61
234.84	7.52
235.303	7.44
235.766	7.35
236.229	7.27
236.691	7.18
237.154	7.13
237.617	7.05
238.08	6.97
238.542	6.9
239.005	6.83
239.468	6.75
239.93	6.69
240.393	6.63
240.855	6.53
241.317	6.48
241.78	6.42
242.242	6.35
242.704	6.29
243.166	6.24
243.629	6.19
244.091	6.14
244.553	6.09
245.015	6.03
245.477	5.97
245.939	5.92
246.4	5.86
246.862	5.81
247.324	5.77
247.786	5.72
248.247	5.67
248.709	5.62
249.17	5.58
249.632	5.53
250.093	5.47
250.555	5.44
251.016	5.42
251.477	5.39
251.939	5.35
252.4	5.31
252.861	5.28
253.322	5.24
253.783	5.21
254.244	5.19
254.705	5.16
255.166	5.15
255.627	5.11
256.088	5.07
256.549	5.04
257.009	5.01
257.47	4.99
257.931	4.96
258.391	4.94
258.852	4.9
259.312	4.87
259.773	4.84
260.233	4.81
260.694	4.79
261.154	4.77
261.614	4.74
262.074	4.71
262.534	4.66
262.994	4.64
263.455	4.62
263.915	4.59
264.374	4.55
264.834	4.53
265.294	4.5
265.754	4.47
266.214	4.44
266.673	4.42
267.133	4.39
267.593	4.38
268.052	4.35
268.512	4.33
268.971	4.31
269.431	4.3
269.89	4.28
270.349	4.27
270.809	4.25
271.268	4.25
271.727	4.23
272.186	4.22
272.645	4.2
273.104	4.19
273.563	4.18
274.022	4.16
274.481	4.14
274.94	4.13
275.399	4.11
275.857	4.1
276.316	4.07
276.775	4.05
277.233	4.03
277.692	4.02
278.15	4
278.609	3.98
279.067	3.97
279.525	3.95
279.984	3.93
280.442	3.92
280.9	3.91
281.358	3.9
281.816	3.89
282.274	3.87
282.732	3.86
283.19	3.85
283.648	3.84
284.106	3.82
284.564	3.82
285.021	3.81
285.479	3.8
285.937	3.78
286.394	3.76
286.852	3.75
287.309	3.75
287.767	3.73
288.224	3.72
288.682	3.7
289.139	3.7
289.596	3.68
290.053	3.66
290.511	3.64
290.968	3.63
291.425	3.62
291.882	3.6
292.339	3.58
292.796	3.56
293.252	3.54
293.709	3.53
294.166	3.51
294.623	3.5
295.079	3.49
295.536	3.48
295.992	3.47
296.449	3.46
296.905	3.45
297.362	3.44
297.818	3.43
298.274	3.43
298.731	3.42
299.187	3.4
299.643	3.4
300.099	3.39
300.555	3.38
301.011	3.37
301.467	3.37
301.923	3.37
302.379	3.36
302.835	3.36
303.291	3.35
303.746	3.34
304.202	3.34
304.658	3.33
305.113	3.32
305.569	3.32
306.024	3.32
306.479	3.3
306.935	3.29
307.39	3.28
307.845	3.28
308.301	3.28
308.756	3.28
309.211	3.28
309.666	3.27
310.121	3.27
310.576	3.26
311.031	3.25
311.486	3.26
311.94	3.25
312.395	3.25
312.85	3.25
313.305	3.24
313.759	3.23
314.214	3.23
314.668	3.23
315.123	3.23
315.577	3.23
316.032	3.21
316.486	3.2
316.94	3.2
317.394	3.2
317.849	3.19
318.303	3.18
318.757	3.16
319.211	3.14
319.665	3.14
320.119	3.12
320.572	3.12
321.026	3.12
321.48	3.11
321.934	3.11
322.387	3.1
322.841	3.09
323.295	3.1
323.748	3.1
324.202	3.09
324.655	3.08
325.108	3.07
325.562	3.05
326.015	3.03
326.468	3.02
326.921	3.01
327.374	3
327.827	3
328.28	2.98
328.733	2.98
329.186	2.99
329.639	2.98
330.092	2.97
330.545	2.98
330.997	2.98
331.45	2.98
331.903	2.97
332.355	2.96
332.808	2.96
333.26	2.96
333.713	2.96
334.165	2.94
334.617	2.95
335.069	2.95
335.522	2.95
335.974	2.94
336.426	2.94
336.878	2.94
337.33	2.93
337.782	2.93
338.234	2.93
338.686	2.93
339.137	2.94
339.589	2.92
340.041	2.91
340.493	2.9
340.944	2.89
341.396	2.89
341.847	2.89
342.299	2.88
342.75	2.87
343.201	2.85
343.653	2.84
344.104	2.82
344.555	2.82
345.006	2.81
345.457	2.81
345.908	2.8
346.359	2.79
346.81	2.79
347.261	2.79
347.712	2.79
348.163	2.79
348.613	2.78
349.064	2.76
349.515	2.76
349.965	2.76
350.416	2.76
350.866	2.76
351.317	2.75
351.767	2.74
352.217	2.73
352.668	2.74
353.118	2.74
353.568	2.75
354.018	2.76
354.468	2.76
354.918	2.77
355.368	2.79
355.818	2.79
356.268	2.8
356.718	2.81
357.168	2.82
357.617	2.81
358.067	2.81
358.517	2.82
358.966	2.83
359.416	2.85
359.865	2.85
360.315	2.86
360.764	2.87
361.213	2.88
361.663	2.89
362.112	2.91
362.561	2.93
363.01	2.96
363.459	2.97
363.908	2.99
364.357	3.01
364.806	3.04
365.255	3.07
365.703	3.1
366.152	3.14
366.601	3.18
367.05	3.22
367.498	3.26
367.947	3.3
368.395	3.35
368.844	3.41
369.292	3.45
369.74	3.51
370.189	3.56
370.637	3.63
371.085	3.68
371.533	3.75
371.981	3.83
372.429	3.89
372.877	3.94
373.325	4.01
373.773	4.08
374.221	4.16
374.669	4.23
375.116	4.3
375.564	4.38
376.012	4.46
376.459	4.54
376.907	4.62
377.354	4.71
377.801	4.81
378.249	4.91
378.696	5
379.143	5.09
379.591	5.17
380.038	5.26
380.485	5.36
380.932	5.44
381.379	5.52
381.826	5.6
382.273	5.68
382.72	5.75
383.166	5.82
383.613	5.9
384.06	5.97
384.506	6.06
384.953	6.12
385.4	6.19
385.846	6.24
386.292	6.33
386.739	6.39
387.185	6.45
387.631	6.52
388.078	6.58
388.524	6.62
388.97	6.67
389.416	6.71
389.862	6.76
390.308	6.79
390.754	6.83
391.2	6.87
391.645	6.91
392.091	6.93
392.537	6.95
392.983	6.98
393.428	7.03
393.874	7.05
394.319	7.07
394.765	7.08
395.21	7.09
395.655	7.1
396.101	7.1
396.546	7.12
396.991	7.13
397.436	7.12
397.881	7.11
398.326	7.12
398.771	7.12
399.216	7.12
399.661	7.12
400.106	7.13
400.551	7.11
400.995	7.08
401.44	7.05
401.885	7.02
402.329	7.01
402.774	6.99
403.218	6.97
403.663	6.92
404.107	6.9
404.551	6.88
404.995	6.85
405.44	6.84
405.884	6.8
406.328	6.79
406.772	6.77
407.216	6.74
407.66	6.72
408.104	6.69
408.547	6.68
408.991	6.65
409.435	6.63
409.879	6.6
410.322	6.59
410.766	6.58
411.209	6.56
411.653	6.54
412.096	6.52
412.54	6.49
412.983	6.47
413.426	6.46
413.869	6.44
414.312	6.44
414.756	6.43
415.199	6.41
415.642	6.4
416.085	6.4
416.527	6.4
416.97	6.39
417.413	6.36
417.856	6.35
418.298	6.33
418.741	6.32
419.184	6.3
419.626	6.29
420.069	6.26
420.511	6.24
420.953	6.21
421.396	6.2
421.838	6.19
422.28	6.21
422.722	6.2
423.164	6.19
423.606	6.17
424.048	6.15
424.49	6.15
424.932	6.13
425.374	6.12
425.816	6.1
426.258	6.07
426.699	6.03
427.141	6
427.582	5.99
428.024	5.99
428.465	5.98
428.907	5.98
429.348	5.95
429.789	5.97
430.231	5.96
430.672	5.97
431.113	5.99
431.554	6
431.995	6.01
432.436	6.02
432.877	5.98
433.318	5.98
433.759	5.98
434.2	5.99
434.64	6
435.081	6
435.522	6.02
435.962	6.02
436.403	6.05
436.843	6.05
437.284	6.04
437.724	6.1
438.164	6.1
438.604	6.11
439.045	6.12
439.485	6.15
439.925	6.17
440.365	6.18
440.805	6.19
441.245	6.19
441.685	6.22
442.125	6.24
442.564	6.28
443.004	6.3
443.444	6.32
443.883	6.35
444.323	6.36
444.762	6.4
445.202	6.45
445.641	6.48
446.081	6.52
446.52	6.53
446.959	6.59
447.398	6.64
447.837	6.72
448.276	6.77
448.716	6.82
449.154	6.86
449.593	6.9
450.032	6.94
450.471	6.96
450.91	7
451.349	7.05
451.787	7.06
452.226	7.04
452.664	7.04
453.103	7.04
453.541	7.03
453.98	7.03
454.418	7.02
454.856	7
455.295	6.99
455.733	6.99
456.171	7.01
456.609	7.01
457.047	7.04
457.485	7.04
457.923	7.06
458.361	7.07
458.798	7.1
459.236	7.12
459.674	7.13
460.111	7.16
460.549	7.17
460.987	7.16
461.424	7.16
461.862	7.17
462.299	7.17
462.736	7.16
463.173	7.17
463.611	7.17
464.048	7.17
464.485	7.17
464.922	7.15
465.359	7.18
465.796	7.17
466.233	7.18
466.67	7.19
467.106	7.19
467.543	7.2
467.98	7.21
468.416	7.2
468.853	7.19
469.29	7.19
469.726	7.2
470.162	7.17
470.599	7.19
471.035	7.17
471.471	7.16
471.907	7.16
472.344	7.16
472.78	7.16
473.216	7.16
473.652	7.17
474.088	7.19
474.523	7.2
474.959	7.2
475.395	7.19
475.831	7.22
476.266	7.22
476.702	7.22
477.138	7.21
477.573	7.2
478.008	7.21
478.444	7.21
478.879	7.22
479.314	7.21
479.75	7.23
480.185	7.23
480.62	7.23
481.055	7.23
481.49	7.25
481.925	7.27
482.36	7.27
482.795	7.28
483.229	7.29
483.664	7.29
484.099	7.32
484.534	7.34
484.968	7.37
485.403	7.4
485.837	7.43
486.271	7.46
486.706	7.49
487.14	7.55
487.574	7.59
488.009	7.65
488.443	7.71
488.877	7.75
489.311	7.82
489.745	7.88
490.179	7.95
490.613	8.02
491.046	8.09
491.48	8.17
491.914	8.24
492.348	8.33
492.781	8.41
493.215	8.49
493.648	8.6
494.082	8.71
494.515	8.82
494.948	8.93
495.382	9.05
495.815	9.18
496.248	9.31
496.681	9.45
497.114	9.59
497.547	9.74
497.98	9.89
498.413	10.03
498.846	10.18
499.279	10.36
499.711	10.53
500.144	10.7
500.577	10.9
501.009	11.1
501.442	11.3
501.874	11.5
502.306	11.71
502.739	11.93
503.171	12.17
503.603	12.42
504.036	12.66
504.468	12.92
504.9	13.2
505.332	13.45
505.764	13.73
506.196	14.01
506.627	14.32
507.059	14.63
507.491	14.95
507.923	15.27
508.354	15.59
508.786	15.92
509.217	16.25
509.649	16.58
510.08	16.93
510.512	17.28
510.943	17.66
511.374	18.02
511.805	18.38
512.237	18.74
512.668	19.12
513.099	19.5
513.53	19.87
513.961	20.26
514.391	20.63
514.822	21.03
515.253	21.41
515.684	21.78
516.114	22.15
516.545	22.54
516.975	22.94
517.406	23.33
517.836	23.72
518.267	24.09
518.697	24.47
519.127	24.86
519.558	25.22
519.988	25.59
520.418	25.95
520.848	26.3
521.278	26.66
521.708	27.07
522.138	27.36
522.567	27.68
522.997	28.01
523.427	28.31
523.857	28.58
524.286	28.88
524.716	29.14
525.145	29.41
525.575	29.67
526.004	29.9
526.433	30.05
526.863	30.3
527.292	30.52
527.721	30.72
528.15	30.94
528.579	31.13
529.008	31.32
529.437	31.52
529.866	31.69
530.295	31.87
530.724	32.06
531.152	32.2
531.581	32.35
532.01	32.48
532.438	32.62
532.867	32.73
533.295	32.86
533.723	32.97
534.152	33.06
534.58	33.17
535.008	33.24
535.436	33.31
535.865	33.41
536.293	33.48
536.721	33.55
537.149	33.62
537.576	33.69
538.004	33.76
538.432	33.8
538.86	33.86
539.287	33.91
539.715	33.96
540.143	34
540.57	34.05
540.998	34.1
541.425	34.13
541.852	34.16
542.28	34.19
542.707	34.23
543.134	34.26
543.561	34.29
543.988	34.31
544.415	34.35
544.842	34.38
545.269	34.39
545.696	34.41
546.123	34.45
546.549	34.48
546.976	34.52
547.403	34.52
547.829	34.53
548.256	34.56
548.682	34.55
549.108	34.56
549.535	34.57
549.961	34.57
550.387	34.57
550.813	34.58
551.24	34.57
551.666	34.57
552.092	34.58
552.518	34.57
552.943	34.54
553.369	34.54
553.795	34.51
554.221	34.47
554.646	34.46
555.072	34.43
555.498	34.37
555.923	34.33
556.349	34.28
556.774	34.22
557.199	34.17
557.625	34.1
558.05	34.03
558.475	33.95
558.9	33.88
559.325	33.8
559.75	33.69
560.175	33.58
560.6	33.48
561.025	33.36
561.449	33.23
561.874	33.1
562.299	32.97
562.723	32.85
563.148	32.73
563.572	32.61
563.997	32.46
564.421	32.34
564.846	32.2
565.27	32.07
565.694	31.91
566.118	31.77
566.542	31.64
566.966	31.49
567.39	31.32
567.814	31.15
568.238	30.96
568.662	30.8
569.086	30.63
569.509	30.47
569.933	30.28
570.357	30.12
570.78	29.97
571.204	29.79
571.627	29.64
572.05	29.5
572.474	29.34
572.897	29.2
573.32	29.04
573.743	28.89
574.166	28.73
574.589	28.6
575.012	28.47
575.435	28.31
575.858	28.18
576.281	28.04
576.704	27.89
577.126	27.78
577.549	27.66
577.972	27.53
578.394	27.41
578.817	27.31
579.239	27.18
579.661	27.06
580.084	26.97
580.506	26.86
580.928	26.77
581.35	26.69
581.772	26.61
582.194	26.52
582.616	26.43
583.038	26.34
583.46	26.26
583.882	26.19
584.303	26.1
584.725	26.01
585.147	25.9
585.568	25.81
585.99	25.73
586.411	25.64
586.833	25.55
587.254	25.47
587.675	25.38
588.096	25.32
588.518	25.23
588.939	25.17
589.36	25.12
589.781	25.06
590.202	25
590.623	24.93
591.043	24.84
591.464	24.78
591.885	24.73
592.305	24.68
592.726	24.62
593.147	24.56
593.567	24.5
593.987	24.46
594.408	24.41
594.828	24.35
595.248	24.32
595.669	24.29
596.089	24.26
596.509	24.2
596.929	24.14
597.349	24.09
597.769	24.06
598.189	24.02
598.608	23.96
599.028	23.9
599.448	23.86
599.867	23.81
600.287	23.76
600.706	23.71
601.126	23.66
601.545	23.63
601.965	23.57
602.384	23.51
602.803	23.44
603.222	23.38
603.641	23.33
604.061	23.27
604.48	23.2
604.898	23.11
605.317	23.03
605.736	22.96
606.155	22.87
606.574	22.79
606.992	22.7
607.411	22.63
607.829	22.51
608.248	22.41
608.666	22.33
609.085	22.23
609.503	22.16
609.921	22.08
610.339	22
610.758	21.91
611.176	21.82
611.594	21.74
612.012	21.65
612.43	21.61
612.847	21.52
613.265	21.44
613.683	21.36
614.101	21.27
614.518	21.18
614.936	21.09
615.353	21
615.771	20.93
616.188	20.84
616.606	20.75
617.023	20.68
617.44	20.61
617.857	20.52
618.274	20.45
618.691	20.4
619.108	20.33
619.525	20.27
619.942	20.25
620.359	20.22
620.776	20.19
621.192	20.16
621.609	20.13
622.026	20.11
622.442	20.09
622.859	20.05
623.275	20.05
623.691	20.04
624.108	20.04
624.524	20
624.94	19.98
625.356	19.95
625.772	19.94
626.188	19.92
626.604	19.9
627.02	19.9
627.436	19.9
627.852	19.87
628.268	19.83
628.683	19.79
629.099	19.77
629.514	19.73
629.93	19.69
630.345	19.64
630.761	19.58
631.176	19.52
631.591	19.44
632.007	19.36
632.422	19.27
632.837	19.2
633.252	19.11
633.667	18.99
634.082	18.89
634.497	18.76
634.911	18.63
635.326	18.5
635.741	18.35
636.155	18.19
636.57	18.04
636.984	17.85
637.399	17.66
637.813	17.47
638.228	17.27
638.642	17.07
639.056	16.88
639.47	16.66
639.884	16.45
640.298	16.24
640.712	16.03
641.126	15.82
641.54	15.63
641.954	15.44
642.368	15.24
642.781	15.05
643.195	14.85
643.609	14.65
644.022	14.47
644.436	14.28
644.849	14.11
645.262	13.95
645.676	13.79
646.089	13.62
646.502	13.47
646.915	13.33
647.328	13.23
647.741	13.1
648.154	13.03
648.567	12.96
648.98	12.89
649.393	12.81
649.805	12.73
650.218	12.68
650.631	12.63
651.043	12.58
651.456	12.53
651.868	12.46
652.28	12.44
652.693	12.37
653.105	12.3
653.517	12.24
653.929	12.19
654.341	12.15
654.753	12.07
655.165	12
655.577	11.91
655.989	11.83
656.401	11.73
656.813	11.63
657.224	11.52
657.636	11.43
658.047	11.32
658.459	11.21
658.87	11.09
659.282	10.99
659.693	10.86
660.104	10.74
660.515	10.61
660.926	10.5
661.338	10.39
661.749	10.27
662.159	10.14
662.57	10.02
662.981	9.9
663.392	9.77
663.803	9.67
664.213	9.56
664.624	9.46
665.035	9.37
665.445	9.27
665.855	9.18
666.266	9.11
666.676	9.04
667.086	8.98
667.497	8.93
667.907	8.87
668.317	8.8
668.727	8.76
669.137	8.72
669.547	8.7
669.956	8.68
670.366	8.66
670.776	8.64
671.186	8.63
671.595	8.63
672.005	8.64
672.414	8.65
672.824	8.69
673.233	8.72
673.642	8.75
674.052	8.78
674.461	8.83
674.87	8.87
675.279	8.93
675.688	8.98
676.097	9.03
676.506	9.09
676.915	9.16
677.323	9.24
677.732	9.32
678.141	9.42
678.549	9.54
678.958	9.66
679.366	9.77
679.775	9.92
680.183	10.08
680.592	10.25
681	10.44
681.408	10.65
681.816	10.87
682.224	11.13
682.632	11.4
683.04	11.67
683.448	11.98
683.856	12.34
684.264	12.71
684.671	13.1
685.079	13.53
685.487	13.99
685.894	14.49
686.302	15
686.709	15.53
687.116	16.09
687.524	16.7
687.931	17.31
688.338	17.96
688.745	18.63
689.152	19.36
689.559	20.06
689.966	20.79
690.373	21.53
690.78	22.28
691.187	23.05
691.593	23.83
692	24.61
692.407	25.39
692.813	26.18
693.22	26.94
693.626	27.69
694.032	28.48
694.439	29.24
694.845	29.98
695.251	30.74
695.657	31.47
696.063	32.19
696.469	32.88
696.875	33.56
697.281	34.2
697.687	34.88
698.093	35.55
698.498	36.18
698.904	36.79
699.31	37.39
699.715	37.99
700.12	38.56
700.526	39.13
700.931	39.67
701.337	40.23
701.742	40.76
702.147	41.28
702.552	41.77
702.957	42.26
703.362	42.75
703.767	43.24
704.172	43.7
704.577	44.14
704.981	44.58
705.386	45
705.791	45.43
706.195	45.82
706.6	46.18
707.004	46.56
707.408	46.9
707.813	47.23
708.217	47.58
708.621	47.9
709.025	48.27
709.43	48.56
709.834	48.9
710.237	49.18
710.641	49.5
711.045	49.8
711.449	50.08
711.853	50.38
712.256	50.71
712.66	50.96
713.064	51.24
713.467	51.45
713.87	51.73
714.274	51.98
714.677	52.23
715.08	52.46
715.484	52.72
715.887	52.96
716.29	53.2
716.693	53.36
717.096	53.58
717.499	53.78
717.901	54
718.304	54.21
718.707	54.38
719.109	54.59
719.512	54.77
719.915	54.96
720.317	55.12
720.719	55.29
721.122	55.46
721.524	55.61
721.926	55.8
722.328	55.98
722.731	56.1
723.133	56.26
723.535	56.4
723.937	56.55
724.338	56.64
724.74	56.77
725.142	56.88
725.544	57
725.945	57.13
726.347	57.2
726.748	57.26
727.15	57.34
727.551	57.43
727.952	57.48
728.354	57.6
728.755	57.67
729.156	57.75
729.557	57.82
729.958	57.91
730.359	57.95
730.76	58.03
731.161	58.11
731.562	58.2
731.962	58.27
732.363	58.34
732.763	58.38
733.164	58.43
733.564	58.45
733.965	58.51
734.365	58.53
734.766	58.59
735.166	58.6
735.566	58.61
735.966	58.61
736.366	58.63
736.766	58.66
737.166	58.7
737.566	58.76
737.966	58.82
738.365	58.83
738.765	58.91
739.165	58.89
739.564	58.94
739.964	59.01
740.363	59.07
740.763	59.11
741.162	59.13
741.561	59.13
741.96	59.17
742.36	59.2
742.759	59.2
743.158	59.17
743.557	59.23
743.955	59.28
744.354	59.29
744.753	59.3
745.152	59.29
745.55	59.31
745.949	59.33
746.348	59.31
746.746	59.31
747.144	59.34
747.543	59.36
747.941	59.39
748.339	59.4
748.737	59.41
749.136	59.4
749.534	59.44
749.932	59.42
750.33	59.44
750.727	59.46
751.125	59.49
751.523	59.48
751.921	59.49
752.318	59.48
752.716	59.45
753.113	59.47
753.511	59.46
753.908	59.46
754.305	59.48
754.703	59.46
755.1	59.43
755.497	59.42
755.894	59.43
756.291	59.44
756.688	59.46
757.085	59.45
757.482	59.45
757.878	59.44
758.275	59.42
758.672	59.43
759.068	59.46
759.465	59.47
759.861	59.44
760.258	59.42
760.654	59.4
761.05	59.37
761.447	59.36
761.843	59.34
762.239	59.35
762.635	59.36
763.031	59.33
763.427	59.31
763.822	59.27
764.218	59.27
764.614	59.27
765.01	59.27
765.405	59.25
765.801	59.22
766.196	59.18
766.592	59.16
766.987	59.15
767.382	59.17
767.778	59.16
768.173	59.18
768.568	59.16
768.963	59.14
769.358	59.15
769.753	59.14
770.148	59.13
770.542	59.11
770.937	59.09
771.332	59.06
771.726	59.02
772.121	58.97
772.515	58.94
772.91	58.92
773.304	58.89
773.699	58.84
774.093	58.82
774.487	58.84
774.881	58.85
775.275	58.85
775.669	58.84
776.063	58.8
776.457	58.84
776.851	58.79
777.245	58.8
777.638	58.8
778.032	58.83
778.425	58.86
778.819	58.82
779.212	58.81
779.606	58.81
779.999	58.78
780.392	58.81
780.786	58.79
