Data from N_1_div_pa_2n_001_Splice17_01.txt Node
Date: Sat Feb 29 13:32:33 EST 2020
User: sa697716
Spectrometer: FLMS03696
Trigger mode: 0
Integration Time (sec): 3.180400E-1
Scans to average: 20
Electric dark correction enabled: true
Nonlinearity correction enabled: true
Boxcar width: 5
XAxis mode: Wavelengths
Number of Pixels in Spectrum: 2048
>>>>>Begin Spectral Data<<<<<
187.83	97.24
188.298	103.01
188.766	95.23
189.233	85.62
189.701	86.96
190.169	90.25
190.636	88.93
191.104	92.84
191.571	247.19
192.039	139.73
192.506	134.39
192.974	1039.52
193.441	-114.21
193.908	61.21
194.375	-23.77
194.842	-0.78
195.31	6.01
195.777	17.09
196.244	11.74
196.711	14.54
197.177	10.89
197.644	11.23
198.111	10.01
198.578	10.14
199.045	10.69
199.511	10.87
199.978	11.42
200.445	11.89
200.911	12.12
201.378	12.72
201.844	12.8
202.31	14.02
202.777	14.45
203.243	15.04
203.709	15.5
204.176	15.19
204.642	15.73
205.108	15.76
205.574	16.25
206.04	16
206.506	15.64
206.972	15.52
207.438	15.11
207.903	15.37
208.369	15.36
208.835	15.34
209.301	15.81
209.766	15.96
210.232	15.79
210.697	15.58
211.163	15.89
211.628	16.02
212.094	15.95
212.559	15.59
213.024	15.14
213.49	14.87
213.955	14.63
214.42	14.27
214.885	13.84
215.35	13.91
215.815	13.58
216.28	13.33
216.745	12.94
217.21	12.98
217.675	12.78
218.14	12.49
218.604	12.26
219.069	12.1
219.534	11.91
219.998	11.68
220.463	11.43
220.927	11.29
221.392	11.04
221.856	10.89
222.32	10.7
222.785	10.6
223.249	10.49
223.713	10.35
224.177	10.22
224.642	10.1
225.106	10
225.57	9.86
226.034	9.76
226.497	9.66
226.961	9.55
227.425	9.42
227.889	9.27
228.353	9.17
228.816	9.06
229.28	8.92
229.744	8.85
230.207	8.75
230.671	8.66
231.134	8.57
231.597	8.49
232.061	8.4
232.524	8.32
232.987	8.25
233.45	8.17
233.914	8.1
234.377	8.03
234.84	7.94
235.303	7.87
235.766	7.81
236.229	7.73
236.691	7.65
237.154	7.57
237.617	7.49
238.08	7.41
238.542	7.33
239.005	7.27
239.468	7.19
239.93	7.14
240.393	7.06
240.855	6.97
241.317	6.9
241.78	6.86
242.242	6.8
242.704	6.75
243.166	6.72
243.629	6.68
244.091	6.61
244.553	6.56
245.015	6.5
245.477	6.47
245.939	6.43
246.4	6.38
246.862	6.33
247.324	6.3
247.786	6.24
248.247	6.19
248.709	6.13
249.17	6.1
249.632	6.06
250.093	6.01
250.555	5.96
251.016	5.93
251.477	5.9
251.939	5.86
252.4	5.81
252.861	5.79
253.322	5.75
253.783	5.73
254.244	5.69
254.705	5.66
255.166	5.64
255.627	5.61
256.088	5.57
256.549	5.55
257.009	5.52
257.47	5.49
257.931	5.46
258.391	5.42
258.852	5.38
259.312	5.35
259.773	5.32
260.233	5.29
260.694	5.25
261.154	5.22
261.614	5.19
262.074	5.16
262.534	5.13
262.994	5.11
263.455	5.09
263.915	5.07
264.374	5.05
264.834	5.03
265.294	5.01
265.754	4.98
266.214	4.97
266.673	4.94
267.133	4.93
267.593	4.91
268.052	4.89
268.512	4.88
268.971	4.86
269.431	4.85
269.89	4.83
270.349	4.82
270.809	4.81
271.268	4.8
271.727	4.78
272.186	4.76
272.645	4.74
273.104	4.72
273.563	4.71
274.022	4.7
274.481	4.68
274.94	4.66
275.399	4.64
275.857	4.62
276.316	4.6
276.775	4.57
277.233	4.55
277.692	4.55
278.15	4.52
278.609	4.5
279.067	4.47
279.525	4.44
279.984	4.42
280.442	4.41
280.9	4.38
281.358	4.37
281.816	4.36
282.274	4.34
282.732	4.31
283.19	4.3
283.648	4.29
284.106	4.27
284.564	4.27
285.021	4.26
285.479	4.24
285.937	4.23
286.394	4.21
286.852	4.2
287.309	4.18
287.767	4.17
288.224	4.16
288.682	4.14
289.139	4.13
289.596	4.11
290.053	4.09
290.511	4.07
290.968	4.06
291.425	4.05
291.882	4.03
292.339	4.02
292.796	4
293.252	3.98
293.709	3.96
294.166	3.95
294.623	3.94
295.079	3.92
295.536	3.91
295.992	3.9
296.449	3.89
296.905	3.87
297.362	3.85
297.818	3.84
298.274	3.83
298.731	3.82
299.187	3.81
299.643	3.8
300.099	3.8
300.555	3.78
301.011	3.77
301.467	3.76
301.923	3.76
302.379	3.76
302.835	3.75
303.291	3.73
303.746	3.73
304.202	3.72
304.658	3.7
305.113	3.69
305.569	3.69
306.024	3.68
306.479	3.66
306.935	3.66
307.39	3.65
307.845	3.64
308.301	3.64
308.756	3.63
309.211	3.62
309.666	3.61
310.121	3.61
310.576	3.6
311.031	3.6
311.486	3.6
311.94	3.58
312.395	3.58
312.85	3.57
313.305	3.57
313.759	3.57
314.214	3.55
314.668	3.55
315.123	3.55
315.577	3.54
316.032	3.52
316.486	3.51
316.94	3.51
317.394	3.5
317.849	3.49
318.303	3.47
318.757	3.46
319.211	3.44
319.665	3.43
320.119	3.42
320.572	3.41
321.026	3.4
321.48	3.39
321.934	3.39
322.387	3.38
322.841	3.37
323.295	3.38
323.748	3.37
324.202	3.38
324.655	3.37
325.108	3.36
325.562	3.34
326.015	3.34
326.468	3.32
326.921	3.31
327.374	3.3
327.827	3.3
328.28	3.29
328.733	3.28
329.186	3.27
329.639	3.27
330.092	3.26
330.545	3.26
330.997	3.26
331.45	3.27
331.903	3.27
332.355	3.27
332.808	3.26
333.26	3.25
333.713	3.25
334.165	3.25
334.617	3.25
335.069	3.25
335.522	3.25
335.974	3.24
336.426	3.23
336.878	3.22
337.33	3.21
337.782	3.22
338.234	3.21
338.686	3.21
339.137	3.21
339.589	3.22
340.041	3.21
340.493	3.19
340.944	3.19
341.396	3.19
341.847	3.18
342.299	3.17
342.75	3.16
343.201	3.14
343.653	3.13
344.104	3.11
344.555	3.09
345.006	3.07
345.457	3.07
345.908	3.06
346.359	3.05
346.81	3.05
347.261	3.05
347.712	3.04
348.163	3.04
348.613	3.03
349.064	3.02
349.515	3.02
349.965	3.01
350.416	3
350.866	3
351.317	2.99
351.767	2.98
352.217	2.96
352.668	2.96
353.118	2.96
353.568	2.96
354.018	2.97
354.468	2.96
354.918	2.96
355.368	2.96
355.818	2.95
356.268	2.96
356.718	2.96
357.168	2.96
357.617	2.96
358.067	2.95
358.517	2.94
358.966	2.93
359.416	2.94
359.865	2.93
360.315	2.93
360.764	2.93
361.213	2.92
361.663	2.92
362.112	2.91
362.561	2.91
363.01	2.92
363.459	2.91
363.908	2.91
364.357	2.9
364.806	2.91
365.255	2.9
365.703	2.9
366.152	2.9
366.601	2.9
367.05	2.9
367.498	2.9
367.947	2.9
368.395	2.91
368.844	2.91
369.292	2.89
369.74	2.89
370.189	2.9
370.637	2.9
371.085	2.9
371.533	2.9
371.981	2.91
372.429	2.89
372.877	2.89
373.325	2.88
373.773	2.88
374.221	2.89
374.669	2.88
375.116	2.87
375.564	2.86
376.012	2.86
376.459	2.85
376.907	2.85
377.354	2.86
377.801	2.86
378.249	2.87
378.696	2.88
379.143	2.89
379.591	2.9
380.038	2.92
380.485	2.93
380.932	2.94
381.379	2.95
381.826	2.96
382.273	2.96
382.72	2.97
383.166	2.98
383.613	2.99
384.06	2.99
384.506	3
384.953	3.01
385.4	3.01
385.846	3.02
386.292	3.03
386.739	3.04
387.185	3.06
387.631	3.07
388.078	3.09
388.524	3.09
388.97	3.1
389.416	3.11
389.862	3.12
390.308	3.12
390.754	3.15
391.2	3.16
391.645	3.18
392.091	3.19
392.537	3.2
392.983	3.21
393.428	3.22
393.874	3.24
394.319	3.26
394.765	3.28
395.21	3.3
395.655	3.3
396.101	3.31
396.546	3.33
396.991	3.34
397.436	3.33
397.881	3.35
398.326	3.38
398.771	3.39
399.216	3.4
399.661	3.41
400.106	3.43
400.551	3.43
400.995	3.43
401.44	3.43
401.885	3.45
402.329	3.47
402.774	3.47
403.218	3.47
403.663	3.46
404.107	3.46
404.551	3.47
404.995	3.48
405.44	3.49
405.884	3.49
406.328	3.49
406.772	3.49
407.216	3.5
407.66	3.5
408.104	3.5
408.547	3.51
408.991	3.51
409.435	3.51
409.879	3.51
410.322	3.52
410.766	3.53
411.209	3.55
411.653	3.55
412.096	3.55
412.54	3.56
412.983	3.56
413.426	3.57
413.869	3.59
414.312	3.6
414.756	3.61
415.199	3.6
415.642	3.62
416.085	3.61
416.527	3.62
416.97	3.63
417.413	3.62
417.856	3.62
418.298	3.62
418.741	3.62
419.184	3.61
419.626	3.61
420.069	3.62
420.511	3.61
420.953	3.6
421.396	3.61
421.838	3.62
422.28	3.65
422.722	3.65
423.164	3.64
423.606	3.66
424.048	3.64
424.49	3.65
424.932	3.63
425.374	3.63
425.816	3.62
426.258	3.61
426.699	3.58
427.141	3.57
427.582	3.57
428.024	3.57
428.465	3.57
428.907	3.57
429.348	3.56
429.789	3.58
430.231	3.59
430.672	3.6
431.113	3.61
431.554	3.62
431.995	3.62
432.436	3.61
432.877	3.6
433.318	3.59
433.759	3.61
434.2	3.62
434.64	3.62
435.081	3.6
435.522	3.61
435.962	3.63
436.403	3.63
436.843	3.64
437.284	3.66
437.724	3.69
438.164	3.7
438.604	3.73
439.045	3.72
439.485	3.73
439.925	3.74
440.365	3.71
440.805	3.7
441.245	3.69
441.685	3.68
442.125	3.69
442.564	3.67
443.004	3.69
443.444	3.67
443.883	3.69
444.323	3.68
444.762	3.71
445.202	3.76
445.641	3.79
446.081	3.82
446.52	3.84
446.959	3.85
447.398	3.88
447.837	3.91
448.276	3.92
448.716	3.94
449.154	3.97
449.593	3.96
450.032	3.97
450.471	3.97
450.91	3.96
451.349	3.96
451.787	3.97
452.226	3.96
452.664	3.93
453.103	3.94
453.541	3.93
453.98	3.93
454.418	3.92
454.856	3.88
455.295	3.87
455.733	3.89
456.171	3.9
456.609	3.9
457.047	3.9
457.485	3.9
457.923	3.91
458.361	3.91
458.798	3.91
459.236	3.92
459.674	3.94
460.111	3.96
460.549	3.94
460.987	3.94
461.424	3.92
461.862	3.93
462.299	3.93
462.736	3.92
463.173	3.92
463.611	3.93
464.048	3.92
464.485	3.93
464.922	3.92
465.359	3.94
465.796	3.94
466.233	3.97
466.67	3.98
467.106	3.97
467.543	3.98
467.98	3.98
468.416	3.97
468.853	3.96
469.29	3.95
469.726	3.95
470.162	3.94
470.599	3.93
471.035	3.93
471.471	3.91
471.907	3.92
472.344	3.91
472.78	3.91
473.216	3.9
473.652	3.9
474.088	3.91
474.523	3.9
474.959	3.9
475.395	3.89
475.831	3.89
476.266	3.9
476.702	3.9
477.138	3.88
477.573	3.87
478.008	3.86
478.444	3.87
478.879	3.87
479.314	3.86
479.75	3.87
480.185	3.87
480.62	3.87
481.055	3.86
481.49	3.86
481.925	3.87
482.36	3.88
482.795	3.88
483.229	3.88
483.664	3.88
484.099	3.88
484.534	3.87
484.968	3.86
485.403	3.86
485.837	3.86
486.271	3.87
486.706	3.88
487.14	3.88
487.574	3.9
488.009	3.91
488.443	3.92
488.877	3.95
489.311	3.97
489.745	3.98
490.179	4
490.613	4.02
491.046	4.05
491.48	4.08
491.914	4.12
492.348	4.14
492.781	4.18
493.215	4.21
493.648	4.25
494.082	4.3
494.515	4.34
494.948	4.38
495.382	4.43
495.815	4.48
496.248	4.53
496.681	4.57
497.114	4.63
497.547	4.68
497.98	4.76
498.413	4.81
498.846	4.88
499.279	4.96
499.711	5.03
500.144	5.1
500.577	5.19
501.009	5.27
501.442	5.37
501.874	5.46
502.306	5.56
502.739	5.64
503.171	5.76
503.603	5.89
504.036	6.02
504.468	6.16
504.9	6.31
505.332	6.45
505.764	6.61
506.196	6.77
506.627	6.94
507.059	7.11
507.491	7.29
507.923	7.47
508.354	7.66
508.786	7.86
509.217	8.04
509.649	8.25
510.08	8.46
510.512	8.67
510.943	8.9
511.374	9.13
511.805	9.37
512.237	9.61
512.668	9.85
513.099	10.1
513.53	10.35
513.961	10.63
514.391	10.88
514.822	11.15
515.253	11.42
515.684	11.69
516.114	11.97
516.545	12.25
516.975	12.54
517.406	12.84
517.836	13.12
518.267	13.41
518.697	13.71
519.127	14.01
519.558	14.29
519.988	14.57
520.418	14.86
520.848	15.14
521.278	15.43
521.708	15.8
522.138	16.05
522.567	16.32
522.997	16.55
523.427	16.79
523.857	17
524.286	17.26
524.716	17.5
525.145	17.74
525.575	17.96
526.004	18.18
526.433	18.28
526.863	18.5
527.292	18.7
527.721	18.91
528.15	19.09
528.579	19.29
529.008	19.46
529.437	19.59
529.866	19.73
530.295	19.88
530.724	20.01
531.152	20.16
531.581	20.28
532.01	20.39
532.438	20.5
532.867	20.61
533.295	20.71
533.723	20.82
534.152	20.94
534.58	21.02
535.008	21.08
535.436	21.15
535.865	21.2
536.293	21.26
536.721	21.32
537.149	21.38
537.576	21.44
538.004	21.49
538.432	21.5
538.86	21.55
539.287	21.6
539.715	21.66
540.143	21.68
540.57	21.72
540.998	21.76
541.425	21.8
541.852	21.83
542.28	21.85
542.707	21.88
543.134	21.93
543.561	21.93
543.988	21.97
544.415	21.98
544.842	22.03
545.269	22.05
545.696	22.09
546.123	22.1
546.549	22.13
546.976	22.16
547.403	22.14
547.829	22.16
548.256	22.19
548.682	22.18
549.108	22.21
549.535	22.21
549.961	22.23
550.387	22.21
550.813	22.19
551.24	22.17
551.666	22.17
552.092	22.18
552.518	22.15
552.943	22.13
553.369	22.12
553.795	22.08
554.221	22.06
554.646	22.03
555.072	22
555.498	21.96
555.923	21.92
556.349	21.83
556.774	21.79
557.199	21.74
557.625	21.66
558.05	21.59
558.475	21.51
558.9	21.41
559.325	21.33
559.75	21.25
560.175	21.14
560.6	21.06
561.025	20.96
561.449	20.82
561.874	20.69
562.299	20.58
562.723	20.45
563.148	20.33
563.572	20.2
563.997	20.05
564.421	19.88
564.846	19.75
565.27	19.59
565.694	19.46
566.118	19.32
566.542	19.18
566.966	19.02
567.39	18.86
567.814	18.71
568.238	18.56
568.662	18.41
569.086	18.27
569.509	18.11
569.933	17.96
570.357	17.8
570.78	17.66
571.204	17.51
571.627	17.36
572.05	17.22
572.474	17.08
572.897	16.93
573.32	16.78
573.743	16.64
574.166	16.5
574.589	16.37
575.012	16.25
575.435	16.1
575.858	15.97
576.281	15.85
576.704	15.73
577.126	15.6
577.549	15.5
577.972	15.39
578.394	15.28
578.817	15.2
579.239	15.1
579.661	15
580.084	14.92
580.506	14.84
580.928	14.74
581.35	14.64
581.772	14.58
582.194	14.49
582.616	14.42
583.038	14.36
583.46	14.27
583.882	14.2
584.303	14.12
584.725	14.06
585.147	13.97
585.568	13.89
585.99	13.84
586.411	13.76
586.833	13.7
587.254	13.63
587.675	13.57
588.096	13.5
588.518	13.45
588.939	13.39
589.36	13.33
589.781	13.31
590.202	13.29
590.623	13.24
591.043	13.19
591.464	13.14
591.885	13.1
592.305	13.06
592.726	13.04
593.147	12.99
593.567	12.94
593.987	12.91
594.408	12.86
594.828	12.8
595.248	12.77
595.669	12.75
596.089	12.72
596.509	12.68
596.929	12.65
597.349	12.6
597.769	12.56
598.189	12.54
598.608	12.51
599.028	12.47
599.448	12.44
599.867	12.4
600.287	12.36
600.706	12.32
601.126	12.28
601.545	12.24
601.965	12.2
602.384	12.16
602.803	12.11
603.222	12.04
603.641	11.99
604.061	11.92
604.48	11.87
604.898	11.81
605.317	11.74
605.736	11.69
606.155	11.61
606.574	11.55
606.992	11.47
607.411	11.4
607.829	11.29
608.248	11.22
608.666	11.16
609.085	11.09
609.503	11.02
609.921	10.94
610.339	10.86
610.758	10.79
611.176	10.73
611.594	10.66
612.012	10.57
612.43	10.55
612.847	10.47
613.265	10.4
613.683	10.32
614.101	10.25
614.518	10.17
614.936	10.11
615.353	10.03
615.771	9.96
616.188	9.91
616.606	9.87
617.023	9.82
617.44	9.76
617.857	9.7
618.274	9.65
618.691	9.6
619.108	9.56
619.525	9.51
619.942	9.48
620.359	9.45
620.776	9.42
621.192	9.38
621.609	9.35
622.026	9.34
622.442	9.32
622.859	9.3
623.275	9.29
623.691	9.28
624.108	9.27
624.524	9.25
624.94	9.24
625.356	9.22
625.772	9.21
626.188	9.19
626.604	9.17
627.02	9.15
627.436	9.14
627.852	9.13
628.268	9.11
628.683	9.09
629.099	9.09
629.514	9.07
629.93	9.04
630.345	9.01
630.761	8.98
631.176	8.96
631.591	8.93
632.007	8.9
632.422	8.86
632.837	8.81
633.252	8.76
633.667	8.68
634.082	8.63
634.497	8.56
634.911	8.5
635.326	8.43
635.741	8.33
636.155	8.26
636.57	8.17
636.984	8.06
637.399	7.97
637.813	7.86
638.228	7.77
638.642	7.67
639.056	7.57
639.47	7.48
639.884	7.36
640.298	7.27
640.712	7.16
641.126	7.05
641.54	6.96
641.954	6.87
642.368	6.78
642.781	6.69
643.195	6.6
643.609	6.51
644.022	6.42
644.436	6.33
644.849	6.25
645.262	6.17
645.676	6.08
646.089	5.99
646.502	5.91
646.915	5.85
647.328	5.78
647.741	5.71
648.154	5.67
648.567	5.63
648.98	5.61
649.393	5.56
649.805	5.51
650.218	5.5
650.631	5.48
651.043	5.44
651.456	5.42
651.868	5.39
652.28	5.37
652.693	5.31
653.105	5.28
653.517	5.23
653.929	5.21
654.341	5.18
654.753	5.12
655.165	5.07
655.577	5.02
655.989	4.97
656.401	4.91
656.813	4.85
657.224	4.81
657.636	4.76
658.047	4.72
658.459	4.65
658.87	4.59
659.282	4.54
659.693	4.5
660.104	4.44
660.515	4.39
660.926	4.36
661.338	4.31
661.749	4.24
662.159	4.18
662.57	4.14
662.981	4.09
663.392	4.05
663.803	4.01
664.213	3.97
664.624	3.94
665.035	3.91
665.445	3.87
665.855	3.85
666.266	3.84
666.676	3.83
667.086	3.8
667.497	3.79
667.907	3.77
668.317	3.75
668.727	3.75
669.137	3.73
669.547	3.73
669.956	3.73
670.366	3.74
670.776	3.73
671.186	3.73
671.595	3.75
672.005	3.76
672.414	3.78
672.824	3.82
673.233	3.83
673.642	3.86
674.052	3.88
674.461	3.9
674.87	3.93
675.279	3.97
675.688	3.98
676.097	4.01
676.506	4.05
676.915	4.07
677.323	4.1
677.732	4.14
678.141	4.16
678.549	4.2
678.958	4.25
679.366	4.27
679.775	4.32
680.183	4.38
680.592	4.44
681	4.48
681.408	4.56
681.816	4.62
682.224	4.7
682.632	4.81
683.04	4.9
683.448	5
683.856	5.13
684.264	5.26
684.671	5.4
685.079	5.54
685.487	5.72
685.894	5.9
686.302	6.11
686.709	6.33
687.116	6.55
687.524	6.81
687.931	7.1
688.338	7.42
688.745	7.76
689.152	8.12
689.559	8.51
689.966	8.91
690.373	9.36
690.78	9.82
691.187	10.3
691.593	10.8
692	11.31
692.407	11.84
692.813	12.39
693.22	12.95
693.626	13.52
694.032	14.1
694.439	14.69
694.845	15.28
695.251	15.86
695.657	16.45
696.063	17.05
696.469	17.66
696.875	18.24
697.281	18.83
697.687	19.42
698.093	20
698.498	20.58
698.904	21.17
699.31	21.72
699.715	22.3
700.12	22.86
700.526	23.41
700.931	23.93
701.337	24.49
701.742	24.98
702.147	25.47
702.552	25.99
702.957	26.48
703.362	26.95
703.767	27.43
704.172	27.89
704.577	28.35
704.981	28.79
705.386	29.25
705.791	29.69
706.195	30.15
706.6	30.6
707.004	31.01
707.408	31.43
707.813	31.84
708.217	32.26
708.621	32.64
709.025	33.03
709.43	33.43
709.834	33.81
710.237	34.16
710.641	34.54
711.045	34.87
711.449	35.22
711.853	35.59
712.256	35.93
712.66	36.28
713.064	36.62
713.467	36.96
713.87	37.28
714.274	37.62
714.677	37.93
715.08	38.21
715.484	38.55
715.887	38.86
716.29	39.15
716.693	39.39
717.096	39.69
717.499	39.95
717.901	40.22
718.304	40.48
718.707	40.71
719.109	40.98
719.512	41.3
719.915	41.51
720.317	41.74
720.719	41.96
721.122	42.24
721.524	42.44
721.926	42.69
722.328	42.91
722.731	43.13
723.133	43.37
723.535	43.58
723.937	43.74
724.338	43.93
724.74	44.12
725.142	44.33
725.544	44.48
725.945	44.67
726.347	44.8
726.748	44.93
727.15	45.05
727.551	45.16
727.952	45.26
728.354	45.4
728.755	45.51
729.156	45.64
729.557	45.73
729.958	45.86
730.359	45.95
730.76	46.02
731.161	46.13
731.562	46.27
731.962	46.39
732.363	46.49
732.763	46.6
733.164	46.68
733.564	46.74
733.965	46.8
734.365	46.85
734.766	46.94
735.166	47.04
735.566	47.09
735.966	47.14
736.366	47.17
736.766	47.22
737.166	47.26
737.566	47.32
737.966	47.39
738.365	47.46
738.765	47.53
739.165	47.54
739.564	47.59
739.964	47.64
740.363	47.7
740.763	47.75
741.162	47.78
741.561	47.86
741.96	47.9
742.36	47.93
742.759	47.94
743.158	47.96
743.557	48.03
743.955	48.07
744.354	48.1
744.753	48.12
745.152	48.14
745.55	48.18
745.949	48.21
746.348	48.23
746.746	48.25
747.144	48.29
747.543	48.31
747.941	48.33
748.339	48.38
748.737	48.42
749.136	48.42
749.534	48.44
749.932	48.44
750.33	48.43
750.727	48.43
751.125	48.48
751.523	48.45
751.921	48.49
752.318	48.47
752.716	48.45
753.113	48.44
753.511	48.44
753.908	48.44
754.305	48.43
754.703	48.4
755.1	48.39
755.497	48.38
755.894	48.39
756.291	48.34
756.688	48.35
757.085	48.33
757.482	48.29
757.878	48.3
758.275	48.3
758.672	48.31
759.068	48.33
759.465	48.34
759.861	48.31
760.258	48.29
760.654	48.32
761.05	48.33
761.447	48.34
761.843	48.35
762.239	48.33
762.635	48.34
763.031	48.35
763.427	48.32
763.822	48.31
764.218	48.3
764.614	48.32
765.01	48.29
765.405	48.29
765.801	48.29
766.196	48.3
766.592	48.29
766.987	48.29
767.382	48.26
767.778	48.3
768.173	48.28
768.568	48.3
768.963	48.28
769.358	48.29
769.753	48.3
770.148	48.29
770.542	48.3
770.937	48.3
771.332	48.29
771.726	48.28
772.121	48.23
772.515	48.24
772.91	48.22
773.304	48.21
773.699	48.22
774.093	48.18
774.487	48.17
774.881	48.17
775.275	48.18
775.669	48.17
776.063	48.18
776.457	48.18
776.851	48.13
777.245	48.15
777.638	48.14
778.032	48.14
778.425	48.13
778.819	48.15
779.212	48.15
779.606	48.14
779.999	48.1
780.392	48.09
780.786	48.1
781.179	48.14
781.572	48.14
781.965	48.15
782.358	48.12
782.751	48.13
783.143	48.12
783.536	48.14
783.929	48.16
784.322	48.19
784.714	48.19
785.107	48.21
