Data from N_1_hir_il_4n_021_Splice17_01.txt Node
Date: Sat Feb 29 13:41:45 EST 2020
User: sa697716
Spectrometer: FLMS03696
Trigger mode: 0
Integration Time (sec): 3.180400E-1
Scans to average: 20
Electric dark correction enabled: true
Nonlinearity correction enabled: true
Boxcar width: 5
XAxis mode: Wavelengths
Number of Pixels in Spectrum: 2048
>>>>>Begin Spectral Data<<<<<
187.83	88.59
188.298	90.22
188.766	89.48
189.233	82.06
189.701	86.85
190.169	82.67
190.636	85.6
191.104	85.61
191.571	243.13
192.039	259.93
192.506	187.07
192.974	8889.68
193.441	-440.49
193.908	130.64
194.375	130.34
194.842	192.56
195.31	77.28
195.777	112.36
196.244	16.44
196.711	7.24
197.177	4.65
197.644	2.74
198.111	2.64
198.578	3.46
199.045	3.27
199.511	3.8
199.978	4.29
200.445	4.05
200.911	3.9
201.378	4.07
201.844	4.19
202.31	4.49
202.777	4.56
203.243	4.56
203.709	4.78
204.176	4.44
204.642	4.5
205.108	4.17
205.574	4.55
206.04	4.49
206.506	4.47
206.972	4.21
207.438	3.99
207.903	4.32
208.369	4.34
208.835	4.35
209.301	4.77
209.766	4.43
210.232	4.78
210.697	4.98
211.163	5.23
211.628	5.09
212.094	5.14
212.559	5.14
213.024	4.93
213.49	4.88
213.955	4.78
214.42	4.42
214.885	4.42
215.35	4.09
215.815	3.56
216.28	3.11
216.745	3.02
217.21	2.81
217.675	2.46
218.14	2.01
218.604	1.65
219.069	1.46
219.534	1.35
219.998	1.19
220.463	1.08
220.927	0.98
221.392	0.86
221.856	0.76
222.32	0.7
222.785	0.61
223.249	0.62
223.713	0.64
224.177	0.53
224.642	0.5
225.106	0.47
225.57	0.4
226.034	0.4
226.497	0.38
226.961	0.34
227.425	0.28
227.889	0.28
228.353	0.25
228.816	0.24
229.28	0.24
229.744	0.23
230.207	0.23
230.671	0.24
231.134	0.24
231.597	0.22
232.061	0.22
232.524	0.25
232.987	0.24
233.45	0.25
233.914	0.24
234.377	0.25
234.84	0.25
235.303	0.26
235.766	0.26
236.229	0.25
236.691	0.25
237.154	0.25
237.617	0.23
238.08	0.24
238.542	0.22
239.005	0.22
239.468	0.21
239.93	0.2
240.393	0.19
240.855	0.19
241.317	0.19
241.78	0.2
242.242	0.2
242.704	0.2
243.166	0.2
243.629	0.19
244.091	0.19
244.553	0.2
245.015	0.19
245.477	0.18
245.939	0.18
246.4	0.17
246.862	0.16
247.324	0.17
247.786	0.17
248.247	0.17
248.709	0.17
249.17	0.17
249.632	0.15
250.093	0.13
250.555	0.13
251.016	0.13
251.477	0.13
251.939	0.13
252.4	0.13
252.861	0.12
253.322	0.11
253.783	0.12
254.244	0.12
254.705	0.12
255.166	0.14
255.627	0.13
256.088	0.12
256.549	0.13
257.009	0.13
257.47	0.13
257.931	0.13
258.391	0.12
258.852	0.11
259.312	0.11
259.773	0.11
260.233	0.1
260.694	0.1
261.154	0.1
261.614	0.1
262.074	0.1
262.534	0.09
262.994	0.1
263.455	0.11
263.915	0.1
264.374	0.1
264.834	0.1
265.294	0.09
265.754	0.08
266.214	0.08
266.673	0.08
267.133	0.08
267.593	0.08
268.052	0.07
268.512	0.07
268.971	0.07
269.431	0.07
269.89	0.07
270.349	0.07
270.809	0.07
271.268	0.08
271.727	0.07
272.186	0.07
272.645	0.07
273.104	0.06
273.563	0.07
274.022	0.07
274.481	0.07
274.94	0.07
275.399	0.07
275.857	0.08
276.316	0.07
276.775	0.07
277.233	0.08
277.692	0.08
278.15	0.07
278.609	0.07
279.067	0.06
279.525	0.06
279.984	0.06
280.442	0.06
280.9	0.07
281.358	0.07
281.816	0.07
282.274	0.06
282.732	0.06
283.19	0.07
283.648	0.08
284.106	0.07
284.564	0.08
285.021	0.08
285.479	0.08
285.937	0.07
286.394	0.07
286.852	0.08
287.309	0.08
287.767	0.09
288.224	0.08
288.682	0.09
289.139	0.09
289.596	0.09
290.053	0.09
290.511	0.08
290.968	0.09
291.425	0.1
291.882	0.09
292.339	0.09
292.796	0.09
293.252	0.08
293.709	0.08
294.166	0.07
294.623	0.07
295.079	0.08
295.536	0.08
295.992	0.08
296.449	0.08
296.905	0.08
297.362	0.08
297.818	0.08
298.274	0.08
298.731	0.09
299.187	0.09
299.643	0.09
300.099	0.09
300.555	0.09
301.011	0.09
301.467	0.08
301.923	0.09
302.379	0.08
302.835	0.08
303.291	0.08
303.746	0.08
304.202	0.07
304.658	0.07
305.113	0.07
305.569	0.07
306.024	0.07
306.479	0.07
306.935	0.06
307.39	0.06
307.845	0.07
308.301	0.08
308.756	0.09
309.211	0.09
309.666	0.1
310.121	0.1
310.576	0.1
311.031	0.1
311.486	0.11
311.94	0.12
312.395	0.12
312.85	0.12
313.305	0.11
313.759	0.11
314.214	0.1
314.668	0.09
315.123	0.1
315.577	0.1
316.032	0.09
316.486	0.09
316.94	0.08
317.394	0.09
317.849	0.09
318.303	0.09
318.757	0.09
319.211	0.09
319.665	0.1
320.119	0.1
320.572	0.11
321.026	0.11
321.48	0.11
321.934	0.12
322.387	0.12
322.841	0.11
323.295	0.11
323.748	0.11
324.202	0.12
324.655	0.12
325.108	0.12
325.562	0.11
326.015	0.11
326.468	0.11
326.921	0.1
327.374	0.11
327.827	0.11
328.28	0.1
328.733	0.1
329.186	0.1
329.639	0.1
330.092	0.1
330.545	0.1
330.997	0.1
331.45	0.1
331.903	0.1
332.355	0.1
332.808	0.1
333.26	0.11
333.713	0.11
334.165	0.11
334.617	0.11
335.069	0.12
335.522	0.12
335.974	0.12
336.426	0.13
336.878	0.12
337.33	0.11
337.782	0.11
338.234	0.11
338.686	0.11
339.137	0.12
339.589	0.13
340.041	0.13
340.493	0.11
340.944	0.12
341.396	0.12
341.847	0.13
342.299	0.13
342.75	0.14
343.201	0.13
343.653	0.13
344.104	0.13
344.555	0.13
345.006	0.12
345.457	0.13
345.908	0.12
346.359	0.13
346.81	0.13
347.261	0.13
347.712	0.13
348.163	0.14
348.613	0.14
349.064	0.12
349.515	0.11
349.965	0.11
350.416	0.12
350.866	0.12
351.317	0.11
351.767	0.1
352.217	0.1
352.668	0.11
353.118	0.11
353.568	0.12
354.018	0.13
354.468	0.13
354.918	0.13
355.368	0.13
355.818	0.13
356.268	0.13
356.718	0.13
357.168	0.13
357.617	0.12
358.067	0.12
358.517	0.11
358.966	0.12
359.416	0.13
359.865	0.12
360.315	0.13
360.764	0.13
361.213	0.13
361.663	0.13
362.112	0.14
362.561	0.14
363.01	0.15
363.459	0.14
363.908	0.13
364.357	0.13
364.806	0.13
365.255	0.14
365.703	0.14
366.152	0.13
366.601	0.13
367.05	0.13
367.498	0.13
367.947	0.12
368.395	0.14
368.844	0.13
369.292	0.13
369.74	0.14
370.189	0.13
370.637	0.13
371.085	0.14
371.533	0.14
371.981	0.14
372.429	0.14
372.877	0.14
373.325	0.13
373.773	0.13
374.221	0.14
374.669	0.13
375.116	0.13
375.564	0.13
376.012	0.13
376.459	0.13
376.907	0.14
377.354	0.14
377.801	0.14
378.249	0.13
378.696	0.14
379.143	0.14
379.591	0.15
380.038	0.16
380.485	0.17
380.932	0.18
381.379	0.19
381.826	0.19
382.273	0.2
382.72	0.21
383.166	0.24
383.613	0.25
384.06	0.26
384.506	0.28
384.953	0.31
385.4	0.33
385.846	0.36
386.292	0.4
386.739	0.43
387.185	0.48
387.631	0.53
388.078	0.56
388.524	0.58
388.97	0.62
389.416	0.65
389.862	0.7
390.308	0.76
390.754	0.85
391.2	0.93
391.645	1.02
392.091	1.07
392.537	1.13
392.983	1.23
393.428	1.37
393.874	1.55
394.319	1.76
394.765	1.96
395.21	2.18
395.655	2.41
396.101	2.64
396.546	2.91
396.991	3.22
397.436	3.55
397.881	3.9
398.326	4.25
398.771	4.55
399.216	4.87
399.661	5.16
400.106	5.44
400.551	5.68
400.995	5.9
401.44	6.11
401.885	6.32
402.329	6.54
402.774	6.75
403.218	6.99
403.663	7.25
404.107	7.53
404.551	7.84
404.995	8.1
405.44	8.38
405.884	8.67
406.328	8.98
406.772	9.32
407.216	9.71
407.66	10.06
408.104	10.4
408.547	10.7
408.991	10.96
409.435	11.23
409.879	11.56
410.322	11.91
410.766	12.29
411.209	12.66
411.653	12.99
412.096	13.27
412.54	13.55
412.983	13.81
413.426	14.1
413.869	14.4
414.312	14.73
414.756	15.01
415.199	15.25
415.642	15.47
416.085	15.65
416.527	15.81
416.97	15.94
417.413	15.98
417.856	16
418.298	16.02
418.741	16.04
419.184	16.06
419.626	16.14
420.069	16.24
420.511	16.35
420.953	16.47
421.396	16.62
421.838	16.83
422.28	17.11
422.722	17.37
423.164	17.63
423.606	17.88
424.048	18.06
424.49	18.13
424.932	18.07
425.374	17.84
425.816	17.48
426.258	17.07
426.699	16.73
427.141	16.62
427.582	16.77
428.024	17.03
428.465	17.34
428.907	17.63
429.348	17.93
429.789	18.3
430.231	18.86
430.672	19.68
431.113	20.66
431.554	21.63
431.995	22.4
432.436	22.93
432.877	23.33
433.318	23.63
433.759	23.97
434.2	24.37
434.64	24.9
435.081	25.43
435.522	25.9
435.962	26.26
436.403	26.53
436.843	26.77
437.284	27.05
437.724	27.35
438.164	27.72
438.604	28.17
439.045	28.65
439.485	29.07
439.925	29.4
440.365	29.66
440.805	29.85
441.245	30.02
441.685	30.2
442.125	30.38
442.564	30.63
443.004	30.89
443.444	31.19
443.883	31.51
444.323	31.83
444.762	32.17
445.202	32.55
445.641	32.98
446.081	33.56
446.52	34.11
446.959	34.66
447.398	35.1
447.837	35.4
448.276	35.5
448.716	35.53
449.154	35.59
449.593	35.63
450.032	35.65
450.471	35.62
450.91	35.47
451.349	35.31
451.787	35.19
452.226	35.07
452.664	35.02
453.103	35.04
453.541	35.07
453.98	34.99
454.418	34.87
454.856	34.68
455.295	34.54
455.733	34.41
456.171	34.31
456.609	34.21
457.047	34.13
457.485	34.11
457.923	34.13
458.361	34.17
458.798	34.32
459.236	34.48
459.674	34.63
460.111	34.75
460.549	34.88
460.987	35.02
461.424	35.19
461.862	35.35
462.299	35.47
462.736	35.6
463.173	35.79
463.611	35.99
464.048	36.28
464.485	36.66
464.922	37.06
465.359	37.45
465.796	37.82
466.233	38.13
466.67	38.52
467.106	38.99
467.543	39.52
467.98	40.07
468.416	40.56
468.853	40.95
469.29	41.34
469.726	41.73
470.162	42.16
470.599	42.61
471.035	43.04
471.471	43.33
471.907	43.51
472.344	43.62
472.78	43.73
473.216	43.86
473.652	44.01
474.088	44.14
474.523	44.22
474.959	44.25
475.395	44.3
475.831	44.3
476.266	44.36
476.702	44.4
477.138	44.43
477.573	44.38
478.008	44.28
478.444	44.15
478.879	43.96
479.314	43.7
479.75	43.42
480.185	43.08
480.62	42.65
481.055	42.03
481.49	41.2
481.925	40.26
482.36	39.37
482.795	38.59
483.229	37.99
483.664	37.51
484.099	37.14
484.534	36.8
484.968	36.53
485.403	36.43
485.837	36.5
486.271	36.77
486.706	37.11
487.14	37.38
487.574	37.5
488.009	37.52
488.443	37.52
488.877	37.49
489.311	37.48
489.745	37.47
490.179	37.48
490.613	37.49
491.046	37.53
491.48	37.58
491.914	37.69
492.348	37.89
492.781	38.08
493.215	38.22
493.648	38.34
494.082	38.4
494.515	38.42
494.948	38.41
495.382	38.41
495.815	38.34
496.248	38.25
496.681	38.13
497.114	37.98
497.547	37.84
497.98	37.77
498.413	37.8
498.846	37.88
499.279	37.97
499.711	38.03
500.144	38.09
500.577	38.26
501.009	38.54
501.442	38.91
501.874	39.32
502.306	39.7
502.739	40.01
503.171	40.23
503.603	40.42
504.036	40.63
504.468	40.92
504.9	41.22
505.332	41.46
505.764	41.65
506.196	41.79
506.627	41.95
507.059	42.16
507.491	42.42
507.923	42.7
508.354	42.96
508.786	43.18
509.217	43.32
509.649	43.41
510.08	43.53
510.512	43.65
510.943	43.81
511.374	43.92
511.805	43.9
512.237	43.72
512.668	43.41
513.099	43.16
513.53	42.98
513.961	42.85
514.391	42.77
514.822	42.77
515.253	42.86
515.684	42.96
516.114	43.15
516.545	43.43
516.975	43.95
517.406	44.62
517.836	45.25
518.267	45.84
518.697	46.37
519.127	46.93
519.558	47.45
519.988	47.92
520.418	48.36
520.848	48.75
521.278	49.07
521.708	49.11
522.138	49.05
522.567	48.96
522.997	48.92
523.427	48.97
523.857	49.03
524.286	49.15
524.716	49.32
525.145	49.45
525.575	49.52
526.004	49.72
526.433	50.14
526.863	50.63
527.292	51.17
527.721	51.56
528.15	51.76
528.579	51.83
529.008	51.78
529.437	51.69
529.866	51.59
530.295	51.54
530.724	51.54
531.152	51.51
531.581	51.47
532.01	51.38
532.438	51.35
532.867	51.38
533.295	51.49
533.723	51.62
534.152	51.65
534.58	51.67
535.008	51.59
535.436	51.38
535.865	51.06
536.293	50.77
536.721	50.53
537.149	50.41
537.576	50.35
538.004	50.27
538.432	50.19
538.86	50.16
539.287	50.18
539.715	50.32
540.143	50.49
540.57	50.76
540.998	51.05
541.425	51.33
541.852	51.57
542.28	51.77
542.707	51.96
543.134	52.1
543.561	52.21
543.988	52.34
544.415	52.45
544.842	52.57
545.269	52.73
545.696	52.85
546.123	53.01
546.549	53.13
546.976	53.23
547.403	53.35
547.829	53.54
548.256	53.7
548.682	53.78
549.108	53.86
549.535	53.94
549.961	54.02
550.387	54.1
550.813	54.14
551.24	54.22
551.666	54.29
552.092	54.29
552.518	54.17
552.943	54.09
553.369	54.03
553.795	53.91
554.221	53.72
554.646	53.42
555.072	53.1
555.498	52.8
555.923	52.51
556.349	52.25
556.774	52.05
557.199	51.91
557.625	51.72
558.05	51.57
558.475	51.4
558.9	51.32
559.325	51.26
559.75	51.17
560.175	51.06
560.6	50.87
561.025	50.65
561.449	50.34
561.874	50.02
562.299	49.76
562.723	49.49
563.148	49.25
563.572	48.97
563.997	48.66
564.421	48.37
564.846	48.05
565.27	47.78
565.694	47.48
566.118	47.18
566.542	46.88
566.966	46.54
567.39	46.24
567.814	45.97
568.238	45.73
568.662	45.62
569.086	45.5
569.509	45.42
569.933	45.3
570.357	45.2
570.78	45.13
571.204	45.07
571.627	45.04
572.05	44.94
572.474	44.85
572.897	44.71
573.32	44.53
573.743	44.33
574.166	44.09
574.589	43.9
575.012	43.77
575.435	43.67
575.858	43.63
576.281	43.58
576.704	43.56
577.126	43.57
577.549	43.6
577.972	43.65
578.394	43.71
578.817	43.82
579.239	43.95
579.661	44.05
580.084	44.16
580.506	44.22
580.928	44.23
581.35	44.18
581.772	44.1
582.194	43.98
582.616	43.92
583.038	43.85
583.46	43.78
583.882	43.61
584.303	43.36
584.725	42.96
585.147	42.53
585.568	42.18
585.99	41.95
586.411	41.76
586.833	41.64
587.254	41.47
587.675	41.33
588.096	41.22
588.518	41.17
588.939	41.19
589.36	41.35
589.781	41.58
590.202	41.74
590.623	41.84
591.043	41.89
591.464	41.88
591.885	41.89
592.305	41.87
592.726	41.82
593.147	41.79
593.567	41.71
593.987	41.63
594.408	41.54
594.828	41.47
595.248	41.41
595.669	41.35
596.089	41.23
596.509	41.1
596.929	40.96
597.349	40.79
597.769	40.6
598.189	40.49
598.608	40.37
599.028	40.27
599.448	40.21
599.867	40.15
600.287	40.09
600.706	40.04
601.126	40
601.545	39.95
601.965	39.93
602.384	39.92
602.803	39.87
603.222	39.82
603.641	39.74
604.061	39.6
604.48	39.43
604.898	39.27
605.317	39.11
605.736	38.93
606.155	38.78
606.574	38.6
606.992	38.44
607.411	38.28
607.829	38.05
608.248	37.89
608.666	37.73
609.085	37.57
609.503	37.38
609.921	37.21
610.339	37.06
610.758	36.9
611.176	36.77
611.594	36.58
612.012	36.37
612.43	36.22
612.847	36.03
613.265	35.9
613.683	35.78
614.101	35.71
614.518	35.65
614.936	35.57
615.353	35.51
615.771	35.46
616.188	35.48
616.606	35.51
617.023	35.51
617.44	35.5
617.857	35.44
618.274	35.37
618.691	35.26
619.108	35.14
619.525	35.01
619.942	34.85
620.359	34.68
620.776	34.46
621.192	34.24
621.609	34.06
622.026	33.89
622.442	33.78
622.859	33.64
623.275	33.52
623.691	33.37
624.108	33.23
624.524	33.12
624.94	33.02
625.356	32.92
625.772	32.86
626.188	32.76
626.604	32.64
627.02	32.5
627.436	32.39
627.852	32.29
628.268	32.25
628.683	32.21
629.099	32.16
629.514	32.12
629.93	32.1
630.345	32.09
630.761	32.1
631.176	32.12
631.591	32.13
632.007	32.15
632.422	32.18
632.837	32.18
633.252	32.2
633.667	32.24
634.082	32.25
634.497	32.28
634.911	32.25
635.326	32.22
635.741	32.16
636.155	32.1
636.57	32.05
636.984	31.96
637.399	31.88
637.813	31.78
638.228	31.66
638.642	31.58
639.056	31.5
639.47	31.43
639.884	31.38
640.298	31.34
640.712	31.3
641.126	31.25
641.54	31.21
641.954	31.17
642.368	31.1
642.781	31.03
643.195	30.94
643.609	30.82
644.022	30.73
644.436	30.63
644.849	30.5
645.262	30.35
645.676	30.22
646.089	30.12
646.502	30.04
646.915	30.01
647.328	29.96
647.741	29.92
648.154	29.92
648.567	29.91
648.98	29.91
649.393	29.95
649.805	29.99
650.218	30.01
650.631	29.97
651.043	29.87
651.456	29.62
651.868	29.29
652.28	28.89
652.693	28.49
653.105	28.19
653.517	27.96
653.929	27.81
654.341	27.71
654.753	27.66
655.165	27.64
655.577	27.7
655.989	27.87
656.401	28.16
656.813	28.52
657.224	28.86
657.636	29.14
658.047	29.34
658.459	29.44
658.87	29.52
659.282	29.56
659.693	29.6
660.104	29.61
660.515	29.61
660.926	29.63
661.338	29.64
661.749	29.62
662.159	29.58
662.57	29.51
662.981	29.49
663.392	29.45
663.803	29.44
664.213	29.4
664.624	29.4
665.035	29.36
665.445	29.33
665.855	29.28
666.266	29.24
666.676	29.2
667.086	29.16
667.497	29.09
667.907	29.03
668.317	28.96
668.727	28.92
669.137	28.86
669.547	28.83
669.956	28.77
670.366	28.73
670.776	28.68
671.186	28.66
671.595	28.64
672.005	28.66
672.414	28.65
672.824	28.65
673.233	28.65
673.642	28.65
674.052	28.66
674.461	28.69
674.87	28.72
675.279	28.76
675.688	28.78
676.097	28.82
676.506	28.85
676.915	28.89
677.323	28.94
677.732	29
678.141	29.05
678.549	29.09
678.958	29.14
679.366	29.17
679.775	29.2
680.183	29.22
680.592	29.24
681	29.27
681.408	29.28
681.816	29.22
682.224	29.05
682.632	28.74
683.04	28.25
683.448	27.76
683.856	27.32
684.264	26.92
684.671	26.56
685.079	26.21
685.487	25.9
685.894	25.63
686.302	25.45
686.709	25.4
687.116	25.59
687.524	25.98
687.931	26.41
688.338	26.86
688.745	27.28
689.152	27.72
689.559	28.12
689.966	28.49
690.373	28.88
690.78	29.21
691.187	29.52
691.593	29.8
692	30.05
692.407	30.3
692.813	30.55
693.22	30.77
693.626	30.94
694.032	31.15
694.439	31.34
694.845	31.49
695.251	31.66
695.657	31.83
696.063	31.94
696.469	32.03
696.875	32.11
697.281	32.15
697.687	32.18
698.093	32.26
698.498	32.33
698.904	32.43
699.31	32.52
699.715	32.65
700.12	32.77
700.526	32.97
700.931	33.16
701.337	33.36
701.742	33.52
702.147	33.71
702.552	33.9
702.957	34.09
703.362	34.27
703.767	34.44
704.172	34.58
704.577	34.72
704.981	34.84
705.386	34.97
705.791	35.12
706.195	35.27
706.6	35.41
707.004	35.53
707.408	35.65
707.813	35.74
708.217	35.85
708.621	35.96
709.025	36.07
709.43	36.14
709.834	36.25
710.237	36.3
710.641	36.41
711.045	36.49
711.449	36.55
711.853	36.57
712.256	36.57
712.66	36.48
713.064	36.3
713.467	36.07
713.87	35.77
714.274	35.4
714.677	35.01
715.08	34.55
715.484	34.12
715.887	33.75
716.29	33.41
716.693	33.16
717.096	33.15
717.499	33.29
717.901	33.53
718.304	33.89
718.707	34.24
719.109	34.6
719.512	34.95
719.915	35.26
720.317	35.52
720.719	35.76
721.122	35.97
721.524	36.05
721.926	36.05
722.328	36.01
722.731	35.93
723.133	35.89
723.535	35.91
723.937	35.95
724.338	35.99
724.74	36.05
725.142	36.1
725.544	36.14
725.945	36.25
726.347	36.32
726.748	36.4
727.15	36.48
727.551	36.62
727.952	36.77
728.354	36.97
728.755	37.22
729.156	37.51
729.557	37.83
729.958	38.17
730.359	38.43
730.76	38.72
731.161	39.01
731.562	39.26
731.962	39.45
732.363	39.62
732.763	39.75
733.164	39.87
733.564	39.94
733.965	40
734.365	40
734.766	39.96
735.166	39.9
735.566	39.86
735.966	39.87
736.366	39.85
736.766	39.85
737.166	39.86
737.566	39.83
737.966	39.81
738.365	39.81
738.765	39.84
739.165	39.92
739.564	40.04
739.964	40.12
740.363	40.17
740.763	40.25
741.162	40.31
741.561	40.42
741.96	40.52
742.36	40.6
742.759	40.65
743.158	40.7
743.557	40.75
743.955	40.79
744.354	40.85
744.753	40.89
745.152	40.88
745.55	40.88
745.949	40.86
746.348	40.85
746.746	40.84
747.144	40.85
747.543	40.84
747.941	40.83
748.339	40.82
748.737	40.79
749.136	40.76
749.534	40.77
749.932	40.79
750.33	40.82
750.727	40.87
751.125	40.9
751.523	40.89
751.921	40.91
752.318	40.92
752.716	40.91
753.113	40.9
753.511	40.86
753.908	40.83
754.305	40.73
754.703	40.45
755.1	39.79
755.497	38.59
755.894	36.78
756.291	34.52
756.688	32.05
757.085	29.66
757.482	27.47
757.878	25.46
758.275	23.47
758.672	21.49
759.068	19.61
759.465	18.14
759.861	17.34
760.258	17.28
760.654	17.84
761.05	18.79
761.447	19.84
761.843	20.84
762.239	21.85
762.635	22.99
763.031	24.35
763.427	25.9
763.822	27.54
764.218	29.16
764.614	30.71
765.01	32.14
765.405	33.47
765.801	34.67
766.196	35.75
766.592	36.7
766.987	37.47
767.382	38.05
767.778	38.52
768.173	38.85
768.568	39.12
768.963	39.36
769.358	39.56
769.753	39.72
770.148	39.81
770.542	39.82
770.937	39.8
771.332	39.83
771.726	39.84
772.121	39.85
772.515	39.91
772.91	39.91
773.304	39.89
773.699	39.83
774.093	39.74
774.487	39.73
