Data from N_1_div_pa_2n_001_Splice17_11.txt Node
Date: Sat Feb 29 13:32:54 EST 2020
User: sa697716
Spectrometer: FLMS03696
Trigger mode: 0
Integration Time (sec): 3.180400E-1
Scans to average: 20
Electric dark correction enabled: true
Nonlinearity correction enabled: true
Boxcar width: 5
XAxis mode: Wavelengths
Number of Pixels in Spectrum: 2048
>>>>>Begin Spectral Data<<<<<
187.83	104.75
188.298	114.2
188.766	111.68
189.233	88.6
189.701	102.12
190.169	105.31
190.636	99.99
191.104	91.11
191.571	47.03
192.039	-21
192.506	507.74
192.974	7745.19
193.441	-729.35
193.908	179.99
194.375	77.77
194.842	174.94
195.31	104.79
195.777	99.09
196.244	38.15
196.711	20.29
197.177	14.68
197.644	15.68
198.111	15.67
198.578	16.26
199.045	16.25
199.511	17.44
199.978	17.89
200.445	18.02
200.911	18.03
201.378	17.82
201.844	18.26
202.31	19.26
202.777	19
203.243	20.06
203.709	20.13
204.176	20.1
204.642	19.92
205.108	20.02
205.574	20.29
206.04	20.27
206.506	20.38
206.972	20.21
207.438	19.69
207.903	20.13
208.369	19.39
208.835	19.35
209.301	19.66
209.766	19.47
210.232	19.34
210.697	19.42
211.163	19.41
211.628	19.12
212.094	19.07
212.559	19.35
213.024	18.95
213.49	18.86
213.955	18.58
214.42	18.04
214.885	17.76
215.35	17.26
215.815	16.64
216.28	16.22
216.745	15.87
217.21	15.21
217.675	14.58
218.14	14.03
218.604	13.57
219.069	13.22
219.534	12.89
219.998	12.54
220.463	12.37
220.927	12.12
221.392	11.96
221.856	11.73
222.32	11.54
222.785	11.4
223.249	11.27
223.713	11.11
224.177	10.96
224.642	10.85
225.106	10.74
225.57	10.6
226.034	10.48
226.497	10.32
226.961	10.17
227.425	10.03
227.889	9.89
228.353	9.75
228.816	9.62
229.28	9.5
229.744	9.37
230.207	9.28
230.671	9.16
231.134	9.04
231.597	8.95
232.061	8.86
232.524	8.79
232.987	8.69
233.45	8.61
233.914	8.54
234.377	8.47
234.84	8.39
235.303	8.31
235.766	8.22
236.229	8.16
236.691	8.06
237.154	7.99
237.617	7.9
238.08	7.84
238.542	7.76
239.005	7.68
239.468	7.57
239.93	7.5
240.393	7.42
240.855	7.35
241.317	7.27
241.78	7.22
242.242	7.16
242.704	7.12
243.166	7.05
243.629	7
244.091	6.94
244.553	6.9
245.015	6.87
245.477	6.82
245.939	6.76
246.4	6.71
246.862	6.66
247.324	6.62
247.786	6.57
248.247	6.52
248.709	6.46
249.17	6.42
249.632	6.37
250.093	6.31
250.555	6.26
251.016	6.23
251.477	6.17
251.939	6.13
252.4	6.08
252.861	6.05
253.322	6.01
253.783	5.99
254.244	5.95
254.705	5.91
255.166	5.9
255.627	5.87
256.088	5.83
256.549	5.8
257.009	5.76
257.47	5.73
257.931	5.68
258.391	5.63
258.852	5.59
259.312	5.56
259.773	5.52
260.233	5.48
260.694	5.46
261.154	5.43
261.614	5.4
262.074	5.38
262.534	5.35
262.994	5.33
263.455	5.3
263.915	5.28
264.374	5.26
264.834	5.23
265.294	5.2
265.754	5.17
266.214	5.14
266.673	5.12
267.133	5.1
267.593	5.09
268.052	5.06
268.512	5.05
268.971	5.03
269.431	5.02
269.89	5
270.349	4.98
270.809	4.97
271.268	4.96
271.727	4.94
272.186	4.91
272.645	4.9
273.104	4.87
273.563	4.86
274.022	4.83
274.481	4.81
274.94	4.79
275.399	4.77
275.857	4.75
276.316	4.73
276.775	4.71
277.233	4.69
277.692	4.67
278.15	4.66
278.609	4.64
279.067	4.61
279.525	4.59
279.984	4.58
280.442	4.57
280.9	4.55
281.358	4.53
281.816	4.52
282.274	4.5
282.732	4.49
283.19	4.47
283.648	4.47
284.106	4.46
284.564	4.44
285.021	4.43
285.479	4.41
285.937	4.39
286.394	4.36
286.852	4.36
287.309	4.35
287.767	4.33
288.224	4.32
288.682	4.3
289.139	4.28
289.596	4.27
290.053	4.25
290.511	4.23
290.968	4.21
291.425	4.21
291.882	4.18
292.339	4.17
292.796	4.14
293.252	4.13
293.709	4.11
294.166	4.09
294.623	4.08
295.079	4.07
295.536	4.07
295.992	4.06
296.449	4.05
296.905	4.03
297.362	4.02
297.818	4.01
298.274	4
298.731	3.99
299.187	3.97
299.643	3.96
300.099	3.94
300.555	3.92
301.011	3.91
301.467	3.9
301.923	3.89
302.379	3.88
302.835	3.87
303.291	3.85
303.746	3.85
304.202	3.84
304.658	3.83
305.113	3.82
305.569	3.81
306.024	3.8
306.479	3.79
306.935	3.78
307.39	3.77
307.845	3.76
308.301	3.76
308.756	3.76
309.211	3.76
309.666	3.75
310.121	3.74
310.576	3.72
311.031	3.71
311.486	3.7
311.94	3.7
312.395	3.7
312.85	3.69
313.305	3.68
313.759	3.66
314.214	3.66
314.668	3.66
315.123	3.66
315.577	3.65
316.032	3.65
316.486	3.65
316.94	3.64
317.394	3.62
317.849	3.61
318.303	3.6
318.757	3.59
319.211	3.58
319.665	3.56
320.119	3.55
320.572	3.55
321.026	3.54
321.48	3.53
321.934	3.53
322.387	3.53
322.841	3.52
323.295	3.51
323.748	3.51
324.202	3.51
324.655	3.5
325.108	3.49
325.562	3.47
326.015	3.46
326.468	3.45
326.921	3.44
327.374	3.43
327.827	3.43
328.28	3.42
328.733	3.41
329.186	3.4
329.639	3.4
330.092	3.4
330.545	3.4
330.997	3.4
331.45	3.41
331.903	3.4
332.355	3.4
332.808	3.39
333.26	3.38
333.713	3.38
334.165	3.38
334.617	3.38
335.069	3.37
335.522	3.36
335.974	3.36
336.426	3.34
336.878	3.34
337.33	3.34
337.782	3.34
338.234	3.34
338.686	3.33
339.137	3.32
339.589	3.31
340.041	3.3
340.493	3.29
340.944	3.27
341.396	3.27
341.847	3.27
342.299	3.26
342.75	3.24
343.201	3.23
343.653	3.22
344.104	3.21
344.555	3.21
345.006	3.19
345.457	3.19
345.908	3.19
346.359	3.2
346.81	3.19
347.261	3.18
347.712	3.17
348.163	3.16
348.613	3.15
349.064	3.13
349.515	3.12
349.965	3.11
350.416	3.11
350.866	3.1
351.317	3.08
351.767	3.07
352.217	3.06
352.668	3.06
353.118	3.07
353.568	3.08
354.018	3.09
354.468	3.09
354.918	3.1
355.368	3.1
355.818	3.09
356.268	3.09
356.718	3.09
357.168	3.08
357.617	3.08
358.067	3.07
358.517	3.05
358.966	3.05
359.416	3.05
359.865	3.04
360.315	3.03
360.764	3.03
361.213	3.03
361.663	3.01
362.112	3.02
362.561	3.01
363.01	3.01
363.459	3
363.908	3
364.357	3
364.806	2.99
365.255	3
365.703	2.99
366.152	2.99
366.601	3
367.05	3
367.498	3
367.947	3
368.395	3.01
368.844	3
369.292	3
369.74	3.01
370.189	3
370.637	3
371.085	3
371.533	3
371.981	3
372.429	2.99
372.877	2.99
373.325	2.98
373.773	2.98
374.221	2.98
374.669	2.97
375.116	2.97
375.564	2.97
376.012	2.97
376.459	2.98
376.907	2.99
377.354	2.98
377.801	3
378.249	3.01
378.696	3.02
379.143	3.02
379.591	3.03
380.038	3.05
380.485	3.06
380.932	3.07
381.379	3.07
381.826	3.08
382.273	3.08
382.72	3.09
383.166	3.09
383.613	3.09
384.06	3.1
384.506	3.11
384.953	3.12
385.4	3.13
385.846	3.14
386.292	3.14
386.739	3.14
387.185	3.16
387.631	3.17
388.078	3.18
388.524	3.18
388.97	3.2
389.416	3.21
389.862	3.22
390.308	3.23
390.754	3.24
391.2	3.27
391.645	3.3
392.091	3.32
392.537	3.33
392.983	3.35
393.428	3.37
393.874	3.39
394.319	3.41
394.765	3.43
395.21	3.43
395.655	3.45
396.101	3.46
396.546	3.46
396.991	3.47
397.436	3.47
397.881	3.48
398.326	3.49
398.771	3.51
399.216	3.53
399.661	3.53
400.106	3.56
400.551	3.56
400.995	3.56
401.44	3.56
401.885	3.57
402.329	3.58
402.774	3.58
403.218	3.59
403.663	3.57
404.107	3.57
404.551	3.58
404.995	3.56
405.44	3.56
405.884	3.57
406.328	3.56
406.772	3.57
407.216	3.58
407.66	3.6
408.104	3.58
408.547	3.59
408.991	3.58
409.435	3.59
409.879	3.61
410.322	3.63
410.766	3.65
411.209	3.66
411.653	3.65
412.096	3.64
412.54	3.64
412.983	3.65
413.426	3.68
413.869	3.69
414.312	3.69
414.756	3.69
415.199	3.69
415.642	3.7
416.085	3.71
416.527	3.72
416.97	3.74
417.413	3.73
417.856	3.72
418.298	3.71
418.741	3.71
419.184	3.71
419.626	3.69
420.069	3.69
420.511	3.68
420.953	3.68
421.396	3.68
421.838	3.69
422.28	3.72
422.722	3.74
423.164	3.75
423.606	3.77
424.048	3.75
424.49	3.77
424.932	3.76
425.374	3.76
425.816	3.76
426.258	3.77
426.699	3.75
427.141	3.72
427.582	3.72
428.024	3.71
428.465	3.7
428.907	3.71
429.348	3.71
429.789	3.71
430.231	3.72
430.672	3.72
431.113	3.72
431.554	3.72
431.995	3.75
432.436	3.77
432.877	3.78
433.318	3.79
433.759	3.79
434.2	3.8
434.64	3.8
435.081	3.79
435.522	3.81
435.962	3.82
436.403	3.84
436.843	3.82
437.284	3.81
437.724	3.82
438.164	3.82
438.604	3.83
439.045	3.84
439.485	3.85
439.925	3.85
440.365	3.85
440.805	3.85
441.245	3.83
441.685	3.83
442.125	3.85
442.564	3.84
443.004	3.85
443.444	3.86
443.883	3.86
444.323	3.86
444.762	3.89
445.202	3.92
445.641	3.94
446.081	3.97
446.52	3.97
446.959	3.97
447.398	4.02
447.837	4.05
448.276	4.06
448.716	4.09
449.154	4.12
449.593	4.11
450.032	4.12
450.471	4.13
450.91	4.13
451.349	4.16
451.787	4.17
452.226	4.15
452.664	4.15
453.103	4.14
453.541	4.13
453.98	4.13
454.418	4.13
454.856	4.12
455.295	4.1
455.733	4.1
456.171	4.08
456.609	4.08
457.047	4.07
457.485	4.08
457.923	4.08
458.361	4.06
458.798	4.08
459.236	4.07
459.674	4.06
460.111	4.06
460.549	4.05
460.987	4.06
461.424	4.06
461.862	4.05
462.299	4.05
462.736	4.06
463.173	4.08
463.611	4.08
464.048	4.11
464.485	4.12
464.922	4.13
465.359	4.16
465.796	4.17
466.233	4.17
466.67	4.2
467.106	4.19
467.543	4.19
467.98	4.19
468.416	4.16
468.853	4.13
469.29	4.13
469.726	4.12
470.162	4.1
470.599	4.09
471.035	4.08
471.471	4.05
471.907	4.05
472.344	4.04
472.78	4.04
473.216	4.05
473.652	4.06
474.088	4.08
474.523	4.07
474.959	4.08
475.395	4.06
475.831	4.07
476.266	4.09
476.702	4.09
477.138	4.08
477.573	4.07
478.008	4.06
478.444	4.06
478.879	4.05
479.314	4.04
479.75	4.04
480.185	4.03
480.62	4.02
481.055	4
481.49	3.99
481.925	3.99
482.36	3.99
482.795	3.99
483.229	3.99
483.664	3.99
484.099	3.99
484.534	3.98
484.968	3.98
485.403	3.98
485.837	4
486.271	4.01
486.706	4.01
487.14	4.03
487.574	4.04
488.009	4.05
488.443	4.05
488.877	4.06
489.311	4.09
489.745	4.11
490.179	4.14
490.613	4.17
491.046	4.2
491.48	4.23
491.914	4.26
492.348	4.29
492.781	4.32
493.215	4.36
493.648	4.4
494.082	4.45
494.515	4.48
494.948	4.52
495.382	4.56
495.815	4.61
496.248	4.66
496.681	4.72
497.114	4.77
497.547	4.83
497.98	4.91
498.413	4.99
498.846	5.05
499.279	5.14
499.711	5.22
500.144	5.3
500.577	5.39
501.009	5.49
501.442	5.59
501.874	5.7
502.306	5.8
502.739	5.91
503.171	6.02
503.603	6.16
504.036	6.29
504.468	6.44
504.9	6.59
505.332	6.73
505.764	6.89
506.196	7.06
506.627	7.23
507.059	7.41
507.491	7.6
507.923	7.8
508.354	8
508.786	8.21
509.217	8.4
509.649	8.61
510.08	8.84
510.512	9.05
510.943	9.3
511.374	9.54
511.805	9.79
512.237	10.03
512.668	10.27
513.099	10.53
513.53	10.79
513.961	11.07
514.391	11.34
514.822	11.63
515.253	11.92
515.684	12.18
516.114	12.46
516.545	12.76
516.975	13.05
517.406	13.36
517.836	13.65
518.267	13.94
518.697	14.25
519.127	14.55
519.558	14.84
519.988	15.14
520.418	15.41
520.848	15.7
521.278	15.99
521.708	16.39
522.138	16.64
522.567	16.91
522.997	17.18
523.427	17.43
523.857	17.67
524.286	17.91
524.716	18.14
525.145	18.4
525.575	18.63
526.004	18.84
526.433	18.94
526.863	19.18
527.292	19.39
527.721	19.58
528.15	19.76
528.579	19.98
529.008	20.14
529.437	20.3
529.866	20.44
530.295	20.58
530.724	20.73
531.152	20.87
531.581	21
532.01	21.12
532.438	21.25
532.867	21.36
533.295	21.45
533.723	21.58
534.152	21.68
534.58	21.77
535.008	21.85
535.436	21.91
535.865	21.98
536.293	22.05
536.721	22.1
537.149	22.16
537.576	22.22
538.004	22.26
538.432	22.3
538.86	22.34
539.287	22.39
539.715	22.44
540.143	22.48
540.57	22.51
540.998	22.54
541.425	22.58
541.852	22.6
542.28	22.6
542.707	22.65
543.134	22.68
543.561	22.71
543.988	22.74
544.415	22.76
544.842	22.81
545.269	22.84
545.696	22.85
546.123	22.88
546.549	22.91
546.976	22.96
547.403	22.96
547.829	22.97
548.256	23.01
548.682	23.01
549.108	23.03
549.535	23.03
549.961	23
550.387	23.01
550.813	22.99
551.24	22.98
551.666	22.98
552.092	22.98
552.518	22.95
552.943	22.94
553.369	22.92
553.795	22.89
554.221	22.86
554.646	22.85
555.072	22.83
555.498	22.8
555.923	22.73
556.349	22.65
556.774	22.59
557.199	22.53
557.625	22.44
558.05	22.34
558.475	22.24
558.9	22.17
559.325	22.07
559.75	21.94
560.175	21.83
560.6	21.73
561.025	21.64
561.449	21.52
561.874	21.39
562.299	21.28
562.723	21.17
563.148	21.04
563.572	20.91
563.997	20.76
564.421	20.63
564.846	20.49
565.27	20.33
565.694	20.16
566.118	20.01
566.542	19.88
566.966	19.72
567.39	19.56
567.814	19.38
568.238	19.21
568.662	19.04
569.086	18.87
569.509	18.72
569.933	18.56
570.357	18.4
570.78	18.24
571.204	18.07
571.627	17.92
572.05	17.78
572.474	17.64
572.897	17.49
573.32	17.34
573.743	17.2
574.166	17.05
574.589	16.91
575.012	16.79
575.435	16.66
575.858	16.54
576.281	16.4
576.704	16.28
577.126	16.17
577.549	16.05
577.972	15.96
578.394	15.84
578.817	15.75
579.239	15.65
579.661	15.56
580.084	15.47
580.506	15.37
580.928	15.29
581.35	15.19
581.772	15.13
582.194	15.05
582.616	14.97
583.038	14.89
583.46	14.82
583.882	14.74
584.303	14.66
584.725	14.58
585.147	14.5
585.568	14.43
585.99	14.36
586.411	14.29
586.833	14.23
587.254	14.17
587.675	14.13
588.096	14.06
588.518	14.01
588.939	13.94
589.36	13.88
589.781	13.82
590.202	13.78
590.623	13.73
591.043	13.67
591.464	13.62
591.885	13.56
592.305	13.52
592.726	13.48
593.147	13.45
593.567	13.4
593.987	13.38
594.408	13.34
594.828	13.31
595.248	13.28
595.669	13.26
596.089	13.22
596.509	13.18
596.929	13.14
597.349	13.1
597.769	13.07
598.189	13.04
598.608	13
599.028	12.96
599.448	12.94
599.867	12.89
600.287	12.84
600.706	12.8
601.126	12.77
601.545	12.71
601.965	12.67
602.384	12.61
602.803	12.55
603.222	12.49
603.641	12.44
604.061	12.37
604.48	12.31
604.898	12.23
605.317	12.17
605.736	12.11
606.155	12.05
606.574	11.99
606.992	11.92
607.411	11.86
607.829	11.75
608.248	11.68
608.666	11.6
609.085	11.52
609.503	11.45
609.921	11.38
610.339	11.31
610.758	11.23
611.176	11.14
611.594	11.07
612.012	10.98
612.43	10.97
612.847	10.89
613.265	10.84
613.683	10.76
614.101	10.7
614.518	10.62
614.936	10.54
615.353	10.46
615.771	10.39
616.188	10.33
616.606	10.27
617.023	10.2
617.44	10.14
617.857	10.07
618.274	10.02
618.691	9.98
619.108	9.93
619.525	9.89
619.942	9.86
620.359	9.84
620.776	9.81
621.192	9.77
621.609	9.75
622.026	9.73
622.442	9.71
622.859	9.69
623.275	9.66
623.691	9.63
624.108	9.62
624.524	9.59
624.94	9.57
625.356	9.55
625.772	9.55
626.188	9.54
626.604	9.53
627.02	9.52
627.436	9.52
627.852	9.52
628.268	9.51
628.683	9.5
629.099	9.5
629.514	9.48
629.93	9.47
630.345	9.43
630.761	9.4
631.176	9.37
631.591	9.34
632.007	9.29
632.422	9.25
632.837	9.2
633.252	9.14
633.667	9.07
634.082	9.01
634.497	8.95
634.911	8.89
635.326	8.8
635.741	8.71
636.155	8.62
636.57	8.52
636.984	8.43
637.399	8.32
637.813	8.21
638.228	8.11
638.642	8.01
639.056	7.89
639.47	7.78
639.884	7.67
640.298	7.56
640.712	7.46
641.126	7.35
641.54	7.24
641.954	7.15
642.368	7.05
642.781	6.95
643.195	6.86
643.609	6.76
644.022	6.66
644.436	6.57
644.849	6.49
645.262	6.41
645.676	6.31
646.089	6.24
646.502	6.16
646.915	6.1
647.328	6.03
647.741	5.96
648.154	5.92
648.567	5.89
648.98	5.85
649.393	5.8
649.805	5.76
650.218	5.75
650.631	5.72
651.043	5.68
651.456	5.65
651.868	5.61
652.28	5.59
652.693	5.54
653.105	5.5
653.517	5.47
653.929	5.44
654.341	5.4
654.753	5.34
655.165	5.3
655.577	5.26
655.989	5.19
656.401	5.14
656.813	5.09
657.224	5.03
657.636	4.98
658.047	4.92
658.459	4.85
658.87	4.79
659.282	4.75
659.693	4.68
660.104	4.63
660.515	4.59
660.926	4.54
661.338	4.48
661.749	4.44
662.159	4.39
662.57	4.34
662.981	4.3
663.392	4.24
663.803	4.2
664.213	4.17
664.624	4.13
665.035	4.08
665.445	4.06
665.855	4.04
666.266	4.02
666.676	4
667.086	3.98
667.497	3.96
667.907	3.95
668.317	3.93
668.727	3.93
669.137	3.92
669.547	3.93
669.956	3.91
670.366	3.91
670.776	3.91
671.186	3.9
671.595	3.91
672.005	3.93
672.414	3.95
672.824	3.96
673.233	3.98
673.642	3.99
674.052	4.01
674.461	4.04
674.87	4.06
675.279	4.09
675.688	4.11
676.097	4.14
676.506	4.17
676.915	4.2
677.323	4.23
677.732	4.27
678.141	4.31
678.549	4.34
678.958	4.38
679.366	4.42
679.775	4.47
680.183	4.53
680.592	4.58
681	4.64
681.408	4.71
681.816	4.77
682.224	4.85
682.632	4.94
683.04	5.03
683.448	5.14
683.856	5.26
684.264	5.38
684.671	5.51
685.079	5.67
685.487	5.85
685.894	6.04
686.302	6.26
686.709	6.48
687.116	6.74
687.524	7.02
687.931	7.32
688.338	7.66
688.745	8.02
689.152	8.4
689.559	8.81
689.966	9.24
690.373	9.69
690.78	10.16
691.187	10.66
691.593	11.16
692	11.69
692.407	12.24
692.813	12.8
693.22	13.36
693.626	13.96
694.032	14.56
694.439	15.16
694.845	15.77
695.251	16.4
695.657	17.02
696.063	17.63
696.469	18.26
696.875	18.86
697.281	19.46
697.687	20.09
698.093	20.7
698.498	21.3
698.904	21.88
699.31	22.45
699.715	23.02
700.12	23.59
700.526	24.16
700.931	24.68
701.337	25.24
701.742	25.79
702.147	26.31
702.552	26.81
702.957	27.3
703.362	27.82
703.767	28.32
704.172	28.82
704.577	29.32
704.981	29.8
705.386	30.28
705.791	30.74
706.195	31.19
706.6	31.63
707.004	32.07
707.408	32.52
707.813	32.95
708.217	33.36
708.621	33.75
709.025	34.16
709.43	34.55
709.834	34.99
710.237	35.36
710.641	35.76
711.045	36.12
711.449	36.48
711.853	36.87
712.256	37.21
712.66	37.57
713.064	37.93
713.467	38.27
713.87	38.61
714.274	38.94
714.677	39.25
715.08	39.54
715.484	39.86
715.887	40.18
716.29	40.49
716.693	40.79
717.096	41.08
717.499	41.37
717.901	41.64
718.304	41.89
718.707	42.12
719.109	42.43
719.512	42.71
719.915	42.97
720.317	43.23
720.719	43.46
721.122	43.7
721.524	43.94
721.926	44.17
722.328	44.41
722.731	44.62
723.133	44.83
723.535	45.04
723.937	45.23
724.338	45.38
724.74	45.56
725.142	45.8
725.544	45.96
725.945	46.11
726.347	46.26
726.748	46.38
727.15	46.52
727.551	46.68
727.952	46.78
728.354	46.92
728.755	47.09
729.156	47.21
729.557	47.3
729.958	47.44
730.359	47.57
730.76	47.66
731.161	47.8
731.562	47.92
731.962	47.98
732.363	48.07
732.763	48.2
733.164	48.25
733.564	48.35
733.965	48.37
734.365	48.44
734.766	48.51
735.166	48.58
735.566	48.63
735.966	48.68
736.366	48.75
736.766	48.81
737.166	48.86
737.566	48.92
737.966	48.97
738.365	49.05
738.765	49.08
739.165	49.11
739.564	49.16
739.964	49.22
740.363	49.29
740.763	49.34
741.162	49.4
741.561	49.43
741.96	49.51
742.36	49.56
742.759	49.56
743.158	49.61
743.557	49.66
743.955	49.73
744.354	49.75
744.753	49.76
745.152	49.78
745.55	49.8
745.949	49.82
746.348	49.82
746.746	49.84
747.144	49.9
747.543	49.93
747.941	49.98
748.339	49.99
748.737	50.03
749.136	50.04
749.534	50.08
749.932	50.07
750.33	50.08
750.727	50.08
751.125	50.06
751.523	50.06
751.921	50.07
752.318	50.06
752.716	50.02
753.113	49.98
753.511	50
753.908	49.99
754.305	50.01
754.703	49.98
755.1	50
755.497	50.04
755.894	50.02
756.291	49.98
756.688	49.97
757.085	49.99
757.482	50.03
757.878	50.01
758.275	50.02
758.672	50.03
759.068	50.06
759.465	50.08
759.861	50.04
760.258	50.03
760.654	50.05
761.05	50.05
761.447	50.05
761.843	50.03
762.239	50.03
762.635	50.02
763.031	50.02
763.427	50
763.822	49.95
764.218	49.93
764.614	49.91
765.01	49.9
765.405	49.9
765.801	49.9
766.196	49.93
766.592	49.94
766.987	49.93
767.382	49.91
767.778	49.92
768.173	49.93
768.568	49.9
768.963	49.91
769.358	49.94
769.753	49.95
770.148	49.95
770.542	49.91
770.937	49.88
771.332	49.89
771.726	49.89
772.121	49.84
772.515	49.83
772.91	49.89
773.304	49.91
773.699	49.9
774.093	49.85
774.487	49.86
774.881	49.87
775.275	49.91
775.669	49.88
776.063	49.86
776.457	49.85
776.851	49.85
777.245	49.84
777.638	49.84
778.032	49.8
778.425	49.82
778.819	49.81
779.212	49.79
779.606	49.78
779.999	49.77
780.392	49.79
780.786	49.82
781.179	49.84
781.572	49.81
781.965	49.8
782.358	49.79
782.751	49.76
783.143	49.76
783.536	49.79
783.929	49.82
784.322	49.86
784.714	49.87
785.107	49.85
