Data from N_1_dec_on_6n_017_Splice17_20.txt Node
Date: Sat Feb 29 13:40:43 EST 2020
User: sa697716
Spectrometer: FLMS03696
Trigger mode: 0
Integration Time (sec): 3.180400E-1
Scans to average: 20
Electric dark correction enabled: true
Nonlinearity correction enabled: true
Boxcar width: 5
XAxis mode: Wavelengths
Number of Pixels in Spectrum: 2048
>>>>>Begin Spectral Data<<<<<
187.83	99.19
188.298	87.9
188.766	68.3
189.233	60.98
189.701	64.21
190.169	74.76
190.636	65.2
191.104	42.28
191.571	-172.31
192.039	19.04
192.506	251.75
192.974	6666.32
193.441	-216.55
193.908	59.51
194.375	16.95
194.842	-37.2
195.31	22.14
195.777	13.56
196.244	11.84
196.711	19.61
197.177	20.1
197.644	21.28
198.111	21.51
198.578	21.23
199.045	21.79
199.511	22.56
199.978	23.31
200.445	23.6
200.911	23.76
201.378	23.91
201.844	24.55
202.31	25.2
202.777	25.27
203.243	26.17
203.709	26.43
204.176	26.32
204.642	26.08
205.108	26.18
205.574	26.29
206.04	26.17
206.506	26.31
206.972	25.89
207.438	25.42
207.903	25.47
208.369	24.98
208.835	25.01
209.301	24.73
209.766	24.44
210.232	24.33
210.697	24.14
211.163	24.14
211.628	23.77
212.094	23.55
212.559	23.52
213.024	22.97
213.49	22.57
213.955	22.49
214.42	22.04
214.885	21.74
215.35	20.96
215.815	20.23
216.28	19.42
216.745	18.61
217.21	17.87
217.675	17.05
218.14	16.49
218.604	15.74
219.069	15.11
219.534	14.72
219.998	14.21
220.463	13.92
220.927	13.59
221.392	13.28
221.856	13.05
222.32	12.79
222.785	12.61
223.249	12.42
223.713	12.26
224.177	12.1
224.642	11.92
225.106	11.79
225.57	11.61
226.034	11.51
226.497	11.38
226.961	11.23
227.425	11.1
227.889	10.96
228.353	10.83
228.816	10.73
229.28	10.61
229.744	10.51
230.207	10.42
230.671	10.32
231.134	10.2
231.597	10.1
232.061	10.02
232.524	9.94
232.987	9.84
233.45	9.75
233.914	9.66
234.377	9.59
234.84	9.51
235.303	9.42
235.766	9.34
236.229	9.26
236.691	9.18
237.154	9.1
237.617	9.02
238.08	8.96
238.542	8.87
239.005	8.8
239.468	8.71
239.93	8.63
240.393	8.56
240.855	8.5
241.317	8.43
241.78	8.36
242.242	8.28
242.704	8.2
243.166	8.14
243.629	8.08
244.091	8.02
244.553	7.97
245.015	7.91
245.477	7.86
245.939	7.81
246.4	7.76
246.862	7.71
247.324	7.68
247.786	7.65
248.247	7.59
248.709	7.55
249.17	7.5
249.632	7.45
250.093	7.4
250.555	7.35
251.016	7.3
251.477	7.25
251.939	7.22
252.4	7.18
252.861	7.14
253.322	7.11
253.783	7.09
254.244	7.05
254.705	7.02
255.166	7
255.627	6.97
256.088	6.93
256.549	6.92
257.009	6.88
257.47	6.85
257.931	6.8
258.391	6.77
258.852	6.72
259.312	6.69
259.773	6.65
260.233	6.62
260.694	6.58
261.154	6.54
261.614	6.5
262.074	6.46
262.534	6.42
262.994	6.39
263.455	6.35
263.915	6.33
264.374	6.3
264.834	6.27
265.294	6.23
265.754	6.21
266.214	6.19
266.673	6.17
267.133	6.15
267.593	6.13
268.052	6.1
268.512	6.08
268.971	6.05
269.431	6.04
269.89	6.02
270.349	6
270.809	5.99
271.268	5.97
271.727	5.95
272.186	5.93
272.645	5.92
273.104	5.9
273.563	5.89
274.022	5.87
274.481	5.85
274.94	5.82
275.399	5.8
275.857	5.78
276.316	5.75
276.775	5.73
277.233	5.7
277.692	5.67
278.15	5.65
278.609	5.63
279.067	5.61
279.525	5.58
279.984	5.58
280.442	5.56
280.9	5.55
281.358	5.54
281.816	5.53
282.274	5.52
282.732	5.52
283.19	5.51
283.648	5.5
284.106	5.49
284.564	5.5
285.021	5.5
285.479	5.5
285.937	5.49
286.394	5.48
286.852	5.47
287.309	5.47
287.767	5.47
288.224	5.46
288.682	5.46
289.139	5.45
289.596	5.43
290.053	5.4
290.511	5.38
290.968	5.37
291.425	5.36
291.882	5.34
292.339	5.33
292.796	5.3
293.252	5.29
293.709	5.27
294.166	5.26
294.623	5.24
295.079	5.24
295.536	5.23
295.992	5.21
296.449	5.2
296.905	5.18
297.362	5.16
297.818	5.15
298.274	5.14
298.731	5.13
299.187	5.12
299.643	5.11
300.099	5.1
300.555	5.08
301.011	5.07
301.467	5.06
301.923	5.06
302.379	5.04
302.835	5.03
303.291	5.02
303.746	5.01
304.202	5
304.658	4.99
305.113	4.98
305.569	4.97
306.024	4.96
306.479	4.95
306.935	4.93
307.39	4.93
307.845	4.92
308.301	4.92
308.756	4.92
309.211	4.92
309.666	4.93
310.121	4.94
310.576	4.94
311.031	4.94
311.486	4.94
311.94	4.94
312.395	4.95
312.85	4.95
313.305	4.96
313.759	4.96
314.214	4.95
314.668	4.94
315.123	4.93
315.577	4.93
316.032	4.93
316.486	4.92
316.94	4.92
317.394	4.91
317.849	4.91
318.303	4.89
318.757	4.87
319.211	4.87
319.665	4.86
320.119	4.85
320.572	4.84
321.026	4.84
321.48	4.84
321.934	4.83
322.387	4.81
322.841	4.79
323.295	4.78
323.748	4.77
324.202	4.77
324.655	4.75
325.108	4.74
325.562	4.72
326.015	4.7
326.468	4.68
326.921	4.66
327.374	4.66
327.827	4.65
328.28	4.65
328.733	4.64
329.186	4.63
329.639	4.62
330.092	4.62
330.545	4.62
330.997	4.61
331.45	4.61
331.903	4.61
332.355	4.61
332.808	4.61
333.26	4.6
333.713	4.61
334.165	4.61
334.617	4.62
335.069	4.63
335.522	4.63
335.974	4.63
336.426	4.64
336.878	4.64
337.33	4.64
337.782	4.64
338.234	4.64
338.686	4.63
339.137	4.63
339.589	4.62
340.041	4.61
340.493	4.6
340.944	4.6
341.396	4.6
341.847	4.59
342.299	4.58
342.75	4.56
343.201	4.55
343.653	4.54
344.104	4.53
344.555	4.52
345.006	4.51
345.457	4.5
345.908	4.49
346.359	4.47
346.81	4.47
347.261	4.46
347.712	4.46
348.163	4.45
348.613	4.45
349.064	4.43
349.515	4.43
349.965	4.42
350.416	4.42
350.866	4.42
351.317	4.42
351.767	4.41
352.217	4.41
352.668	4.42
353.118	4.43
353.568	4.43
354.018	4.45
354.468	4.45
354.918	4.46
355.368	4.47
355.818	4.47
356.268	4.47
356.718	4.49
357.168	4.49
357.617	4.5
358.067	4.49
358.517	4.49
358.966	4.5
359.416	4.52
359.865	4.52
360.315	4.54
360.764	4.56
361.213	4.58
361.663	4.6
362.112	4.63
362.561	4.65
363.01	4.67
363.459	4.69
363.908	4.72
364.357	4.74
364.806	4.76
365.255	4.79
365.703	4.81
366.152	4.83
366.601	4.84
367.05	4.85
367.498	4.86
367.947	4.88
368.395	4.91
368.844	4.92
369.292	4.93
369.74	4.95
370.189	4.95
370.637	4.95
371.085	4.97
371.533	4.99
371.981	5.02
372.429	5.03
372.877	5.04
373.325	5.04
373.773	5.05
374.221	5.06
374.669	5.08
375.116	5.1
375.564	5.12
376.012	5.14
376.459	5.14
376.907	5.16
377.354	5.18
377.801	5.21
378.249	5.23
378.696	5.27
379.143	5.29
379.591	5.3
380.038	5.32
380.485	5.35
380.932	5.35
381.379	5.37
381.826	5.38
382.273	5.39
382.72	5.39
383.166	5.41
383.613	5.41
384.06	5.41
384.506	5.43
384.953	5.43
385.4	5.43
385.846	5.43
386.292	5.45
386.739	5.44
387.185	5.45
387.631	5.45
388.078	5.46
388.524	5.44
388.97	5.44
389.416	5.43
389.862	5.43
390.308	5.42
390.754	5.44
391.2	5.44
391.645	5.44
392.091	5.45
392.537	5.44
392.983	5.43
393.428	5.45
393.874	5.46
394.319	5.46
394.765	5.46
395.21	5.45
395.655	5.43
396.101	5.43
396.546	5.44
396.991	5.44
397.436	5.42
397.881	5.42
398.326	5.42
398.771	5.43
399.216	5.43
399.661	5.43
400.106	5.45
400.551	5.45
400.995	5.42
401.44	5.39
401.885	5.37
402.329	5.39
402.774	5.37
403.218	5.35
403.663	5.31
404.107	5.3
404.551	5.29
404.995	5.28
405.44	5.26
405.884	5.26
406.328	5.26
406.772	5.26
407.216	5.26
407.66	5.26
408.104	5.25
408.547	5.25
408.991	5.23
409.435	5.22
409.879	5.2
410.322	5.2
410.766	5.2
411.209	5.2
411.653	5.19
412.096	5.17
412.54	5.16
412.983	5.16
413.426	5.16
413.869	5.17
414.312	5.19
414.756	5.21
415.199	5.2
415.642	5.22
416.085	5.23
416.527	5.25
416.97	5.25
417.413	5.25
417.856	5.23
418.298	5.22
418.741	5.21
419.184	5.19
419.626	5.18
420.069	5.17
420.511	5.16
420.953	5.14
421.396	5.11
421.838	5.13
422.28	5.14
422.722	5.15
423.164	5.15
423.606	5.15
424.048	5.14
424.49	5.15
424.932	5.14
425.374	5.13
425.816	5.12
426.258	5.11
426.699	5.09
427.141	5.07
427.582	5.05
428.024	5.05
428.465	5.05
428.907	5.06
429.348	5.05
429.789	5.07
430.231	5.07
430.672	5.08
431.113	5.09
431.554	5.11
431.995	5.12
432.436	5.12
432.877	5.12
433.318	5.12
433.759	5.13
434.2	5.14
434.64	5.13
435.081	5.12
435.522	5.15
435.962	5.16
436.403	5.15
436.843	5.16
437.284	5.19
437.724	5.22
438.164	5.23
438.604	5.23
439.045	5.24
439.485	5.23
439.925	5.23
440.365	5.22
440.805	5.21
441.245	5.22
441.685	5.22
442.125	5.22
442.564	5.22
443.004	5.23
443.444	5.26
443.883	5.26
444.323	5.28
444.762	5.32
445.202	5.36
445.641	5.38
446.081	5.42
446.52	5.43
446.959	5.44
447.398	5.49
447.837	5.52
448.276	5.54
448.716	5.56
449.154	5.59
449.593	5.6
450.032	5.59
450.471	5.61
450.91	5.59
451.349	5.61
451.787	5.61
452.226	5.57
452.664	5.56
453.103	5.53
453.541	5.53
453.98	5.52
454.418	5.5
454.856	5.48
455.295	5.47
455.733	5.48
456.171	5.47
456.609	5.47
457.047	5.47
457.485	5.48
457.923	5.48
458.361	5.48
458.798	5.48
459.236	5.48
459.674	5.49
460.111	5.5
460.549	5.5
460.987	5.5
461.424	5.49
461.862	5.49
462.299	5.49
462.736	5.49
463.173	5.49
463.611	5.5
464.048	5.5
464.485	5.51
464.922	5.49
465.359	5.51
465.796	5.5
466.233	5.5
466.67	5.51
467.106	5.5
467.543	5.51
467.98	5.5
468.416	5.49
468.853	5.47
469.29	5.48
469.726	5.48
470.162	5.48
470.599	5.49
471.035	5.49
471.471	5.48
471.907	5.48
472.344	5.48
472.78	5.48
473.216	5.48
473.652	5.48
474.088	5.48
474.523	5.47
474.959	5.45
475.395	5.43
475.831	5.42
476.266	5.43
476.702	5.42
477.138	5.4
477.573	5.37
478.008	5.36
478.444	5.35
478.879	5.34
479.314	5.34
479.75	5.35
480.185	5.34
480.62	5.34
481.055	5.34
481.49	5.34
481.925	5.35
482.36	5.35
482.795	5.34
483.229	5.36
483.664	5.36
484.099	5.35
484.534	5.33
484.968	5.33
485.403	5.32
485.837	5.32
486.271	5.31
486.706	5.3
487.14	5.31
487.574	5.32
488.009	5.33
488.443	5.34
488.877	5.35
489.311	5.37
489.745	5.38
490.179	5.4
490.613	5.42
491.046	5.45
491.48	5.48
491.914	5.5
492.348	5.51
492.781	5.54
493.215	5.55
493.648	5.57
494.082	5.61
494.515	5.65
494.948	5.68
495.382	5.72
495.815	5.74
496.248	5.78
496.681	5.82
497.114	5.86
497.547	5.9
497.98	5.96
498.413	6.01
498.846	6.05
499.279	6.11
499.711	6.16
500.144	6.21
500.577	6.27
501.009	6.33
501.442	6.41
501.874	6.49
502.306	6.58
502.739	6.66
503.171	6.74
503.603	6.84
504.036	6.94
504.468	7.06
504.9	7.18
505.332	7.3
505.764	7.43
506.196	7.56
506.627	7.69
507.059	7.82
507.491	7.97
507.923	8.13
508.354	8.28
508.786	8.44
509.217	8.6
509.649	8.79
510.08	8.97
510.512	9.17
510.943	9.36
511.374	9.56
511.805	9.77
512.237	9.99
512.668	10.21
513.099	10.45
513.53	10.69
513.961	10.92
514.391	11.16
514.822	11.39
515.253	11.64
515.684	11.88
516.114	12.13
516.545	12.39
516.975	12.66
517.406	12.92
517.836	13.18
518.267	13.46
518.697	13.74
519.127	14.01
519.558	14.29
519.988	14.56
520.418	14.84
520.848	15.09
521.278	15.36
521.708	15.49
522.138	15.73
522.567	15.98
522.997	16.22
523.427	16.44
523.857	16.68
524.286	16.91
524.716	17.14
525.145	17.36
525.575	17.58
526.004	17.79
526.433	18.12
526.863	18.32
527.292	18.51
527.721	18.7
528.15	18.87
528.579	19.04
529.008	19.21
529.437	19.36
529.866	19.51
530.295	19.66
530.724	19.8
531.152	19.91
531.581	20.05
532.01	20.17
532.438	20.27
532.867	20.4
533.295	20.5
533.723	20.6
534.152	20.68
534.58	20.78
535.008	20.84
535.436	20.92
535.865	20.99
536.293	21.07
536.721	21.12
537.149	21.17
537.576	21.22
538.004	21.27
538.432	21.31
538.86	21.35
539.287	21.39
539.715	21.43
540.143	21.44
540.57	21.49
540.998	21.51
541.425	21.53
541.852	21.58
542.28	21.58
542.707	21.61
543.134	21.63
543.561	21.63
543.988	21.65
544.415	21.7
544.842	21.73
545.269	21.77
545.696	21.78
546.123	21.81
546.549	21.83
546.976	21.87
547.403	21.88
547.829	21.91
548.256	21.95
548.682	21.97
549.108	21.96
549.535	21.98
549.961	21.95
550.387	21.96
550.813	21.95
551.24	21.93
551.666	21.93
552.092	21.93
552.518	21.91
552.943	21.9
553.369	21.86
553.795	21.85
554.221	21.82
554.646	21.8
555.072	21.75
555.498	21.71
555.923	21.66
556.349	21.58
556.774	21.51
557.199	21.44
557.625	21.37
558.05	21.3
558.475	21.2
558.9	21.09
559.325	20.99
559.75	20.89
560.175	20.8
560.6	20.7
561.025	20.6
561.449	20.48
561.874	20.36
562.299	20.25
562.723	20.12
563.148	19.98
563.572	19.86
563.997	19.73
564.421	19.57
564.846	19.41
565.27	19.25
565.694	19.09
566.118	18.94
566.542	18.77
566.966	18.6
567.39	18.43
567.814	18.27
568.238	18.1
568.662	17.92
569.086	17.76
569.509	17.61
569.933	17.44
570.357	17.28
570.78	17.13
571.204	16.96
571.627	16.8
572.05	16.66
572.474	16.53
572.897	16.38
573.32	16.25
573.743	16.13
574.166	15.99
574.589	15.86
575.012	15.75
575.435	15.61
575.858	15.5
576.281	15.4
576.704	15.3
577.126	15.18
577.549	15.09
577.972	14.99
578.394	14.87
578.817	14.77
579.239	14.69
579.661	14.6
580.084	14.53
580.506	14.45
580.928	14.36
581.35	14.27
581.772	14.19
582.194	14.11
582.616	14.04
583.038	13.97
583.46	13.91
583.882	13.84
584.303	13.76
584.725	13.68
585.147	13.59
585.568	13.52
585.99	13.47
586.411	13.4
586.833	13.33
587.254	13.28
587.675	13.23
588.096	13.19
588.518	13.14
588.939	13.09
589.36	13.05
589.781	13
590.202	12.95
590.623	12.9
591.043	12.85
591.464	12.8
591.885	12.74
592.305	12.7
592.726	12.64
593.147	12.6
593.567	12.56
593.987	12.53
594.408	12.5
594.828	12.46
595.248	12.43
595.669	12.41
596.089	12.38
596.509	12.34
596.929	12.3
597.349	12.26
597.769	12.23
598.189	12.21
598.608	12.17
599.028	12.13
599.448	12.11
599.867	12.08
600.287	12.03
600.706	12.01
601.126	11.98
601.545	11.95
601.965	11.91
602.384	11.87
602.803	11.82
603.222	11.77
603.641	11.72
604.061	11.67
604.48	11.61
604.898	11.55
605.317	11.5
605.736	11.45
606.155	11.38
606.574	11.32
606.992	11.25
607.411	11.19
607.829	11.09
608.248	11.03
608.666	10.97
609.085	10.91
609.503	10.85
609.921	10.77
610.339	10.71
610.758	10.66
611.176	10.6
611.594	10.55
612.012	10.49
612.43	10.48
612.847	10.42
613.265	10.35
613.683	10.29
614.101	10.24
614.518	10.19
614.936	10.13
615.353	10.07
615.771	10.02
616.188	9.98
616.606	9.93
617.023	9.87
617.44	9.83
617.857	9.78
618.274	9.74
618.691	9.71
619.108	9.66
619.525	9.61
619.942	9.59
620.359	9.54
620.776	9.51
621.192	9.49
621.609	9.48
622.026	9.46
622.442	9.44
622.859	9.43
623.275	9.42
623.691	9.41
624.108	9.41
624.524	9.38
624.94	9.38
625.356	9.38
625.772	9.36
626.188	9.35
626.604	9.33
627.02	9.33
627.436	9.32
627.852	9.3
628.268	9.29
628.683	9.28
629.099	9.26
629.514	9.24
629.93	9.21
630.345	9.17
630.761	9.13
631.176	9.11
631.591	9.07
632.007	9.04
632.422	9
632.837	8.95
633.252	8.91
633.667	8.85
634.082	8.81
634.497	8.75
634.911	8.69
635.326	8.64
635.741	8.56
636.155	8.48
636.57	8.4
636.984	8.32
637.399	8.22
637.813	8.12
638.228	8.04
638.642	7.93
639.056	7.84
639.47	7.75
639.884	7.65
640.298	7.55
640.712	7.46
641.126	7.37
641.54	7.29
641.954	7.22
642.368	7.15
642.781	7.06
643.195	6.97
643.609	6.9
644.022	6.82
644.436	6.77
644.849	6.7
645.262	6.65
645.676	6.6
646.089	6.54
646.502	6.49
646.915	6.43
647.328	6.39
647.741	6.34
648.154	6.31
648.567	6.28
648.98	6.25
649.393	6.22
649.805	6.18
650.218	6.16
650.631	6.15
651.043	6.13
651.456	6.12
651.868	6.09
652.28	6.1
652.693	6.08
653.105	6.05
653.517	6.03
653.929	6.01
654.341	6
654.753	5.96
655.165	5.94
655.577	5.91
655.989	5.88
656.401	5.86
656.813	5.82
657.224	5.8
657.636	5.77
658.047	5.75
658.459	5.72
658.87	5.68
659.282	5.67
659.693	5.63
660.104	5.6
660.515	5.57
660.926	5.54
661.338	5.51
661.749	5.48
662.159	5.46
662.57	5.43
662.981	5.4
663.392	5.39
663.803	5.36
664.213	5.34
664.624	5.34
665.035	5.32
665.445	5.32
665.855	5.31
666.266	5.29
666.676	5.28
667.086	5.28
667.497	5.28
667.907	5.28
668.317	5.27
668.727	5.28
669.137	5.28
669.547	5.29
669.956	5.3
670.366	5.32
670.776	5.34
671.186	5.36
671.595	5.39
672.005	5.42
672.414	5.46
672.824	5.5
673.233	5.54
673.642	5.56
674.052	5.59
674.461	5.63
674.87	5.67
675.279	5.71
675.688	5.74
676.097	5.78
676.506	5.82
676.915	5.86
677.323	5.9
677.732	5.95
678.141	6
678.549	6.05
678.958	6.11
679.366	6.16
679.775	6.21
680.183	6.27
680.592	6.34
681	6.4
681.408	6.45
681.816	6.52
682.224	6.59
682.632	6.66
683.04	6.73
683.448	6.8
683.856	6.89
684.264	6.99
684.671	7.1
685.079	7.22
685.487	7.35
685.894	7.49
686.302	7.66
686.709	7.82
687.116	8.02
687.524	8.25
687.931	8.5
688.338	8.77
688.745	9.07
689.152	9.38
689.559	9.72
689.966	10.07
690.373	10.48
690.78	10.89
691.187	11.32
691.593	11.77
692	12.25
692.407	12.74
692.813	13.25
693.22	13.78
693.626	14.33
694.032	14.89
694.439	15.5
694.845	16.07
695.251	16.69
695.657	17.31
696.063	17.94
696.469	18.55
696.875	19.16
697.281	19.77
697.687	20.42
698.093	21.05
698.498	21.67
698.904	22.3
699.31	22.93
699.715	23.56
700.12	24.17
700.526	24.8
700.931	25.42
701.337	26.04
701.742	26.64
702.147	27.23
702.552	27.85
702.957	28.46
703.362	29.03
703.767	29.59
704.172	30.15
704.577	30.71
704.981	31.26
705.386	31.82
705.791	32.36
706.195	32.92
706.6	33.44
707.004	33.97
707.408	34.47
707.813	34.98
708.217	35.5
708.621	36.01
709.025	36.51
709.43	36.99
709.834	37.48
710.237	37.95
710.641	38.42
711.045	38.89
711.449	39.33
711.853	39.78
712.256	40.2
712.66	40.65
713.064	41.07
713.467	41.52
713.87	41.98
714.274	42.42
714.677	42.82
715.08	43.21
715.484	43.63
715.887	44.05
716.29	44.43
716.693	44.82
717.096	45.22
717.499	45.6
717.901	45.95
718.304	46.29
718.707	46.6
719.109	46.98
719.512	47.36
719.915	47.68
720.317	48.02
720.719	48.35
721.122	48.67
721.524	48.97
721.926	49.27
722.328	49.59
722.731	49.87
723.133	50.17
723.535	50.45
723.937	50.73
724.338	50.97
724.74	51.23
725.142	51.5
725.544	51.76
725.945	52.01
726.347	52.24
726.748	52.41
727.15	52.64
727.551	52.83
727.952	53.03
728.354	53.23
728.755	53.45
729.156	53.63
729.557	53.8
729.958	53.98
730.359	54.12
730.76	54.26
731.161	54.44
731.562	54.6
731.962	54.75
732.363	54.88
732.763	55.02
733.164	55.1
733.564	55.23
733.965	55.32
734.365	55.38
734.766	55.49
735.166	55.57
735.566	55.66
735.966	55.69
736.366	55.77
736.766	55.84
737.166	55.93
737.566	56.05
737.966	56.13
738.365	56.24
738.765	56.33
739.165	56.38
739.564	56.47
739.964	56.54
740.363	56.66
740.763	56.71
741.162	56.72
741.561	56.76
741.96	56.82
742.36	56.84
742.759	56.84
743.158	56.87
743.557	56.92
743.955	57
744.354	57.05
744.753	57.11
745.152	57.17
745.55	57.27
745.949	57.31
746.348	57.34
746.746	57.38
747.144	57.48
747.543	57.53
747.941	57.61
748.339	57.65
748.737	57.71
749.136	57.73
749.534	57.76
749.932	57.77
750.33	57.79
750.727	57.79
751.125	57.82
751.523	57.8
751.921	57.82
752.318	57.82
752.716	57.81
753.113	57.79
753.511	57.74
753.908	57.73
754.305	57.73
754.703	57.72
755.1	57.71
755.497	57.7
755.894	57.71
756.291	57.72
756.688	57.7
757.085	57.71
757.482	57.73
757.878	57.8
758.275	57.82
758.672	57.85
759.068	57.86
759.465	57.9
759.861	57.92
760.258	57.92
760.654	57.91
761.05	57.92
761.447	57.89
761.843	57.85
762.239	57.84
762.635	57.82
763.031	57.81
763.427	57.79
763.822	57.76
764.218	57.74
764.614	57.72
765.01	57.68
765.405	57.64
765.801	57.64
766.196	57.6
766.592	57.56
766.987	57.54
767.382	57.5
767.778	57.51
768.173	57.51
768.568	57.53
768.963	57.5
769.358	57.5
769.753	57.52
770.148	57.52
770.542	57.52
770.937	57.5
771.332	57.49
771.726	57.46
772.121	57.41
772.515	57.37
772.91	57.34
773.304	57.34
773.699	57.31
774.093	57.28
774.487	57.29
774.881	57.29
775.275	57.31
775.669	57.31
776.063	57.32
776.457	57.31
776.851	57.28
777.245	57.28
777.638	57.26
778.032	57.28
778.425	57.27
778.819	57.25
779.212	57.21
779.606	57.18
779.999	57.15
780.392	57.17
780.786	57.17
781.179	57.23
781.572	57.22
781.965	57.24
782.358	57.23
782.751	57.26
783.143	57.27
783.536	57.35
783.929	57.4
