Data from N_2_dec_ct_2n_073_Splice17_15.txt Node
Date: Sat Feb 29 14:08:37 EST 2020
User: sa697716
Spectrometer: FLMS03696
Trigger mode: 0
Integration Time (sec): 3.180400E-1
Scans to average: 20
Electric dark correction enabled: true
Nonlinearity correction enabled: true
Boxcar width: 5
XAxis mode: Wavelengths
Number of Pixels in Spectrum: 2048
>>>>>Begin Spectral Data<<<<<
187.83	105.71
188.298	105.31
188.766	111.13
189.233	92.28
189.701	107.38
190.169	104.09
190.636	97.51
191.104	85.34
191.571	154.05
192.039	-19.46
192.506	568.59
192.974	8039.4
193.441	-214.44
193.908	114.91
194.375	18.27
194.842	144.04
195.31	111.9
195.777	86.04
196.244	45.08
196.711	41.68
197.177	39.78
197.644	40.73
198.111	40.02
198.578	39.63
199.045	41.07
199.511	42.2
199.978	42.59
200.445	42.65
200.911	42.75
201.378	42.7
201.844	43.29
202.31	44.1
202.777	43.91
203.243	44.46
203.709	45.48
204.176	44.91
204.642	44.56
205.108	44.29
205.574	44.47
206.04	44.31
206.506	44.07
206.972	44
207.438	43.53
207.903	43.99
208.369	43.82
208.835	43.79
209.301	43.97
209.766	44.11
210.232	44.14
210.697	43.89
211.163	43.49
211.628	43.14
212.094	42.68
212.559	42.32
213.024	41.76
213.49	41.29
213.955	40.89
214.42	40.14
214.885	39.32
215.35	38.85
215.815	38.09
216.28	37.51
216.745	36.8
217.21	35.81
217.675	34.79
218.14	33.86
218.604	32.85
219.069	32.07
219.534	31.55
219.998	31.01
220.463	30.45
220.927	29.95
221.392	29.54
221.856	29.17
222.32	28.84
222.785	28.57
223.249	28.25
223.713	28.05
224.177	27.81
224.642	27.52
225.106	27.24
225.57	26.99
226.034	26.77
226.497	26.51
226.961	26.22
227.425	25.97
227.889	25.7
228.353	25.45
228.816	25.19
229.28	24.91
229.744	24.67
230.207	24.43
230.671	24.17
231.134	23.89
231.597	23.63
232.061	23.42
232.524	23.19
232.987	22.94
233.45	22.68
233.914	22.47
234.377	22.25
234.84	22.02
235.303	21.79
235.766	21.57
236.229	21.38
236.691	21.2
237.154	20.98
237.617	20.77
238.08	20.6
238.542	20.42
239.005	20.22
239.468	20.02
239.93	19.86
240.393	19.67
240.855	19.48
241.317	19.32
241.78	19.16
242.242	18.99
242.704	18.84
243.166	18.69
243.629	18.54
244.091	18.4
244.553	18.27
245.015	18.12
245.477	17.99
245.939	17.88
246.4	17.74
246.862	17.6
247.324	17.5
247.786	17.38
248.247	17.25
248.709	17.14
249.17	17.02
249.632	16.91
250.093	16.8
250.555	16.7
251.016	16.59
251.477	16.49
251.939	16.4
252.4	16.31
252.861	16.24
253.322	16.16
253.783	16.09
254.244	16.03
254.705	15.96
255.166	15.9
255.627	15.84
256.088	15.77
256.549	15.71
257.009	15.64
257.47	15.58
257.931	15.52
258.391	15.45
258.852	15.38
259.312	15.31
259.773	15.25
260.233	15.19
260.694	15.14
261.154	15.08
261.614	15.03
262.074	14.98
262.534	14.91
262.994	14.85
263.455	14.79
263.915	14.75
264.374	14.7
264.834	14.66
265.294	14.61
265.754	14.57
266.214	14.53
266.673	14.48
267.133	14.44
267.593	14.42
268.052	14.39
268.512	14.36
268.971	14.33
269.431	14.31
269.89	14.28
270.349	14.25
270.809	14.22
271.268	14.2
271.727	14.17
272.186	14.15
272.645	14.11
273.104	14.08
273.563	14.05
274.022	14.02
274.481	13.98
274.94	13.95
275.399	13.91
275.857	13.88
276.316	13.85
276.775	13.81
277.233	13.76
277.692	13.72
278.15	13.69
278.609	13.65
279.067	13.62
279.525	13.59
279.984	13.56
280.442	13.53
280.9	13.49
281.358	13.45
281.816	13.43
282.274	13.4
282.732	13.38
283.19	13.35
283.648	13.32
284.106	13.3
284.564	13.27
285.021	13.25
285.479	13.23
285.937	13.21
286.394	13.19
286.852	13.16
287.309	13.16
287.767	13.14
288.224	13.12
288.682	13.1
289.139	13.07
289.596	13.03
290.053	13
290.511	12.96
290.968	12.93
291.425	12.9
291.882	12.88
292.339	12.83
292.796	12.8
293.252	12.77
293.709	12.74
294.166	12.71
294.623	12.69
295.079	12.67
295.536	12.64
295.992	12.62
296.449	12.6
296.905	12.57
297.362	12.56
297.818	12.55
298.274	12.53
298.731	12.5
299.187	12.48
299.643	12.46
300.099	12.45
300.555	12.43
301.011	12.41
301.467	12.38
301.923	12.36
302.379	12.35
302.835	12.33
303.291	12.31
303.746	12.29
304.202	12.28
304.658	12.26
305.113	12.24
305.569	12.24
306.024	12.22
306.479	12.21
306.935	12.2
307.39	12.19
307.845	12.17
308.301	12.16
308.756	12.16
309.211	12.14
309.666	12.14
310.121	12.13
310.576	12.1
311.031	12.11
311.486	12.1
311.94	12.08
312.395	12.08
312.85	12.06
313.305	12.06
313.759	12.04
314.214	12.04
314.668	12.03
315.123	12.02
315.577	12.02
316.032	12
316.486	11.98
316.94	11.98
317.394	11.95
317.849	11.94
318.303	11.93
318.757	11.9
319.211	11.87
319.665	11.85
320.119	11.82
320.572	11.79
321.026	11.76
321.48	11.74
321.934	11.72
322.387	11.69
322.841	11.67
323.295	11.64
323.748	11.62
324.202	11.59
324.655	11.57
325.108	11.54
325.562	11.51
326.015	11.49
326.468	11.46
326.921	11.43
327.374	11.4
327.827	11.38
328.28	11.34
328.733	11.32
329.186	11.31
329.639	11.3
330.092	11.28
330.545	11.27
330.997	11.26
331.45	11.24
331.903	11.23
332.355	11.22
332.808	11.21
333.26	11.21
333.713	11.19
334.165	11.18
334.617	11.17
335.069	11.16
335.522	11.15
335.974	11.14
336.426	11.13
336.878	11.11
337.33	11.11
337.782	11.1
338.234	11.09
338.686	11.09
339.137	11.08
339.589	11.06
340.041	11.04
340.493	11.02
340.944	11
341.396	10.99
341.847	10.98
342.299	10.94
342.75	10.91
343.201	10.88
343.653	10.86
344.104	10.83
344.555	10.82
345.006	10.79
345.457	10.77
345.908	10.74
346.359	10.73
346.81	10.71
347.261	10.68
347.712	10.67
348.163	10.65
348.613	10.62
349.064	10.59
349.515	10.57
349.965	10.56
350.416	10.55
350.866	10.54
351.317	10.51
351.767	10.48
352.217	10.47
352.668	10.47
353.118	10.46
353.568	10.47
354.018	10.47
354.468	10.46
354.918	10.45
355.368	10.44
355.818	10.43
356.268	10.44
356.718	10.44
357.168	10.44
357.617	10.42
358.067	10.4
358.517	10.38
358.966	10.37
359.416	10.38
359.865	10.36
360.315	10.35
360.764	10.34
361.213	10.32
361.663	10.31
362.112	10.31
362.561	10.31
363.01	10.31
363.459	10.3
363.908	10.28
364.357	10.27
364.806	10.26
365.255	10.25
365.703	10.23
366.152	10.23
366.601	10.22
367.05	10.21
367.498	10.2
367.947	10.18
368.395	10.18
368.844	10.17
369.292	10.15
369.74	10.15
370.189	10.14
370.637	10.14
371.085	10.15
371.533	10.13
371.981	10.12
372.429	10.1
372.877	10.1
373.325	10.09
373.773	10.09
374.221	10.08
374.669	10.09
375.116	10.07
375.564	10.05
376.012	10.04
376.459	10.05
376.907	10.05
377.354	10.05
377.801	10.06
378.249	10.06
378.696	10.07
379.143	10.07
379.591	10.06
380.038	10.08
380.485	10.1
380.932	10.09
381.379	10.09
381.826	10.11
382.273	10.12
382.72	10.13
383.166	10.13
383.613	10.15
384.06	10.16
384.506	10.17
384.953	10.17
385.4	10.18
385.846	10.19
386.292	10.22
386.739	10.23
387.185	10.26
387.631	10.29
388.078	10.3
388.524	10.31
388.97	10.32
389.416	10.33
389.862	10.34
390.308	10.36
390.754	10.39
391.2	10.41
391.645	10.44
392.091	10.47
392.537	10.49
392.983	10.54
393.428	10.59
393.874	10.62
394.319	10.66
394.765	10.69
395.21	10.72
395.655	10.73
396.101	10.76
396.546	10.78
396.991	10.77
397.436	10.77
397.881	10.79
398.326	10.81
398.771	10.84
399.216	10.88
399.661	10.93
400.106	10.97
400.551	11
400.995	11
401.44	11
401.885	11.01
402.329	11.03
402.774	11.04
403.218	11.05
403.663	11.05
404.107	11.05
404.551	11.06
404.995	11.05
405.44	11.05
405.884	11.05
406.328	11.06
406.772	11.08
407.216	11.1
407.66	11.11
408.104	11.11
408.547	11.12
408.991	11.11
409.435	11.09
409.879	11.09
410.322	11.09
410.766	11.11
411.209	11.13
411.653	11.13
412.096	11.12
412.54	11.12
412.983	11.13
413.426	11.15
413.869	11.16
414.312	11.19
414.756	11.21
415.199	11.23
415.642	11.24
416.085	11.27
416.527	11.3
416.97	11.31
417.413	11.33
417.856	11.31
418.298	11.29
418.741	11.3
419.184	11.29
419.626	11.27
420.069	11.23
420.511	11.22
420.953	11.2
421.396	11.17
421.838	11.17
422.28	11.18
422.722	11.2
423.164	11.21
423.606	11.22
424.048	11.22
424.49	11.23
424.932	11.24
425.374	11.23
425.816	11.22
426.258	11.19
426.699	11.14
427.141	11.1
427.582	11.07
428.024	11.06
428.465	11.04
428.907	11.04
429.348	11.04
429.789	11.03
430.231	11.03
430.672	11.03
431.113	11.06
431.554	11.09
431.995	11.1
432.436	11.11
432.877	11.09
433.318	11.08
433.759	11.08
434.2	11.06
434.64	11.06
435.081	11.06
435.522	11.09
435.962	11.09
436.403	11.1
436.843	11.12
437.284	11.14
437.724	11.17
438.164	11.18
438.604	11.2
439.045	11.21
439.485	11.22
439.925	11.23
440.365	11.2
440.805	11.2
441.245	11.2
441.685	11.23
442.125	11.23
442.564	11.25
443.004	11.29
443.444	11.32
443.883	11.36
444.323	11.38
444.762	11.43
445.202	11.51
445.641	11.56
446.081	11.64
446.52	11.66
446.959	11.73
447.398	11.78
447.837	11.85
448.276	11.89
448.716	11.95
449.154	12.02
449.593	12.07
450.032	12.11
450.471	12.17
450.91	12.19
451.349	12.23
451.787	12.25
452.226	12.27
452.664	12.28
453.103	12.31
453.541	12.3
453.98	12.31
454.418	12.3
454.856	12.27
455.295	12.25
455.733	12.25
456.171	12.23
456.609	12.22
457.047	12.2
457.485	12.2
457.923	12.2
458.361	12.2
458.798	12.2
459.236	12.21
459.674	12.2
460.111	12.2
460.549	12.19
460.987	12.19
461.424	12.16
461.862	12.16
462.299	12.14
462.736	12.12
463.173	12.1
463.611	12.08
464.048	12.07
464.485	12.08
464.922	12.06
465.359	12.05
465.796	12.04
466.233	12.07
466.67	12.06
467.106	12.07
467.543	12.08
467.98	12.1
468.416	12.13
468.853	12.14
469.29	12.15
469.726	12.17
470.162	12.17
470.599	12.18
471.035	12.2
471.471	12.22
471.907	12.23
472.344	12.22
472.78	12.22
473.216	12.21
473.652	12.2
474.088	12.19
474.523	12.19
474.959	12.22
475.395	12.22
475.831	12.21
476.266	12.21
476.702	12.21
477.138	12.21
477.573	12.21
478.008	12.2
478.444	12.2
478.879	12.2
479.314	12.21
479.75	12.2
480.185	12.2
480.62	12.2
481.055	12.21
481.49	12.2
481.925	12.2
482.36	12.19
482.795	12.18
483.229	12.18
483.664	12.18
484.099	12.18
484.534	12.18
484.968	12.19
485.403	12.19
485.837	12.19
486.271	12.21
486.706	12.23
487.14	12.27
487.574	12.31
488.009	12.35
488.443	12.4
488.877	12.44
489.311	12.49
489.745	12.54
490.179	12.61
490.613	12.68
491.046	12.76
491.48	12.84
491.914	12.92
492.348	13
492.781	13.09
493.215	13.18
493.648	13.29
494.082	13.4
494.515	13.52
494.948	13.64
495.382	13.77
495.815	13.89
496.248	14.03
496.681	14.16
497.114	14.3
497.547	14.45
497.98	14.59
498.413	14.75
498.846	14.92
499.279	15.09
499.711	15.26
500.144	15.44
500.577	15.64
501.009	15.84
501.442	16.07
501.874	16.3
502.306	16.54
502.739	16.79
503.171	17.06
503.603	17.33
504.036	17.61
504.468	17.91
504.9	18.21
505.332	18.52
505.764	18.84
506.196	19.17
506.627	19.51
507.059	19.84
507.491	20.19
507.923	20.54
508.354	20.91
508.786	21.29
509.217	21.67
509.649	22.07
510.08	22.48
510.512	22.89
510.943	23.3
511.374	23.72
511.805	24.17
512.237	24.62
512.668	25.07
513.099	25.51
513.53	25.96
513.961	26.42
514.391	26.85
514.822	27.31
515.253	27.77
515.684	28.22
516.114	28.7
516.545	29.15
516.975	29.6
517.406	30.06
517.836	30.52
518.267	30.96
518.697	31.43
519.127	31.89
519.558	32.32
519.988	32.74
520.418	33.18
520.848	33.59
521.278	34
521.708	34.29
522.138	34.67
522.567	35.05
522.997	35.43
523.427	35.79
523.857	36.14
524.286	36.49
524.716	36.83
525.145	37.16
525.575	37.47
526.004	37.77
526.433	38.19
526.863	38.47
527.292	38.74
527.721	39.01
528.15	39.25
528.579	39.49
529.008	39.71
529.437	39.92
529.866	40.13
530.295	40.35
530.724	40.54
531.152	40.73
531.581	40.9
532.01	41.05
532.438	41.23
532.867	41.4
533.295	41.54
533.723	41.69
534.152	41.82
534.58	41.94
535.008	42.01
535.436	42.11
535.865	42.17
536.293	42.3
536.721	42.4
537.149	42.43
537.576	42.49
538.004	42.57
538.432	42.61
538.86	42.68
539.287	42.75
539.715	42.8
540.143	42.84
540.57	42.9
540.998	42.94
541.425	42.96
541.852	43.04
542.28	43.07
542.707	43.1
543.134	43.14
543.561	43.16
543.988	43.18
544.415	43.24
544.842	43.29
545.269	43.36
545.696	43.38
546.123	43.42
546.549	43.43
546.976	43.47
547.403	43.49
547.829	43.53
548.256	43.57
548.682	43.59
549.108	43.64
549.535	43.66
549.961	43.65
550.387	43.66
550.813	43.67
551.24	43.69
551.666	43.7
552.092	43.72
552.518	43.7
552.943	43.7
553.369	43.67
553.795	43.61
554.221	43.57
554.646	43.54
555.072	43.49
555.498	43.44
555.923	43.36
556.349	43.27
556.774	43.2
557.199	43.13
557.625	43.03
558.05	42.92
558.475	42.83
558.9	42.73
559.325	42.62
559.75	42.5
560.175	42.38
560.6	42.26
561.025	42.14
561.449	41.99
561.874	41.83
562.299	41.7
562.723	41.56
563.148	41.41
563.572	41.24
563.997	41.06
564.421	40.88
564.846	40.69
565.27	40.52
565.694	40.32
566.118	40.12
566.542	39.92
566.966	39.71
567.39	39.47
567.814	39.23
568.238	38.99
568.662	38.79
569.086	38.56
569.509	38.35
569.933	38.1
570.357	37.84
570.78	37.6
571.204	37.37
571.627	37.13
572.05	36.93
572.474	36.72
572.897	36.51
573.32	36.28
573.743	36.07
574.166	35.84
574.589	35.63
575.012	35.47
575.435	35.28
575.858	35.09
576.281	34.92
576.704	34.73
577.126	34.58
577.549	34.43
577.972	34.3
578.394	34.12
578.817	33.99
579.239	33.86
579.661	33.7
580.084	33.57
580.506	33.46
580.928	33.34
581.35	33.23
581.772	33.13
582.194	33.02
582.616	32.91
583.038	32.82
583.46	32.72
583.882	32.6
584.303	32.51
584.725	32.41
585.147	32.29
585.568	32.17
585.99	32.08
586.411	32
586.833	31.89
587.254	31.78
587.675	31.71
588.096	31.65
588.518	31.58
588.939	31.5
589.36	31.44
589.781	31.36
590.202	31.31
590.623	31.23
591.043	31.13
591.464	31.05
591.885	31
592.305	30.94
592.726	30.87
593.147	30.84
593.567	30.8
593.987	30.77
594.408	30.72
594.828	30.66
595.248	30.63
595.669	30.58
596.089	30.55
596.509	30.5
596.929	30.45
597.349	30.38
597.769	30.3
598.189	30.26
598.608	30.19
599.028	30.14
599.448	30.09
599.867	30.03
600.287	29.96
600.706	29.88
601.126	29.8
601.545	29.71
601.965	29.63
602.384	29.54
602.803	29.4
603.222	29.29
603.641	29.19
604.061	29.07
604.48	28.93
604.898	28.82
605.317	28.7
605.736	28.57
606.155	28.44
606.574	28.31
606.992	28.18
607.411	28.07
607.829	27.9
608.248	27.76
608.666	27.62
609.085	27.5
609.503	27.35
609.921	27.22
610.339	27.08
610.758	26.94
611.176	26.8
611.594	26.65
612.012	26.51
612.43	26.43
612.847	26.29
613.265	26.18
613.683	26.04
614.101	25.89
614.518	25.77
614.936	25.65
615.353	25.53
615.771	25.4
616.188	25.31
616.606	25.18
617.023	25.06
617.44	24.93
617.857	24.82
618.274	24.73
618.691	24.66
619.108	24.57
619.525	24.5
619.942	24.44
620.359	24.4
620.776	24.33
621.192	24.29
621.609	24.24
622.026	24.21
622.442	24.16
622.859	24.12
623.275	24.11
623.691	24.07
624.108	24.04
624.524	24.01
624.94	23.96
625.356	23.94
625.772	23.93
626.188	23.93
626.604	23.91
627.02	23.89
627.436	23.88
627.852	23.84
628.268	23.83
628.683	23.82
629.099	23.79
629.514	23.77
629.93	23.73
630.345	23.68
630.761	23.62
631.176	23.59
631.591	23.54
632.007	23.46
632.422	23.41
632.837	23.33
633.252	23.25
633.667	23.15
634.082	23.06
634.497	22.96
634.911	22.86
635.326	22.75
635.741	22.59
636.155	22.46
636.57	22.32
636.984	22.15
637.399	21.97
637.813	21.79
638.228	21.63
638.642	21.47
639.056	21.29
639.47	21.1
639.884	20.91
640.298	20.72
640.712	20.52
641.126	20.32
641.54	20.14
641.954	19.98
642.368	19.79
642.781	19.59
643.195	19.37
643.609	19.19
644.022	19
644.436	18.82
644.849	18.64
645.262	18.47
645.676	18.29
646.089	18.13
646.502	17.94
646.915	17.79
647.328	17.64
647.741	17.5
648.154	17.37
648.567	17.24
648.98	17.12
649.393	17
649.805	16.9
650.218	16.8
650.631	16.68
651.043	16.6
651.456	16.49
651.868	16.4
652.28	16.31
652.693	16.19
653.105	16.07
653.517	15.96
653.929	15.85
654.341	15.72
654.753	15.59
655.165	15.45
655.577	15.3
655.989	15.15
656.401	14.98
656.813	14.81
657.224	14.66
657.636	14.51
658.047	14.33
658.459	14.15
658.87	13.98
659.282	13.81
659.693	13.64
660.104	13.46
660.515	13.28
660.926	13.12
661.338	12.94
661.749	12.76
662.159	12.58
662.57	12.42
662.981	12.27
663.392	12.12
663.803	11.97
664.213	11.84
664.624	11.72
665.035	11.59
665.445	11.47
665.855	11.37
666.266	11.28
666.676	11.2
667.086	11.12
667.497	11.03
667.907	10.95
668.317	10.88
668.727	10.81
669.137	10.75
669.547	10.71
669.956	10.66
670.366	10.61
670.776	10.56
671.186	10.52
671.595	10.48
672.005	10.47
672.414	10.45
672.824	10.44
673.233	10.44
673.642	10.42
674.052	10.4
674.461	10.4
674.87	10.42
675.279	10.44
675.688	10.46
676.097	10.49
676.506	10.52
676.915	10.57
677.323	10.62
677.732	10.67
678.141	10.75
678.549	10.83
678.958	10.92
679.366	11
679.775	11.09
680.183	11.2
680.592	11.33
681	11.47
681.408	11.62
681.816	11.78
682.224	11.98
682.632	12.22
683.04	12.47
683.448	12.76
683.856	13.09
684.264	13.45
684.671	13.86
685.079	14.29
685.487	14.75
685.894	15.26
686.302	15.81
686.709	16.37
687.116	16.97
687.524	17.63
687.931	18.3
688.338	19.02
688.745	19.75
689.152	20.52
689.559	21.31
689.966	22.15
690.373	23.01
690.78	23.85
691.187	24.76
691.593	25.65
692	26.54
692.407	27.46
692.813	28.37
693.22	29.26
693.626	30.18
694.032	31.09
694.439	32.03
694.845	32.92
695.251	33.83
695.657	34.69
696.063	35.57
696.469	36.42
696.875	37.24
697.281	38.06
697.687	38.91
698.093	39.7
698.498	40.49
698.904	41.23
699.31	41.99
699.715	42.76
700.12	43.47
700.526	44.17
700.931	44.89
701.337	45.58
701.742	46.24
702.147	46.89
702.552	47.52
702.957	48.12
703.362	48.71
703.767	49.28
704.172	49.84
704.577	50.44
704.981	51.01
705.386	51.52
705.791	52.04
706.195	52.52
706.6	53
707.004	53.49
707.408	53.96
707.813	54.44
708.217	54.86
708.621	55.27
709.025	55.69
709.43	56.08
709.834	56.52
710.237	56.92
710.641	57.32
711.045	57.69
711.449	58.05
711.853	58.42
712.256	58.78
712.66	59.15
713.064	59.5
713.467	59.8
713.87	60.13
714.274	60.45
714.677	60.77
715.08	61.05
715.484	61.4
715.887	61.71
716.29	61.98
716.693	62.27
717.096	62.54
717.499	62.81
717.901	63.05
718.304	63.28
718.707	63.5
719.109	63.77
719.512	64.07
719.915	64.27
720.317	64.51
720.719	64.75
721.122	64.94
721.524	65.16
721.926	65.39
722.328	65.62
722.731	65.84
723.133	66.05
723.535	66.21
723.937	66.39
724.338	66.55
724.74	66.71
725.142	66.83
725.544	66.98
725.945	67.15
726.347	67.26
726.748	67.37
727.15	67.52
727.551	67.64
727.952	67.75
728.354	67.87
728.755	68.03
729.156	68.11
729.557	68.27
729.958	68.44
730.359	68.49
730.76	68.58
731.161	68.71
731.562	68.78
731.962	68.87
732.363	68.92
732.763	69
733.164	69.04
733.564	69.14
733.965	69.18
734.365	69.18
734.766	69.27
735.166	69.31
735.566	69.32
735.966	69.35
736.366	69.4
736.766	69.47
737.166	69.51
737.566	69.53
737.966	69.55
738.365	69.61
738.765	69.69
739.165	69.65
739.564	69.7
739.964	69.73
740.363	69.77
740.763	69.79
741.162	69.85
741.561	69.91
741.96	69.98
742.36	70.04
742.759	70.05
743.158	70.02
743.557	70.1
743.955	70.15
744.354	70.19
744.753	70.25
745.152	70.25
745.55	70.26
745.949	70.28
746.348	70.29
746.746	70.3
747.144	70.35
747.543	70.43
747.941	70.51
748.339	70.56
748.737	70.6
749.136	70.62
749.534	70.66
749.932	70.67
750.33	70.65
750.727	70.68
751.125	70.71
751.523	70.67
751.921	70.67
752.318	70.63
752.716	70.59
753.113	70.58
753.511	70.57
753.908	70.57
754.305	70.51
754.703	70.47
755.1	70.46
755.497	70.43
755.894	70.39
756.291	70.35
756.688	70.36
757.085	70.34
757.482	70.32
757.878	70.31
758.275	70.3
758.672	70.36
759.068	70.4
759.465	70.4
759.861	70.41
760.258	70.45
760.654	70.47
761.05	70.45
761.447	70.41
761.843	70.37
762.239	70.37
762.635	70.34
763.031	70.3
763.427	70.26
