Data from N_2_dec_oh_4n_045_Splice17_10.txt Node
Date: Sat Feb 29 13:54:46 EST 2020
User: sa697716
Spectrometer: FLMS03696
Trigger mode: 0
Integration Time (sec): 3.180400E-1
Scans to average: 20
Electric dark correction enabled: true
Nonlinearity correction enabled: true
Boxcar width: 5
XAxis mode: Wavelengths
Number of Pixels in Spectrum: 2048
>>>>>Begin Spectral Data<<<<<
187.83	58.86
188.298	44.54
188.766	50.08
189.233	47.28
189.701	62.9
190.169	59.8
190.636	50.52
191.104	48.83
191.571	12.72
192.039	26.9
192.506	255.51
192.974	1044.52
193.441	549.95
193.908	12.5
194.375	-66.97
194.842	65.64
195.31	56.9
195.777	35.26
196.244	29.45
196.711	27.82
197.177	25.06
197.644	25.21
198.111	25.95
198.578	26.79
199.045	27
199.511	27.59
199.978	27.72
200.445	27.72
200.911	27.92
201.378	28.16
201.844	28.55
202.31	29.08
202.777	29.63
203.243	29.9
203.709	29.87
204.176	29.95
204.642	30.01
205.108	29.87
205.574	30.02
206.04	30.17
206.506	30.42
206.972	30.43
207.438	30.29
207.903	29.81
208.369	29.29
208.835	29.48
209.301	29.31
209.766	29.06
210.232	28.86
210.697	28.24
211.163	27.71
211.628	27.04
212.094	26.56
212.559	26.09
213.024	25.91
213.49	25.91
213.955	25.32
214.42	24.65
214.885	23.88
215.35	23.13
215.815	22.41
216.28	21.65
216.745	20.62
217.21	19.55
217.675	18.45
218.14	17.33
218.604	16.23
219.069	15.53
219.534	14.81
219.998	14.22
220.463	13.85
220.927	13.42
221.392	13.03
221.856	12.64
222.32	12.31
222.785	12.09
223.249	11.86
223.713	11.71
224.177	11.46
224.642	11.3
225.106	11.11
225.57	10.89
226.034	10.72
226.497	10.57
226.961	10.41
227.425	10.23
227.889	10.07
228.353	9.92
228.816	9.78
229.28	9.63
229.744	9.5
230.207	9.39
230.671	9.27
231.134	9.14
231.597	9
232.061	8.92
232.524	8.82
232.987	8.71
233.45	8.6
233.914	8.5
234.377	8.43
234.84	8.33
235.303	8.24
235.766	8.15
236.229	8.08
236.691	8.01
237.154	7.91
237.617	7.83
238.08	7.77
238.542	7.69
239.005	7.6
239.468	7.5
239.93	7.43
240.393	7.37
240.855	7.29
241.317	7.22
241.78	7.16
242.242	7.08
242.704	7.02
243.166	6.95
243.629	6.9
244.091	6.86
244.553	6.82
245.015	6.76
245.477	6.71
245.939	6.64
246.4	6.58
246.862	6.53
247.324	6.49
247.786	6.45
248.247	6.39
248.709	6.34
249.17	6.29
249.632	6.22
250.093	6.16
250.555	6.11
251.016	6.09
251.477	6.05
251.939	6.02
252.4	5.98
252.861	5.94
253.322	5.91
253.783	5.89
254.244	5.85
254.705	5.83
255.166	5.81
255.627	5.79
256.088	5.75
256.549	5.72
257.009	5.68
257.47	5.66
257.931	5.63
258.391	5.59
258.852	5.54
259.312	5.51
259.773	5.47
260.233	5.43
260.694	5.4
261.154	5.37
261.614	5.33
262.074	5.31
262.534	5.26
262.994	5.24
263.455	5.22
263.915	5.19
264.374	5.16
264.834	5.14
265.294	5.12
265.754	5.09
266.214	5.06
266.673	5.04
267.133	5.01
267.593	5
268.052	4.97
268.512	4.94
268.971	4.92
269.431	4.9
269.89	4.88
270.349	4.87
270.809	4.85
271.268	4.84
271.727	4.82
272.186	4.81
272.645	4.79
273.104	4.78
273.563	4.77
274.022	4.76
274.481	4.74
274.94	4.72
275.399	4.7
275.857	4.69
276.316	4.67
276.775	4.65
277.233	4.63
277.692	4.62
278.15	4.6
278.609	4.58
279.067	4.56
279.525	4.55
279.984	4.55
280.442	4.53
280.9	4.52
281.358	4.51
281.816	4.49
282.274	4.48
282.732	4.48
283.19	4.47
283.648	4.47
284.106	4.46
284.564	4.45
285.021	4.43
285.479	4.42
285.937	4.41
286.394	4.4
286.852	4.39
287.309	4.38
287.767	4.36
288.224	4.34
288.682	4.32
289.139	4.31
289.596	4.3
290.053	4.27
290.511	4.25
290.968	4.23
291.425	4.21
291.882	4.2
292.339	4.18
292.796	4.16
293.252	4.14
293.709	4.12
294.166	4.1
294.623	4.09
295.079	4.09
295.536	4.08
295.992	4.07
296.449	4.06
296.905	4.05
297.362	4.03
297.818	4.02
298.274	4.01
298.731	4.01
299.187	4
299.643	3.99
300.099	3.98
300.555	3.97
301.011	3.96
301.467	3.96
301.923	3.95
302.379	3.95
302.835	3.95
303.291	3.94
303.746	3.93
304.202	3.92
304.658	3.91
305.113	3.91
305.569	3.9
306.024	3.89
306.479	3.87
306.935	3.87
307.39	3.86
307.845	3.86
308.301	3.85
308.756	3.85
309.211	3.85
309.666	3.85
310.121	3.83
310.576	3.83
311.031	3.82
311.486	3.83
311.94	3.82
312.395	3.82
312.85	3.81
313.305	3.81
313.759	3.81
314.214	3.81
314.668	3.81
315.123	3.82
315.577	3.81
316.032	3.8
316.486	3.79
316.94	3.78
317.394	3.77
317.849	3.75
318.303	3.75
318.757	3.73
319.211	3.7
319.665	3.69
320.119	3.68
320.572	3.67
321.026	3.67
321.48	3.66
321.934	3.65
322.387	3.65
322.841	3.64
323.295	3.64
323.748	3.64
324.202	3.64
324.655	3.64
325.108	3.64
325.562	3.63
326.015	3.62
326.468	3.61
326.921	3.6
327.374	3.59
327.827	3.58
328.28	3.57
328.733	3.57
329.186	3.56
329.639	3.54
330.092	3.53
330.545	3.52
330.997	3.52
331.45	3.52
331.903	3.52
332.355	3.52
332.808	3.52
333.26	3.52
333.713	3.51
334.165	3.51
334.617	3.51
335.069	3.51
335.522	3.51
335.974	3.52
336.426	3.51
336.878	3.5
337.33	3.5
337.782	3.5
338.234	3.5
338.686	3.51
339.137	3.51
339.589	3.51
340.041	3.5
340.493	3.49
340.944	3.48
341.396	3.48
341.847	3.47
342.299	3.46
342.75	3.45
343.201	3.43
343.653	3.42
344.104	3.4
344.555	3.4
345.006	3.38
345.457	3.38
345.908	3.37
346.359	3.37
346.81	3.37
347.261	3.37
347.712	3.36
348.163	3.35
348.613	3.34
349.064	3.33
349.515	3.32
349.965	3.31
350.416	3.31
350.866	3.3
351.317	3.29
351.767	3.28
352.217	3.27
352.668	3.27
353.118	3.27
353.568	3.27
354.018	3.29
354.468	3.28
354.918	3.3
355.368	3.3
355.818	3.3
356.268	3.3
356.718	3.3
357.168	3.31
357.617	3.31
358.067	3.3
358.517	3.29
358.966	3.3
359.416	3.31
359.865	3.29
360.315	3.29
360.764	3.29
361.213	3.29
361.663	3.3
362.112	3.29
362.561	3.29
363.01	3.3
363.459	3.3
363.908	3.29
364.357	3.3
364.806	3.3
365.255	3.31
365.703	3.3
366.152	3.31
366.601	3.3
367.05	3.33
367.498	3.33
367.947	3.33
368.395	3.34
368.844	3.35
369.292	3.34
369.74	3.35
370.189	3.36
370.637	3.37
371.085	3.37
371.533	3.38
371.981	3.37
372.429	3.37
372.877	3.36
373.325	3.36
373.773	3.36
374.221	3.37
374.669	3.37
375.116	3.35
375.564	3.35
376.012	3.35
376.459	3.36
376.907	3.37
377.354	3.36
377.801	3.38
378.249	3.4
378.696	3.41
379.143	3.42
379.591	3.43
380.038	3.46
380.485	3.48
380.932	3.48
381.379	3.49
381.826	3.49
382.273	3.5
382.72	3.51
383.166	3.52
383.613	3.52
384.06	3.54
384.506	3.54
384.953	3.55
385.4	3.55
385.846	3.56
386.292	3.58
386.739	3.58
387.185	3.59
387.631	3.61
388.078	3.61
388.524	3.6
388.97	3.6
389.416	3.61
389.862	3.62
390.308	3.64
390.754	3.65
391.2	3.67
391.645	3.69
392.091	3.7
392.537	3.71
392.983	3.73
393.428	3.75
393.874	3.77
394.319	3.79
394.765	3.8
395.21	3.8
395.655	3.82
396.101	3.82
396.546	3.84
396.991	3.85
397.436	3.85
397.881	3.88
398.326	3.9
398.771	3.91
399.216	3.92
399.661	3.94
400.106	3.96
400.551	3.96
400.995	3.95
401.44	3.95
401.885	3.96
402.329	3.98
402.774	3.98
403.218	3.97
403.663	3.97
404.107	3.99
404.551	4
404.995	3.99
405.44	4
405.884	4.02
406.328	4.02
406.772	4.03
407.216	4.03
407.66	4.03
408.104	4.03
408.547	4.03
408.991	4.03
409.435	4.03
409.879	4.04
410.322	4.07
410.766	4.08
411.209	4.1
411.653	4.1
412.096	4.11
412.54	4.13
412.983	4.14
413.426	4.16
413.869	4.18
414.312	4.2
414.756	4.22
415.199	4.23
415.642	4.24
416.085	4.25
416.527	4.27
416.97	4.28
417.413	4.28
417.856	4.26
418.298	4.25
418.741	4.23
419.184	4.22
419.626	4.21
420.069	4.2
420.511	4.2
420.953	4.2
421.396	4.21
421.838	4.21
422.28	4.23
422.722	4.26
423.164	4.27
423.606	4.29
424.048	4.29
424.49	4.31
424.932	4.3
425.374	4.29
425.816	4.28
426.258	4.25
426.699	4.24
427.141	4.23
427.582	4.23
428.024	4.23
428.465	4.22
428.907	4.24
429.348	4.22
429.789	4.22
430.231	4.23
430.672	4.25
431.113	4.26
431.554	4.29
431.995	4.3
432.436	4.31
432.877	4.3
433.318	4.32
433.759	4.34
434.2	4.35
434.64	4.36
435.081	4.37
435.522	4.37
435.962	4.4
436.403	4.4
436.843	4.39
437.284	4.39
437.724	4.43
438.164	4.43
438.604	4.41
439.045	4.42
439.485	4.43
439.925	4.43
440.365	4.42
440.805	4.42
441.245	4.41
441.685	4.43
442.125	4.43
442.564	4.44
443.004	4.46
443.444	4.48
443.883	4.5
444.323	4.48
444.762	4.51
445.202	4.53
445.641	4.55
446.081	4.59
446.52	4.59
446.959	4.62
447.398	4.63
447.837	4.65
448.276	4.65
448.716	4.65
449.154	4.67
449.593	4.69
450.032	4.69
450.471	4.68
450.91	4.65
451.349	4.66
451.787	4.64
452.226	4.6
452.664	4.57
453.103	4.58
453.541	4.57
453.98	4.57
454.418	4.54
454.856	4.53
455.295	4.52
455.733	4.52
456.171	4.52
456.609	4.51
457.047	4.52
457.485	4.51
457.923	4.51
458.361	4.51
458.798	4.51
459.236	4.52
459.674	4.52
460.111	4.53
460.549	4.52
460.987	4.52
461.424	4.54
461.862	4.55
462.299	4.55
462.736	4.55
463.173	4.54
463.611	4.55
464.048	4.55
464.485	4.54
464.922	4.55
465.359	4.56
465.796	4.55
466.233	4.53
466.67	4.53
467.106	4.52
467.543	4.52
467.98	4.53
468.416	4.53
468.853	4.53
469.29	4.52
469.726	4.52
470.162	4.5
470.599	4.5
471.035	4.51
471.471	4.51
471.907	4.51
472.344	4.51
472.78	4.51
473.216	4.5
473.652	4.49
474.088	4.5
474.523	4.49
474.959	4.5
475.395	4.49
475.831	4.48
476.266	4.47
476.702	4.45
477.138	4.43
477.573	4.41
478.008	4.41
478.444	4.4
478.879	4.39
479.314	4.38
479.75	4.37
480.185	4.36
480.62	4.35
481.055	4.34
481.49	4.33
481.925	4.33
482.36	4.34
482.795	4.32
483.229	4.32
483.664	4.32
484.099	4.31
484.534	4.29
484.968	4.3
485.403	4.3
485.837	4.3
486.271	4.3
486.706	4.29
487.14	4.29
487.574	4.29
488.009	4.3
488.443	4.3
488.877	4.31
489.311	4.32
489.745	4.33
490.179	4.34
490.613	4.34
491.046	4.36
491.48	4.38
491.914	4.39
492.348	4.4
492.781	4.42
493.215	4.44
493.648	4.45
494.082	4.49
494.515	4.5
494.948	4.53
495.382	4.55
495.815	4.57
496.248	4.6
496.681	4.63
497.114	4.65
497.547	4.69
497.98	4.72
498.413	4.76
498.846	4.8
499.279	4.84
499.711	4.88
500.144	4.94
500.577	4.98
501.009	5.03
501.442	5.11
501.874	5.18
502.306	5.24
502.739	5.31
503.171	5.39
503.603	5.48
504.036	5.57
504.468	5.67
504.9	5.77
505.332	5.89
505.764	6.01
506.196	6.13
506.627	6.25
507.059	6.39
507.491	6.52
507.923	6.67
508.354	6.82
508.786	6.96
509.217	7.12
509.649	7.29
510.08	7.48
510.512	7.66
510.943	7.86
511.374	8.06
511.805	8.25
512.237	8.47
512.668	8.67
513.099	8.9
513.53	9.16
513.961	9.41
514.391	9.66
514.822	9.9
515.253	10.18
515.684	10.43
516.114	10.7
516.545	10.98
516.975	11.27
517.406	11.56
517.836	11.85
518.267	12.14
518.697	12.45
519.127	12.76
519.558	13.06
519.988	13.36
520.418	13.65
520.848	13.95
521.278	14.26
521.708	14.58
522.138	14.87
522.567	15.16
522.997	15.45
523.427	15.73
523.857	15.98
524.286	16.27
524.716	16.52
525.145	16.8
525.575	17.05
526.004	17.3
526.433	17.51
526.863	17.76
527.292	17.99
527.721	18.2
528.15	18.4
528.579	18.62
529.008	18.79
529.437	18.99
529.866	19.16
530.295	19.34
530.724	19.5
531.152	19.67
531.581	19.82
532.01	19.95
532.438	20.09
532.867	20.23
533.295	20.33
533.723	20.46
534.152	20.57
534.58	20.68
535.008	20.75
535.436	20.84
535.865	20.92
536.293	20.99
536.721	21.08
537.149	21.15
537.576	21.2
538.004	21.27
538.432	21.33
538.86	21.38
539.287	21.42
539.715	21.47
540.143	21.49
540.57	21.54
540.998	21.58
541.425	21.62
541.852	21.64
542.28	21.68
542.707	21.71
543.134	21.73
543.561	21.74
543.988	21.79
544.415	21.83
544.842	21.88
545.269	21.92
545.696	21.95
546.123	21.99
546.549	22.01
546.976	22.04
547.403	22.06
547.829	22.1
548.256	22.13
548.682	22.14
549.108	22.15
549.535	22.16
549.961	22.15
550.387	22.17
550.813	22.14
551.24	22.15
551.666	22.13
552.092	22.12
552.518	22.09
552.943	22.08
553.369	22.06
553.795	22.02
554.221	21.99
554.646	21.95
555.072	21.86
555.498	21.81
555.923	21.73
556.349	21.66
556.774	21.58
557.199	21.5
557.625	21.39
558.05	21.29
558.475	21.18
558.9	21.08
559.325	20.98
559.75	20.86
560.175	20.72
560.6	20.6
561.025	20.47
561.449	20.33
561.874	20.19
562.299	20.06
562.723	19.89
563.148	19.72
563.572	19.54
563.997	19.36
564.421	19.19
564.846	19.02
565.27	18.84
565.694	18.66
566.118	18.45
566.542	18.27
566.966	18.05
567.39	17.86
567.814	17.69
568.238	17.49
568.662	17.3
569.086	17.12
569.509	16.94
569.933	16.74
570.357	16.54
570.78	16.36
571.204	16.18
571.627	16
572.05	15.84
572.474	15.65
572.897	15.49
573.32	15.32
573.743	15.15
574.166	14.98
574.589	14.84
575.012	14.71
575.435	14.57
575.858	14.43
576.281	14.31
576.704	14.18
577.126	14.06
577.549	13.94
577.972	13.83
578.394	13.7
578.817	13.61
579.239	13.51
579.661	13.42
580.084	13.32
580.506	13.23
580.928	13.13
581.35	13.03
581.772	12.96
582.194	12.87
582.616	12.78
583.038	12.71
583.46	12.63
583.882	12.56
584.303	12.49
584.725	12.42
585.147	12.34
585.568	12.26
585.99	12.19
586.411	12.11
586.833	12.04
587.254	11.98
587.675	11.92
588.096	11.85
588.518	11.79
588.939	11.74
589.36	11.69
589.781	11.65
590.202	11.6
590.623	11.56
591.043	11.52
591.464	11.48
591.885	11.46
592.305	11.44
592.726	11.4
593.147	11.36
593.567	11.33
593.987	11.3
594.408	11.27
594.828	11.25
595.248	11.22
595.669	11.19
596.089	11.16
596.509	11.11
596.929	11.05
597.349	11.02
597.769	10.98
598.189	10.95
598.608	10.89
599.028	10.85
599.448	10.81
599.867	10.78
600.287	10.74
600.706	10.71
601.126	10.67
601.545	10.63
601.965	10.57
602.384	10.52
602.803	10.46
603.222	10.41
603.641	10.35
604.061	10.29
604.48	10.21
604.898	10.15
605.317	10.07
605.736	10.01
606.155	9.95
606.574	9.88
606.992	9.8
607.411	9.74
607.829	9.63
608.248	9.57
608.666	9.5
609.085	9.43
609.503	9.35
609.921	9.29
610.339	9.22
610.758	9.13
611.176	9.07
611.594	9.01
612.012	8.93
612.43	8.92
612.847	8.85
613.265	8.8
613.683	8.72
614.101	8.66
614.518	8.6
614.936	8.54
615.353	8.49
615.771	8.42
616.188	8.37
616.606	8.32
617.023	8.25
617.44	8.19
617.857	8.14
618.274	8.09
618.691	8.06
619.108	8.02
619.525	7.98
619.942	7.95
620.359	7.94
620.776	7.9
621.192	7.88
621.609	7.85
622.026	7.84
622.442	7.82
622.859	7.81
623.275	7.8
623.691	7.78
624.108	7.77
624.524	7.76
624.94	7.73
625.356	7.73
625.772	7.72
626.188	7.73
626.604	7.71
627.02	7.71
627.436	7.7
627.852	7.68
628.268	7.68
628.683	7.66
629.099	7.64
629.514	7.63
629.93	7.62
630.345	7.6
630.761	7.56
631.176	7.54
631.591	7.5
632.007	7.47
632.422	7.43
632.837	7.4
633.252	7.37
633.667	7.31
634.082	7.27
634.497	7.21
634.911	7.16
635.326	7.1
635.741	7.04
636.155	6.97
636.57	6.9
636.984	6.83
637.399	6.74
637.813	6.66
638.228	6.6
638.642	6.52
639.056	6.45
639.47	6.37
639.884	6.31
640.298	6.23
640.712	6.15
641.126	6.07
641.54	5.99
641.954	5.93
642.368	5.85
642.781	5.78
643.195	5.7
643.609	5.64
644.022	5.58
644.436	5.51
644.849	5.46
645.262	5.42
645.676	5.37
646.089	5.34
646.502	5.28
646.915	5.25
647.328	5.22
647.741	5.18
648.154	5.15
648.567	5.11
648.98	5.09
649.393	5.07
649.805	5.03
650.218	5
650.631	4.97
651.043	4.94
651.456	4.93
651.868	4.91
652.28	4.9
652.693	4.88
653.105	4.85
653.517	4.83
653.929	4.81
654.341	4.8
654.753	4.78
655.165	4.76
655.577	4.73
655.989	4.69
656.401	4.65
656.813	4.61
657.224	4.58
657.636	4.55
658.047	4.52
658.459	4.48
658.87	4.44
659.282	4.42
659.693	4.4
660.104	4.37
660.515	4.35
660.926	4.32
661.338	4.29
661.749	4.28
662.159	4.26
662.57	4.24
662.981	4.21
663.392	4.18
663.803	4.17
664.213	4.17
664.624	4.17
665.035	4.15
665.445	4.17
665.855	4.18
666.266	4.17
666.676	4.16
667.086	4.16
667.497	4.18
667.907	4.16
668.317	4.16
668.727	4.15
669.137	4.15
669.547	4.16
669.956	4.16
670.366	4.17
670.776	4.19
671.186	4.22
671.595	4.24
672.005	4.26
672.414	4.3
672.824	4.34
673.233	4.38
673.642	4.41
674.052	4.43
674.461	4.46
674.87	4.48
675.279	4.5
675.688	4.52
676.097	4.54
676.506	4.57
676.915	4.6
677.323	4.62
677.732	4.64
678.141	4.68
678.549	4.72
678.958	4.75
679.366	4.79
679.775	4.83
680.183	4.87
680.592	4.91
681	4.95
681.408	5
681.816	5.03
682.224	5.09
682.632	5.13
683.04	5.18
683.448	5.23
683.856	5.31
684.264	5.39
684.671	5.46
685.079	5.54
685.487	5.66
685.894	5.77
686.302	5.89
686.709	6.04
687.116	6.21
687.524	6.41
687.931	6.62
688.338	6.86
688.745	7.12
689.152	7.41
689.559	7.73
689.966	8.06
690.373	8.45
690.78	8.86
691.187	9.29
691.593	9.74
692	10.21
692.407	10.71
692.813	11.24
693.22	11.77
693.626	12.35
694.032	12.95
694.439	13.57
694.845	14.2
695.251	14.85
695.657	15.52
696.063	16.22
696.469	16.93
696.875	17.64
697.281	18.37
697.687	19.12
698.093	19.85
698.498	20.6
698.904	21.35
699.31	22.09
699.715	22.86
700.12	23.61
700.526	24.36
700.931	25.11
701.337	25.87
701.742	26.6
702.147	27.34
702.552	28.07
702.957	28.79
703.362	29.53
703.767	30.26
704.172	30.95
704.577	31.65
704.981	32.36
705.386	33.03
705.791	33.72
706.195	34.42
706.6	35.08
707.004	35.77
707.408	36.45
707.813	37.09
708.217	37.75
708.621	38.4
709.025	39.04
709.43	39.68
709.834	40.32
710.237	40.92
710.641	41.55
711.045	42.18
711.449	42.78
711.853	43.37
712.256	43.98
712.66	44.56
713.064	45.14
713.467	45.73
713.87	46.32
714.274	46.93
714.677	47.52
715.08	48.05
715.484	48.64
715.887	49.2
716.29	49.75
716.693	50.28
717.096	50.82
717.499	51.38
717.901	51.86
718.304	52.36
718.707	52.84
719.109	53.33
719.512	53.85
719.915	54.31
720.317	54.79
720.719	55.26
721.122	55.7
721.524	56.11
721.926	56.53
722.328	56.97
722.731	57.37
723.133	57.77
723.535	58.19
723.937	58.55
724.338	58.9
724.74	59.27
725.142	59.58
725.544	59.94
725.945	60.33
726.347	60.66
726.748	60.96
727.15	61.26
727.551	61.56
727.952	61.81
728.354	62.11
728.755	62.4
729.156	62.65
729.557	62.94
729.958	63.18
730.359	63.39
730.76	63.6
731.161	63.84
731.562	64.05
731.962	64.27
732.363	64.47
732.763	64.67
733.164	64.81
733.564	64.98
733.965	65.11
734.365	65.27
734.766	65.43
735.166	65.58
735.566	65.72
735.966	65.86
736.366	65.96
736.766	66.1
737.166	66.2
737.566	66.31
737.966	66.45
738.365	66.59
738.765	66.7
739.165	66.78
739.564	66.91
739.964	67
740.363	67.09
740.763	67.17
741.162	67.26
741.561	67.34
741.96	67.45
742.36	67.52
742.759	67.58
743.158	67.63
743.557	67.71
743.955	67.77
744.354	67.85
744.753	67.95
745.152	68.03
745.55	68.08
745.949	68.14
746.348	68.2
746.746	68.27
747.144	68.36
747.543	68.46
747.941	68.56
748.339	68.61
748.737	68.67
749.136	68.71
749.534	68.76
749.932	68.79
750.33	68.8
750.727	68.83
751.125	68.84
751.523	68.83
751.921	68.83
752.318	68.83
752.716	68.84
753.113	68.83
753.511	68.82
753.908	68.82
754.305	68.82
754.703	68.83
755.1	68.84
755.497	68.87
755.894	68.89
756.291	68.9
756.688	68.89
757.085	68.89
757.482	68.93
757.878	68.96
758.275	68.98
758.672	69.01
759.068	69.07
759.465	69.08
759.861	69.07
760.258	69.06
760.654	69.09
761.05	69.12
761.447	69.1
761.843	69.05
762.239	69.03
762.635	69
763.031	68.99
763.427	68.95
763.822	68.9
764.218	68.87
764.614	68.9
765.01	68.85
765.405	68.8
765.801	68.8
766.196	68.81
766.592	68.82
766.987	68.84
767.382	68.84
767.778	68.84
768.173	68.88
768.568	68.83
768.963	68.79
769.358	68.8
769.753	68.82
770.148	68.8
770.542	68.79
770.937	68.81
771.332	68.82
771.726	68.78
772.121	68.74
772.515	68.71
772.91	68.78
773.304	68.77
773.699	68.73
774.093	68.72
774.487	68.78
774.881	68.79
775.275	68.76
775.669	68.73
776.063	68.73
776.457	68.76
776.851	68.76
777.245	68.75
777.638	68.75
778.032	68.78
778.425	68.75
778.819	68.71
779.212	68.68
779.606	68.7
779.999	68.66
780.392	68.71
780.786	68.7
781.179	68.74
781.572	68.71
781.965	68.72
782.358	68.69
782.751	68.73
783.143	68.73
783.536	68.8
783.929	68.8
784.322	68.87
784.714	68.85
785.107	68.88
785.499	68.86
785.891	68.89
