Data from N_2_hir_wi_4n_077_Splice17_10.txt Node
Date: Sat Feb 29 14:10:21 EST 2020
User: sa697716
Spectrometer: FLMS03696
Trigger mode: 0
Integration Time (sec): 3.180400E-1
Scans to average: 20
Electric dark correction enabled: true
Nonlinearity correction enabled: true
Boxcar width: 5
XAxis mode: Wavelengths
Number of Pixels in Spectrum: 2048
>>>>>Begin Spectral Data<<<<<
187.83	33.68
188.298	42.15
188.766	58.67
189.233	56.36
189.701	70.95
190.169	72.63
190.636	78.78
191.104	95.74
191.571	456.59
192.039	313.89
192.506	-548.65
192.974	-4529.19
193.441	658.3
193.908	63.85
194.375	130.48
194.842	305.52
195.31	177.33
195.777	186.19
196.244	55.82
196.711	31.71
197.177	25.67
197.644	23.99
198.111	22.6
198.578	22.51
199.045	21.97
199.511	22.08
199.978	22.09
200.445	21.5
200.911	21.08
201.378	21.38
201.844	21.53
202.31	22.42
202.777	22.75
203.243	23.01
203.709	23.48
204.176	23.36
204.642	23.21
205.108	23.13
205.574	23.69
206.04	24.29
206.506	24.08
206.972	23.57
207.438	22.86
207.903	22.52
208.369	22.29
208.835	22.13
209.301	21.86
209.766	21.63
210.232	21.11
210.697	20.92
211.163	20.35
211.628	19.89
212.094	19.67
212.559	19.19
213.024	18.76
213.49	18.62
213.955	18.07
214.42	17.69
214.885	16.95
215.35	16.4
215.815	15.29
216.28	14.06
216.745	13.02
217.21	11.93
217.675	10.95
218.14	9.8
218.604	8.65
219.069	7.92
219.534	7.21
219.998	6.62
220.463	6.21
220.927	5.88
221.392	5.64
221.856	5.34
222.32	5.08
222.785	4.86
223.249	4.69
223.713	4.56
224.177	4.36
224.642	4.27
225.106	4.18
225.57	4.02
226.034	3.91
226.497	3.78
226.961	3.67
227.425	3.55
227.889	3.46
228.353	3.39
228.816	3.34
229.28	3.28
229.744	3.21
230.207	3.16
230.671	3.11
231.134	3.05
231.597	2.98
232.061	2.93
232.524	2.92
232.987	2.9
233.45	2.85
233.914	2.81
234.377	2.79
234.84	2.75
235.303	2.72
235.766	2.68
236.229	2.65
236.691	2.63
237.154	2.61
237.617	2.57
238.08	2.53
238.542	2.5
239.005	2.46
239.468	2.43
239.93	2.42
240.393	2.38
240.855	2.36
241.317	2.33
241.78	2.31
242.242	2.29
242.704	2.27
243.166	2.26
243.629	2.24
244.091	2.22
244.553	2.21
245.015	2.19
245.477	2.16
245.939	2.14
246.4	2.12
246.862	2.1
247.324	2.09
247.786	2.08
248.247	2.05
248.709	2.02
249.17	2.01
249.632	1.97
250.093	1.93
250.555	1.93
251.016	1.92
251.477	1.9
251.939	1.89
252.4	1.86
252.861	1.84
253.322	1.82
253.783	1.83
254.244	1.81
254.705	1.81
255.166	1.82
255.627	1.81
256.088	1.79
256.549	1.77
257.009	1.76
257.47	1.77
257.931	1.75
258.391	1.73
258.852	1.71
259.312	1.69
259.773	1.68
260.233	1.66
260.694	1.64
261.154	1.62
261.614	1.6
262.074	1.59
262.534	1.56
262.994	1.55
263.455	1.54
263.915	1.53
264.374	1.51
264.834	1.5
265.294	1.48
265.754	1.47
266.214	1.46
266.673	1.46
267.133	1.44
267.593	1.44
268.052	1.43
268.512	1.42
268.971	1.41
269.431	1.41
269.89	1.4
270.349	1.39
270.809	1.39
271.268	1.38
271.727	1.38
272.186	1.37
272.645	1.37
273.104	1.37
273.563	1.36
274.022	1.36
274.481	1.35
274.94	1.34
275.399	1.35
275.857	1.34
276.316	1.34
276.775	1.33
277.233	1.32
277.692	1.32
278.15	1.31
278.609	1.31
279.067	1.3
279.525	1.29
279.984	1.29
280.442	1.29
280.9	1.29
281.358	1.28
281.816	1.28
282.274	1.27
282.732	1.28
283.19	1.28
283.648	1.28
284.106	1.28
284.564	1.28
285.021	1.29
285.479	1.29
285.937	1.28
286.394	1.29
286.852	1.29
287.309	1.3
287.767	1.29
288.224	1.28
288.682	1.28
289.139	1.28
289.596	1.27
290.053	1.25
290.511	1.24
290.968	1.24
291.425	1.23
291.882	1.23
292.339	1.22
292.796	1.21
293.252	1.21
293.709	1.2
294.166	1.19
294.623	1.19
295.079	1.19
295.536	1.19
295.992	1.19
296.449	1.19
296.905	1.18
297.362	1.17
297.818	1.17
298.274	1.17
298.731	1.17
299.187	1.17
299.643	1.16
300.099	1.16
300.555	1.16
301.011	1.16
301.467	1.15
301.923	1.15
302.379	1.15
302.835	1.16
303.291	1.16
303.746	1.15
304.202	1.15
304.658	1.15
305.113	1.14
305.569	1.14
306.024	1.14
306.479	1.14
306.935	1.14
307.39	1.14
307.845	1.14
308.301	1.14
308.756	1.15
309.211	1.16
309.666	1.16
310.121	1.17
310.576	1.17
311.031	1.18
311.486	1.18
311.94	1.18
312.395	1.19
312.85	1.18
313.305	1.18
313.759	1.18
314.214	1.18
314.668	1.18
315.123	1.18
315.577	1.18
316.032	1.18
316.486	1.18
316.94	1.18
317.394	1.18
317.849	1.17
318.303	1.17
318.757	1.16
319.211	1.16
319.665	1.15
320.119	1.15
320.572	1.15
321.026	1.15
321.48	1.14
321.934	1.14
322.387	1.13
322.841	1.13
323.295	1.13
323.748	1.13
324.202	1.13
324.655	1.13
325.108	1.13
325.562	1.12
326.015	1.12
326.468	1.11
326.921	1.11
327.374	1.12
327.827	1.11
328.28	1.11
328.733	1.11
329.186	1.11
329.639	1.1
330.092	1.1
330.545	1.11
330.997	1.13
331.45	1.13
331.903	1.14
332.355	1.14
332.808	1.14
333.26	1.14
333.713	1.15
334.165	1.15
334.617	1.16
335.069	1.17
335.522	1.16
335.974	1.16
336.426	1.16
336.878	1.17
337.33	1.16
337.782	1.17
338.234	1.17
338.686	1.17
339.137	1.18
339.589	1.17
340.041	1.16
340.493	1.15
340.944	1.15
341.396	1.16
341.847	1.15
342.299	1.14
342.75	1.13
343.201	1.12
343.653	1.12
344.104	1.11
344.555	1.11
345.006	1.11
345.457	1.1
345.908	1.1
346.359	1.1
346.81	1.11
347.261	1.11
347.712	1.12
348.163	1.11
348.613	1.11
349.064	1.1
349.515	1.09
349.965	1.09
350.416	1.09
350.866	1.09
351.317	1.08
351.767	1.08
352.217	1.07
352.668	1.07
353.118	1.07
353.568	1.08
354.018	1.09
354.468	1.09
354.918	1.11
355.368	1.11
355.818	1.1
356.268	1.11
356.718	1.1
357.168	1.1
357.617	1.1
358.067	1.09
358.517	1.09
358.966	1.09
359.416	1.1
359.865	1.09
360.315	1.1
360.764	1.1
361.213	1.09
361.663	1.1
362.112	1.11
362.561	1.12
363.01	1.13
363.459	1.12
363.908	1.12
364.357	1.12
364.806	1.12
365.255	1.12
365.703	1.13
366.152	1.14
366.601	1.14
367.05	1.14
367.498	1.15
367.947	1.14
368.395	1.16
368.844	1.15
369.292	1.15
369.74	1.16
370.189	1.15
370.637	1.15
371.085	1.15
371.533	1.15
371.981	1.16
372.429	1.15
372.877	1.15
373.325	1.15
373.773	1.16
374.221	1.17
374.669	1.18
375.116	1.18
375.564	1.18
376.012	1.19
376.459	1.2
376.907	1.21
377.354	1.22
377.801	1.24
378.249	1.25
378.696	1.26
379.143	1.28
379.591	1.29
380.038	1.31
380.485	1.31
380.932	1.32
381.379	1.33
381.826	1.34
382.273	1.34
382.72	1.35
383.166	1.36
383.613	1.37
384.06	1.38
384.506	1.39
384.953	1.4
385.4	1.42
385.846	1.42
386.292	1.45
386.739	1.47
387.185	1.49
387.631	1.51
388.078	1.52
388.524	1.53
388.97	1.55
389.416	1.56
389.862	1.58
390.308	1.59
390.754	1.62
391.2	1.64
391.645	1.67
392.091	1.68
392.537	1.69
392.983	1.72
393.428	1.75
393.874	1.78
394.319	1.81
394.765	1.83
395.21	1.85
395.655	1.87
396.101	1.88
396.546	1.91
396.991	1.93
397.436	1.95
397.881	1.97
398.326	2
398.771	2.03
399.216	2.06
399.661	2.1
400.106	2.13
400.551	2.14
400.995	2.16
401.44	2.16
401.885	2.18
402.329	2.21
402.774	2.22
403.218	2.23
403.663	2.24
404.107	2.25
404.551	2.26
404.995	2.28
405.44	2.29
405.884	2.31
406.328	2.33
406.772	2.36
407.216	2.38
407.66	2.4
408.104	2.41
408.547	2.42
408.991	2.43
409.435	2.44
409.879	2.45
410.322	2.47
410.766	2.48
411.209	2.5
411.653	2.51
412.096	2.52
412.54	2.53
412.983	2.54
413.426	2.56
413.869	2.59
414.312	2.62
414.756	2.64
415.199	2.66
415.642	2.69
416.085	2.7
416.527	2.72
416.97	2.73
417.413	2.74
417.856	2.75
418.298	2.77
418.741	2.77
419.184	2.78
419.626	2.78
420.069	2.77
420.511	2.78
420.953	2.78
421.396	2.79
421.838	2.8
422.28	2.83
422.722	2.85
423.164	2.84
423.606	2.85
424.048	2.86
424.49	2.87
424.932	2.87
425.374	2.88
425.816	2.88
426.258	2.88
426.699	2.88
427.141	2.85
427.582	2.84
428.024	2.85
428.465	2.84
428.907	2.84
429.348	2.84
429.789	2.86
430.231	2.86
430.672	2.87
431.113	2.88
431.554	2.88
431.995	2.91
432.436	2.91
432.877	2.9
433.318	2.9
433.759	2.91
434.2	2.92
434.64	2.92
435.081	2.92
435.522	2.92
435.962	2.92
436.403	2.94
436.843	2.93
437.284	2.94
437.724	2.98
438.164	2.99
438.604	3.02
439.045	3.03
439.485	3.04
439.925	3.06
440.365	3.05
440.805	3.06
441.245	3.05
441.685	3.07
442.125	3.09
442.564	3.1
443.004	3.09
443.444	3.1
443.883	3.09
444.323	3.09
444.762	3.12
445.202	3.14
445.641	3.17
446.081	3.2
446.52	3.22
446.959	3.24
447.398	3.27
447.837	3.33
448.276	3.35
448.716	3.37
449.154	3.41
449.593	3.44
450.032	3.45
450.471	3.47
450.91	3.47
451.349	3.47
451.787	3.47
452.226	3.46
452.664	3.44
453.103	3.44
453.541	3.45
453.98	3.44
454.418	3.41
454.856	3.4
455.295	3.4
455.733	3.4
456.171	3.4
456.609	3.4
457.047	3.4
457.485	3.4
457.923	3.39
458.361	3.38
458.798	3.38
459.236	3.39
459.674	3.4
460.111	3.39
460.549	3.38
460.987	3.39
461.424	3.37
461.862	3.38
462.299	3.39
462.736	3.39
463.173	3.41
463.611	3.42
464.048	3.43
464.485	3.43
464.922	3.42
465.359	3.44
465.796	3.42
466.233	3.45
466.67	3.47
467.106	3.44
467.543	3.45
467.98	3.45
468.416	3.46
468.853	3.45
469.29	3.46
469.726	3.46
470.162	3.46
470.599	3.48
471.035	3.49
471.471	3.5
471.907	3.5
472.344	3.49
472.78	3.49
473.216	3.5
473.652	3.49
474.088	3.48
474.523	3.49
474.959	3.5
475.395	3.49
475.831	3.49
476.266	3.47
476.702	3.48
477.138	3.48
477.573	3.47
478.008	3.47
478.444	3.49
478.879	3.49
479.314	3.5
479.75	3.49
480.185	3.49
480.62	3.48
481.055	3.48
481.49	3.47
481.925	3.47
482.36	3.47
482.795	3.47
483.229	3.46
483.664	3.46
484.099	3.45
484.534	3.46
484.968	3.47
485.403	3.47
485.837	3.47
486.271	3.48
486.706	3.49
487.14	3.51
487.574	3.52
488.009	3.54
488.443	3.56
488.877	3.57
489.311	3.59
489.745	3.6
490.179	3.62
490.613	3.65
491.046	3.68
491.48	3.71
491.914	3.73
492.348	3.76
492.781	3.79
493.215	3.82
493.648	3.86
494.082	3.9
494.515	3.94
494.948	3.99
495.382	4.04
495.815	4.08
496.248	4.13
496.681	4.18
497.114	4.23
497.547	4.3
497.98	4.38
498.413	4.45
498.846	4.53
499.279	4.61
499.711	4.68
500.144	4.77
500.577	4.86
501.009	4.95
501.442	5.06
501.874	5.16
502.306	5.26
502.739	5.35
503.171	5.47
503.603	5.58
504.036	5.71
504.468	5.84
504.9	5.98
505.332	6.13
505.764	6.29
506.196	6.44
506.627	6.6
507.059	6.76
507.491	6.94
507.923	7.12
508.354	7.31
508.786	7.49
509.217	7.66
509.649	7.86
510.08	8.06
510.512	8.26
510.943	8.48
511.374	8.7
511.805	8.92
512.237	9.14
512.668	9.38
513.099	9.62
513.53	9.86
513.961	10.12
514.391	10.36
514.822	10.6
515.253	10.85
515.684	11.08
516.114	11.34
516.545	11.62
516.975	11.91
517.406	12.18
517.836	12.43
518.267	12.71
518.697	12.99
519.127	13.25
519.558	13.53
519.988	13.79
520.418	14.05
520.848	14.31
521.278	14.56
521.708	14.67
522.138	14.89
522.567	15.13
522.997	15.34
523.427	15.56
523.857	15.79
524.286	16.02
524.716	16.25
525.145	16.46
525.575	16.65
526.004	16.84
526.433	17.16
526.863	17.37
527.292	17.55
527.721	17.74
528.15	17.9
528.579	18.07
529.008	18.22
529.437	18.36
529.866	18.5
530.295	18.64
530.724	18.77
531.152	18.9
531.581	19.01
532.01	19.13
532.438	19.24
532.867	19.34
533.295	19.42
533.723	19.53
534.152	19.61
534.58	19.69
535.008	19.74
535.436	19.8
535.865	19.85
536.293	19.93
536.721	19.98
537.149	20.03
537.576	20.09
538.004	20.15
538.432	20.17
538.86	20.21
539.287	20.27
539.715	20.33
540.143	20.36
540.57	20.39
540.998	20.43
541.425	20.46
541.852	20.49
542.28	20.51
542.707	20.53
543.134	20.56
543.561	20.58
543.988	20.6
544.415	20.64
544.842	20.67
545.269	20.72
545.696	20.74
546.123	20.78
546.549	20.81
546.976	20.85
547.403	20.87
547.829	20.89
548.256	20.92
548.682	20.93
549.108	20.94
549.535	20.98
549.961	20.96
550.387	20.97
550.813	20.97
551.24	20.96
551.666	20.98
552.092	20.97
552.518	20.97
552.943	20.97
553.369	20.95
553.795	20.93
554.221	20.9
554.646	20.88
555.072	20.86
555.498	20.81
555.923	20.79
556.349	20.73
556.774	20.68
557.199	20.63
557.625	20.55
558.05	20.49
558.475	20.42
558.9	20.35
559.325	20.3
559.75	20.21
560.175	20.14
560.6	20.06
561.025	19.97
561.449	19.89
561.874	19.8
562.299	19.7
562.723	19.62
563.148	19.52
563.572	19.41
563.997	19.29
564.421	19.16
564.846	19.02
565.27	18.88
565.694	18.75
566.118	18.63
566.542	18.5
566.966	18.37
567.39	18.23
567.814	18.08
568.238	17.92
568.662	17.78
569.086	17.64
569.509	17.52
569.933	17.37
570.357	17.22
570.78	17.07
571.204	16.92
571.627	16.79
572.05	16.65
572.474	16.53
572.897	16.42
573.32	16.28
573.743	16.15
574.166	16.01
574.589	15.89
575.012	15.79
575.435	15.67
575.858	15.56
576.281	15.45
576.704	15.34
577.126	15.24
577.549	15.15
577.972	15.05
578.394	14.96
578.817	14.89
579.239	14.81
579.661	14.73
580.084	14.64
580.506	14.56
580.928	14.49
581.35	14.42
581.772	14.34
582.194	14.27
582.616	14.2
583.038	14.15
583.46	14.09
583.882	14.03
584.303	13.98
584.725	13.92
585.147	13.85
585.568	13.78
585.99	13.74
586.411	13.69
586.833	13.63
587.254	13.59
587.675	13.53
588.096	13.48
588.518	13.44
588.939	13.41
589.36	13.38
589.781	13.34
590.202	13.31
590.623	13.25
591.043	13.2
591.464	13.17
591.885	13.14
592.305	13.11
592.726	13.06
593.147	13.03
593.567	12.98
593.987	12.96
594.408	12.94
594.828	12.92
595.248	12.89
595.669	12.89
596.089	12.86
596.509	12.82
596.929	12.79
597.349	12.77
597.769	12.74
598.189	12.71
598.608	12.67
599.028	12.63
599.448	12.58
599.867	12.55
600.287	12.49
600.706	12.45
601.126	12.4
601.545	12.35
601.965	12.3
602.384	12.24
602.803	12.18
603.222	12.13
603.641	12.07
604.061	12.02
604.48	11.97
604.898	11.9
605.317	11.83
605.736	11.78
606.155	11.72
606.574	11.64
606.992	11.58
607.411	11.52
607.829	11.42
608.248	11.35
608.666	11.27
609.085	11.18
609.503	11.1
609.921	11.02
610.339	10.94
610.758	10.86
611.176	10.78
611.594	10.7
612.012	10.61
612.43	10.59
612.847	10.5
613.265	10.44
613.683	10.36
614.101	10.3
614.518	10.23
614.936	10.17
615.353	10.11
615.771	10.04
616.188	9.98
616.606	9.92
617.023	9.86
617.44	9.82
617.857	9.76
618.274	9.72
618.691	9.68
619.108	9.65
619.525	9.61
619.942	9.58
620.359	9.55
620.776	9.51
621.192	9.49
621.609	9.47
622.026	9.45
622.442	9.43
622.859	9.4
623.275	9.39
623.691	9.37
624.108	9.36
624.524	9.34
624.94	9.33
625.356	9.31
625.772	9.31
626.188	9.29
626.604	9.27
627.02	9.27
627.436	9.27
627.852	9.24
628.268	9.22
628.683	9.21
629.099	9.2
629.514	9.19
629.93	9.19
630.345	9.16
630.761	9.13
631.176	9.11
631.591	9.08
632.007	9.04
632.422	9.01
632.837	8.98
633.252	8.94
633.667	8.88
634.082	8.84
634.497	8.77
634.911	8.71
635.326	8.65
635.741	8.58
636.155	8.52
636.57	8.45
636.984	8.35
637.399	8.26
637.813	8.16
638.228	8.07
638.642	7.97
639.056	7.88
639.47	7.78
639.884	7.69
640.298	7.6
640.712	7.49
641.126	7.39
641.54	7.3
641.954	7.22
642.368	7.12
642.781	7.04
643.195	6.93
643.609	6.83
644.022	6.75
644.436	6.66
644.849	6.57
645.262	6.49
645.676	6.4
646.089	6.32
646.502	6.24
646.915	6.19
647.328	6.12
647.741	6.07
648.154	6.03
648.567	5.97
648.98	5.93
649.393	5.89
649.805	5.84
650.218	5.8
650.631	5.77
651.043	5.73
651.456	5.69
651.868	5.64
652.28	5.6
652.693	5.55
653.105	5.5
653.517	5.44
653.929	5.38
654.341	5.34
654.753	5.27
655.165	5.22
655.577	5.15
655.989	5.08
656.401	5.01
656.813	4.93
657.224	4.86
657.636	4.8
658.047	4.73
658.459	4.66
658.87	4.57
659.282	4.52
659.693	4.44
660.104	4.37
660.515	4.3
660.926	4.23
661.338	4.17
661.749	4.09
662.159	4.02
662.57	3.96
662.981	3.9
663.392	3.85
663.803	3.79
664.213	3.73
664.624	3.68
665.035	3.64
665.445	3.6
665.855	3.57
666.266	3.55
666.676	3.52
667.086	3.48
667.497	3.44
667.907	3.41
668.317	3.39
668.727	3.37
669.137	3.36
669.547	3.37
669.956	3.36
670.366	3.36
670.776	3.35
671.186	3.35
671.595	3.36
672.005	3.38
672.414	3.39
672.824	3.41
673.233	3.43
673.642	3.44
674.052	3.45
674.461	3.46
674.87	3.49
675.279	3.51
675.688	3.53
676.097	3.56
676.506	3.59
676.915	3.62
677.323	3.64
677.732	3.67
678.141	3.71
678.549	3.75
678.958	3.79
679.366	3.82
679.775	3.87
680.183	3.92
680.592	3.97
681	4.02
681.408	4.08
681.816	4.17
682.224	4.25
682.632	4.35
683.04	4.45
683.448	4.56
683.856	4.71
684.264	4.85
684.671	5.02
685.079	5.2
685.487	5.41
685.894	5.64
686.302	5.87
686.709	6.12
687.116	6.4
687.524	6.7
687.931	7.02
688.338	7.36
688.745	7.72
689.152	8.08
689.559	8.48
689.966	8.88
690.373	9.32
690.78	9.78
691.187	10.25
691.593	10.71
692	11.2
692.407	11.7
692.813	12.19
693.22	12.7
693.626	13.22
694.032	13.74
694.439	14.28
694.845	14.79
695.251	15.31
695.657	15.84
696.063	16.37
696.469	16.89
696.875	17.4
697.281	17.93
697.687	18.46
698.093	18.98
698.498	19.52
698.904	20
699.31	20.49
699.715	20.98
700.12	21.46
700.526	21.94
700.931	22.42
701.337	22.88
701.742	23.31
702.147	23.75
702.552	24.2
702.957	24.6
703.362	25.04
703.767	25.46
704.172	25.89
704.577	26.29
704.981	26.69
705.386	27.09
705.791	27.48
706.195	27.86
706.6	28.25
707.004	28.6
707.408	28.97
707.813	29.31
708.217	29.64
708.621	29.97
709.025	30.34
709.43	30.65
709.834	30.99
710.237	31.29
710.641	31.62
711.045	31.9
711.449	32.22
711.853	32.53
712.256	32.83
712.66	33.13
713.064	33.41
713.467	33.69
713.87	33.95
714.274	34.22
714.677	34.5
715.08	34.73
715.484	35.01
715.887	35.25
716.29	35.49
716.693	35.74
717.096	35.99
717.499	36.25
717.901	36.48
718.304	36.72
718.707	36.94
719.109	37.16
719.512	37.41
719.915	37.62
720.317	37.84
720.719	38.03
721.122	38.23
721.524	38.41
721.926	38.57
722.328	38.78
722.731	38.95
723.133	39.13
723.535	39.3
723.937	39.47
724.338	39.62
724.74	39.76
725.142	39.9
725.544	40.05
725.945	40.17
726.347	40.31
726.748	40.39
727.15	40.52
727.551	40.64
727.952	40.75
728.354	40.87
728.755	41.01
729.156	41.12
729.557	41.25
729.958	41.37
730.359	41.47
730.76	41.54
731.161	41.65
731.562	41.75
731.962	41.8
732.363	41.88
732.763	41.94
733.164	41.99
733.564	42.06
733.965	42.11
734.365	42.16
734.766	42.23
735.166	42.28
735.566	42.32
735.966	42.34
736.366	42.4
736.766	42.44
737.166	42.49
737.566	42.52
737.966	42.58
738.365	42.62
738.765	42.68
739.165	42.73
739.564	42.79
739.964	42.84
740.363	42.91
740.763	42.94
741.162	42.98
741.561	43.02
741.96	43.06
742.36	43.1
742.759	43.1
743.158	43.08
743.557	43.1
743.955	43.14
744.354	43.2
744.753	43.21
745.152	43.21
745.55	43.25
745.949	43.29
746.348	43.31
746.746	43.32
747.144	43.37
747.543	43.42
747.941	43.46
748.339	43.5
748.737	43.52
749.136	43.54
749.534	43.61
749.932	43.61
750.33	43.61
750.727	43.64
751.125	43.65
751.523	43.66
751.921	43.68
752.318	43.68
752.716	43.67
753.113	43.65
753.511	43.63
753.908	43.63
754.305	43.61
754.703	43.58
755.1	43.56
755.497	43.54
755.894	43.51
756.291	43.49
756.688	43.48
757.085	43.45
757.482	43.45
757.878	43.45
758.275	43.43
758.672	43.46
759.068	43.48
759.465	43.49
759.861	43.52
760.258	43.52
760.654	43.5
761.05	43.52
761.447	43.51
761.843	43.49
762.239	43.51
762.635	43.52
763.031	43.53
763.427	43.51
763.822	43.48
764.218	43.46
764.614	43.48
765.01	43.49
765.405	43.47
765.801	43.49
766.196	43.5
766.592	43.52
766.987	43.54
767.382	43.5
767.778	43.52
768.173	43.53
768.568	43.52
768.963	43.51
769.358	43.5
769.753	43.51
770.148	43.52
770.542	43.52
770.937	43.48
771.332	43.46
771.726	43.47
772.121	43.43
772.515	43.44
772.91	43.44
773.304	43.43
773.699	43.45
774.093	43.42
774.487	43.4
774.881	43.4
775.275	43.4
775.669	43.41
776.063	43.39
776.457	43.37
776.851	43.33
777.245	43.34
777.638	43.35
778.032	43.34
778.425	43.37
778.819	43.39
779.212	43.37
779.606	43.38
779.999	43.36
780.392	43.37
780.786	43.41
781.179	43.45
781.572	43.46
781.965	43.47
782.358	43.46
782.751	43.45
783.143	43.47
783.536	43.52
783.929	43.52
