Data from N_2_div_il_4n_081_Splice17_06.txt Node
Date: Sat Feb 29 14:12:23 EST 2020
User: sa697716
Spectrometer: FLMS03696
Trigger mode: 0
Integration Time (sec): 3.180400E-1
Scans to average: 20
Electric dark correction enabled: true
Nonlinearity correction enabled: true
Boxcar width: 5
XAxis mode: Wavelengths
Number of Pixels in Spectrum: 2048
>>>>>Begin Spectral Data<<<<<
187.83	101.52
188.298	101.9
188.766	78.64
189.233	77.93
189.701	83.6
190.169	73.58
190.636	71.95
191.104	46.75
191.571	98.13
192.039	146.37
192.506	-111.62
192.974	3467.05
193.441	22.38
193.908	14.88
194.375	-36.32
194.842	18.89
195.31	-16.37
195.777	-22.6
196.244	12.3
196.711	33.55
197.177	34.74
197.644	37.24
198.111	37.19
198.578	37.84
199.045	38.7
199.511	39.71
199.978	40.24
200.445	40.46
200.911	40.54
201.378	40.9
201.844	41.79
202.31	42.42
202.777	42.54
203.243	43.36
203.709	43.86
204.176	43.34
204.642	43.36
205.108	42.63
205.574	42.89
206.04	42.78
206.506	42.36
206.972	41.8
207.438	41.6
207.903	41.52
208.369	40.2
208.835	39.54
209.301	39.31
209.766	38.82
210.232	38.89
210.697	38.32
211.163	37.8
211.628	37.51
212.094	36.94
212.559	36.26
213.024	35.83
213.49	35.46
213.955	35
214.42	34.19
214.885	33.01
215.35	31.93
215.815	30.39
216.28	28.9
216.745	27.59
217.21	26.19
217.675	24.81
218.14	23.26
218.604	21.93
219.069	20.77
219.534	19.77
219.998	18.99
220.463	18.26
220.927	17.69
221.392	17.2
221.856	16.68
222.32	16.22
222.785	15.8
223.249	15.45
223.713	15.19
224.177	14.9
224.642	14.69
225.106	14.42
225.57	14.17
226.034	13.94
226.497	13.74
226.961	13.5
227.425	13.28
227.889	13.1
228.353	12.91
228.816	12.73
229.28	12.53
229.744	12.38
230.207	12.22
230.671	12.07
231.134	11.91
231.597	11.73
232.061	11.6
232.524	11.47
232.987	11.32
233.45	11.19
233.914	11.04
234.377	10.93
234.84	10.79
235.303	10.67
235.766	10.54
236.229	10.44
236.691	10.35
237.154	10.23
237.617	10.15
238.08	10.06
238.542	9.96
239.005	9.86
239.468	9.76
239.93	9.68
240.393	9.6
240.855	9.51
241.317	9.43
241.78	9.34
242.242	9.25
242.704	9.15
243.166	9.06
243.629	8.98
244.091	8.89
244.553	8.82
245.015	8.74
245.477	8.65
245.939	8.58
246.4	8.5
246.862	8.43
247.324	8.37
247.786	8.31
248.247	8.24
248.709	8.19
249.17	8.12
249.632	8.05
250.093	7.97
250.555	7.91
251.016	7.86
251.477	7.79
251.939	7.73
252.4	7.67
252.861	7.61
253.322	7.56
253.783	7.51
254.244	7.48
254.705	7.43
255.166	7.41
255.627	7.37
256.088	7.31
256.549	7.27
257.009	7.23
257.47	7.19
257.931	7.15
258.391	7.1
258.852	7.05
259.312	7
259.773	6.96
260.233	6.9
260.694	6.86
261.154	6.81
261.614	6.77
262.074	6.73
262.534	6.68
262.994	6.65
263.455	6.61
263.915	6.56
264.374	6.52
264.834	6.48
265.294	6.45
265.754	6.41
266.214	6.38
266.673	6.35
267.133	6.31
267.593	6.29
268.052	6.26
268.512	6.23
268.971	6.21
269.431	6.19
269.89	6.17
270.349	6.15
270.809	6.13
271.268	6.12
271.727	6.1
272.186	6.08
272.645	6.05
273.104	6.04
273.563	6.03
274.022	6.01
274.481	5.99
274.94	5.96
275.399	5.94
275.857	5.92
276.316	5.89
276.775	5.87
277.233	5.85
277.692	5.84
278.15	5.81
278.609	5.79
279.067	5.77
279.525	5.75
279.984	5.74
280.442	5.72
280.9	5.7
281.358	5.69
281.816	5.67
282.274	5.64
282.732	5.63
283.19	5.61
283.648	5.6
284.106	5.59
284.564	5.59
285.021	5.57
285.479	5.56
285.937	5.55
286.394	5.54
286.852	5.54
287.309	5.52
287.767	5.51
288.224	5.5
288.682	5.48
289.139	5.47
289.596	5.44
290.053	5.41
290.511	5.39
290.968	5.37
291.425	5.34
291.882	5.32
292.339	5.3
292.796	5.26
293.252	5.24
293.709	5.21
294.166	5.19
294.623	5.17
295.079	5.16
295.536	5.14
295.992	5.12
296.449	5.1
296.905	5.08
297.362	5.06
297.818	5.05
298.274	5.04
298.731	5.03
299.187	5.02
299.643	5
300.099	4.99
300.555	4.97
301.011	4.95
301.467	4.94
301.923	4.94
302.379	4.93
302.835	4.91
303.291	4.9
303.746	4.89
304.202	4.87
304.658	4.87
305.113	4.85
305.569	4.85
306.024	4.85
306.479	4.83
306.935	4.83
307.39	4.82
307.845	4.82
308.301	4.81
308.756	4.81
309.211	4.81
309.666	4.8
310.121	4.79
310.576	4.78
311.031	4.77
311.486	4.78
311.94	4.76
312.395	4.75
312.85	4.75
313.305	4.74
313.759	4.73
314.214	4.73
314.668	4.73
315.123	4.73
315.577	4.73
316.032	4.73
316.486	4.73
316.94	4.73
317.394	4.71
317.849	4.7
318.303	4.69
318.757	4.68
319.211	4.65
319.665	4.64
320.119	4.62
320.572	4.61
321.026	4.6
321.48	4.58
321.934	4.57
322.387	4.55
322.841	4.54
323.295	4.53
323.748	4.52
324.202	4.51
324.655	4.51
325.108	4.5
325.562	4.48
326.015	4.47
326.468	4.46
326.921	4.45
327.374	4.44
327.827	4.43
328.28	4.43
328.733	4.42
329.186	4.41
329.639	4.41
330.092	4.4
330.545	4.41
330.997	4.41
331.45	4.41
331.903	4.41
332.355	4.42
332.808	4.43
333.26	4.43
333.713	4.44
334.165	4.44
334.617	4.44
335.069	4.43
335.522	4.43
335.974	4.44
336.426	4.44
336.878	4.43
337.33	4.44
337.782	4.43
338.234	4.44
338.686	4.43
339.137	4.43
339.589	4.43
340.041	4.43
340.493	4.42
340.944	4.41
341.396	4.4
341.847	4.39
342.299	4.36
342.75	4.34
343.201	4.32
343.653	4.3
344.104	4.29
344.555	4.28
345.006	4.26
345.457	4.24
345.908	4.24
346.359	4.22
346.81	4.22
347.261	4.21
347.712	4.2
348.163	4.2
348.613	4.19
349.064	4.17
349.515	4.15
349.965	4.15
350.416	4.14
350.866	4.14
351.317	4.13
351.767	4.13
352.217	4.14
352.668	4.14
353.118	4.14
353.568	4.14
354.018	4.16
354.468	4.16
354.918	4.17
355.368	4.18
355.818	4.17
356.268	4.17
356.718	4.16
357.168	4.15
357.617	4.16
358.067	4.15
358.517	4.14
358.966	4.14
359.416	4.15
359.865	4.15
360.315	4.14
360.764	4.14
361.213	4.15
361.663	4.15
362.112	4.16
362.561	4.17
363.01	4.18
363.459	4.17
363.908	4.16
364.357	4.16
364.806	4.15
365.255	4.16
365.703	4.15
366.152	4.15
366.601	4.14
367.05	4.13
367.498	4.13
367.947	4.12
368.395	4.13
368.844	4.12
369.292	4.12
369.74	4.13
370.189	4.12
370.637	4.12
371.085	4.12
371.533	4.11
371.981	4.12
372.429	4.11
372.877	4.11
373.325	4.1
373.773	4.11
374.221	4.11
374.669	4.11
375.116	4.1
375.564	4.1
376.012	4.1
376.459	4.11
376.907	4.11
377.354	4.12
377.801	4.12
378.249	4.14
378.696	4.14
379.143	4.15
379.591	4.16
380.038	4.17
380.485	4.18
380.932	4.2
381.379	4.2
381.826	4.21
382.273	4.22
382.72	4.23
383.166	4.23
383.613	4.24
384.06	4.25
384.506	4.26
384.953	4.26
385.4	4.27
385.846	4.27
386.292	4.29
386.739	4.29
387.185	4.31
387.631	4.34
388.078	4.34
388.524	4.34
388.97	4.35
389.416	4.36
389.862	4.38
390.308	4.39
390.754	4.41
391.2	4.44
391.645	4.47
392.091	4.48
392.537	4.49
392.983	4.52
393.428	4.55
393.874	4.57
394.319	4.61
394.765	4.62
395.21	4.64
395.655	4.65
396.101	4.66
396.546	4.68
396.991	4.69
397.436	4.69
397.881	4.72
398.326	4.75
398.771	4.78
399.216	4.8
399.661	4.83
400.106	4.86
400.551	4.88
400.995	4.91
401.44	4.92
401.885	4.93
402.329	4.96
402.774	4.97
403.218	4.98
403.663	4.99
404.107	5.01
404.551	5.03
404.995	5.06
405.44	5.07
405.884	5.08
406.328	5.09
406.772	5.13
407.216	5.16
407.66	5.18
408.104	5.2
408.547	5.22
408.991	5.22
409.435	5.22
409.879	5.23
410.322	5.26
410.766	5.3
411.209	5.32
411.653	5.32
412.096	5.32
412.54	5.34
412.983	5.35
413.426	5.37
413.869	5.39
414.312	5.42
414.756	5.44
415.199	5.46
415.642	5.48
416.085	5.51
416.527	5.54
416.97	5.56
417.413	5.56
417.856	5.56
418.298	5.56
418.741	5.57
419.184	5.58
419.626	5.58
420.069	5.59
420.511	5.59
420.953	5.59
421.396	5.6
421.838	5.62
422.28	5.64
422.722	5.67
423.164	5.68
423.606	5.69
424.048	5.67
424.49	5.7
424.932	5.69
425.374	5.69
425.816	5.68
426.258	5.65
426.699	5.63
427.141	5.62
427.582	5.61
428.024	5.63
428.465	5.64
428.907	5.67
429.348	5.68
429.789	5.68
430.231	5.67
430.672	5.69
431.113	5.72
431.554	5.74
431.995	5.77
432.436	5.79
432.877	5.78
433.318	5.79
433.759	5.78
434.2	5.77
434.64	5.8
435.081	5.83
435.522	5.87
435.962	5.88
436.403	5.9
436.843	5.91
437.284	5.91
437.724	5.94
438.164	5.96
438.604	5.98
439.045	6.01
439.485	6.03
439.925	6.03
440.365	6.01
440.805	6.01
441.245	6
441.685	6.02
442.125	6.04
442.564	6.03
443.004	6.03
443.444	6.04
443.883	6.04
444.323	6.05
444.762	6.1
445.202	6.13
445.641	6.15
446.081	6.18
446.52	6.17
446.959	6.17
447.398	6.23
447.837	6.27
448.276	6.29
448.716	6.31
449.154	6.34
449.593	6.36
450.032	6.36
450.471	6.38
450.91	6.39
451.349	6.42
451.787	6.42
452.226	6.39
452.664	6.37
453.103	6.36
453.541	6.35
453.98	6.33
454.418	6.3
454.856	6.28
455.295	6.26
455.733	6.24
456.171	6.23
456.609	6.22
457.047	6.22
457.485	6.22
457.923	6.21
458.361	6.2
458.798	6.2
459.236	6.22
459.674	6.22
460.111	6.23
460.549	6.23
460.987	6.23
461.424	6.22
461.862	6.23
462.299	6.21
462.736	6.22
463.173	6.23
463.611	6.22
464.048	6.23
464.485	6.23
464.922	6.21
465.359	6.22
465.796	6.2
466.233	6.21
466.67	6.22
467.106	6.21
467.543	6.22
467.98	6.22
468.416	6.24
468.853	6.23
469.29	6.24
469.726	6.26
470.162	6.25
470.599	6.26
471.035	6.28
471.471	6.26
471.907	6.27
472.344	6.26
472.78	6.25
473.216	6.24
473.652	6.23
474.088	6.23
474.523	6.22
474.959	6.2
475.395	6.2
475.831	6.21
476.266	6.22
476.702	6.22
477.138	6.21
477.573	6.2
478.008	6.18
478.444	6.17
478.879	6.16
479.314	6.14
479.75	6.15
480.185	6.14
480.62	6.12
481.055	6.11
481.49	6.08
481.925	6.07
482.36	6.06
482.795	6.05
483.229	6.05
483.664	6.04
484.099	6.04
484.534	6.03
484.968	6.02
485.403	6.01
485.837	6.01
486.271	6.01
486.706	6.02
487.14	6.03
487.574	6.04
488.009	6.05
488.443	6.07
488.877	6.08
489.311	6.09
489.745	6.12
490.179	6.13
490.613	6.14
491.046	6.17
491.48	6.2
491.914	6.21
492.348	6.23
492.781	6.25
493.215	6.27
493.648	6.3
494.082	6.34
494.515	6.38
494.948	6.42
495.382	6.46
495.815	6.5
496.248	6.54
496.681	6.58
497.114	6.63
497.547	6.67
497.98	6.74
498.413	6.79
498.846	6.86
499.279	6.94
499.711	7.01
500.144	7.08
500.577	7.16
501.009	7.24
501.442	7.34
501.874	7.42
502.306	7.52
502.739	7.61
503.171	7.72
503.603	7.83
504.036	7.94
504.468	8.07
504.9	8.21
505.332	8.35
505.764	8.5
506.196	8.67
506.627	8.85
507.059	9.02
507.491	9.21
507.923	9.39
508.354	9.57
508.786	9.77
509.217	9.97
509.649	10.19
510.08	10.4
510.512	10.63
510.943	10.85
511.374	11.09
511.805	11.33
512.237	11.58
512.668	11.84
513.099	12.12
513.53	12.4
513.961	12.7
514.391	12.98
514.822	13.28
515.253	13.58
515.684	13.88
516.114	14.19
516.545	14.51
516.975	14.84
517.406	15.17
517.836	15.48
518.267	15.8
518.697	16.13
519.127	16.46
519.558	16.78
519.988	17.11
520.418	17.42
520.848	17.74
521.278	18.06
521.708	18.35
522.138	18.65
522.567	18.95
522.997	19.24
523.427	19.53
523.857	19.81
524.286	20.11
524.716	20.36
525.145	20.65
525.575	20.89
526.004	21.15
526.433	21.4
526.863	21.65
527.292	21.89
527.721	22.12
528.15	22.31
528.579	22.52
529.008	22.71
529.437	22.89
529.866	23.06
530.295	23.24
530.724	23.4
531.152	23.57
531.581	23.72
532.01	23.85
532.438	23.99
532.867	24.14
533.295	24.26
533.723	24.38
534.152	24.49
534.58	24.59
535.008	24.68
535.436	24.77
535.865	24.83
536.293	24.92
536.721	24.98
537.149	25.05
537.576	25.09
538.004	25.15
538.432	25.2
538.86	25.27
539.287	25.33
539.715	25.37
540.143	25.41
540.57	25.45
540.998	25.48
541.425	25.53
541.852	25.57
542.28	25.61
542.707	25.65
543.134	25.67
543.561	25.67
543.988	25.7
544.415	25.75
544.842	25.8
545.269	25.86
545.696	25.9
546.123	25.92
546.549	25.95
546.976	25.99
547.403	26
547.829	26.05
548.256	26.1
548.682	26.11
549.108	26.13
549.535	26.15
549.961	26.15
550.387	26.15
550.813	26.16
551.24	26.17
551.666	26.16
552.092	26.17
552.518	26.14
552.943	26.14
553.369	26.13
553.795	26.12
554.221	26.06
554.646	26.03
555.072	25.98
555.498	25.93
555.923	25.89
556.349	25.82
556.774	25.76
557.199	25.72
557.625	25.62
558.05	25.52
558.475	25.43
558.9	25.33
559.325	25.22
559.75	25.11
560.175	24.99
560.6	24.86
561.025	24.73
561.449	24.58
561.874	24.42
562.299	24.29
562.723	24.16
563.148	24.01
563.572	23.87
563.997	23.71
564.421	23.55
564.846	23.39
565.27	23.21
565.694	23.04
566.118	22.87
566.542	22.71
566.966	22.51
567.39	22.31
567.814	22.13
568.238	21.93
568.662	21.74
569.086	21.54
569.509	21.36
569.933	21.16
570.357	20.96
570.78	20.77
571.204	20.57
571.627	20.4
572.05	20.23
572.474	20.05
572.897	19.89
573.32	19.72
573.743	19.57
574.166	19.41
574.589	19.27
575.012	19.13
575.435	18.98
575.858	18.85
576.281	18.71
576.704	18.56
577.126	18.45
577.549	18.32
577.972	18.2
578.394	18.07
578.817	17.95
579.239	17.84
579.661	17.73
580.084	17.63
580.506	17.53
580.928	17.42
581.35	17.34
581.772	17.24
582.194	17.16
582.616	17.08
583.038	17
583.46	16.91
583.882	16.84
584.303	16.77
584.725	16.69
585.147	16.59
585.568	16.52
585.99	16.45
586.411	16.38
586.833	16.31
587.254	16.24
587.675	16.2
588.096	16.16
588.518	16.08
588.939	16.03
589.36	15.98
589.781	15.94
590.202	15.9
590.623	15.85
591.043	15.8
591.464	15.75
591.885	15.71
592.305	15.65
592.726	15.6
593.147	15.58
593.567	15.54
593.987	15.51
594.408	15.48
594.828	15.45
595.248	15.42
595.669	15.4
596.089	15.36
596.509	15.3
596.929	15.28
597.349	15.24
597.769	15.19
598.189	15.16
598.608	15.12
599.028	15.06
599.448	15.01
599.867	14.95
600.287	14.89
600.706	14.85
601.126	14.81
601.545	14.74
601.965	14.7
602.384	14.64
602.803	14.56
603.222	14.49
603.641	14.45
604.061	14.37
604.48	14.31
604.898	14.23
605.317	14.15
605.736	14.08
606.155	14
606.574	13.92
606.992	13.84
607.411	13.78
607.829	13.66
608.248	13.58
608.666	13.5
609.085	13.42
609.503	13.33
609.921	13.25
610.339	13.18
610.758	13.12
611.176	13.03
611.594	12.93
612.012	12.85
612.43	12.81
612.847	12.74
613.265	12.66
613.683	12.59
614.101	12.51
614.518	12.44
614.936	12.36
615.353	12.28
615.771	12.21
616.188	12.17
616.606	12.1
617.023	12.03
617.44	11.97
617.857	11.91
618.274	11.86
618.691	11.82
619.108	11.77
619.525	11.72
619.942	11.67
620.359	11.63
620.776	11.59
621.192	11.55
621.609	11.51
622.026	11.48
622.442	11.45
622.859	11.41
623.275	11.4
623.691	11.39
624.108	11.38
624.524	11.37
624.94	11.36
625.356	11.35
625.772	11.34
626.188	11.35
626.604	11.33
627.02	11.32
627.436	11.33
627.852	11.31
628.268	11.28
628.683	11.26
629.099	11.24
629.514	11.23
629.93	11.21
630.345	11.17
630.761	11.13
631.176	11.09
631.591	11.06
632.007	11.01
632.422	10.97
632.837	10.92
633.252	10.88
633.667	10.83
634.082	10.77
634.497	10.71
634.911	10.64
635.326	10.56
635.741	10.49
636.155	10.42
636.57	10.33
636.984	10.22
637.399	10.12
637.813	10
638.228	9.89
638.642	9.79
639.056	9.68
639.47	9.58
639.884	9.47
640.298	9.38
640.712	9.25
641.126	9.16
641.54	9.05
641.954	8.97
642.368	8.86
642.781	8.75
643.195	8.65
643.609	8.55
644.022	8.46
644.436	8.37
644.849	8.28
645.262	8.21
645.676	8.12
646.089	8.04
646.502	7.98
646.915	7.94
647.328	7.88
647.741	7.81
648.154	7.77
648.567	7.74
648.98	7.71
649.393	7.69
649.805	7.64
650.218	7.62
650.631	7.59
651.043	7.57
651.456	7.53
651.868	7.5
652.28	7.49
652.693	7.44
653.105	7.4
653.517	7.35
653.929	7.3
654.341	7.27
654.753	7.21
655.165	7.16
655.577	7.08
655.989	7.04
656.401	6.97
656.813	6.9
657.224	6.84
657.636	6.79
658.047	6.73
658.459	6.66
658.87	6.6
659.282	6.55
659.693	6.5
660.104	6.45
660.515	6.39
660.926	6.35
661.338	6.31
661.749	6.25
662.159	6.2
662.57	6.16
662.981	6.12
663.392	6.07
663.803	6.03
664.213	6
664.624	5.98
665.035	5.95
665.445	5.92
665.855	5.89
666.266	5.87
666.676	5.85
667.086	5.82
667.497	5.81
667.907	5.79
668.317	5.77
668.727	5.76
669.137	5.74
669.547	5.74
669.956	5.73
670.366	5.75
670.776	5.77
671.186	5.78
671.595	5.79
672.005	5.79
672.414	5.82
672.824	5.84
673.233	5.86
673.642	5.87
674.052	5.89
674.461	5.91
674.87	5.92
675.279	5.94
675.688	5.96
676.097	5.98
676.506	6.02
676.915	6.04
677.323	6.07
677.732	6.11
678.141	6.16
678.549	6.2
678.958	6.25
679.366	6.3
679.775	6.35
680.183	6.4
680.592	6.46
681	6.52
681.408	6.6
681.816	6.65
682.224	6.72
682.632	6.81
683.04	6.9
683.448	7
683.856	7.1
684.264	7.24
684.671	7.37
685.079	7.52
685.487	7.7
685.894	7.9
686.302	8.12
686.709	8.36
687.116	8.63
687.524	8.92
687.931	9.24
688.338	9.61
688.745	9.98
689.152	10.39
689.559	10.81
689.966	11.26
690.373	11.76
690.78	12.27
691.187	12.81
691.593	13.36
692	13.96
692.407	14.56
692.813	15.16
693.22	15.79
693.626	16.45
694.032	17.12
694.439	17.82
694.845	18.5
695.251	19.2
695.657	19.89
696.063	20.61
696.469	21.31
696.875	22.01
697.281	22.71
697.687	23.45
698.093	24.16
698.498	24.86
698.904	25.55
699.31	26.24
699.715	26.96
700.12	27.65
700.526	28.35
700.931	29.03
701.337	29.72
701.742	30.39
702.147	31.05
702.552	31.71
702.957	32.38
703.362	33.02
703.767	33.65
704.172	34.28
704.577	34.92
704.981	35.54
705.386	36.16
705.791	36.77
706.195	37.35
706.6	37.95
707.004	38.52
707.408	39.08
707.813	39.65
708.217	40.22
708.621	40.75
709.025	41.27
709.43	41.76
709.834	42.3
710.237	42.81
710.641	43.35
711.045	43.85
711.449	44.35
711.853	44.86
712.256	45.38
712.66	45.88
713.064	46.39
713.467	46.87
713.87	47.38
714.274	47.85
714.677	48.3
715.08	48.73
715.484	49.19
715.887	49.64
716.29	50.07
716.693	50.46
717.096	50.88
717.499	51.28
717.901	51.67
718.304	52.05
718.707	52.41
719.109	52.82
719.512	53.22
719.915	53.56
720.317	53.92
720.719	54.26
721.122	54.61
721.524	54.93
721.926	55.24
722.328	55.6
722.731	55.89
723.133	56.21
723.535	56.54
723.937	56.82
724.338	57.08
724.74	57.37
725.142	57.58
725.544	57.82
725.945	58.06
726.347	58.35
726.748	58.53
727.15	58.77
727.551	58.97
727.952	59.12
728.354	59.36
728.755	59.57
729.156	59.74
729.557	59.98
729.958	60.17
730.359	60.33
730.76	60.43
731.161	60.62
731.562	60.78
731.962	60.96
732.363	61.08
732.763	61.2
733.164	61.33
733.564	61.45
733.965	61.54
734.365	61.64
734.766	61.75
735.166	61.89
735.566	61.95
735.966	62.05
736.366	62.11
736.766	62.21
737.166	62.31
737.566	62.36
737.966	62.45
738.365	62.56
738.765	62.66
739.165	62.71
739.564	62.78
739.964	62.84
740.363	62.9
740.763	62.97
741.162	63.04
741.561	63.09
741.96	63.17
742.36	63.22
742.759	63.24
743.158	63.26
743.557	63.34
743.955	63.42
744.354	63.51
744.753	63.59
745.152	63.65
745.55	63.69
745.949	63.73
746.348	63.81
746.746	63.86
747.144	63.95
747.543	64.02
747.941	64.09
748.339	64.14
748.737	64.18
749.136	64.2
749.534	64.25
749.932	64.3
750.33	64.35
750.727	64.37
751.125	64.4
751.523	64.34
751.921	64.35
752.318	64.34
752.716	64.34
753.113	64.34
753.511	64.32
753.908	64.3
754.305	64.29
754.703	64.26
755.1	64.22
755.497	64.21
755.894	64.24
756.291	64.24
756.688	64.23
757.085	64.21
757.482	64.2
757.878	64.22
758.275	64.25
758.672	64.28
759.068	64.29
759.465	64.29
759.861	64.29
760.258	64.27
760.654	64.25
761.05	64.26
761.447	64.27
761.843	64.26
762.239	64.25
762.635	64.19
763.031	64.15
763.427	64.09
763.822	64.07
764.218	64.03
764.614	64.02
765.01	64
765.405	64
765.801	63.94
766.196	63.93
766.592	63.93
766.987	63.95
767.382	63.97
767.778	64.01
768.173	64.05
768.568	64.05
768.963	64.08
769.358	64.11
769.753	64.11
770.148	64.09
770.542	64.09
770.937	64.07
771.332	64.08
771.726	64.05
772.121	63.99
772.515	63.99
772.91	64
773.304	63.97
773.699	63.91
774.093	63.91
774.487	63.98
774.881	63.96
775.275	63.97
775.669	63.96
776.063	63.96
776.457	63.95
776.851	63.9
777.245	63.91
777.638	63.92
778.032	63.96
778.425	63.96
778.819	63.95
779.212	63.95
779.606	63.93
779.999	63.95
780.392	63.99
780.786	64
781.179	64.05
781.572	64.05
781.965	64.06
