Data from N_2_dec_nc_4n_069_Splice17_03.txt Node
Date: Sat Feb 29 14:05:51 EST 2020
User: sa697716
Spectrometer: FLMS03696
Trigger mode: 0
Integration Time (sec): 3.180400E-1
Scans to average: 20
Electric dark correction enabled: true
Nonlinearity correction enabled: true
Boxcar width: 5
XAxis mode: Wavelengths
Number of Pixels in Spectrum: 2048
>>>>>Begin Spectral Data<<<<<
187.83	117.99
188.298	118.28
188.766	104.11
189.233	101.51
189.701	99.4
190.169	106.53
190.636	112.91
191.104	118.31
191.571	341.66
192.039	246.23
192.506	-210.01
192.974	467.14
193.441	241.38
193.908	67.86
194.375	-2.7
194.842	-11.96
195.31	80.16
195.777	165.89
196.244	56.3
196.711	34.64
197.177	29.3
197.644	28.11
198.111	26.46
198.578	25.99
199.045	25.63
199.511	26.68
199.978	26.77
200.445	25.97
200.911	25.79
201.378	26.1
201.844	26.52
202.31	27.62
202.777	28.18
203.243	28.81
203.709	29.36
204.176	29.2
204.642	29.07
205.108	29.32
205.574	30.19
206.04	30.14
206.506	30.35
206.972	30.07
207.438	29.38
207.903	29.37
208.369	28.67
208.835	28.63
209.301	28.56
209.766	28.73
210.232	28.62
210.697	28.37
211.163	28.04
211.628	27.46
212.094	27.14
212.559	27.01
213.024	26.61
213.49	26.86
213.955	26.5
214.42	26.08
214.885	25.26
215.35	24.8
215.815	23.85
216.28	23.06
216.745	22.23
217.21	21.37
217.675	20.58
218.14	19.77
218.604	18.92
219.069	18.31
219.534	17.77
219.998	17.31
220.463	16.88
220.927	16.63
221.392	16.28
221.856	16
222.32	15.76
222.785	15.52
223.249	15.27
223.713	15.09
224.177	14.87
224.642	14.75
225.106	14.6
225.57	14.41
226.034	14.2
226.497	14.05
226.961	13.9
227.425	13.71
227.889	13.54
228.353	13.38
228.816	13.25
229.28	13.06
229.744	12.9
230.207	12.75
230.671	12.6
231.134	12.49
231.597	12.33
232.061	12.19
232.524	12.1
232.987	11.97
233.45	11.85
233.914	11.71
234.377	11.61
234.84	11.49
235.303	11.39
235.766	11.27
236.229	11.15
236.691	11.07
237.154	10.99
237.617	10.89
238.08	10.81
238.542	10.71
239.005	10.62
239.468	10.54
239.93	10.46
240.393	10.36
240.855	10.28
241.317	10.2
241.78	10.14
242.242	10.03
242.704	9.95
243.166	9.85
243.629	9.78
244.091	9.69
244.553	9.62
245.015	9.54
245.477	9.48
245.939	9.41
246.4	9.34
246.862	9.27
247.324	9.23
247.786	9.18
248.247	9.14
248.709	9.08
249.17	9.04
249.632	8.98
250.093	8.93
250.555	8.89
251.016	8.84
251.477	8.8
251.939	8.76
252.4	8.71
252.861	8.66
253.322	8.63
253.783	8.6
254.244	8.57
254.705	8.54
255.166	8.51
255.627	8.46
256.088	8.42
256.549	8.39
257.009	8.35
257.47	8.33
257.931	8.3
258.391	8.26
258.852	8.21
259.312	8.19
259.773	8.16
260.233	8.12
260.694	8.09
261.154	8.07
261.614	8.04
262.074	8.01
262.534	7.97
262.994	7.95
263.455	7.91
263.915	7.88
264.374	7.85
264.834	7.82
265.294	7.79
265.754	7.77
266.214	7.75
266.673	7.73
267.133	7.7
267.593	7.68
268.052	7.65
268.512	7.63
268.971	7.62
269.431	7.61
269.89	7.59
270.349	7.58
270.809	7.56
271.268	7.55
271.727	7.53
272.186	7.52
272.645	7.5
273.104	7.49
273.563	7.49
274.022	7.46
274.481	7.44
274.94	7.43
275.399	7.41
275.857	7.39
276.316	7.37
276.775	7.35
277.233	7.32
277.692	7.31
278.15	7.29
278.609	7.26
279.067	7.24
279.525	7.22
279.984	7.2
280.442	7.19
280.9	7.18
281.358	7.16
281.816	7.15
282.274	7.14
282.732	7.12
283.19	7.11
283.648	7.11
284.106	7.08
284.564	7.08
285.021	7.07
285.479	7.06
285.937	7.04
286.394	7.02
286.852	7
287.309	7
287.767	6.98
288.224	6.96
288.682	6.94
289.139	6.94
289.596	6.92
290.053	6.89
290.511	6.87
290.968	6.86
291.425	6.84
291.882	6.82
292.339	6.8
292.796	6.77
293.252	6.75
293.709	6.73
294.166	6.7
294.623	6.69
295.079	6.68
295.536	6.66
295.992	6.64
296.449	6.63
296.905	6.62
297.362	6.6
297.818	6.6
298.274	6.6
298.731	6.59
299.187	6.59
299.643	6.57
300.099	6.56
300.555	6.54
301.011	6.53
301.467	6.52
301.923	6.5
302.379	6.5
302.835	6.48
303.291	6.47
303.746	6.46
304.202	6.44
304.658	6.43
305.113	6.41
305.569	6.41
306.024	6.38
306.479	6.38
306.935	6.38
307.39	6.37
307.845	6.36
308.301	6.36
308.756	6.35
309.211	6.35
309.666	6.35
310.121	6.35
310.576	6.34
311.031	6.35
311.486	6.34
311.94	6.33
312.395	6.32
312.85	6.32
313.305	6.31
313.759	6.31
314.214	6.31
314.668	6.3
315.123	6.29
315.577	6.29
316.032	6.29
316.486	6.28
316.94	6.27
317.394	6.26
317.849	6.24
318.303	6.23
318.757	6.21
319.211	6.2
319.665	6.19
320.119	6.18
320.572	6.17
321.026	6.15
321.48	6.15
321.934	6.13
322.387	6.12
322.841	6.11
323.295	6.11
323.748	6.1
324.202	6.1
324.655	6.09
325.108	6.08
325.562	6.06
326.015	6.05
326.468	6.04
326.921	6.03
327.374	6.02
327.827	6.02
328.28	6.01
328.733	5.99
329.186	5.98
329.639	5.96
330.092	5.94
330.545	5.94
330.997	5.92
331.45	5.92
331.903	5.92
332.355	5.92
332.808	5.91
333.26	5.9
333.713	5.9
334.165	5.91
334.617	5.91
335.069	5.91
335.522	5.91
335.974	5.91
336.426	5.9
336.878	5.89
337.33	5.88
337.782	5.89
338.234	5.89
338.686	5.87
339.137	5.86
339.589	5.86
340.041	5.86
340.493	5.86
340.944	5.86
341.396	5.85
341.847	5.83
342.299	5.83
342.75	5.8
343.201	5.78
343.653	5.76
344.104	5.75
344.555	5.73
345.006	5.71
345.457	5.7
345.908	5.68
346.359	5.68
346.81	5.68
347.261	5.68
347.712	5.68
348.163	5.68
348.613	5.68
349.064	5.67
349.515	5.66
349.965	5.67
350.416	5.67
350.866	5.66
351.317	5.66
351.767	5.64
352.217	5.65
352.668	5.65
353.118	5.65
353.568	5.65
354.018	5.66
354.468	5.65
354.918	5.65
355.368	5.65
355.818	5.64
356.268	5.65
356.718	5.67
357.168	5.66
357.617	5.65
358.067	5.65
358.517	5.66
358.966	5.67
359.416	5.68
359.865	5.69
360.315	5.69
360.764	5.71
361.213	5.71
361.663	5.71
362.112	5.73
362.561	5.75
363.01	5.77
363.459	5.78
363.908	5.79
364.357	5.81
364.806	5.82
365.255	5.85
365.703	5.86
366.152	5.88
366.601	5.9
367.05	5.92
367.498	5.94
367.947	5.97
368.395	6
368.844	6.05
369.292	6.08
369.74	6.12
370.189	6.15
370.637	6.2
371.085	6.24
371.533	6.28
371.981	6.33
372.429	6.36
372.877	6.4
373.325	6.44
373.773	6.47
374.221	6.5
374.669	6.54
375.116	6.58
375.564	6.61
376.012	6.65
376.459	6.69
376.907	6.73
377.354	6.78
377.801	6.83
378.249	6.89
378.696	6.94
379.143	6.99
379.591	7.04
380.038	7.09
380.485	7.15
380.932	7.2
381.379	7.24
381.826	7.28
382.273	7.32
382.72	7.36
383.166	7.39
383.613	7.43
384.06	7.47
384.506	7.51
384.953	7.54
385.4	7.57
385.846	7.58
386.292	7.61
386.739	7.64
387.185	7.68
387.631	7.71
388.078	7.72
388.524	7.73
388.97	7.74
389.416	7.75
389.862	7.77
390.308	7.78
390.754	7.81
391.2	7.83
391.645	7.84
392.091	7.86
392.537	7.86
392.983	7.88
393.428	7.91
393.874	7.93
394.319	7.94
394.765	7.95
395.21	7.96
395.655	7.95
396.101	7.95
396.546	7.96
396.991	7.95
397.436	7.93
397.881	7.94
398.326	7.95
398.771	7.94
399.216	7.94
399.661	7.93
400.106	7.95
400.551	7.93
400.995	7.9
401.44	7.87
401.885	7.86
402.329	7.84
402.774	7.81
403.218	7.79
403.663	7.77
404.107	7.76
404.551	7.74
404.995	7.7
405.44	7.68
405.884	7.66
406.328	7.64
406.772	7.63
407.216	7.62
407.66	7.6
408.104	7.57
408.547	7.55
408.991	7.51
409.435	7.47
409.879	7.46
410.322	7.47
410.766	7.46
411.209	7.45
411.653	7.42
412.096	7.4
412.54	7.4
412.983	7.4
413.426	7.42
413.869	7.42
414.312	7.43
414.756	7.44
415.199	7.43
415.642	7.45
416.085	7.46
416.527	7.48
416.97	7.48
417.413	7.46
417.856	7.43
418.298	7.41
418.741	7.39
419.184	7.39
419.626	7.36
420.069	7.35
420.511	7.32
420.953	7.3
421.396	7.29
421.838	7.31
422.28	7.31
422.722	7.34
423.164	7.32
423.606	7.32
424.048	7.29
424.49	7.29
424.932	7.28
425.374	7.26
425.816	7.25
426.258	7.23
426.699	7.17
427.141	7.14
427.582	7.11
428.024	7.11
428.465	7.1
428.907	7.09
429.348	7.09
429.789	7.09
430.231	7.09
430.672	7.08
431.113	7.07
431.554	7.09
431.995	7.1
432.436	7.11
432.877	7.1
433.318	7.1
433.759	7.11
434.2	7.11
434.64	7.11
435.081	7.09
435.522	7.11
435.962	7.14
436.403	7.16
436.843	7.17
437.284	7.18
437.724	7.2
438.164	7.21
438.604	7.22
439.045	7.22
439.485	7.23
439.925	7.24
440.365	7.24
440.805	7.25
441.245	7.24
441.685	7.26
442.125	7.27
442.564	7.29
443.004	7.31
443.444	7.34
443.883	7.36
444.323	7.38
444.762	7.41
445.202	7.47
445.641	7.48
446.081	7.53
446.52	7.55
446.959	7.58
447.398	7.61
447.837	7.65
448.276	7.66
448.716	7.7
449.154	7.74
449.593	7.77
450.032	7.76
450.471	7.81
450.91	7.82
451.349	7.83
451.787	7.84
452.226	7.82
452.664	7.81
453.103	7.82
453.541	7.82
453.98	7.81
454.418	7.79
454.856	7.77
455.295	7.73
455.733	7.72
456.171	7.71
456.609	7.72
457.047	7.73
457.485	7.72
457.923	7.71
458.361	7.7
458.798	7.7
459.236	7.71
459.674	7.72
460.111	7.72
460.549	7.74
460.987	7.74
461.424	7.74
461.862	7.72
462.299	7.71
462.736	7.71
463.173	7.7
463.611	7.69
464.048	7.69
464.485	7.7
464.922	7.69
465.359	7.69
465.796	7.68
466.233	7.68
466.67	7.7
467.106	7.71
467.543	7.73
467.98	7.73
468.416	7.75
468.853	7.75
469.29	7.75
469.726	7.75
470.162	7.75
470.599	7.76
471.035	7.76
471.471	7.75
471.907	7.74
472.344	7.74
472.78	7.75
473.216	7.74
473.652	7.74
474.088	7.75
474.523	7.76
474.959	7.75
475.395	7.76
475.831	7.78
476.266	7.78
476.702	7.78
477.138	7.77
477.573	7.77
478.008	7.78
478.444	7.79
478.879	7.77
479.314	7.77
479.75	7.78
480.185	7.76
480.62	7.75
481.055	7.75
481.49	7.75
481.925	7.76
482.36	7.76
482.795	7.75
483.229	7.75
483.664	7.76
484.099	7.76
484.534	7.76
484.968	7.77
485.403	7.78
485.837	7.78
486.271	7.8
486.706	7.8
487.14	7.82
487.574	7.83
488.009	7.85
488.443	7.87
488.877	7.89
489.311	7.91
489.745	7.95
490.179	7.98
490.613	8.01
491.046	8.06
491.48	8.11
491.914	8.16
492.348	8.21
492.781	8.26
493.215	8.32
493.648	8.39
494.082	8.46
494.515	8.52
494.948	8.59
495.382	8.66
495.815	8.74
496.248	8.82
496.681	8.89
497.114	8.98
497.547	9.06
497.98	9.16
498.413	9.25
498.846	9.36
499.279	9.48
499.711	9.58
500.144	9.69
500.577	9.82
501.009	9.95
501.442	10.1
501.874	10.24
502.306	10.39
502.739	10.54
503.171	10.71
503.603	10.88
504.036	11.05
504.468	11.24
504.9	11.44
505.332	11.64
505.764	11.85
506.196	12.07
506.627	12.3
507.059	12.53
507.491	12.76
507.923	13
508.354	13.26
508.786	13.54
509.217	13.8
509.649	14.07
510.08	14.37
510.512	14.65
510.943	14.94
511.374	15.24
511.805	15.54
512.237	15.86
512.668	16.16
513.099	16.49
513.53	16.82
513.961	17.16
514.391	17.48
514.822	17.79
515.253	18.12
515.684	18.43
516.114	18.77
516.545	19.12
516.975	19.46
517.406	19.81
517.836	20.15
518.267	20.48
518.697	20.82
519.127	21.19
519.558	21.53
519.988	21.87
520.418	22.21
520.848	22.53
521.278	22.86
521.708	23.07
522.138	23.36
522.567	23.64
522.997	23.94
523.427	24.22
523.857	24.5
524.286	24.79
524.716	25.06
525.145	25.33
525.575	25.58
526.004	25.83
526.433	26.15
526.863	26.42
527.292	26.67
527.721	26.88
528.15	27.08
528.579	27.27
529.008	27.44
529.437	27.62
529.866	27.79
530.295	27.98
530.724	28.17
531.152	28.33
531.581	28.45
532.01	28.56
532.438	28.72
532.867	28.83
533.295	28.96
533.723	29.08
534.152	29.18
534.58	29.28
535.008	29.36
535.436	29.41
535.865	29.47
536.293	29.54
536.721	29.62
537.149	29.67
537.576	29.76
538.004	29.81
538.432	29.85
538.86	29.91
539.287	29.96
539.715	29.99
540.143	30.04
540.57	30.1
540.998	30.18
541.425	30.21
541.852	30.26
542.28	30.27
542.707	30.32
543.134	30.35
543.561	30.35
543.988	30.37
544.415	30.41
544.842	30.45
545.269	30.48
545.696	30.49
546.123	30.52
546.549	30.55
546.976	30.6
547.403	30.62
547.829	30.65
548.256	30.69
548.682	30.72
549.108	30.76
549.535	30.78
549.961	30.78
550.387	30.79
550.813	30.8
551.24	30.79
551.666	30.77
552.092	30.76
552.518	30.76
552.943	30.75
553.369	30.73
553.795	30.7
554.221	30.68
554.646	30.66
555.072	30.64
555.498	30.59
555.923	30.56
556.349	30.48
556.774	30.43
557.199	30.38
557.625	30.3
558.05	30.22
558.475	30.13
558.9	30.03
559.325	29.94
559.75	29.83
560.175	29.73
560.6	29.6
561.025	29.5
561.449	29.39
561.874	29.26
562.299	29.16
562.723	29.03
563.148	28.9
563.572	28.74
563.997	28.58
564.421	28.42
564.846	28.26
565.27	28.1
565.694	27.93
566.118	27.77
566.542	27.6
566.966	27.42
567.39	27.26
567.814	27.09
568.238	26.91
568.662	26.74
569.086	26.58
569.509	26.41
569.933	26.23
570.357	26.04
570.78	25.85
571.204	25.66
571.627	25.46
572.05	25.29
572.474	25.12
572.897	24.94
573.32	24.77
573.743	24.6
574.166	24.44
574.589	24.28
575.012	24.15
575.435	24
575.858	23.86
576.281	23.73
576.704	23.61
577.126	23.46
577.549	23.36
577.972	23.24
578.394	23.12
578.817	23.01
579.239	22.92
579.661	22.81
580.084	22.72
580.506	22.63
580.928	22.53
581.35	22.43
581.772	22.36
582.194	22.27
582.616	22.19
583.038	22.11
583.46	22.03
583.882	21.92
584.303	21.85
584.725	21.76
585.147	21.66
585.568	21.57
585.99	21.5
586.411	21.41
586.833	21.34
587.254	21.27
587.675	21.21
588.096	21.13
588.518	21.08
588.939	21.01
589.36	20.95
589.781	20.9
590.202	20.84
590.623	20.78
591.043	20.72
591.464	20.66
591.885	20.6
592.305	20.56
592.726	20.52
593.147	20.47
593.567	20.42
593.987	20.4
594.408	20.34
594.828	20.31
595.248	20.28
595.669	20.24
596.089	20.2
596.509	20.16
596.929	20.11
597.349	20.06
597.769	20.02
598.189	19.99
598.608	19.93
599.028	19.9
599.448	19.86
599.867	19.81
600.287	19.75
600.706	19.7
601.126	19.66
601.545	19.61
601.965	19.56
602.384	19.51
602.803	19.44
603.222	19.36
603.641	19.31
604.061	19.25
604.48	19.18
604.898	19.11
605.317	19.04
605.736	18.95
606.155	18.86
606.574	18.78
606.992	18.68
607.411	18.6
607.829	18.48
608.248	18.38
608.666	18.27
609.085	18.2
609.503	18.12
609.921	18.02
610.339	17.94
610.758	17.86
611.176	17.78
611.594	17.69
612.012	17.6
612.43	17.55
612.847	17.46
613.265	17.39
613.683	17.28
614.101	17.18
614.518	17.09
614.936	17.01
615.353	16.93
615.771	16.83
616.188	16.76
616.606	16.7
617.023	16.61
617.44	16.53
617.857	16.47
618.274	16.4
618.691	16.34
619.108	16.29
619.525	16.24
619.942	16.18
620.359	16.14
620.776	16.11
621.192	16.06
621.609	16.02
622.026	15.98
622.442	15.96
622.859	15.93
623.275	15.92
623.691	15.89
624.108	15.86
624.524	15.86
624.94	15.84
625.356	15.81
625.772	15.8
626.188	15.79
626.604	15.79
627.02	15.76
627.436	15.74
627.852	15.7
628.268	15.68
628.683	15.65
629.099	15.62
629.514	15.58
629.93	15.56
630.345	15.51
630.761	15.46
631.176	15.43
631.591	15.38
632.007	15.32
632.422	15.27
632.837	15.2
633.252	15.14
633.667	15.05
634.082	14.99
634.497	14.89
634.911	14.78
635.326	14.67
635.741	14.55
636.155	14.43
636.57	14.32
636.984	14.17
637.399	14.03
637.813	13.87
638.228	13.72
638.642	13.57
639.056	13.42
639.47	13.29
639.884	13.14
640.298	13
640.712	12.84
641.126	12.69
641.54	12.55
641.954	12.42
642.368	12.3
642.781	12.15
643.195	12
643.609	11.86
644.022	11.71
644.436	11.58
644.849	11.46
645.262	11.36
645.676	11.24
646.089	11.13
646.502	11.02
646.915	10.91
647.328	10.82
647.741	10.72
648.154	10.66
648.567	10.59
648.98	10.54
649.393	10.48
649.805	10.4
650.218	10.35
650.631	10.3
651.043	10.27
651.456	10.24
651.868	10.19
652.28	10.16
652.693	10.11
653.105	10.05
653.517	10
653.929	9.94
654.341	9.89
654.753	9.82
655.165	9.76
655.577	9.68
655.989	9.6
656.401	9.51
656.813	9.43
657.224	9.35
657.636	9.26
658.047	9.17
658.459	9.07
658.87	8.97
659.282	8.89
659.693	8.79
660.104	8.69
660.515	8.59
660.926	8.52
661.338	8.42
661.749	8.31
662.159	8.23
662.57	8.15
662.981	8.07
663.392	7.97
663.803	7.88
664.213	7.81
664.624	7.75
665.035	7.67
665.445	7.61
665.855	7.56
666.266	7.52
666.676	7.47
667.086	7.41
667.497	7.37
667.907	7.33
668.317	7.3
668.727	7.27
669.137	7.25
669.547	7.24
669.956	7.21
670.366	7.21
670.776	7.2
671.186	7.19
671.595	7.2
672.005	7.21
672.414	7.22
672.824	7.24
673.233	7.26
673.642	7.25
674.052	7.27
674.461	7.29
674.87	7.3
675.279	7.32
675.688	7.36
676.097	7.39
676.506	7.41
676.915	7.45
677.323	7.49
677.732	7.54
678.141	7.61
678.549	7.66
678.958	7.73
679.366	7.8
679.775	7.87
680.183	7.96
680.592	8.05
681	8.13
681.408	8.25
681.816	8.36
682.224	8.48
682.632	8.63
683.04	8.8
683.448	8.97
683.856	9.18
684.264	9.4
684.671	9.64
685.079	9.89
685.487	10.21
685.894	10.53
686.302	10.89
686.709	11.27
687.116	11.68
687.524	12.11
687.931	12.57
688.338	13.05
688.745	13.55
689.152	14.1
689.559	14.67
689.966	15.26
690.373	15.88
690.78	16.49
691.187	17.13
691.593	17.77
692	18.43
692.407	19.1
692.813	19.79
693.22	20.48
693.626	21.18
694.032	21.9
694.439	22.63
694.845	23.33
695.251	24.01
695.657	24.72
696.063	25.45
696.469	26.17
696.875	26.86
697.281	27.53
697.687	28.22
698.093	28.87
698.498	29.52
698.904	30.16
699.31	30.79
699.715	31.45
700.12	32.04
700.526	32.63
700.931	33.22
701.337	33.81
701.742	34.38
702.147	34.96
702.552	35.55
702.957	36.1
703.362	36.62
703.767	37.15
704.172	37.69
704.577	38.21
704.981	38.71
705.386	39.19
705.791	39.69
706.195	40.16
706.6	40.59
707.004	41.02
707.408	41.46
707.813	41.93
708.217	42.37
708.621	42.75
709.025	43.17
709.43	43.56
709.834	44
710.237	44.37
710.641	44.8
711.045	45.2
711.449	45.56
711.853	45.96
712.256	46.32
712.66	46.67
713.064	47.05
713.467	47.4
713.87	47.75
714.274	48.07
714.677	48.43
715.08	48.72
715.484	49.05
715.887	49.41
716.29	49.66
716.693	49.94
717.096	50.25
717.499	50.54
717.901	50.81
718.304	51.08
718.707	51.34
719.109	51.59
719.512	51.9
719.915	52.16
720.317	52.39
720.719	52.68
721.122	52.9
721.524	53.1
721.926	53.32
722.328	53.54
722.731	53.79
723.133	54
723.535	54.21
723.937	54.38
724.338	54.56
724.74	54.74
725.142	54.89
725.544	55.08
725.945	55.25
726.347	55.42
726.748	55.53
727.15	55.63
727.551	55.78
727.952	55.89
728.354	56.05
728.755	56.17
729.156	56.3
729.557	56.46
729.958	56.63
730.359	56.74
730.76	56.83
731.161	56.97
731.562	57.09
731.962	57.18
732.363	57.26
732.763	57.34
733.164	57.44
733.564	57.51
733.965	57.56
734.365	57.58
734.766	57.65
735.166	57.7
735.566	57.74
735.966	57.78
736.366	57.8
736.766	57.84
737.166	57.9
737.566	57.92
737.966	58
738.365	58.04
738.765	58.08
739.165	58.09
739.564	58.14
739.964	58.19
740.363	58.27
740.763	58.32
741.162	58.37
741.561	58.38
741.96	58.42
742.36	58.42
742.759	58.43
743.158	58.43
743.557	58.5
743.955	58.54
744.354	58.58
744.753	58.58
745.152	58.59
745.55	58.61
745.949	58.63
746.348	58.63
746.746	58.66
747.144	58.74
747.543	58.78
747.941	58.82
748.339	58.84
748.737	58.88
749.136	58.93
749.534	58.97
749.932	59
750.33	59.03
750.727	59.06
751.125	59.08
751.523	59.06
751.921	59.09
752.318	59.12
752.716	59.11
753.113	59.07
753.511	59.05
753.908	59.04
754.305	59.04
754.703	59.01
755.1	59.01
755.497	59.01
755.894	59.01
756.291	58.99
756.688	58.95
757.085	58.94
757.482	58.96
757.878	59
758.275	59.03
758.672	59.07
759.068	59.09
759.465	59.1
759.861	59.08
760.258	59.08
760.654	59.07
761.05	59.08
761.447	59.09
761.843	59.06
762.239	58.99
762.635	58.98
763.031	58.97
763.427	58.94
763.822	58.92
764.218	58.93
764.614	58.89
765.01	58.89
765.405	58.83
765.801	58.82
766.196	58.85
766.592	58.84
766.987	58.81
767.382	58.79
767.778	58.82
768.173	58.85
768.568	58.79
768.963	58.8
769.358	58.81
769.753	58.82
770.148	58.81
770.542	58.75
770.937	58.75
771.332	58.76
771.726	58.71
772.121	58.67
772.515	58.63
772.91	58.67
773.304	58.65
773.699	58.63
774.093	58.61
774.487	58.61
774.881	58.62
775.275	58.64
775.669	58.59
776.063	58.56
776.457	58.53
776.851	58.49
777.245	58.46
777.638	58.46
778.032	58.44
778.425	58.45
778.819	58.45
779.212	58.41
779.606	58.36
779.999	58.39
