Data from N_2_div_oh_2n_065_Splice17_18.txt Node
Date: Sat Feb 29 14:04:07 EST 2020
User: sa697716
Spectrometer: FLMS03696
Trigger mode: 0
Integration Time (sec): 3.180400E-1
Scans to average: 20
Electric dark correction enabled: true
Nonlinearity correction enabled: true
Boxcar width: 5
XAxis mode: Wavelengths
Number of Pixels in Spectrum: 2048
>>>>>Begin Spectral Data<<<<<
187.83	92.97
188.298	98.85
188.766	76.25
189.233	77.71
189.701	91.1
190.169	91.37
190.636	80.34
191.104	73.09
191.571	101.65
192.039	140.51
192.506	4.08
192.974	5332.61
193.441	-395.1
193.908	39.8
194.375	14.26
194.842	135.44
195.31	109.57
195.777	121.85
196.244	55.9
196.711	34.41
197.177	29.48
197.644	28.52
198.111	26.96
198.578	26.94
199.045	27.67
199.511	28.03
199.978	27.79
200.445	27.22
200.911	26.87
201.378	27.04
201.844	27.39
202.31	27.85
202.777	28.27
203.243	28.96
203.709	29.74
204.176	29.52
204.642	29.75
205.108	29.78
205.574	30.55
206.04	30.73
206.506	30.62
206.972	30.78
207.438	30.75
207.903	31.02
208.369	30.5
208.835	30.26
209.301	30.09
209.766	29.84
210.232	29.97
210.697	29.65
211.163	29.79
211.628	29.38
212.094	29.07
212.559	28.76
213.024	28.21
213.49	28.17
213.955	27.86
214.42	27.61
214.885	27.2
215.35	26.66
215.815	26.03
216.28	25.28
216.745	24.76
217.21	23.9
217.675	23.19
218.14	22.41
218.604	21.6
219.069	21.07
219.534	20.58
219.998	20.1
220.463	19.75
220.927	19.43
221.392	19.1
221.856	18.81
222.32	18.56
222.785	18.34
223.249	18.13
223.713	17.97
224.177	17.69
224.642	17.44
225.106	17.21
225.57	16.98
226.034	16.8
226.497	16.59
226.961	16.38
227.425	16.14
227.889	15.95
228.353	15.76
228.816	15.56
229.28	15.37
229.744	15.24
230.207	15.07
230.671	14.93
231.134	14.72
231.597	14.54
232.061	14.38
232.524	14.25
232.987	14.07
233.45	13.89
233.914	13.74
234.377	13.6
234.84	13.43
235.303	13.29
235.766	13.14
236.229	13
236.691	12.88
237.154	12.75
237.617	12.62
238.08	12.5
238.542	12.39
239.005	12.27
239.468	12.14
239.93	12.03
240.393	11.92
240.855	11.78
241.317	11.68
241.78	11.55
242.242	11.42
242.704	11.3
243.166	11.19
243.629	11.07
244.091	10.95
244.553	10.86
245.015	10.76
245.477	10.65
245.939	10.55
246.4	10.45
246.862	10.35
247.324	10.28
247.786	10.19
248.247	10.1
248.709	10.02
249.17	9.95
249.632	9.86
250.093	9.77
250.555	9.71
251.016	9.64
251.477	9.57
251.939	9.5
252.4	9.43
252.861	9.37
253.322	9.31
253.783	9.25
254.244	9.19
254.705	9.14
255.166	9.09
255.627	9.04
256.088	8.97
256.549	8.93
257.009	8.88
257.47	8.84
257.931	8.8
258.391	8.75
258.852	8.7
259.312	8.65
259.773	8.6
260.233	8.55
260.694	8.49
261.154	8.45
261.614	8.4
262.074	8.36
262.534	8.3
262.994	8.26
263.455	8.21
263.915	8.17
264.374	8.13
264.834	8.1
265.294	8.06
265.754	8.03
266.214	8
266.673	7.97
267.133	7.95
267.593	7.92
268.052	7.9
268.512	7.86
268.971	7.84
269.431	7.83
269.89	7.79
270.349	7.77
270.809	7.75
271.268	7.73
271.727	7.71
272.186	7.67
272.645	7.64
273.104	7.62
273.563	7.59
274.022	7.56
274.481	7.53
274.94	7.5
275.399	7.48
275.857	7.45
276.316	7.42
276.775	7.38
277.233	7.36
277.692	7.33
278.15	7.29
278.609	7.27
279.067	7.24
279.525	7.21
279.984	7.18
280.442	7.15
280.9	7.13
281.358	7.1
281.816	7.08
282.274	7.05
282.732	7.04
283.19	7.03
283.648	7.01
284.106	6.99
284.564	6.98
285.021	6.97
285.479	6.95
285.937	6.94
286.394	6.92
286.852	6.9
287.309	6.88
287.767	6.86
288.224	6.82
288.682	6.8
289.139	6.77
289.596	6.73
290.053	6.7
290.511	6.66
290.968	6.63
291.425	6.61
291.882	6.58
292.339	6.55
292.796	6.51
293.252	6.49
293.709	6.46
294.166	6.44
294.623	6.43
295.079	6.41
295.536	6.4
295.992	6.38
296.449	6.36
296.905	6.34
297.362	6.32
297.818	6.31
298.274	6.3
298.731	6.28
299.187	6.26
299.643	6.25
300.099	6.24
300.555	6.22
301.011	6.2
301.467	6.18
301.923	6.16
302.379	6.15
302.835	6.13
303.291	6.11
303.746	6.09
304.202	6.06
304.658	6.04
305.113	6.03
305.569	6.01
306.024	6
306.479	5.98
306.935	5.97
307.39	5.95
307.845	5.95
308.301	5.95
308.756	5.94
309.211	5.93
309.666	5.92
310.121	5.91
310.576	5.91
311.031	5.9
311.486	5.91
311.94	5.9
312.395	5.9
312.85	5.89
313.305	5.88
313.759	5.88
314.214	5.87
314.668	5.87
315.123	5.87
315.577	5.86
316.032	5.85
316.486	5.83
316.94	5.81
317.394	5.8
317.849	5.79
318.303	5.78
318.757	5.77
319.211	5.76
319.665	5.76
320.119	5.74
320.572	5.73
321.026	5.72
321.48	5.71
321.934	5.7
322.387	5.69
322.841	5.66
323.295	5.65
323.748	5.63
324.202	5.61
324.655	5.59
325.108	5.56
325.562	5.54
326.015	5.52
326.468	5.5
326.921	5.5
327.374	5.48
327.827	5.48
328.28	5.47
328.733	5.46
329.186	5.46
329.639	5.45
330.092	5.45
330.545	5.45
330.997	5.45
331.45	5.44
331.903	5.44
332.355	5.44
332.808	5.44
333.26	5.44
333.713	5.44
334.165	5.44
334.617	5.44
335.069	5.44
335.522	5.44
335.974	5.44
336.426	5.44
336.878	5.43
337.33	5.42
337.782	5.42
338.234	5.42
338.686	5.41
339.137	5.4
339.589	5.39
340.041	5.38
340.493	5.36
340.944	5.36
341.396	5.34
341.847	5.33
342.299	5.3
342.75	5.28
343.201	5.24
343.653	5.22
344.104	5.21
344.555	5.18
345.006	5.16
345.457	5.14
345.908	5.13
346.359	5.12
346.81	5.11
347.261	5.1
347.712	5.09
348.163	5.09
348.613	5.08
349.064	5.06
349.515	5.05
349.965	5.05
350.416	5.05
350.866	5.04
351.317	5.04
351.767	5.03
352.217	5.03
352.668	5.02
353.118	5.03
353.568	5.03
354.018	5.05
354.468	5.05
354.918	5.06
355.368	5.06
355.818	5.06
356.268	5.07
356.718	5.07
357.168	5.08
357.617	5.08
358.067	5.08
358.517	5.07
358.966	5.07
359.416	5.07
359.865	5.06
360.315	5.07
360.764	5.06
361.213	5.05
361.663	5.04
362.112	5.04
362.561	5.05
363.01	5.05
363.459	5.05
363.908	5.04
364.357	5.05
364.806	5.04
365.255	5.04
365.703	5.04
366.152	5.04
366.601	5.04
367.05	5.04
367.498	5.04
367.947	5.04
368.395	5.04
368.844	5.04
369.292	5.04
369.74	5.05
370.189	5.06
370.637	5.06
371.085	5.06
371.533	5.07
371.981	5.07
372.429	5.07
372.877	5.08
373.325	5.1
373.773	5.11
374.221	5.12
374.669	5.13
375.116	5.14
375.564	5.15
376.012	5.17
376.459	5.2
376.907	5.22
377.354	5.24
377.801	5.26
378.249	5.29
378.696	5.32
379.143	5.34
379.591	5.37
380.038	5.41
380.485	5.46
380.932	5.5
381.379	5.53
381.826	5.57
382.273	5.61
382.72	5.66
383.166	5.7
383.613	5.75
384.06	5.8
384.506	5.85
384.953	5.9
385.4	5.94
385.846	5.99
386.292	6.04
386.739	6.09
387.185	6.15
387.631	6.2
388.078	6.25
388.524	6.28
388.97	6.33
389.416	6.37
389.862	6.41
390.308	6.47
390.754	6.52
391.2	6.58
391.645	6.63
392.091	6.68
392.537	6.73
392.983	6.79
393.428	6.87
393.874	6.93
394.319	6.99
394.765	7.04
395.21	7.08
395.655	7.13
396.101	7.16
396.546	7.2
396.991	7.23
397.436	7.24
397.881	7.28
398.326	7.32
398.771	7.35
399.216	7.39
399.661	7.42
400.106	7.46
400.551	7.48
400.995	7.48
401.44	7.49
401.885	7.51
402.329	7.54
402.774	7.54
403.218	7.54
403.663	7.54
404.107	7.54
404.551	7.57
404.995	7.57
405.44	7.57
405.884	7.59
406.328	7.6
406.772	7.61
407.216	7.61
407.66	7.63
408.104	7.63
408.547	7.63
408.991	7.62
409.435	7.6
409.879	7.6
410.322	7.6
410.766	7.61
411.209	7.62
411.653	7.61
412.096	7.61
412.54	7.62
412.983	7.63
413.426	7.64
413.869	7.67
414.312	7.7
414.756	7.72
415.199	7.76
415.642	7.78
416.085	7.79
416.527	7.82
416.97	7.83
417.413	7.82
417.856	7.81
418.298	7.79
418.741	7.78
419.184	7.76
419.626	7.75
420.069	7.72
420.511	7.71
420.953	7.71
421.396	7.71
421.838	7.71
422.28	7.73
422.722	7.74
423.164	7.74
423.606	7.75
424.048	7.74
424.49	7.77
424.932	7.78
425.374	7.76
425.816	7.73
426.258	7.7
426.699	7.67
427.141	7.62
427.582	7.61
428.024	7.61
428.465	7.63
428.907	7.64
429.348	7.61
429.789	7.62
430.231	7.62
430.672	7.63
431.113	7.66
431.554	7.7
431.995	7.74
432.436	7.75
432.877	7.77
433.318	7.76
433.759	7.77
434.2	7.79
434.64	7.82
435.081	7.83
435.522	7.86
435.962	7.87
436.403	7.9
436.843	7.92
437.284	7.96
437.724	7.99
438.164	8.02
438.604	8.05
439.045	8.05
439.485	8.08
439.925	8.1
440.365	8.12
440.805	8.16
441.245	8.15
441.685	8.19
442.125	8.21
442.564	8.24
443.004	8.29
443.444	8.32
443.883	8.38
444.323	8.43
444.762	8.49
445.202	8.56
445.641	8.61
446.081	8.7
446.52	8.74
446.959	8.81
447.398	8.89
447.837	8.95
448.276	9.03
448.716	9.09
449.154	9.16
449.593	9.22
450.032	9.26
450.471	9.31
450.91	9.34
451.349	9.39
451.787	9.41
452.226	9.43
452.664	9.45
453.103	9.45
453.541	9.46
453.98	9.46
454.418	9.45
454.856	9.45
455.295	9.45
455.733	9.45
456.171	9.46
456.609	9.47
457.047	9.48
457.485	9.48
457.923	9.48
458.361	9.48
458.798	9.51
459.236	9.54
459.674	9.55
460.111	9.57
460.549	9.59
460.987	9.6
461.424	9.58
461.862	9.56
462.299	9.57
462.736	9.58
463.173	9.57
463.611	9.55
464.048	9.54
464.485	9.55
464.922	9.53
465.359	9.5
465.796	9.51
466.233	9.54
466.67	9.58
467.106	9.57
467.543	9.58
467.98	9.6
468.416	9.63
468.853	9.64
469.29	9.64
469.726	9.65
470.162	9.67
470.599	9.67
471.035	9.68
471.471	9.67
471.907	9.69
472.344	9.7
472.78	9.7
473.216	9.7
473.652	9.69
474.088	9.72
474.523	9.72
474.959	9.72
475.395	9.73
475.831	9.74
476.266	9.75
476.702	9.75
477.138	9.74
477.573	9.74
478.008	9.75
478.444	9.77
478.879	9.77
479.314	9.76
479.75	9.77
480.185	9.76
480.62	9.76
481.055	9.76
481.49	9.76
481.925	9.77
482.36	9.79
482.795	9.77
483.229	9.76
483.664	9.76
484.099	9.78
484.534	9.78
484.968	9.82
485.403	9.83
485.837	9.84
486.271	9.85
486.706	9.87
487.14	9.9
487.574	9.93
488.009	9.97
488.443	10.02
488.877	10.06
489.311	10.11
489.745	10.15
490.179	10.2
490.613	10.28
491.046	10.37
491.48	10.44
491.914	10.52
492.348	10.6
492.781	10.69
493.215	10.78
493.648	10.88
494.082	10.99
494.515	11.1
494.948	11.23
495.382	11.33
495.815	11.45
496.248	11.59
496.681	11.72
497.114	11.86
497.547	12.01
497.98	12.17
498.413	12.34
498.846	12.5
499.279	12.69
499.711	12.87
500.144	13.08
500.577	13.28
501.009	13.5
501.442	13.73
501.874	13.96
502.306	14.19
502.739	14.44
503.171	14.69
503.603	14.96
504.036	15.23
504.468	15.51
504.9	15.8
505.332	16.1
505.764	16.39
506.196	16.7
506.627	17.04
507.059	17.37
507.491	17.7
507.923	18.06
508.354	18.41
508.786	18.76
509.217	19.12
509.649	19.51
510.08	19.91
510.512	20.32
510.943	20.73
511.374	21.11
511.805	21.53
512.237	21.94
512.668	22.35
513.099	22.79
513.53	23.23
513.961	23.68
514.391	24.07
514.822	24.5
515.253	24.93
515.684	25.36
516.114	25.83
516.545	26.26
516.975	26.72
517.406	27.17
517.836	27.59
518.267	28.03
518.697	28.45
519.127	28.91
519.558	29.34
519.988	29.75
520.418	30.16
520.848	30.57
521.278	30.98
521.708	31.28
522.138	31.62
522.567	32
522.997	32.37
523.427	32.74
523.857	33.07
524.286	33.4
524.716	33.75
525.145	34.06
525.575	34.36
526.004	34.65
526.433	35.01
526.863	35.34
527.292	35.61
527.721	35.86
528.15	36.09
528.579	36.35
529.008	36.61
529.437	36.81
529.866	37.03
530.295	37.25
530.724	37.46
531.152	37.67
531.581	37.86
532.01	38.04
532.438	38.22
532.867	38.4
533.295	38.56
533.723	38.7
534.152	38.85
534.58	38.99
535.008	39.12
535.436	39.23
535.865	39.34
536.293	39.47
536.721	39.56
537.149	39.67
537.576	39.78
538.004	39.87
538.432	39.95
538.86	40.02
539.287	40.1
539.715	40.17
540.143	40.22
540.57	40.27
540.998	40.32
541.425	40.4
541.852	40.45
542.28	40.48
542.707	40.52
543.134	40.58
543.561	40.63
543.988	40.68
544.415	40.71
544.842	40.75
545.269	40.82
545.696	40.85
546.123	40.89
546.549	40.91
546.976	40.95
547.403	40.98
547.829	41.03
548.256	41.05
548.682	41.06
549.108	41.12
549.535	41.15
549.961	41.16
550.387	41.15
550.813	41.15
551.24	41.18
551.666	41.21
552.092	41.22
552.518	41.2
552.943	41.23
553.369	41.23
553.795	41.21
554.221	41.22
554.646	41.21
555.072	41.2
555.498	41.18
555.923	41.17
556.349	41.12
556.774	41.09
557.199	41.04
557.625	40.95
558.05	40.9
558.475	40.83
558.9	40.75
559.325	40.66
559.75	40.58
560.175	40.49
560.6	40.36
561.025	40.25
561.449	40.12
561.874	40.01
562.299	39.93
562.723	39.82
563.148	39.69
563.572	39.56
563.997	39.43
564.421	39.29
564.846	39.16
565.27	39.03
565.694	38.88
566.118	38.74
566.542	38.58
566.966	38.41
567.39	38.22
567.814	38.04
568.238	37.85
568.662	37.68
569.086	37.5
569.509	37.32
569.933	37.14
570.357	36.94
570.78	36.76
571.204	36.57
571.627	36.37
572.05	36.2
572.474	36.03
572.897	35.85
573.32	35.67
573.743	35.46
574.166	35.27
574.589	35.09
575.012	34.95
575.435	34.75
575.858	34.59
576.281	34.44
576.704	34.28
577.126	34.15
577.549	34.02
577.972	33.89
578.394	33.77
578.817	33.64
579.239	33.53
579.661	33.42
580.084	33.33
580.506	33.22
580.928	33.12
581.35	33.03
581.772	32.94
582.194	32.84
582.616	32.75
583.038	32.67
583.46	32.6
583.882	32.5
584.303	32.41
584.725	32.33
585.147	32.27
585.568	32.19
585.99	32.1
586.411	32.01
586.833	31.92
587.254	31.86
587.675	31.77
588.096	31.7
588.518	31.64
588.939	31.56
589.36	31.47
589.781	31.37
590.202	31.32
590.623	31.25
591.043	31.2
591.464	31.13
591.885	31.06
592.305	31
592.726	30.94
593.147	30.91
593.567	30.86
593.987	30.84
594.408	30.8
594.828	30.74
595.248	30.71
595.669	30.67
596.089	30.64
596.509	30.58
596.929	30.53
597.349	30.46
597.769	30.39
598.189	30.36
598.608	30.29
599.028	30.23
599.448	30.15
599.867	30.08
600.287	30.01
600.706	29.95
601.126	29.88
601.545	29.81
601.965	29.73
602.384	29.65
602.803	29.55
603.222	29.48
603.641	29.39
604.061	29.32
604.48	29.22
604.898	29.11
605.317	28.98
605.736	28.87
606.155	28.76
606.574	28.66
606.992	28.55
607.411	28.44
607.829	28.26
608.248	28.14
608.666	28
609.085	27.87
609.503	27.75
609.921	27.65
610.339	27.53
610.758	27.41
611.176	27.28
611.594	27.16
612.012	27.04
612.43	26.97
612.847	26.86
613.265	26.75
613.683	26.64
614.101	26.52
614.518	26.39
614.936	26.28
615.353	26.18
615.771	26.08
616.188	25.99
616.606	25.89
617.023	25.78
617.44	25.7
617.857	25.6
618.274	25.53
618.691	25.46
619.108	25.38
619.525	25.31
619.942	25.24
620.359	25.19
620.776	25.12
621.192	25.07
621.609	25.03
622.026	24.97
622.442	24.95
622.859	24.91
623.275	24.89
623.691	24.89
624.108	24.86
624.524	24.85
624.94	24.83
625.356	24.81
625.772	24.8
626.188	24.8
626.604	24.78
627.02	24.76
627.436	24.74
627.852	24.72
628.268	24.66
628.683	24.63
629.099	24.61
629.514	24.57
629.93	24.53
630.345	24.48
630.761	24.43
631.176	24.39
631.591	24.34
632.007	24.27
632.422	24.2
632.837	24.12
633.252	24.03
633.667	23.9
634.082	23.81
634.497	23.69
634.911	23.57
635.326	23.4
635.741	23.23
636.155	23.07
636.57	22.92
636.984	22.71
637.399	22.51
637.813	22.31
638.228	22.12
638.642	21.92
639.056	21.7
639.47	21.49
639.884	21.28
640.298	21.07
640.712	20.84
641.126	20.6
641.54	20.37
641.954	20.16
642.368	19.93
642.781	19.68
643.195	19.43
643.609	19.2
644.022	18.96
644.436	18.73
644.849	18.51
645.262	18.3
645.676	18.1
646.089	17.91
646.502	17.71
646.915	17.55
647.328	17.41
647.741	17.24
648.154	17.12
648.567	17.01
648.98	16.89
649.393	16.78
649.805	16.66
650.218	16.56
650.631	16.48
651.043	16.38
651.456	16.28
651.868	16.19
652.28	16.11
652.693	16.01
653.105	15.89
653.517	15.78
653.929	15.67
654.341	15.57
654.753	15.45
655.165	15.32
655.577	15.17
655.989	15.02
656.401	14.84
656.813	14.67
657.224	14.52
657.636	14.35
658.047	14.18
658.459	13.98
658.87	13.78
659.282	13.58
659.693	13.37
660.104	13.17
660.515	12.97
660.926	12.8
661.338	12.6
661.749	12.38
662.159	12.19
662.57	11.99
662.981	11.82
663.392	11.64
663.803	11.46
664.213	11.3
664.624	11.15
665.035	10.99
665.445	10.84
665.855	10.71
666.266	10.6
666.676	10.49
667.086	10.37
667.497	10.26
667.907	10.17
668.317	10.08
668.727	10.01
669.137	9.92
669.547	9.89
669.956	9.82
670.366	9.77
670.776	9.72
671.186	9.67
671.595	9.64
672.005	9.61
672.414	9.61
672.824	9.62
673.233	9.62
673.642	9.61
674.052	9.6
674.461	9.61
674.87	9.62
675.279	9.64
675.688	9.67
676.097	9.7
676.506	9.74
676.915	9.78
677.323	9.84
677.732	9.9
678.141	9.99
678.549	10.09
678.958	10.21
679.366	10.32
679.775	10.47
680.183	10.63
680.592	10.82
681	11.03
681.408	11.25
681.816	11.5
682.224	11.78
682.632	12.1
683.04	12.44
683.448	12.82
683.856	13.26
684.264	13.72
684.671	14.23
685.079	14.77
685.487	15.36
685.894	15.97
686.302	16.65
686.709	17.35
687.116	18.07
687.524	18.85
687.931	19.65
688.338	20.48
688.745	21.32
689.152	22.19
689.559	23.07
689.966	23.95
690.373	24.87
690.78	25.75
691.187	26.65
691.593	27.55
692	28.45
692.407	29.34
692.813	30.22
693.22	31.11
693.626	31.98
694.032	32.87
694.439	33.75
694.845	34.59
695.251	35.43
695.657	36.26
696.063	37.09
696.469	37.87
696.875	38.61
697.281	39.33
697.687	40.06
698.093	40.76
698.498	41.43
698.904	42.09
699.31	42.73
699.715	43.36
700.12	43.96
700.526	44.54
700.931	45.11
701.337	45.7
701.742	46.25
702.147	46.8
702.552	47.32
702.957	47.83
703.362	48.34
703.767	48.81
704.172	49.28
704.577	49.75
704.981	50.18
705.386	50.58
705.791	50.99
706.195	51.38
706.6	51.72
707.004	52.09
707.408	52.41
707.813	52.76
708.217	53.06
708.621	53.37
709.025	53.7
709.43	53.99
709.834	54.32
710.237	54.6
710.641	54.9
711.045	55.18
711.449	55.43
711.853	55.71
712.256	55.95
712.66	56.22
713.064	56.45
713.467	56.7
713.87	56.97
714.274	57.21
714.677	57.46
715.08	57.67
715.484	57.93
715.887	58.17
716.29	58.39
716.693	58.58
717.096	58.77
717.499	58.99
717.901	59.12
718.304	59.28
718.707	59.44
719.109	59.59
719.512	59.79
719.915	59.92
720.317	60.08
720.719	60.21
721.122	60.36
721.524	60.51
721.926	60.68
722.328	60.86
722.731	61.03
723.133	61.15
723.535	61.31
723.937	61.42
724.338	61.53
724.74	61.66
725.142	61.76
725.544	61.86
725.945	61.98
726.347	62.08
726.748	62.14
727.15	62.2
727.551	62.3
727.952	62.36
728.354	62.45
728.755	62.54
729.156	62.59
729.557	62.68
729.958	62.78
730.359	62.82
730.76	62.85
731.161	62.93
731.562	62.99
731.962	63.04
732.363	63.13
732.763	63.21
733.164	63.25
733.564	63.29
733.965	63.32
734.365	63.32
734.766	63.36
735.166	63.38
735.566	63.39
735.966	63.42
736.366	63.4
736.766	63.41
737.166	63.41
737.566	63.43
737.966	63.5
738.365	63.51
738.765	63.52
739.165	63.57
739.564	63.62
739.964	63.63
740.363	63.65
740.763	63.67
741.162	63.69
741.561	63.73
741.96	63.79
742.36	63.78
742.759	63.82
743.158	63.83
743.557	63.83
743.955	63.88
744.354	63.93
744.753	63.97
745.152	64.03
745.55	64.06
745.949	64.05
746.348	64.03
746.746	64.05
747.144	64.11
747.543	64.13
747.941	64.2
748.339	64.21
748.737	64.24
749.136	64.24
749.534	64.25
749.932	64.23
750.33	64.27
750.727	64.29
751.125	64.29
751.523	64.26
751.921	64.28
752.318	64.27
752.716	64.24
753.113	64.21
753.511	64.21
753.908	64.19
754.305	64.21
754.703	64.15
755.1	64.17
755.497	64.17
755.894	64.18
756.291	64.16
756.688	64.13
757.085	64.15
757.482	64.16
757.878	64.19
758.275	64.2
758.672	64.21
759.068	64.25
759.465	64.22
759.861	64.19
760.258	64.16
760.654	64.18
761.05	64.16
761.447	64.12
761.843	64.07
762.239	63.99
762.635	63.96
763.031	63.92
763.427	63.88
763.822	63.85
764.218	63.83
764.614	63.82
765.01	63.8
765.405	63.78
765.801	63.77
766.196	63.77
766.592	63.79
766.987	63.81
767.382	63.78
767.778	63.78
768.173	63.78
768.568	63.76
768.963	63.75
769.358	63.72
769.753	63.75
770.148	63.73
770.542	63.72
770.937	63.67
771.332	63.68
771.726	63.68
772.121	63.66
772.515	63.65
772.91	63.66
773.304	63.63
773.699	63.65
774.093	63.62
774.487	63.64
774.881	63.65
775.275	63.69
775.669	63.69
776.063	63.68
776.457	63.67
776.851	63.62
777.245	63.64
