Data from N_2_div_pa_2n_085_Splice17_04.txt Node
Date: Sat Feb 29 14:14:03 EST 2020
User: sa697716
Spectrometer: FLMS03696
Trigger mode: 0
Integration Time (sec): 3.180400E-1
Scans to average: 20
Electric dark correction enabled: true
Nonlinearity correction enabled: true
Boxcar width: 5
XAxis mode: Wavelengths
Number of Pixels in Spectrum: 2048
>>>>>Begin Spectral Data<<<<<
187.83	64.25
188.298	51.83
188.766	49.96
189.233	42.82
189.701	56.61
190.169	55.5
190.636	48.57
191.104	36.17
191.571	106.8
192.039	109.07
192.506	73.41
192.974	1590.3
193.441	352.84
193.908	23.9
194.375	5.28
194.842	66.62
195.31	31.61
195.777	-9.32
196.244	25.73
196.711	36.75
197.177	33.02
197.644	32.97
198.111	33.48
198.578	33.09
199.045	32.74
199.511	32.56
199.978	33.23
200.445	32.89
200.911	33.35
201.378	33.12
201.844	33.19
202.31	33.72
202.777	34.13
203.243	34.21
203.709	34.84
204.176	34.87
204.642	34.79
205.108	34.28
205.574	34.8
206.04	34.71
206.506	34.51
206.972	34.04
207.438	33.5
207.903	33.16
208.369	32.75
208.835	32.17
209.301	31.74
209.766	31.25
210.232	30.91
210.697	30.22
211.163	29.67
211.628	29.16
212.094	28.5
212.559	28.01
213.024	27.4
213.49	26.64
213.955	26.16
214.42	25.51
214.885	24.61
215.35	23.81
215.815	22.57
216.28	21.25
216.745	20.1
217.21	18.51
217.675	17.12
218.14	15.74
218.604	14.53
219.069	13.53
219.534	12.62
219.998	11.94
220.463	11.4
220.927	10.95
221.392	10.53
221.856	10.06
222.32	9.8
222.785	9.52
223.249	9.27
223.713	9.1
224.177	8.85
224.642	8.7
225.106	8.54
225.57	8.32
226.034	8.15
226.497	7.99
226.961	7.86
227.425	7.71
227.889	7.59
228.353	7.47
228.816	7.35
229.28	7.23
229.744	7.15
230.207	7.04
230.671	6.96
231.134	6.87
231.597	6.78
232.061	6.72
232.524	6.66
232.987	6.58
233.45	6.52
233.914	6.46
234.377	6.43
234.84	6.36
235.303	6.31
235.766	6.27
236.229	6.22
236.691	6.17
237.154	6.13
237.617	6.08
238.08	6.03
238.542	5.98
239.005	5.93
239.468	5.86
239.93	5.83
240.393	5.79
240.855	5.72
241.317	5.69
241.78	5.65
242.242	5.59
242.704	5.54
243.166	5.5
243.629	5.45
244.091	5.4
244.553	5.37
245.015	5.34
245.477	5.29
245.939	5.26
246.4	5.22
246.862	5.17
247.324	5.15
247.786	5.13
248.247	5.1
248.709	5.07
249.17	5.05
249.632	5
250.093	4.94
250.555	4.91
251.016	4.9
251.477	4.87
251.939	4.84
252.4	4.81
252.861	4.77
253.322	4.75
253.783	4.73
254.244	4.71
254.705	4.69
255.166	4.69
255.627	4.67
256.088	4.62
256.549	4.6
257.009	4.57
257.47	4.56
257.931	4.53
258.391	4.49
258.852	4.45
259.312	4.42
259.773	4.4
260.233	4.36
260.694	4.33
261.154	4.31
261.614	4.28
262.074	4.27
262.534	4.22
262.994	4.2
263.455	4.19
263.915	4.16
264.374	4.14
264.834	4.13
265.294	4.11
265.754	4.09
266.214	4.07
266.673	4.05
267.133	4.02
267.593	4.02
268.052	4
268.512	3.98
268.971	3.97
269.431	3.96
269.89	3.94
270.349	3.92
270.809	3.91
271.268	3.89
271.727	3.87
272.186	3.86
272.645	3.85
273.104	3.84
273.563	3.83
274.022	3.82
274.481	3.8
274.94	3.79
275.399	3.78
275.857	3.77
276.316	3.76
276.775	3.75
277.233	3.74
277.692	3.73
278.15	3.71
278.609	3.69
279.067	3.68
279.525	3.67
279.984	3.66
280.442	3.65
280.9	3.64
281.358	3.64
281.816	3.63
282.274	3.62
282.732	3.61
283.19	3.61
283.648	3.61
284.106	3.6
284.564	3.6
285.021	3.59
285.479	3.59
285.937	3.57
286.394	3.56
286.852	3.57
287.309	3.56
287.767	3.55
288.224	3.55
288.682	3.54
289.139	3.55
289.596	3.54
290.053	3.53
290.511	3.51
290.968	3.51
291.425	3.52
291.882	3.5
292.339	3.49
292.796	3.48
293.252	3.46
293.709	3.45
294.166	3.44
294.623	3.43
295.079	3.43
295.536	3.43
295.992	3.42
296.449	3.4
296.905	3.4
297.362	3.38
297.818	3.38
298.274	3.38
298.731	3.37
299.187	3.37
299.643	3.36
300.099	3.35
300.555	3.34
301.011	3.33
301.467	3.32
301.923	3.32
302.379	3.32
302.835	3.32
303.291	3.32
303.746	3.31
304.202	3.3
304.658	3.29
305.113	3.29
305.569	3.29
306.024	3.3
306.479	3.3
306.935	3.3
307.39	3.3
307.845	3.3
308.301	3.31
308.756	3.31
309.211	3.32
309.666	3.33
310.121	3.32
310.576	3.32
311.031	3.32
311.486	3.32
311.94	3.32
312.395	3.33
312.85	3.32
313.305	3.32
313.759	3.32
314.214	3.32
314.668	3.32
315.123	3.33
315.577	3.33
316.032	3.33
316.486	3.33
316.94	3.32
317.394	3.31
317.849	3.31
318.303	3.3
318.757	3.29
319.211	3.28
319.665	3.28
320.119	3.27
320.572	3.27
321.026	3.27
321.48	3.26
321.934	3.26
322.387	3.27
322.841	3.26
323.295	3.26
323.748	3.25
324.202	3.26
324.655	3.25
325.108	3.24
325.562	3.23
326.015	3.23
326.468	3.22
326.921	3.21
327.374	3.2
327.827	3.21
328.28	3.2
328.733	3.2
329.186	3.19
329.639	3.19
330.092	3.19
330.545	3.2
330.997	3.2
331.45	3.19
331.903	3.18
332.355	3.19
332.808	3.19
333.26	3.19
333.713	3.2
334.165	3.2
334.617	3.21
335.069	3.21
335.522	3.22
335.974	3.21
336.426	3.22
336.878	3.23
337.33	3.23
337.782	3.23
338.234	3.22
338.686	3.21
339.137	3.22
339.589	3.21
340.041	3.2
340.493	3.19
340.944	3.2
341.396	3.2
341.847	3.19
342.299	3.16
342.75	3.15
343.201	3.14
343.653	3.12
344.104	3.12
344.555	3.11
345.006	3.11
345.457	3.1
345.908	3.09
346.359	3.08
346.81	3.09
347.261	3.09
347.712	3.09
348.163	3.09
348.613	3.08
349.064	3.07
349.515	3.07
349.965	3.06
350.416	3.06
350.866	3.05
351.317	3.05
351.767	3.05
352.217	3.05
352.668	3.05
353.118	3.06
353.568	3.07
354.018	3.08
354.468	3.08
354.918	3.1
355.368	3.11
355.818	3.11
356.268	3.11
356.718	3.11
357.168	3.12
357.617	3.11
358.067	3.1
358.517	3.1
358.966	3.1
359.416	3.09
359.865	3.1
360.315	3.09
360.764	3.1
361.213	3.1
361.663	3.1
362.112	3.11
362.561	3.12
363.01	3.13
363.459	3.13
363.908	3.13
364.357	3.13
364.806	3.13
365.255	3.15
365.703	3.15
366.152	3.15
366.601	3.15
367.05	3.16
367.498	3.17
367.947	3.18
368.395	3.19
368.844	3.2
369.292	3.21
369.74	3.22
370.189	3.22
370.637	3.23
371.085	3.24
371.533	3.25
371.981	3.26
372.429	3.26
372.877	3.26
373.325	3.27
373.773	3.28
374.221	3.29
374.669	3.3
375.116	3.3
375.564	3.31
376.012	3.32
376.459	3.33
376.907	3.34
377.354	3.35
377.801	3.37
378.249	3.39
378.696	3.42
379.143	3.43
379.591	3.45
380.038	3.48
380.485	3.51
380.932	3.54
381.379	3.56
381.826	3.6
382.273	3.63
382.72	3.67
383.166	3.71
383.613	3.75
384.06	3.81
384.506	3.86
384.953	3.91
385.4	3.98
385.846	4.05
386.292	4.14
386.739	4.23
387.185	4.34
387.631	4.44
388.078	4.52
388.524	4.58
388.97	4.64
389.416	4.73
389.862	4.84
390.308	4.98
390.754	5.14
391.2	5.31
391.645	5.44
392.091	5.55
392.537	5.67
392.983	5.87
393.428	6.14
393.874	6.49
394.319	6.84
394.765	7.2
395.21	7.54
395.655	7.92
396.101	8.3
396.546	8.75
396.991	9.23
397.436	9.74
397.881	10.24
398.326	10.74
398.771	11.16
399.216	11.6
399.661	11.98
400.106	12.34
400.551	12.64
400.995	12.9
401.44	13.11
401.885	13.34
402.329	13.57
402.774	13.8
403.218	14.05
403.663	14.36
404.107	14.68
404.551	15.02
404.995	15.32
405.44	15.61
405.884	15.92
406.328	16.32
406.772	16.76
407.216	17.23
407.66	17.67
408.104	18.06
408.547	18.39
408.991	18.67
409.435	18.97
409.879	19.35
410.322	19.78
410.766	20.24
411.209	20.65
411.653	21.01
412.096	21.32
412.54	21.63
412.983	21.93
413.426	22.28
413.869	22.66
414.312	23.04
414.756	23.4
415.199	23.71
415.642	23.99
416.085	24.27
416.527	24.5
416.97	24.68
417.413	24.77
417.856	24.79
418.298	24.8
418.741	24.83
419.184	24.9
419.626	25.01
420.069	25.16
420.511	25.31
420.953	25.44
421.396	25.61
421.838	25.86
422.28	26.22
422.722	26.6
423.164	26.95
423.606	27.28
424.048	27.49
424.49	27.61
424.932	27.51
425.374	27.2
425.816	26.73
426.258	26.22
426.699	25.87
427.141	25.8
427.582	26
428.024	26.38
428.465	26.79
428.907	27.16
429.348	27.49
429.789	27.98
430.231	28.76
430.672	29.85
431.113	31.06
431.554	32.26
431.995	33.18
432.436	33.85
432.877	34.33
433.318	34.68
433.759	35.11
434.2	35.69
434.64	36.41
435.081	37.06
435.522	37.64
435.962	38.16
436.403	38.55
436.843	38.91
437.284	39.27
437.724	39.7
438.164	40.22
438.604	40.83
439.045	41.41
439.485	41.86
439.925	42.3
440.365	42.64
440.805	42.87
441.245	43.06
441.685	43.26
442.125	43.52
442.564	43.85
443.004	44.19
443.444	44.53
443.883	44.95
444.323	45.39
444.762	45.81
445.202	46.3
445.641	46.87
446.081	47.58
446.52	48.22
446.959	48.82
447.398	49.25
447.837	49.56
448.276	49.68
448.716	49.73
449.154	49.81
449.593	49.9
450.032	49.88
450.471	49.74
450.91	49.49
451.349	49.25
451.787	49.04
452.226	48.86
452.664	48.71
453.103	48.61
453.541	48.45
453.98	48.18
454.418	47.86
454.856	47.51
455.295	47.26
455.733	46.94
456.171	46.67
456.609	46.43
457.047	46.1
457.485	45.94
457.923	45.85
458.361	45.83
458.798	45.88
459.236	45.93
459.674	46.03
460.111	46.1
460.549	46.25
460.987	46.42
461.424	46.53
461.862	46.77
462.299	46.92
462.736	47.05
463.173	47.27
463.611	47.52
464.048	47.84
464.485	48.18
464.922	48.56
465.359	48.91
465.796	49.17
466.233	49.57
466.67	49.92
467.106	50.33
467.543	50.75
467.98	51.1
468.416	51.41
468.853	51.65
469.29	51.88
469.726	52.08
470.162	52.28
470.599	52.41
471.035	52.49
471.471	52.47
471.907	52.4
472.344	52.28
472.78	52.07
473.216	51.86
473.652	51.6
474.088	51.28
474.523	50.87
474.959	50.46
475.395	50.04
475.831	49.57
476.266	49.13
476.702	48.64
477.138	48.08
477.573	47.55
478.008	46.95
478.444	46.32
478.879	45.72
479.314	45.13
479.75	44.54
480.185	43.93
480.62	43.29
481.055	42.66
481.49	41.95
481.925	41.26
482.36	40.61
482.795	40.01
483.229	39.53
483.664	39.04
484.099	38.57
484.534	38.11
484.968	37.74
485.403	37.39
485.837	37.1
486.271	36.88
486.706	36.66
487.14	36.48
487.574	36.27
488.009	36.05
488.443	35.84
488.877	35.65
489.311	35.49
489.745	35.34
490.179	35.25
490.613	35.14
491.046	35.08
491.48	35.05
491.914	35.01
492.348	35
492.781	34.99
493.215	35.01
493.648	35.03
494.082	35.06
494.515	35.1
494.948	35.1
495.382	35.13
495.815	35.12
496.248	35.13
496.681	35.13
497.114	35.15
497.547	35.16
497.98	35.19
498.413	35.23
498.846	35.27
499.279	35.29
499.711	35.32
500.144	35.37
500.577	35.47
501.009	35.58
501.442	35.72
501.874	35.83
502.306	35.98
502.739	36.08
503.171	36.24
503.603	36.37
504.036	36.49
504.468	36.65
504.9	36.81
505.332	36.93
505.764	37.07
506.196	37.19
506.627	37.35
507.059	37.5
507.491	37.66
507.923	37.76
508.354	37.92
508.786	38.09
509.217	38.22
509.649	38.38
510.08	38.55
510.512	38.7
510.943	38.89
511.374	39.07
511.805	39.2
512.237	39.36
512.668	39.5
513.099	39.66
513.53	39.82
513.961	39.99
514.391	40.14
514.822	40.31
515.253	40.5
515.684	40.65
516.114	40.84
516.545	41.01
516.975	41.22
517.406	41.41
517.836	41.58
518.267	41.74
518.697	41.91
519.127	42.06
519.558	42.21
519.988	42.34
520.418	42.48
520.848	42.59
521.278	42.73
521.708	42.71
522.138	42.79
522.567	42.87
522.997	42.98
523.427	43.09
523.857	43.2
524.286	43.34
524.716	43.48
525.145	43.61
525.575	43.75
526.004	43.89
526.433	44.19
526.863	44.43
527.292	44.63
527.721	44.8
528.15	44.93
528.579	45.06
529.008	45.16
529.437	45.24
529.866	45.34
530.295	45.44
530.724	45.54
531.152	45.61
531.581	45.67
532.01	45.73
532.438	45.8
532.867	45.9
533.295	45.98
533.723	46.09
534.152	46.16
534.58	46.2
535.008	46.23
535.436	46.25
535.865	46.26
536.293	46.27
536.721	46.3
537.149	46.35
537.576	46.42
538.004	46.5
538.432	46.54
538.86	46.64
539.287	46.73
539.715	46.85
540.143	46.97
540.57	47.14
540.998	47.33
541.425	47.47
541.852	47.64
542.28	47.76
542.707	47.94
543.134	48.09
543.561	48.19
543.988	48.34
544.415	48.49
544.842	48.65
545.269	48.79
545.696	48.9
546.123	49.07
546.549	49.19
546.976	49.3
547.403	49.39
547.829	49.54
548.256	49.68
548.682	49.76
549.108	49.88
549.535	49.99
549.961	50.05
550.387	50.12
550.813	50.18
551.24	50.26
551.666	50.34
552.092	50.38
552.518	50.4
552.943	50.43
553.369	50.48
553.795	50.47
554.221	50.42
554.646	50.38
555.072	50.31
555.498	50.23
555.923	50.16
556.349	50.05
556.774	49.99
557.199	49.9
557.625	49.82
558.05	49.7
558.475	49.56
558.9	49.45
559.325	49.33
559.75	49.18
560.175	49.02
560.6	48.84
561.025	48.64
561.449	48.39
561.874	48.14
562.299	47.89
562.723	47.64
563.148	47.38
563.572	47.09
563.997	46.8
564.421	46.47
564.846	46.16
565.27	45.83
565.694	45.52
566.118	45.18
566.542	44.86
566.966	44.53
567.39	44.18
567.814	43.87
568.238	43.59
568.662	43.35
569.086	43.14
569.509	42.97
569.933	42.8
570.357	42.66
570.78	42.55
571.204	42.44
571.627	42.37
572.05	42.37
572.474	42.34
572.897	42.35
573.32	42.34
573.743	42.37
574.166	42.36
574.589	42.38
575.012	42.43
575.435	42.51
575.858	42.59
576.281	42.69
576.704	42.76
577.126	42.86
577.549	42.95
577.972	43.06
578.394	43.14
578.817	43.26
579.239	43.39
579.661	43.48
580.084	43.55
580.506	43.65
580.928	43.72
581.35	43.83
581.772	43.91
582.194	43.97
582.616	44.02
583.038	44.12
583.46	44.17
583.882	44.2
584.303	44.22
584.725	44.24
585.147	44.21
585.568	44.2
585.99	44.17
586.411	44.2
586.833	44.19
587.254	44.18
587.675	44.17
588.096	44.17
588.518	44.17
588.939	44.18
589.36	44.2
589.781	44.21
590.202	44.18
590.623	44.14
591.043	44.03
591.464	43.93
591.885	43.84
592.305	43.73
592.726	43.6
593.147	43.43
593.567	43.26
593.987	43.07
594.408	42.87
594.828	42.68
595.248	42.45
595.669	42.2
596.089	41.95
596.509	41.66
596.929	41.36
597.349	41.07
597.769	40.79
598.189	40.5
598.608	40.22
599.028	39.96
599.448	39.7
599.867	39.47
600.287	39.29
600.706	39.06
601.126	38.87
601.545	38.69
601.965	38.55
602.384	38.42
602.803	38.29
603.222	38.16
603.641	38.07
604.061	37.98
604.48	37.9
604.898	37.81
605.317	37.78
605.736	37.73
606.155	37.69
606.574	37.64
606.992	37.61
607.411	37.6
607.829	37.56
608.248	37.57
608.666	37.56
609.085	37.56
609.503	37.53
609.921	37.53
610.339	37.54
610.758	37.54
611.176	37.53
611.594	37.5
612.012	37.48
612.43	37.49
612.847	37.47
613.265	37.45
613.683	37.44
614.101	37.43
614.518	37.42
614.936	37.41
615.353	37.41
615.771	37.41
616.188	37.44
616.606	37.45
617.023	37.47
617.44	37.45
617.857	37.44
618.274	37.44
618.691	37.44
619.108	37.43
619.525	37.4
619.942	37.36
620.359	37.31
620.776	37.25
621.192	37.19
621.609	37.14
622.026	37.08
622.442	37.05
622.859	37
623.275	36.95
623.691	36.89
624.108	36.85
624.524	36.83
624.94	36.8
625.356	36.77
625.772	36.77
626.188	36.74
626.604	36.71
627.02	36.67
627.436	36.65
627.852	36.63
628.268	36.62
628.683	36.64
629.099	36.65
629.514	36.64
629.93	36.66
630.345	36.65
630.761	36.66
631.176	36.68
631.591	36.69
632.007	36.7
632.422	36.72
632.837	36.73
633.252	36.72
633.667	36.73
634.082	36.74
634.497	36.76
634.911	36.76
635.326	36.74
635.741	36.73
636.155	36.71
636.57	36.68
636.984	36.62
637.399	36.58
637.813	36.52
638.228	36.45
638.642	36.41
639.056	36.33
639.47	36.3
639.884	36.27
640.298	36.23
640.712	36.18
641.126	36.14
641.54	36.12
641.954	36.08
642.368	36.02
642.781	35.96
643.195	35.88
643.609	35.81
644.022	35.73
644.436	35.64
644.849	35.55
645.262	35.43
645.676	35.33
646.089	35.26
646.502	35.19
646.915	35.14
647.328	35.1
647.741	35.05
648.154	35.02
648.567	34.99
648.98	34.97
649.393	34.96
649.805	34.97
650.218	34.96
650.631	34.89
651.043	34.78
651.456	34.56
651.868	34.26
652.28	33.95
652.693	33.66
653.105	33.45
653.517	33.28
653.929	33.17
654.341	33.07
654.753	32.99
655.165	32.96
655.577	32.96
655.989	33.1
656.401	33.28
656.813	33.52
657.224	33.7
657.636	33.83
658.047	33.91
658.459	33.94
658.87	33.94
659.282	33.93
659.693	33.88
660.104	33.85
660.515	33.78
660.926	33.76
661.338	33.7
661.749	33.64
662.159	33.56
662.57	33.47
662.981	33.38
663.392	33.31
663.803	33.22
664.213	33.18
664.624	33.14
665.035	33.07
665.445	32.97
665.855	32.89
666.266	32.8
666.676	32.71
667.086	32.62
667.497	32.52
667.907	32.41
668.317	32.32
668.727	32.21
669.137	32.09
669.547	32.01
669.956	31.93
670.366	31.86
670.776	31.78
671.186	31.71
671.595	31.65
672.005	31.62
672.414	31.58
672.824	31.53
673.233	31.5
673.642	31.45
674.052	31.39
674.461	31.35
674.87	31.33
675.279	31.3
675.688	31.26
676.097	31.24
676.506	31.21
676.915	31.19
677.323	31.19
677.732	31.18
678.141	31.19
678.549	31.21
678.958	31.23
679.366	31.21
679.775	31.19
680.183	31.18
680.592	31.14
681	31.12
681.408	31.11
681.816	31
682.224	30.78
682.632	30.41
683.04	29.94
683.448	29.48
683.856	29.06
684.264	28.7
684.671	28.36
685.079	28.05
685.487	27.77
685.894	27.5
686.302	27.31
686.709	27.31
687.116	27.48
687.524	27.78
687.931	28.1
688.338	28.45
688.745	28.77
689.152	29.1
689.559	29.4
689.966	29.68
690.373	29.97
690.78	30.25
691.187	30.52
691.593	30.78
692	31.04
692.407	31.29
692.813	31.54
693.22	31.79
693.626	32.05
694.032	32.3
694.439	32.59
694.845	32.86
695.251	33.14
695.657	33.38
696.063	33.63
696.469	33.88
696.875	34.1
697.281	34.31
697.687	34.57
698.093	34.82
698.498	35.11
698.904	35.4
699.31	35.71
699.715	36.06
700.12	36.45
700.526	36.87
700.931	37.26
701.337	37.71
701.742	38.14
702.147	38.57
702.552	39.03
702.957	39.47
703.362	39.91
703.767	40.31
704.172	40.72
704.577	41.12
704.981	41.53
705.386	41.95
705.791	42.36
706.195	42.77
706.6	43.18
707.004	43.58
707.408	43.97
707.813	44.36
708.217	44.77
708.621	45.18
709.025	45.56
709.43	45.94
709.834	46.35
710.237	46.7
710.641	47.1
711.045	47.47
711.449	47.85
711.853	48.18
712.256	48.48
712.66	48.76
713.064	48.97
713.467	49.13
713.87	49.26
714.274	49.32
714.677	49.37
715.08	49.37
715.484	49.41
715.887	49.47
716.29	49.58
716.693	49.78
717.096	50.09
717.499	50.51
717.901	51.02
718.304	51.54
718.707	52.07
719.109	52.63
719.512	53.21
719.915	53.71
720.317	54.18
720.719	54.64
721.122	55.05
721.524	55.37
721.926	55.63
722.328	55.85
722.731	56.1
723.133	56.36
723.535	56.65
723.937	56.93
724.338	57.23
724.74	57.51
725.142	57.69
725.544	57.95
725.945	58.22
726.347	58.49
726.748	58.74
727.15	59
727.551	59.29
727.952	59.55
728.354	59.88
728.755	60.19
729.156	60.56
729.557	61.05
729.958	61.42
730.359	61.75
730.76	62.03
731.161	62.34
731.562	62.62
731.962	62.88
732.363	63.13
732.763	63.33
733.164	63.52
733.564	63.67
733.965	63.75
734.365	63.77
734.766	63.85
735.166	63.94
735.566	64.01
735.966	64.07
736.366	64.12
736.766	64.16
737.166	64.2
737.566	64.25
737.966	64.27
738.365	64.36
738.765	64.49
739.165	64.56
739.564	64.66
739.964	64.72
740.363	64.82
740.763	64.86
741.162	64.93
741.561	65.02
741.96	65.11
742.36	65.21
742.759	65.24
743.158	65.23
743.557	65.26
743.955	65.34
744.354	65.4
744.753	65.46
745.152	65.49
745.55	65.51
745.949	65.49
746.348	65.48
746.746	65.47
747.144	65.49
747.543	65.51
747.941	65.54
748.339	65.51
748.737	65.5
749.136	65.44
749.534	65.46
749.932	65.48
750.33	65.45
750.727	65.39
751.125	65.34
751.523	65.29
751.921	65.25
752.318	65.19
752.716	65.08
753.113	65.02
753.511	64.94
753.908	64.81
754.305	64.65
754.703	64.38
755.1	63.85
755.497	62.94
755.894	61.68
756.291	60.15
756.688	58.58
757.085	57.1
757.482	55.73
757.878	54.47
758.275	53.23
758.672	51.94
759.068	50.82
759.465	49.98
759.861	49.61
760.258	49.63
760.654	50.03
761.05	50.6
761.447	51.2
761.843	51.73
762.239	52.28
762.635	52.94
763.031	53.8
763.427	54.7
763.822	55.62
764.218	56.53
764.614	57.42
765.01	58.23
765.405	58.96
765.801	59.62
766.196	60.22
766.592	60.71
766.987	61.11
767.382	61.39
767.778	61.61
768.173	61.77
768.568	61.88
768.963	61.96
769.358	62.02
769.753	62.08
770.148	62.1
770.542	62.07
770.937	62.04
771.332	62.01
771.726	61.96
772.121	61.89
772.515	61.87
772.91	61.81
773.304	61.76
