Data from N_2_div_oh_2n_065_Splice17_16.txt Node
Date: Sat Feb 29 14:04:04 EST 2020
User: sa697716
Spectrometer: FLMS03696
Trigger mode: 0
Integration Time (sec): 3.180400E-1
Scans to average: 20
Electric dark correction enabled: true
Nonlinearity correction enabled: true
Boxcar width: 5
XAxis mode: Wavelengths
Number of Pixels in Spectrum: 2048
>>>>>Begin Spectral Data<<<<<
187.83	96.12
188.298	98.88
188.766	86.02
189.233	70.73
189.701	82.05
190.169	87.76
190.636	80
191.104	61.04
191.571	-113.83
192.039	40.59
192.506	109.65
192.974	2612.79
193.441	-141.3
193.908	86.3
194.375	-41.71
194.842	68.82
195.31	75.49
195.777	77.01
196.244	32.04
196.711	28.3
197.177	26.33
197.644	26.66
198.111	27.48
198.578	27.33
199.045	27.59
199.511	28.03
199.978	28.51
200.445	28.39
200.911	28.42
201.378	28.98
201.844	29.12
202.31	30.06
202.777	30.37
203.243	30.66
203.709	31.07
204.176	30.64
204.642	30.66
205.108	30.65
205.574	31.16
206.04	31.2
206.506	30.98
206.972	30.88
207.438	30.48
207.903	30.43
208.369	29.8
208.835	29.63
209.301	29.93
209.766	30
210.232	29.7
210.697	29.39
211.163	29.15
211.628	28.94
212.094	28.82
212.559	28.68
213.024	28.44
213.49	28.45
213.955	28.3
214.42	27.57
214.885	27.17
215.35	26.77
215.815	26.15
216.28	25.52
216.745	24.65
217.21	23.81
217.675	23.09
218.14	22.4
218.604	21.66
219.069	21.06
219.534	20.59
219.998	20.17
220.463	19.8
220.927	19.44
221.392	19.13
221.856	18.87
222.32	18.65
222.785	18.4
223.249	18.17
223.713	18
224.177	17.81
224.642	17.65
225.106	17.44
225.57	17.24
226.034	17.06
226.497	16.85
226.961	16.66
227.425	16.45
227.889	16.26
228.353	16.04
228.816	15.86
229.28	15.62
229.744	15.43
230.207	15.22
230.671	15.02
231.134	14.83
231.597	14.65
232.061	14.5
232.524	14.34
232.987	14.17
233.45	14.02
233.914	13.86
234.377	13.73
234.84	13.57
235.303	13.44
235.766	13.31
236.229	13.17
236.691	13.06
237.154	12.91
237.617	12.77
238.08	12.66
238.542	12.53
239.005	12.42
239.468	12.3
239.93	12.19
240.393	12.06
240.855	11.92
241.317	11.8
241.78	11.68
242.242	11.56
242.704	11.45
243.166	11.35
243.629	11.24
244.091	11.11
244.553	11.02
245.015	10.93
245.477	10.82
245.939	10.73
246.4	10.64
246.862	10.55
247.324	10.46
247.786	10.38
248.247	10.27
248.709	10.18
249.17	10.1
249.632	10.01
250.093	9.92
250.555	9.85
251.016	9.8
251.477	9.72
251.939	9.65
252.4	9.58
252.861	9.51
253.322	9.45
253.783	9.41
254.244	9.34
254.705	9.29
255.166	9.25
255.627	9.19
256.088	9.12
256.549	9.08
257.009	9.02
257.47	8.97
257.931	8.92
258.391	8.85
258.852	8.79
259.312	8.75
259.773	8.7
260.233	8.64
260.694	8.59
261.154	8.54
261.614	8.48
262.074	8.44
262.534	8.38
262.994	8.34
263.455	8.31
263.915	8.27
264.374	8.23
264.834	8.19
265.294	8.15
265.754	8.11
266.214	8.08
266.673	8.05
267.133	8.02
267.593	7.99
268.052	7.96
268.512	7.93
268.971	7.91
269.431	7.88
269.89	7.87
270.349	7.84
270.809	7.83
271.268	7.81
271.727	7.79
272.186	7.76
272.645	7.73
273.104	7.7
273.563	7.67
274.022	7.64
274.481	7.62
274.94	7.58
275.399	7.55
275.857	7.52
276.316	7.48
276.775	7.45
277.233	7.41
277.692	7.39
278.15	7.35
278.609	7.32
279.067	7.29
279.525	7.25
279.984	7.23
280.442	7.21
280.9	7.19
281.358	7.16
281.816	7.14
282.274	7.12
282.732	7.1
283.19	7.08
283.648	7.06
284.106	7.04
284.564	7.03
285.021	7.02
285.479	7
285.937	6.98
286.394	6.97
286.852	6.96
287.309	6.95
287.767	6.93
288.224	6.9
288.682	6.89
289.139	6.86
289.596	6.83
290.053	6.79
290.511	6.76
290.968	6.73
291.425	6.69
291.882	6.65
292.339	6.62
292.796	6.58
293.252	6.55
293.709	6.52
294.166	6.49
294.623	6.47
295.079	6.45
295.536	6.42
295.992	6.4
296.449	6.39
296.905	6.37
297.362	6.35
297.818	6.34
298.274	6.33
298.731	6.31
299.187	6.3
299.643	6.28
300.099	6.27
300.555	6.25
301.011	6.24
301.467	6.23
301.923	6.21
302.379	6.21
302.835	6.2
303.291	6.18
303.746	6.17
304.202	6.16
304.658	6.14
305.113	6.13
305.569	6.12
306.024	6.1
306.479	6.08
306.935	6.07
307.39	6.05
307.845	6.03
308.301	6.02
308.756	6.01
309.211	6
309.666	5.99
310.121	5.98
310.576	5.97
311.031	5.96
311.486	5.96
311.94	5.96
312.395	5.97
312.85	5.96
313.305	5.96
313.759	5.95
314.214	5.94
314.668	5.94
315.123	5.93
315.577	5.93
316.032	5.92
316.486	5.9
316.94	5.89
317.394	5.86
317.849	5.85
318.303	5.83
318.757	5.82
319.211	5.8
319.665	5.79
320.119	5.78
320.572	5.77
321.026	5.76
321.48	5.75
321.934	5.75
322.387	5.73
322.841	5.72
323.295	5.71
323.748	5.69
324.202	5.67
324.655	5.65
325.108	5.63
325.562	5.6
326.015	5.57
326.468	5.55
326.921	5.53
327.374	5.52
327.827	5.51
328.28	5.51
328.733	5.5
329.186	5.49
329.639	5.49
330.092	5.49
330.545	5.49
330.997	5.49
331.45	5.5
331.903	5.49
332.355	5.48
332.808	5.47
333.26	5.46
333.713	5.47
334.165	5.47
334.617	5.46
335.069	5.46
335.522	5.46
335.974	5.46
336.426	5.46
336.878	5.47
337.33	5.46
337.782	5.46
338.234	5.46
338.686	5.45
339.137	5.45
339.589	5.44
340.041	5.44
340.493	5.42
340.944	5.41
341.396	5.39
341.847	5.38
342.299	5.37
342.75	5.34
343.201	5.32
343.653	5.29
344.104	5.27
344.555	5.25
345.006	5.23
345.457	5.21
345.908	5.2
346.359	5.19
346.81	5.18
347.261	5.18
347.712	5.17
348.163	5.17
348.613	5.17
349.064	5.15
349.515	5.14
349.965	5.13
350.416	5.13
350.866	5.11
351.317	5.09
351.767	5.09
352.217	5.08
352.668	5.07
353.118	5.08
353.568	5.08
354.018	5.09
354.468	5.08
354.918	5.09
355.368	5.1
355.818	5.1
356.268	5.12
356.718	5.11
357.168	5.11
357.617	5.1
358.067	5.09
358.517	5.08
358.966	5.09
359.416	5.1
359.865	5.11
360.315	5.1
360.764	5.09
361.213	5.08
361.663	5.08
362.112	5.1
362.561	5.1
363.01	5.1
363.459	5.09
363.908	5.08
364.357	5.08
364.806	5.08
365.255	5.08
365.703	5.07
366.152	5.07
366.601	5.07
367.05	5.08
367.498	5.08
367.947	5.08
368.395	5.09
368.844	5.09
369.292	5.09
369.74	5.09
370.189	5.1
370.637	5.1
371.085	5.12
371.533	5.12
371.981	5.12
372.429	5.11
372.877	5.12
373.325	5.13
373.773	5.14
374.221	5.15
374.669	5.16
375.116	5.17
375.564	5.19
376.012	5.19
376.459	5.22
376.907	5.24
377.354	5.27
377.801	5.3
378.249	5.32
378.696	5.35
379.143	5.38
379.591	5.41
380.038	5.45
380.485	5.49
380.932	5.53
381.379	5.56
381.826	5.6
382.273	5.64
382.72	5.67
383.166	5.72
383.613	5.76
384.06	5.81
384.506	5.86
384.953	5.89
385.4	5.94
385.846	5.99
386.292	6.04
386.739	6.08
387.185	6.15
387.631	6.21
388.078	6.27
388.524	6.31
388.97	6.36
389.416	6.4
389.862	6.46
390.308	6.5
390.754	6.56
391.2	6.62
391.645	6.69
392.091	6.72
392.537	6.77
392.983	6.83
393.428	6.89
393.874	6.96
394.319	7.02
394.765	7.07
395.21	7.11
395.655	7.14
396.101	7.17
396.546	7.19
396.991	7.23
397.436	7.26
397.881	7.29
398.326	7.33
398.771	7.37
399.216	7.41
399.661	7.46
400.106	7.5
400.551	7.53
400.995	7.54
401.44	7.55
401.885	7.56
402.329	7.58
402.774	7.57
403.218	7.57
403.663	7.57
404.107	7.58
404.551	7.58
404.995	7.57
405.44	7.58
405.884	7.6
406.328	7.61
406.772	7.62
407.216	7.64
407.66	7.66
408.104	7.67
408.547	7.68
408.991	7.66
409.435	7.67
409.879	7.67
410.322	7.69
410.766	7.69
411.209	7.71
411.653	7.69
412.096	7.69
412.54	7.69
412.983	7.71
413.426	7.71
413.869	7.73
414.312	7.74
414.756	7.76
415.199	7.75
415.642	7.78
416.085	7.81
416.527	7.83
416.97	7.84
417.413	7.83
417.856	7.8
418.298	7.79
418.741	7.78
419.184	7.76
419.626	7.75
420.069	7.75
420.511	7.72
420.953	7.7
421.396	7.7
421.838	7.7
422.28	7.72
422.722	7.74
423.164	7.75
423.606	7.77
424.048	7.77
424.49	7.78
424.932	7.77
425.374	7.77
425.816	7.74
426.258	7.72
426.699	7.69
427.141	7.67
427.582	7.65
428.024	7.64
428.465	7.63
428.907	7.66
429.348	7.65
429.789	7.65
430.231	7.65
430.672	7.68
431.113	7.71
431.554	7.73
431.995	7.75
432.436	7.75
432.877	7.76
433.318	7.76
433.759	7.77
434.2	7.77
434.64	7.81
435.081	7.82
435.522	7.84
435.962	7.87
436.403	7.9
436.843	7.93
437.284	7.99
437.724	8.04
438.164	8.07
438.604	8.09
439.045	8.13
439.485	8.17
439.925	8.21
440.365	8.23
440.805	8.25
441.245	8.28
441.685	8.32
442.125	8.33
442.564	8.35
443.004	8.4
443.444	8.46
443.883	8.5
444.323	8.52
444.762	8.59
445.202	8.65
445.641	8.73
446.081	8.79
446.52	8.83
446.959	8.9
447.398	9
447.837	9.07
448.276	9.12
448.716	9.18
449.154	9.28
449.593	9.31
450.032	9.35
450.471	9.38
450.91	9.41
451.349	9.45
451.787	9.45
452.226	9.44
452.664	9.45
453.103	9.46
453.541	9.48
453.98	9.47
454.418	9.48
454.856	9.47
455.295	9.47
455.733	9.47
456.171	9.46
456.609	9.49
457.047	9.5
457.485	9.52
457.923	9.52
458.361	9.51
458.798	9.51
459.236	9.53
459.674	9.54
460.111	9.55
460.549	9.55
460.987	9.57
461.424	9.57
461.862	9.58
462.299	9.57
462.736	9.57
463.173	9.57
463.611	9.58
464.048	9.58
464.485	9.58
464.922	9.58
465.359	9.61
465.796	9.6
466.233	9.61
466.67	9.62
467.106	9.63
467.543	9.64
467.98	9.67
468.416	9.68
468.853	9.69
469.29	9.7
469.726	9.72
470.162	9.7
470.599	9.72
471.035	9.73
471.471	9.74
471.907	9.76
472.344	9.79
472.78	9.8
473.216	9.8
473.652	9.81
474.088	9.82
474.523	9.84
474.959	9.85
475.395	9.85
475.831	9.86
476.266	9.85
476.702	9.84
477.138	9.82
477.573	9.81
478.008	9.8
478.444	9.8
478.879	9.8
479.314	9.79
479.75	9.81
480.185	9.8
480.62	9.78
481.055	9.78
481.49	9.78
481.925	9.79
482.36	9.79
482.795	9.79
483.229	9.8
483.664	9.8
484.099	9.81
484.534	9.8
484.968	9.82
485.403	9.85
485.837	9.88
486.271	9.9
486.706	9.92
487.14	9.97
487.574	10.01
488.009	10.05
488.443	10.09
488.877	10.13
489.311	10.19
489.745	10.25
490.179	10.31
490.613	10.36
491.046	10.44
491.48	10.52
491.914	10.59
492.348	10.67
492.781	10.75
493.215	10.84
493.648	10.95
494.082	11.05
494.515	11.15
494.948	11.28
495.382	11.39
495.815	11.52
496.248	11.65
496.681	11.78
497.114	11.91
497.547	12.06
497.98	12.22
498.413	12.38
498.846	12.55
499.279	12.73
499.711	12.89
500.144	13.07
500.577	13.27
501.009	13.47
501.442	13.69
501.874	13.93
502.306	14.17
502.739	14.41
503.171	14.65
503.603	14.9
504.036	15.17
504.468	15.45
504.9	15.75
505.332	16.05
505.764	16.36
506.196	16.67
506.627	16.99
507.059	17.33
507.491	17.67
507.923	18.04
508.354	18.41
508.786	18.78
509.217	19.14
509.649	19.51
510.08	19.91
510.512	20.29
510.943	20.69
511.374	21.08
511.805	21.46
512.237	21.86
512.668	22.26
513.099	22.69
513.53	23.12
513.961	23.56
514.391	23.98
514.822	24.42
515.253	24.85
515.684	25.28
516.114	25.73
516.545	26.18
516.975	26.63
517.406	27.07
517.836	27.47
518.267	27.91
518.697	28.35
519.127	28.78
519.558	29.18
519.988	29.59
520.418	30.01
520.848	30.4
521.278	30.8
521.708	31.09
522.138	31.45
522.567	31.83
522.997	32.18
523.427	32.54
523.857	32.87
524.286	33.2
524.716	33.52
525.145	33.84
525.575	34.17
526.004	34.46
526.433	34.85
526.863	35.13
527.292	35.39
527.721	35.66
528.15	35.88
528.579	36.14
529.008	36.38
529.437	36.63
529.866	36.83
530.295	37.03
530.724	37.23
531.152	37.43
531.581	37.63
532.01	37.81
532.438	37.97
532.867	38.17
533.295	38.33
533.723	38.49
534.152	38.62
534.58	38.74
535.008	38.84
535.436	38.98
535.865	39.09
536.293	39.2
536.721	39.29
537.149	39.4
537.576	39.48
538.004	39.56
538.432	39.64
538.86	39.71
539.287	39.8
539.715	39.88
540.143	39.93
540.57	40
540.998	40.07
541.425	40.13
541.852	40.19
542.28	40.24
542.707	40.29
543.134	40.33
543.561	40.36
543.988	40.43
544.415	40.48
544.842	40.51
545.269	40.55
545.696	40.56
546.123	40.62
546.549	40.64
546.976	40.69
547.403	40.7
547.829	40.75
548.256	40.79
548.682	40.78
549.108	40.83
549.535	40.88
549.961	40.91
550.387	40.95
550.813	40.95
551.24	40.97
551.666	40.97
552.092	41
552.518	41
552.943	41.01
553.369	41.03
553.795	41
554.221	40.98
554.646	40.94
555.072	40.92
555.498	40.88
555.923	40.86
556.349	40.81
556.774	40.77
557.199	40.71
557.625	40.65
558.05	40.62
558.475	40.55
558.9	40.5
559.325	40.45
559.75	40.34
560.175	40.28
560.6	40.17
561.025	40.06
561.449	39.93
561.874	39.83
562.299	39.7
562.723	39.55
563.148	39.44
563.572	39.3
563.997	39.18
564.421	39.06
564.846	38.91
565.27	38.8
565.694	38.65
566.118	38.52
566.542	38.37
566.966	38.23
567.39	38.06
567.814	37.88
568.238	37.68
568.662	37.5
569.086	37.31
569.509	37.13
569.933	36.94
570.357	36.74
570.78	36.53
571.204	36.33
571.627	36.13
572.05	35.96
572.474	35.78
572.897	35.61
573.32	35.42
573.743	35.25
574.166	35.06
574.589	34.87
575.012	34.72
575.435	34.56
575.858	34.42
576.281	34.27
576.704	34.11
577.126	33.97
577.549	33.85
577.972	33.75
578.394	33.61
578.817	33.51
579.239	33.42
579.661	33.31
580.084	33.21
580.506	33.11
580.928	33.01
581.35	32.94
581.772	32.88
582.194	32.76
582.616	32.66
583.038	32.57
583.46	32.47
583.882	32.38
584.303	32.29
584.725	32.21
585.147	32.1
585.568	32.01
585.99	31.9
586.411	31.8
586.833	31.71
587.254	31.61
587.675	31.54
588.096	31.48
588.518	31.4
588.939	31.34
589.36	31.26
589.781	31.19
590.202	31.13
590.623	31.07
591.043	31.02
591.464	30.96
591.885	30.94
592.305	30.89
592.726	30.81
593.147	30.76
593.567	30.7
593.987	30.68
594.408	30.64
594.828	30.59
595.248	30.56
595.669	30.51
596.089	30.46
596.509	30.4
596.929	30.34
597.349	30.29
597.769	30.24
598.189	30.18
598.608	30.12
599.028	30.07
599.448	30.02
599.867	29.95
600.287	29.89
600.706	29.84
601.126	29.77
601.545	29.7
601.965	29.64
602.384	29.58
602.803	29.5
603.222	29.4
603.641	29.32
604.061	29.22
604.48	29.11
604.898	29
605.317	28.88
605.736	28.77
606.155	28.66
606.574	28.54
606.992	28.41
607.411	28.28
607.829	28.13
608.248	28.01
608.666	27.89
609.085	27.77
609.503	27.64
609.921	27.52
610.339	27.41
610.758	27.32
611.176	27.21
611.594	27.11
612.012	26.98
612.43	26.91
612.847	26.79
613.265	26.7
613.683	26.58
614.101	26.47
614.518	26.36
614.936	26.24
615.353	26.11
615.771	26
616.188	25.89
616.606	25.8
617.023	25.7
617.44	25.6
617.857	25.5
618.274	25.42
618.691	25.35
619.108	25.25
619.525	25.18
619.942	25.11
620.359	25.06
620.776	24.99
621.192	24.96
621.609	24.91
622.026	24.86
622.442	24.81
622.859	24.78
623.275	24.77
623.691	24.76
624.108	24.74
624.524	24.73
624.94	24.7
625.356	24.67
625.772	24.65
626.188	24.65
626.604	24.62
627.02	24.61
627.436	24.58
627.852	24.55
628.268	24.54
628.683	24.51
629.099	24.5
629.514	24.46
629.93	24.44
630.345	24.38
630.761	24.34
631.176	24.31
631.591	24.25
632.007	24.19
632.422	24.13
632.837	24.04
633.252	23.96
633.667	23.86
634.082	23.77
634.497	23.65
634.911	23.53
635.326	23.37
635.741	23.21
636.155	23.06
636.57	22.89
636.984	22.67
637.399	22.49
637.813	22.29
638.228	22.07
638.642	21.86
639.056	21.65
639.47	21.44
639.884	21.23
640.298	21.01
640.712	20.78
641.126	20.55
641.54	20.32
641.954	20.09
642.368	19.85
642.781	19.63
643.195	19.39
643.609	19.17
644.022	18.93
644.436	18.71
644.849	18.5
645.262	18.29
645.676	18.09
646.089	17.9
646.502	17.72
646.915	17.54
647.328	17.38
647.741	17.24
648.154	17.09
648.567	16.97
648.98	16.86
649.393	16.75
649.805	16.63
650.218	16.53
650.631	16.44
651.043	16.35
651.456	16.28
651.868	16.19
652.28	16.1
652.693	15.99
653.105	15.89
653.517	15.77
653.929	15.65
654.341	15.54
654.753	15.43
655.165	15.3
655.577	15.15
655.989	14.99
656.401	14.82
656.813	14.65
657.224	14.51
657.636	14.33
658.047	14.15
658.459	13.96
658.87	13.78
659.282	13.6
659.693	13.39
660.104	13.2
660.515	13
660.926	12.82
661.338	12.62
661.749	12.41
662.159	12.21
662.57	12.03
662.981	11.86
663.392	11.68
663.803	11.5
664.213	11.33
664.624	11.19
665.035	11.03
665.445	10.88
665.855	10.74
666.266	10.61
666.676	10.49
667.086	10.38
667.497	10.26
667.907	10.16
668.317	10.05
668.727	9.99
669.137	9.92
669.547	9.88
669.956	9.83
670.366	9.79
670.776	9.76
671.186	9.73
671.595	9.71
672.005	9.69
672.414	9.68
672.824	9.68
673.233	9.68
673.642	9.66
674.052	9.66
674.461	9.66
674.87	9.66
675.279	9.67
675.688	9.69
676.097	9.73
676.506	9.77
676.915	9.82
677.323	9.89
677.732	9.96
678.141	10.05
678.549	10.13
678.958	10.24
679.366	10.38
679.775	10.51
680.183	10.68
680.592	10.86
681	11.07
681.408	11.29
681.816	11.54
682.224	11.83
682.632	12.16
683.04	12.51
683.448	12.89
683.856	13.32
684.264	13.79
684.671	14.27
685.079	14.8
685.487	15.37
685.894	16
686.302	16.65
686.709	17.32
687.116	18.03
687.524	18.79
687.931	19.56
688.338	20.37
688.745	21.19
689.152	22.08
689.559	22.96
689.966	23.82
690.373	24.72
690.78	25.61
691.187	26.52
691.593	27.42
692	28.31
692.407	29.22
692.813	30.11
693.22	30.98
693.626	31.83
694.032	32.69
694.439	33.58
694.845	34.38
695.251	35.21
695.657	36.02
696.063	36.81
696.469	37.58
696.875	38.31
697.281	39.03
697.687	39.78
698.093	40.47
698.498	41.16
698.904	41.81
699.31	42.46
699.715	43.1
700.12	43.69
700.526	44.29
700.931	44.86
701.337	45.43
701.742	45.96
702.147	46.46
702.552	46.98
702.957	47.46
703.362	47.93
703.767	48.38
704.172	48.82
704.577	49.27
704.981	49.66
705.386	50.06
705.791	50.47
706.195	50.86
706.6	51.25
707.004	51.6
707.408	51.96
707.813	52.28
708.217	52.64
708.621	52.97
709.025	53.28
709.43	53.59
709.834	53.88
710.237	54.14
710.641	54.46
711.045	54.75
711.449	55.02
711.853	55.31
712.256	55.61
712.66	55.87
713.064	56.08
713.467	56.32
713.87	56.58
714.274	56.86
714.677	57.1
715.08	57.26
715.484	57.48
715.887	57.66
716.29	57.83
716.693	57.99
717.096	58.15
717.499	58.35
717.901	58.51
718.304	58.68
718.707	58.81
719.109	58.97
719.512	59.21
719.915	59.33
720.317	59.51
720.719	59.65
721.122	59.79
721.524	59.96
721.926	60.14
722.328	60.3
722.731	60.48
723.133	60.63
723.535	60.77
723.937	60.88
724.338	61.01
724.74	61.14
725.142	61.26
725.544	61.35
725.945	61.46
726.347	61.57
726.748	61.62
727.15	61.66
727.551	61.75
727.952	61.81
728.354	61.87
728.755	61.96
729.156	62.03
729.557	62.11
729.958	62.2
730.359	62.27
730.76	62.27
731.161	62.35
731.562	62.45
731.962	62.53
732.363	62.61
732.763	62.67
733.164	62.74
733.564	62.79
733.965	62.81
734.365	62.83
734.766	62.86
735.166	62.89
735.566	62.94
735.966	62.9
736.366	62.88
736.766	62.87
737.166	62.9
737.566	62.91
737.966	62.96
738.365	63
738.765	63.06
739.165	63.07
739.564	63.1
739.964	63.08
740.363	63.15
740.763	63.15
741.162	63.17
741.561	63.17
741.96	63.2
742.36	63.18
742.759	63.16
743.158	63.09
743.557	63.14
743.955	63.18
744.354	63.23
744.753	63.27
745.152	63.29
745.55	63.32
745.949	63.33
746.348	63.33
746.746	63.34
747.144	63.4
747.543	63.43
747.941	63.45
748.339	63.51
748.737	63.53
749.136	63.51
749.534	63.57
749.932	63.58
750.33	63.61
750.727	63.6
751.125	63.63
751.523	63.64
751.921	63.72
752.318	63.71
752.716	63.66
753.113	63.68
753.511	63.67
753.908	63.64
754.305	63.63
754.703	63.62
755.1	63.63
755.497	63.62
755.894	63.6
756.291	63.55
756.688	63.53
757.085	63.5
757.482	63.47
757.878	63.48
758.275	63.48
758.672	63.53
759.068	63.52
759.465	63.49
759.861	63.48
760.258	63.5
760.654	63.52
761.05	63.51
761.447	63.48
761.843	63.45
762.239	63.41
762.635	63.41
763.031	63.34
763.427	63.32
763.822	63.3
764.218	63.27
764.614	63.24
765.01	63.17
765.405	63.14
765.801	63.13
766.196	63.13
766.592	63.15
766.987	63.13
767.382	63.16
767.778	63.17
768.173	63.16
768.568	63.15
768.963	63.12
769.358	63.15
769.753	63.18
770.148	63.19
770.542	63.2
770.937	63.16
771.332	63.15
771.726	63.11
772.121	63.04
772.515	63.02
772.91	63.01
773.304	63.01
773.699	62.99
774.093	62.95
774.487	62.97
774.881	62.96
775.275	62.99
775.669	63
776.063	62.98
776.457	63
776.851	63.03
777.245	63.05
777.638	63.06
