Data from N_2_hir_il_4n_053_Splice17_03.txt Node
Date: Sat Feb 29 13:57:50 EST 2020
User: sa697716
Spectrometer: FLMS03696
Trigger mode: 0
Integration Time (sec): 3.180400E-1
Scans to average: 20
Electric dark correction enabled: true
Nonlinearity correction enabled: true
Boxcar width: 5
XAxis mode: Wavelengths
Number of Pixels in Spectrum: 2048
>>>>>Begin Spectral Data<<<<<
187.83	20.74
188.298	11.18
188.766	20.52
189.233	20.55
189.701	26.44
190.169	24.64
190.636	16.73
191.104	-5.18
191.571	-40.84
192.039	92.2
192.506	-61.28
192.974	2383.08
193.441	162.99
193.908	88.81
194.375	90.87
194.842	100.76
195.31	49.67
195.777	76.89
196.244	31.34
196.711	21.52
197.177	20.2
197.644	20.58
198.111	19.22
198.578	20.02
199.045	19.05
199.511	19.66
199.978	19.72
200.445	19.5
200.911	18.93
201.378	18.74
201.844	19.39
202.31	19.72
202.777	19.94
203.243	20.86
203.709	20.97
204.176	20.63
204.642	20.84
205.108	20.84
205.574	21.38
206.04	21.83
206.506	21.67
206.972	21.67
207.438	21.3
207.903	21.4
208.369	20.88
208.835	20.57
209.301	20.99
209.766	20.94
210.232	20.91
210.697	20.47
211.163	20.05
211.628	19.82
212.094	19.63
212.559	19.39
213.024	19.12
213.49	18.82
213.955	18.76
214.42	18.27
214.885	17.76
215.35	17.36
215.815	16.99
216.28	16.63
216.745	16.23
217.21	15.6
217.675	15.22
218.14	14.55
218.604	14.05
219.069	13.64
219.534	13.35
219.998	12.97
220.463	12.75
220.927	12.47
221.392	12.22
221.856	12.04
222.32	11.82
222.785	11.63
223.249	11.47
223.713	11.35
224.177	11.19
224.642	11.03
225.106	10.93
225.57	10.8
226.034	10.69
226.497	10.56
226.961	10.44
227.425	10.32
227.889	10.17
228.353	10.08
228.816	9.96
229.28	9.81
229.744	9.7
230.207	9.59
230.671	9.48
231.134	9.37
231.597	9.28
232.061	9.17
232.524	9.1
232.987	9.01
233.45	8.91
233.914	8.81
234.377	8.76
234.84	8.68
235.303	8.59
235.766	8.51
236.229	8.43
236.691	8.36
237.154	8.29
237.617	8.2
238.08	8.14
238.542	8.06
239.005	7.99
239.468	7.89
239.93	7.83
240.393	7.76
240.855	7.68
241.317	7.63
241.78	7.56
242.242	7.48
242.704	7.41
243.166	7.36
243.629	7.3
244.091	7.26
244.553	7.22
245.015	7.15
245.477	7.08
245.939	7.03
246.4	6.96
246.862	6.91
247.324	6.89
247.786	6.84
248.247	6.8
248.709	6.75
249.17	6.7
249.632	6.65
250.093	6.59
250.555	6.56
251.016	6.54
251.477	6.51
251.939	6.46
252.4	6.41
252.861	6.38
253.322	6.32
253.783	6.29
254.244	6.25
254.705	6.23
255.166	6.2
255.627	6.18
256.088	6.13
256.549	6.1
257.009	6.07
257.47	6.05
257.931	6.03
258.391	6
258.852	5.97
259.312	5.93
259.773	5.9
260.233	5.87
260.694	5.85
261.154	5.82
261.614	5.79
262.074	5.76
262.534	5.71
262.994	5.69
263.455	5.66
263.915	5.64
264.374	5.61
264.834	5.59
265.294	5.56
265.754	5.52
266.214	5.51
266.673	5.49
267.133	5.47
267.593	5.46
268.052	5.43
268.512	5.41
268.971	5.39
269.431	5.38
269.89	5.36
270.349	5.35
270.809	5.35
271.268	5.33
271.727	5.31
272.186	5.29
272.645	5.27
273.104	5.26
273.563	5.25
274.022	5.23
274.481	5.21
274.94	5.19
275.399	5.17
275.857	5.15
276.316	5.13
276.775	5.11
277.233	5.09
277.692	5.07
278.15	5.06
278.609	5.03
279.067	5.02
279.525	4.99
279.984	4.97
280.442	4.96
280.9	4.94
281.358	4.93
281.816	4.91
282.274	4.9
282.732	4.88
283.19	4.87
283.648	4.86
284.106	4.84
284.564	4.84
285.021	4.83
285.479	4.82
285.937	4.8
286.394	4.78
286.852	4.77
287.309	4.75
287.767	4.74
288.224	4.73
288.682	4.72
289.139	4.71
289.596	4.68
290.053	4.66
290.511	4.64
290.968	4.63
291.425	4.61
291.882	4.6
292.339	4.58
292.796	4.55
293.252	4.53
293.709	4.51
294.166	4.5
294.623	4.49
295.079	4.49
295.536	4.48
295.992	4.47
296.449	4.46
296.905	4.45
297.362	4.44
297.818	4.43
298.274	4.42
298.731	4.41
299.187	4.4
299.643	4.39
300.099	4.38
300.555	4.36
301.011	4.34
301.467	4.33
301.923	4.32
302.379	4.31
302.835	4.3
303.291	4.3
303.746	4.28
304.202	4.27
304.658	4.25
305.113	4.24
305.569	4.24
306.024	4.23
306.479	4.22
306.935	4.21
307.39	4.19
307.845	4.18
308.301	4.17
308.756	4.17
309.211	4.15
309.666	4.15
310.121	4.15
310.576	4.14
311.031	4.13
311.486	4.14
311.94	4.13
312.395	4.13
312.85	4.12
313.305	4.11
313.759	4.11
314.214	4.11
314.668	4.11
315.123	4.1
315.577	4.09
316.032	4.09
316.486	4.08
316.94	4.07
317.394	4.06
317.849	4.07
318.303	4.07
318.757	4.05
319.211	4.03
319.665	4.02
320.119	4.01
320.572	4
321.026	4
321.48	3.99
321.934	3.99
322.387	3.98
322.841	3.96
323.295	3.95
323.748	3.94
324.202	3.94
324.655	3.92
325.108	3.91
325.562	3.9
326.015	3.89
326.468	3.88
326.921	3.87
327.374	3.86
327.827	3.86
328.28	3.85
328.733	3.84
329.186	3.84
329.639	3.83
330.092	3.82
330.545	3.82
330.997	3.82
331.45	3.81
331.903	3.8
332.355	3.8
332.808	3.8
333.26	3.8
333.713	3.8
334.165	3.8
334.617	3.8
335.069	3.8
335.522	3.8
335.974	3.8
336.426	3.81
336.878	3.8
337.33	3.79
337.782	3.78
338.234	3.77
338.686	3.76
339.137	3.76
339.589	3.75
340.041	3.74
340.493	3.72
340.944	3.72
341.396	3.71
341.847	3.7
342.299	3.69
342.75	3.67
343.201	3.66
343.653	3.65
344.104	3.64
344.555	3.62
345.006	3.61
345.457	3.59
345.908	3.58
346.359	3.58
346.81	3.57
347.261	3.57
347.712	3.57
348.163	3.56
348.613	3.55
349.064	3.54
349.515	3.53
349.965	3.52
350.416	3.52
350.866	3.51
351.317	3.49
351.767	3.49
352.217	3.48
352.668	3.47
353.118	3.47
353.568	3.47
354.018	3.48
354.468	3.48
354.918	3.48
355.368	3.49
355.818	3.49
356.268	3.49
356.718	3.49
357.168	3.48
357.617	3.47
358.067	3.45
358.517	3.44
358.966	3.44
359.416	3.44
359.865	3.43
360.315	3.42
360.764	3.41
361.213	3.41
361.663	3.4
362.112	3.42
362.561	3.41
363.01	3.42
363.459	3.41
363.908	3.41
364.357	3.41
364.806	3.39
365.255	3.4
365.703	3.4
366.152	3.39
366.601	3.39
367.05	3.4
367.498	3.39
367.947	3.39
368.395	3.39
368.844	3.38
369.292	3.37
369.74	3.37
370.189	3.37
370.637	3.36
371.085	3.35
371.533	3.34
371.981	3.33
372.429	3.32
372.877	3.32
373.325	3.31
373.773	3.32
374.221	3.31
374.669	3.3
375.116	3.29
375.564	3.29
376.012	3.28
376.459	3.28
376.907	3.27
377.354	3.27
377.801	3.28
378.249	3.27
378.696	3.27
379.143	3.28
379.591	3.28
380.038	3.29
380.485	3.3
380.932	3.3
381.379	3.3
381.826	3.29
382.273	3.3
382.72	3.3
383.166	3.31
383.613	3.3
384.06	3.31
384.506	3.3
384.953	3.3
385.4	3.3
385.846	3.3
386.292	3.31
386.739	3.32
387.185	3.33
387.631	3.33
388.078	3.34
388.524	3.33
388.97	3.35
389.416	3.35
389.862	3.35
390.308	3.36
390.754	3.37
391.2	3.38
391.645	3.4
392.091	3.4
392.537	3.41
392.983	3.42
393.428	3.44
393.874	3.46
394.319	3.47
394.765	3.49
395.21	3.5
395.655	3.51
396.101	3.52
396.546	3.54
396.991	3.56
397.436	3.57
397.881	3.59
398.326	3.61
398.771	3.63
399.216	3.66
399.661	3.68
400.106	3.71
400.551	3.72
400.995	3.74
401.44	3.75
401.885	3.76
402.329	3.78
402.774	3.79
403.218	3.8
403.663	3.81
404.107	3.83
404.551	3.85
404.995	3.86
405.44	3.87
405.884	3.88
406.328	3.9
406.772	3.92
407.216	3.96
407.66	3.98
408.104	4
408.547	4.03
408.991	4.04
409.435	4.04
409.879	4.07
410.322	4.1
410.766	4.14
411.209	4.16
411.653	4.16
412.096	4.16
412.54	4.18
412.983	4.19
413.426	4.21
413.869	4.24
414.312	4.27
414.756	4.28
415.199	4.3
415.642	4.32
416.085	4.36
416.527	4.4
416.97	4.41
417.413	4.42
417.856	4.44
418.298	4.45
418.741	4.45
419.184	4.45
419.626	4.46
420.069	4.48
420.511	4.47
420.953	4.46
421.396	4.49
421.838	4.51
422.28	4.53
422.722	4.55
423.164	4.56
423.606	4.57
424.048	4.56
424.49	4.58
424.932	4.58
425.374	4.58
425.816	4.57
426.258	4.56
426.699	4.54
427.141	4.54
427.582	4.53
428.024	4.54
428.465	4.54
428.907	4.56
429.348	4.57
429.789	4.57
430.231	4.58
430.672	4.6
431.113	4.62
431.554	4.63
431.995	4.65
432.436	4.66
432.877	4.66
433.318	4.66
433.759	4.67
434.2	4.67
434.64	4.69
435.081	4.69
435.522	4.71
435.962	4.71
436.403	4.73
436.843	4.72
437.284	4.73
437.724	4.76
438.164	4.78
438.604	4.79
439.045	4.81
439.485	4.81
439.925	4.8
440.365	4.79
440.805	4.78
441.245	4.77
441.685	4.77
442.125	4.76
442.564	4.75
443.004	4.75
443.444	4.73
443.883	4.73
444.323	4.72
444.762	4.74
445.202	4.78
445.641	4.8
446.081	4.82
446.52	4.81
446.959	4.82
447.398	4.84
447.837	4.86
448.276	4.88
448.716	4.92
449.154	4.94
449.593	4.95
450.032	4.94
450.471	4.94
450.91	4.94
451.349	4.96
451.787	4.96
452.226	4.94
452.664	4.91
453.103	4.92
453.541	4.88
453.98	4.87
454.418	4.84
454.856	4.84
455.295	4.83
455.733	4.83
456.171	4.82
456.609	4.82
457.047	4.82
457.485	4.82
457.923	4.81
458.361	4.8
458.798	4.8
459.236	4.81
459.674	4.82
460.111	4.82
460.549	4.81
460.987	4.82
461.424	4.82
461.862	4.83
462.299	4.82
462.736	4.84
463.173	4.83
463.611	4.82
464.048	4.83
464.485	4.82
464.922	4.82
465.359	4.83
465.796	4.82
466.233	4.83
466.67	4.84
467.106	4.84
467.543	4.85
467.98	4.86
468.416	4.87
468.853	4.86
469.29	4.87
469.726	4.87
470.162	4.87
470.599	4.86
471.035	4.86
471.471	4.84
471.907	4.84
472.344	4.81
472.78	4.81
473.216	4.79
473.652	4.79
474.088	4.81
474.523	4.8
474.959	4.78
475.395	4.79
475.831	4.78
476.266	4.79
476.702	4.78
477.138	4.78
477.573	4.78
478.008	4.78
478.444	4.78
478.879	4.77
479.314	4.76
479.75	4.76
480.185	4.75
480.62	4.76
481.055	4.75
481.49	4.73
481.925	4.72
482.36	4.71
482.795	4.7
483.229	4.69
483.664	4.68
484.099	4.68
484.534	4.67
484.968	4.67
485.403	4.66
485.837	4.65
486.271	4.66
486.706	4.67
487.14	4.68
487.574	4.69
488.009	4.69
488.443	4.7
488.877	4.71
489.311	4.73
489.745	4.74
490.179	4.75
490.613	4.75
491.046	4.76
491.48	4.78
491.914	4.79
492.348	4.8
492.781	4.82
493.215	4.84
493.648	4.86
494.082	4.89
494.515	4.9
494.948	4.93
495.382	4.97
495.815	5
496.248	5.04
496.681	5.07
497.114	5.1
497.547	5.14
497.98	5.18
498.413	5.22
498.846	5.27
499.279	5.33
499.711	5.37
500.144	5.43
500.577	5.48
501.009	5.54
501.442	5.61
501.874	5.68
502.306	5.75
502.739	5.82
503.171	5.89
503.603	5.98
504.036	6.06
504.468	6.17
504.9	6.27
505.332	6.38
505.764	6.49
506.196	6.61
506.627	6.73
507.059	6.86
507.491	7
507.923	7.14
508.354	7.27
508.786	7.43
509.217	7.58
509.649	7.75
510.08	7.92
510.512	8.08
510.943	8.26
511.374	8.44
511.805	8.62
512.237	8.8
512.668	8.98
513.099	9.2
513.53	9.4
513.961	9.63
514.391	9.84
514.822	10.06
515.253	10.29
515.684	10.5
516.114	10.74
516.545	10.99
516.975	11.24
517.406	11.48
517.836	11.71
518.267	11.97
518.697	12.21
519.127	12.45
519.558	12.69
519.988	12.94
520.418	13.18
520.848	13.43
521.278	13.68
521.708	13.82
522.138	14.06
522.567	14.29
522.997	14.51
523.427	14.74
523.857	14.96
524.286	15.18
524.716	15.39
525.145	15.63
525.575	15.83
526.004	16.04
526.433	16.36
526.863	16.56
527.292	16.75
527.721	16.94
528.15	17.11
528.579	17.29
529.008	17.44
529.437	17.61
529.866	17.73
530.295	17.87
530.724	18
531.152	18.12
531.581	18.23
532.01	18.33
532.438	18.42
532.867	18.52
533.295	18.61
533.723	18.72
534.152	18.8
534.58	18.87
535.008	18.92
535.436	18.99
535.865	19.02
536.293	19.08
536.721	19.14
537.149	19.21
537.576	19.26
538.004	19.3
538.432	19.32
538.86	19.37
539.287	19.43
539.715	19.48
540.143	19.51
540.57	19.56
540.998	19.61
541.425	19.66
541.852	19.68
542.28	19.7
542.707	19.73
543.134	19.76
543.561	19.76
543.988	19.78
544.415	19.82
544.842	19.85
545.269	19.89
545.696	19.9
546.123	19.92
546.549	19.96
546.976	20.01
547.403	20.03
547.829	20.06
548.256	20.1
548.682	20.12
549.108	20.13
549.535	20.12
549.961	20.11
550.387	20.1
550.813	20.08
551.24	20.07
551.666	20.05
552.092	20.05
552.518	20.03
552.943	20.01
553.369	19.96
553.795	19.95
554.221	19.93
554.646	19.91
555.072	19.89
555.498	19.84
555.923	19.79
556.349	19.73
556.774	19.67
557.199	19.6
557.625	19.54
558.05	19.48
558.475	19.4
558.9	19.31
559.325	19.23
559.75	19.14
560.175	19.06
560.6	18.97
561.025	18.84
561.449	18.73
561.874	18.63
562.299	18.51
562.723	18.4
563.148	18.27
563.572	18.16
563.997	18.03
564.421	17.88
564.846	17.75
565.27	17.6
565.694	17.47
566.118	17.32
566.542	17.18
566.966	17.03
567.39	16.87
567.814	16.72
568.238	16.55
568.662	16.39
569.086	16.23
569.509	16.07
569.933	15.91
570.357	15.76
570.78	15.61
571.204	15.47
571.627	15.31
572.05	15.18
572.474	15.05
572.897	14.91
573.32	14.77
573.743	14.67
574.166	14.53
574.589	14.43
575.012	14.31
575.435	14.19
575.858	14.07
576.281	13.98
576.704	13.87
577.126	13.75
577.549	13.67
577.972	13.56
578.394	13.46
578.817	13.38
579.239	13.3
579.661	13.22
580.084	13.14
580.506	13.06
580.928	12.97
581.35	12.91
581.772	12.85
582.194	12.78
582.616	12.72
583.038	12.65
583.46	12.57
583.882	12.49
584.303	12.42
584.725	12.36
585.147	12.29
585.568	12.24
585.99	12.17
586.411	12.11
586.833	12.05
587.254	12.01
587.675	11.95
588.096	11.91
588.518	11.87
588.939	11.82
589.36	11.78
589.781	11.75
590.202	11.7
590.623	11.66
591.043	11.61
591.464	11.58
591.885	11.53
592.305	11.52
592.726	11.49
593.147	11.48
593.567	11.44
593.987	11.43
594.408	11.39
594.828	11.38
595.248	11.37
595.669	11.35
596.089	11.32
596.509	11.27
596.929	11.23
597.349	11.19
597.769	11.14
598.189	11.13
598.608	11.07
599.028	11.04
599.448	11.01
599.867	10.96
600.287	10.93
600.706	10.91
601.126	10.88
601.545	10.84
601.965	10.8
602.384	10.77
602.803	10.71
603.222	10.67
603.641	10.62
604.061	10.57
604.48	10.52
604.898	10.46
605.317	10.39
605.736	10.34
606.155	10.28
606.574	10.22
606.992	10.16
607.411	10.11
607.829	10.01
608.248	9.95
608.666	9.87
609.085	9.8
609.503	9.73
609.921	9.68
610.339	9.62
610.758	9.55
611.176	9.48
611.594	9.4
612.012	9.33
612.43	9.32
612.847	9.27
613.265	9.22
613.683	9.16
614.101	9.1
614.518	9.04
614.936	8.98
615.353	8.92
615.771	8.87
616.188	8.83
616.606	8.78
617.023	8.72
617.44	8.67
617.857	8.61
618.274	8.58
618.691	8.55
619.108	8.51
619.525	8.47
619.942	8.44
620.359	8.41
620.776	8.39
621.192	8.37
621.609	8.34
622.026	8.32
622.442	8.31
622.859	8.29
623.275	8.27
623.691	8.27
624.108	8.25
624.524	8.24
624.94	8.22
625.356	8.2
625.772	8.19
626.188	8.2
626.604	8.18
627.02	8.17
627.436	8.17
627.852	8.15
628.268	8.14
628.683	8.12
629.099	8.1
629.514	8.1
629.93	8.08
630.345	8.06
630.761	8.03
631.176	8.01
631.591	7.99
632.007	7.95
632.422	7.92
632.837	7.89
633.252	7.87
633.667	7.83
634.082	7.79
634.497	7.73
634.911	7.66
635.326	7.61
635.741	7.54
636.155	7.48
636.57	7.42
636.984	7.34
637.399	7.24
637.813	7.16
638.228	7.09
638.642	7.02
639.056	6.96
639.47	6.89
639.884	6.8
640.298	6.74
640.712	6.67
641.126	6.58
641.54	6.52
641.954	6.47
642.368	6.41
642.781	6.31
643.195	6.23
643.609	6.16
644.022	6.09
644.436	6.03
644.849	5.97
645.262	5.91
645.676	5.86
646.089	5.79
646.502	5.74
646.915	5.69
647.328	5.66
647.741	5.61
648.154	5.58
648.567	5.55
648.98	5.52
649.393	5.5
649.805	5.47
650.218	5.45
650.631	5.43
651.043	5.4
651.456	5.38
651.868	5.36
652.28	5.34
652.693	5.29
653.105	5.26
653.517	5.23
653.929	5.2
654.341	5.18
654.753	5.14
655.165	5.11
655.577	5.08
655.989	5.03
656.401	4.99
656.813	4.95
657.224	4.92
657.636	4.88
658.047	4.83
658.459	4.79
658.87	4.74
659.282	4.71
659.693	4.68
660.104	4.65
660.515	4.61
660.926	4.59
661.338	4.56
661.749	4.52
662.159	4.48
662.57	4.45
662.981	4.42
663.392	4.4
663.803	4.36
664.213	4.34
664.624	4.32
665.035	4.3
665.445	4.29
665.855	4.27
666.266	4.27
666.676	4.27
667.086	4.27
667.497	4.26
667.907	4.25
668.317	4.23
668.727	4.23
669.137	4.23
669.547	4.23
669.956	4.22
670.366	4.23
670.776	4.23
671.186	4.24
671.595	4.25
672.005	4.27
672.414	4.29
672.824	4.32
673.233	4.34
673.642	4.33
674.052	4.36
674.461	4.38
674.87	4.4
675.279	4.42
675.688	4.45
676.097	4.48
676.506	4.5
676.915	4.53
677.323	4.56
677.732	4.58
678.141	4.63
678.549	4.66
678.958	4.69
679.366	4.72
679.775	4.75
680.183	4.78
680.592	4.81
681	4.84
681.408	4.88
681.816	4.91
682.224	4.96
682.632	5.01
683.04	5.06
683.448	5.12
683.856	5.19
684.264	5.27
684.671	5.37
685.079	5.47
685.487	5.59
685.894	5.71
686.302	5.86
686.709	6.01
687.116	6.21
687.524	6.41
687.931	6.63
688.338	6.89
688.745	7.14
689.152	7.44
689.559	7.75
689.966	8.08
690.373	8.44
690.78	8.8
691.187	9.19
691.593	9.58
692	10.01
692.407	10.46
692.813	10.91
693.22	11.38
693.626	11.85
694.032	12.37
694.439	12.89
694.845	13.41
695.251	13.95
695.657	14.49
696.063	15.04
696.469	15.61
696.875	16.15
697.281	16.69
697.687	17.26
698.093	17.83
698.498	18.4
698.904	18.96
699.31	19.51
699.715	20.07
700.12	20.63
700.526	21.18
700.931	21.7
701.337	22.25
701.742	22.78
702.147	23.31
702.552	23.83
702.957	24.33
703.362	24.83
703.767	25.34
704.172	25.84
704.577	26.31
704.981	26.79
705.386	27.29
705.791	27.78
706.195	28.27
706.6	28.74
707.004	29.21
707.408	29.68
707.813	30.15
708.217	30.6
708.621	31.06
709.025	31.52
709.43	31.97
709.834	32.41
710.237	32.84
710.641	33.28
711.045	33.69
711.449	34.13
711.853	34.53
712.256	34.96
712.66	35.39
713.064	35.8
713.467	36.17
713.87	36.56
714.274	36.97
714.677	37.36
715.08	37.71
715.484	38.11
715.887	38.48
716.29	38.87
716.693	39.18
717.096	39.53
717.499	39.88
717.901	40.23
718.304	40.57
718.707	40.89
719.109	41.22
719.512	41.58
719.915	41.88
720.317	42.18
720.719	42.46
721.122	42.79
721.524	43.09
721.926	43.38
722.328	43.69
722.731	43.95
723.133	44.2
723.535	44.47
723.937	44.71
724.338	44.96
724.74	45.19
725.142	45.42
725.544	45.62
725.945	45.85
726.347	46.05
726.748	46.22
727.15	46.43
727.551	46.61
727.952	46.76
728.354	46.95
728.755	47.15
729.156	47.31
729.557	47.48
729.958	47.65
730.359	47.77
730.76	47.9
731.161	48.03
731.562	48.17
731.962	48.32
732.363	48.48
732.763	48.6
733.164	48.71
733.564	48.83
733.965	48.93
734.365	49.02
734.766	49.12
735.166	49.23
735.566	49.3
735.966	49.42
736.366	49.47
736.766	49.57
737.166	49.65
737.566	49.73
737.966	49.82
738.365	49.92
738.765	50.02
739.165	50.09
739.564	50.16
739.964	50.27
740.363	50.31
740.763	50.39
741.162	50.42
741.561	50.5
741.96	50.54
742.36	50.6
742.759	50.62
743.158	50.63
743.557	50.69
743.955	50.77
744.354	50.82
744.753	50.87
745.152	50.9
745.55	50.98
745.949	51.01
746.348	51.03
746.746	51.06
747.144	51.13
747.543	51.19
747.941	51.25
748.339	51.27
748.737	51.29
749.136	51.31
749.534	51.37
749.932	51.38
750.33	51.41
750.727	51.45
751.125	51.5
751.523	51.51
751.921	51.53
752.318	51.54
752.716	51.54
753.113	51.54
753.511	51.53
753.908	51.5
754.305	51.49
754.703	51.45
755.1	51.47
755.497	51.46
755.894	51.44
756.291	51.38
756.688	51.33
757.085	51.34
757.482	51.33
757.878	51.37
758.275	51.38
758.672	51.41
759.068	51.43
759.465	51.39
759.861	51.35
760.258	51.34
760.654	51.36
761.05	51.37
761.447	51.34
761.843	51.34
762.239	51.28
762.635	51.3
763.031	51.27
763.427	51.27
763.822	51.25
764.218	51.24
764.614	51.25
765.01	51.26
765.405	51.3
765.801	51.32
766.196	51.31
766.592	51.33
766.987	51.32
767.382	51.3
767.778	51.3
768.173	51.31
768.568	51.31
768.963	51.32
769.358	51.32
769.753	51.29
770.148	51.31
770.542	51.3
770.937	51.29
771.332	51.28
771.726	51.28
772.121	51.31
772.515	51.34
772.91	51.35
773.304	51.33
773.699	51.35
774.093	51.33
774.487	51.29
774.881	51.32
775.275	51.34
775.669	51.34
776.063	51.31
776.457	51.25
776.851	51.2
777.245	51.21
777.638	51.2
778.032	51.19
778.425	51.2
778.819	51.19
779.212	51.18
779.606	51.2
779.999	51.19
780.392	51.22
780.786	51.25
781.179	51.27
781.572	51.27
781.965	51.3
782.358	51.28
782.751	51.29
783.143	51.34
783.536	51.31
783.929	51.31
784.322	51.35
784.714	51.33
