Data from N_2_dec_va_2n_049_Splice17_20.txt Node
Date: Sat Feb 29 13:56:36 EST 2020
User: sa697716
Spectrometer: FLMS03696
Trigger mode: 0
Integration Time (sec): 3.180400E-1
Scans to average: 20
Electric dark correction enabled: true
Nonlinearity correction enabled: true
Boxcar width: 5
XAxis mode: Wavelengths
Number of Pixels in Spectrum: 2048
>>>>>Begin Spectral Data<<<<<
187.83	63.59
188.298	61.55
188.766	55.95
189.233	50.77
189.701	56.02
190.169	60.35
190.636	59.34
191.104	34.37
191.571	-205.29
192.039	-18.06
192.506	-24.92
192.974	-2457.68
193.441	646.96
193.908	-12.75
194.375	-25.94
194.842	63.07
195.31	60.05
195.777	93.24
196.244	41.37
196.711	19.9
197.177	19.71
197.644	20.52
198.111	21.08
198.578	20.96
199.045	20.67
199.511	20.53
199.978	20.7
200.445	20.83
200.911	20.71
201.378	20.62
201.844	21.53
202.31	22.1
202.777	22.01
203.243	22.34
203.709	22.82
204.176	22.33
204.642	22.35
205.108	21.93
205.574	22.04
206.04	22.17
206.506	21.72
206.972	21.54
207.438	21.25
207.903	21.74
208.369	21.65
208.835	21.41
209.301	21.83
209.766	21.84
210.232	21.95
210.697	21.81
211.163	21.65
211.628	21.3
212.094	20.66
212.559	20.31
213.024	19.74
213.49	19.15
213.955	18.94
214.42	18.25
214.885	17.73
215.35	17.21
215.815	16.46
216.28	15.74
216.745	15.17
217.21	14.5
217.675	13.71
218.14	12.96
218.604	12.25
219.069	11.69
219.534	11.31
219.998	10.9
220.463	10.63
220.927	10.31
221.392	10.05
221.856	9.82
222.32	9.62
222.785	9.41
223.249	9.26
223.713	9.18
224.177	9.01
224.642	8.86
225.106	8.71
225.57	8.51
226.034	8.45
226.497	8.3
226.961	8.17
227.425	8.04
227.889	7.94
228.353	7.83
228.816	7.71
229.28	7.57
229.744	7.48
230.207	7.39
230.671	7.29
231.134	7.16
231.597	7.07
232.061	6.97
232.524	6.89
232.987	6.81
233.45	6.73
233.914	6.64
234.377	6.59
234.84	6.51
235.303	6.43
235.766	6.37
236.229	6.29
236.691	6.24
237.154	6.18
237.617	6.11
238.08	6.05
238.542	5.98
239.005	5.93
239.468	5.85
239.93	5.79
240.393	5.74
240.855	5.68
241.317	5.62
241.78	5.57
242.242	5.5
242.704	5.46
243.166	5.4
243.629	5.35
244.091	5.31
244.553	5.28
245.015	5.23
245.477	5.17
245.939	5.12
246.4	5.08
246.862	5.03
247.324	5
247.786	4.95
248.247	4.91
248.709	4.86
249.17	4.81
249.632	4.76
250.093	4.71
250.555	4.67
251.016	4.64
251.477	4.6
251.939	4.56
252.4	4.53
252.861	4.5
253.322	4.46
253.783	4.45
254.244	4.42
254.705	4.38
255.166	4.38
255.627	4.36
256.088	4.32
256.549	4.3
257.009	4.28
257.47	4.25
257.931	4.22
258.391	4.19
258.852	4.15
259.312	4.13
259.773	4.1
260.233	4.06
260.694	4.04
261.154	4.02
261.614	4.01
262.074	3.98
262.534	3.96
262.994	3.94
263.455	3.92
263.915	3.9
264.374	3.87
264.834	3.86
265.294	3.84
265.754	3.81
266.214	3.79
266.673	3.77
267.133	3.75
267.593	3.73
268.052	3.71
268.512	3.7
268.971	3.68
269.431	3.68
269.89	3.66
270.349	3.64
270.809	3.63
271.268	3.62
271.727	3.61
272.186	3.6
272.645	3.59
273.104	3.57
273.563	3.56
274.022	3.55
274.481	3.53
274.94	3.52
275.399	3.51
275.857	3.5
276.316	3.48
276.775	3.47
277.233	3.45
277.692	3.44
278.15	3.42
278.609	3.41
279.067	3.39
279.525	3.38
279.984	3.37
280.442	3.35
280.9	3.35
281.358	3.33
281.816	3.32
282.274	3.31
282.732	3.3
283.19	3.29
283.648	3.29
284.106	3.27
284.564	3.27
285.021	3.27
285.479	3.26
285.937	3.25
286.394	3.24
286.852	3.23
287.309	3.22
287.767	3.21
288.224	3.21
288.682	3.19
289.139	3.19
289.596	3.17
290.053	3.15
290.511	3.13
290.968	3.11
291.425	3.1
291.882	3.08
292.339	3.06
292.796	3.05
293.252	3.04
293.709	3.02
294.166	3.01
294.623	3
295.079	3
295.536	2.98
295.992	2.97
296.449	2.96
296.905	2.95
297.362	2.94
297.818	2.92
298.274	2.92
298.731	2.91
299.187	2.89
299.643	2.88
300.099	2.87
300.555	2.87
301.011	2.86
301.467	2.86
301.923	2.85
302.379	2.84
302.835	2.84
303.291	2.82
303.746	2.82
304.202	2.82
304.658	2.81
305.113	2.8
305.569	2.79
306.024	2.78
306.479	2.78
306.935	2.77
307.39	2.76
307.845	2.76
308.301	2.75
308.756	2.75
309.211	2.75
309.666	2.75
310.121	2.75
310.576	2.74
311.031	2.74
311.486	2.73
311.94	2.74
312.395	2.74
312.85	2.74
313.305	2.73
313.759	2.73
314.214	2.73
314.668	2.72
315.123	2.72
315.577	2.71
316.032	2.71
316.486	2.71
316.94	2.71
317.394	2.7
317.849	2.68
318.303	2.68
318.757	2.66
319.211	2.64
319.665	2.63
320.119	2.62
320.572	2.62
321.026	2.61
321.48	2.6
321.934	2.59
322.387	2.59
322.841	2.59
323.295	2.58
323.748	2.58
324.202	2.58
324.655	2.58
325.108	2.57
325.562	2.55
326.015	2.54
326.468	2.54
326.921	2.53
327.374	2.52
327.827	2.51
328.28	2.5
328.733	2.5
329.186	2.5
329.639	2.49
330.092	2.49
330.545	2.5
330.997	2.5
331.45	2.5
331.903	2.49
332.355	2.5
332.808	2.5
333.26	2.5
333.713	2.51
334.165	2.5
334.617	2.5
335.069	2.5
335.522	2.5
335.974	2.51
336.426	2.5
336.878	2.5
337.33	2.49
337.782	2.5
338.234	2.5
338.686	2.49
339.137	2.48
339.589	2.48
340.041	2.48
340.493	2.47
340.944	2.47
341.396	2.47
341.847	2.45
342.299	2.44
342.75	2.43
343.201	2.41
343.653	2.41
344.104	2.4
344.555	2.39
345.006	2.37
345.457	2.36
345.908	2.36
346.359	2.36
346.81	2.37
347.261	2.36
347.712	2.36
348.163	2.36
348.613	2.35
349.064	2.35
349.515	2.34
349.965	2.35
350.416	2.33
350.866	2.32
351.317	2.31
351.767	2.29
352.217	2.29
352.668	2.29
353.118	2.3
353.568	2.31
354.018	2.3
354.468	2.3
354.918	2.32
355.368	2.33
355.818	2.33
356.268	2.34
356.718	2.34
357.168	2.33
357.617	2.34
358.067	2.32
358.517	2.31
358.966	2.32
359.416	2.32
359.865	2.3
360.315	2.3
360.764	2.3
361.213	2.29
361.663	2.29
362.112	2.3
362.561	2.29
363.01	2.3
363.459	2.31
363.908	2.31
364.357	2.31
364.806	2.31
365.255	2.31
365.703	2.3
366.152	2.32
366.601	2.32
367.05	2.32
367.498	2.33
367.947	2.32
368.395	2.33
368.844	2.32
369.292	2.32
369.74	2.33
370.189	2.33
370.637	2.34
371.085	2.34
371.533	2.34
371.981	2.34
372.429	2.34
372.877	2.34
373.325	2.33
373.773	2.33
374.221	2.33
374.669	2.33
375.116	2.33
375.564	2.34
376.012	2.35
376.459	2.35
376.907	2.37
377.354	2.38
377.801	2.4
378.249	2.42
378.696	2.45
379.143	2.47
379.591	2.49
380.038	2.52
380.485	2.55
380.932	2.56
381.379	2.59
381.826	2.61
382.273	2.62
382.72	2.64
383.166	2.66
383.613	2.69
384.06	2.72
384.506	2.74
384.953	2.76
385.4	2.79
385.846	2.81
386.292	2.85
386.739	2.87
387.185	2.92
387.631	2.95
388.078	2.98
388.524	3
388.97	3.03
389.416	3.06
389.862	3.09
390.308	3.12
390.754	3.17
391.2	3.2
391.645	3.23
392.091	3.26
392.537	3.28
392.983	3.32
393.428	3.36
393.874	3.39
394.319	3.42
394.765	3.44
395.21	3.46
395.655	3.48
396.101	3.5
396.546	3.52
396.991	3.54
397.436	3.55
397.881	3.58
398.326	3.61
398.771	3.63
399.216	3.66
399.661	3.69
400.106	3.71
400.551	3.72
400.995	3.72
401.44	3.73
401.885	3.75
402.329	3.76
402.774	3.75
403.218	3.75
403.663	3.74
404.107	3.75
404.551	3.75
404.995	3.75
405.44	3.75
405.884	3.76
406.328	3.76
406.772	3.75
407.216	3.76
407.66	3.76
408.104	3.76
408.547	3.76
408.991	3.74
409.435	3.73
409.879	3.73
410.322	3.74
410.766	3.74
411.209	3.75
411.653	3.74
412.096	3.74
412.54	3.74
412.983	3.75
413.426	3.77
413.869	3.79
414.312	3.81
414.756	3.82
415.199	3.82
415.642	3.85
416.085	3.84
416.527	3.87
416.97	3.88
417.413	3.88
417.856	3.87
418.298	3.85
418.741	3.83
419.184	3.82
419.626	3.8
420.069	3.81
420.511	3.8
420.953	3.79
421.396	3.77
421.838	3.77
422.28	3.78
422.722	3.79
423.164	3.78
423.606	3.78
424.048	3.76
424.49	3.76
424.932	3.75
425.374	3.73
425.816	3.71
426.258	3.7
426.699	3.68
427.141	3.65
427.582	3.63
428.024	3.65
428.465	3.65
428.907	3.67
429.348	3.67
429.789	3.68
430.231	3.68
430.672	3.7
431.113	3.71
431.554	3.73
431.995	3.74
432.436	3.75
432.877	3.73
433.318	3.73
433.759	3.73
434.2	3.74
434.64	3.74
435.081	3.73
435.522	3.74
435.962	3.75
436.403	3.76
436.843	3.79
437.284	3.81
437.724	3.84
438.164	3.86
438.604	3.87
439.045	3.88
439.485	3.91
439.925	3.93
440.365	3.94
440.805	3.95
441.245	3.96
441.685	3.97
442.125	3.98
442.564	4.01
443.004	4.03
443.444	4.06
443.883	4.1
444.323	4.12
444.762	4.16
445.202	4.24
445.641	4.29
446.081	4.33
446.52	4.36
446.959	4.4
447.398	4.46
447.837	4.53
448.276	4.56
448.716	4.59
449.154	4.66
449.593	4.72
450.032	4.74
450.471	4.77
450.91	4.78
451.349	4.83
451.787	4.86
452.226	4.86
452.664	4.86
453.103	4.88
453.541	4.92
453.98	4.91
454.418	4.9
454.856	4.89
455.295	4.89
455.733	4.91
456.171	4.9
456.609	4.91
457.047	4.9
457.485	4.91
457.923	4.9
458.361	4.88
458.798	4.88
459.236	4.87
459.674	4.89
460.111	4.9
460.549	4.87
460.987	4.89
461.424	4.87
461.862	4.87
462.299	4.87
462.736	4.88
463.173	4.89
463.611	4.89
464.048	4.9
464.485	4.88
464.922	4.87
465.359	4.89
465.796	4.87
466.233	4.88
466.67	4.91
467.106	4.91
467.543	4.92
467.98	4.92
468.416	4.93
468.853	4.92
469.29	4.92
469.726	4.93
470.162	4.92
470.599	4.94
471.035	4.95
471.471	4.94
471.907	4.96
472.344	4.94
472.78	4.94
473.216	4.94
473.652	4.97
474.088	5.01
474.523	5.02
474.959	5.04
475.395	5.05
475.831	5.07
476.266	5.08
476.702	5.08
477.138	5.1
477.573	5.11
478.008	5.12
478.444	5.12
478.879	5.11
479.314	5.11
479.75	5.12
480.185	5.11
480.62	5.11
481.055	5.11
481.49	5.12
481.925	5.11
482.36	5.12
482.795	5.12
483.229	5.12
483.664	5.14
484.099	5.15
484.534	5.17
484.968	5.2
485.403	5.21
485.837	5.23
486.271	5.25
486.706	5.28
487.14	5.32
487.574	5.35
488.009	5.4
488.443	5.43
488.877	5.48
489.311	5.51
489.745	5.55
490.179	5.61
490.613	5.66
491.046	5.72
491.48	5.79
491.914	5.85
492.348	5.92
492.781	5.99
493.215	6.06
493.648	6.14
494.082	6.22
494.515	6.32
494.948	6.41
495.382	6.51
495.815	6.61
496.248	6.72
496.681	6.84
497.114	6.96
497.547	7.08
497.98	7.21
498.413	7.34
498.846	7.48
499.279	7.62
499.711	7.76
500.144	7.93
500.577	8.09
501.009	8.26
501.442	8.44
501.874	8.62
502.306	8.82
502.739	9.02
503.171	9.23
503.603	9.44
504.036	9.68
504.468	9.93
504.9	10.18
505.332	10.43
505.764	10.7
506.196	10.96
506.627	11.25
507.059	11.53
507.491	11.82
507.923	12.12
508.354	12.43
508.786	12.75
509.217	13.06
509.649	13.38
510.08	13.72
510.512	14.06
510.943	14.41
511.374	14.76
511.805	15.13
512.237	15.51
512.668	15.87
513.099	16.26
513.53	16.63
513.961	17.02
514.391	17.42
514.822	17.81
515.253	18.19
515.684	18.57
516.114	18.97
516.545	19.35
516.975	19.74
517.406	20.13
517.836	20.5
518.267	20.9
518.697	21.28
519.127	21.64
519.558	22.02
519.988	22.39
520.418	22.74
520.848	23.1
521.278	23.45
521.708	23.7
522.138	24.01
522.567	24.34
522.997	24.64
523.427	24.95
523.857	25.23
524.286	25.52
524.716	25.82
525.145	26.11
525.575	26.37
526.004	26.64
526.433	26.98
526.863	27.24
527.292	27.47
527.721	27.68
528.15	27.9
528.579	28.11
529.008	28.3
529.437	28.47
529.866	28.61
530.295	28.8
530.724	28.95
531.152	29.1
531.581	29.27
532.01	29.41
532.438	29.55
532.867	29.67
533.295	29.8
533.723	29.91
534.152	30.03
534.58	30.15
535.008	30.22
535.436	30.31
535.865	30.38
536.293	30.46
536.721	30.53
537.149	30.6
537.576	30.67
538.004	30.73
538.432	30.79
538.86	30.83
539.287	30.9
539.715	30.97
540.143	31
540.57	31.04
540.998	31.1
541.425	31.15
541.852	31.19
542.28	31.21
542.707	31.26
543.134	31.29
543.561	31.32
543.988	31.34
544.415	31.36
544.842	31.4
545.269	31.44
545.696	31.43
546.123	31.46
546.549	31.48
546.976	31.52
547.403	31.54
547.829	31.55
548.256	31.57
548.682	31.58
549.108	31.61
549.535	31.62
549.961	31.63
550.387	31.65
550.813	31.64
551.24	31.66
551.666	31.66
552.092	31.66
552.518	31.65
552.943	31.66
553.369	31.67
553.795	31.66
554.221	31.63
554.646	31.62
555.072	31.58
555.498	31.55
555.923	31.5
556.349	31.45
556.774	31.38
557.199	31.33
557.625	31.26
558.05	31.18
558.475	31.1
558.9	31
559.325	30.9
559.75	30.79
560.175	30.7
560.6	30.58
561.025	30.46
561.449	30.34
561.874	30.21
562.299	30.07
562.723	29.95
563.148	29.8
563.572	29.69
563.997	29.55
564.421	29.43
564.846	29.28
565.27	29.13
565.694	28.96
566.118	28.82
566.542	28.67
566.966	28.5
567.39	28.33
567.814	28.14
568.238	27.95
568.662	27.79
569.086	27.59
569.509	27.42
569.933	27.24
570.357	27.07
570.78	26.89
571.204	26.68
571.627	26.52
572.05	26.35
572.474	26.2
572.897	26.04
573.32	25.86
573.743	25.72
574.166	25.56
574.589	25.41
575.012	25.26
575.435	25.09
575.858	24.99
576.281	24.85
576.704	24.71
577.126	24.55
577.549	24.42
577.972	24.32
578.394	24.18
578.817	24.06
579.239	23.95
579.661	23.85
580.084	23.76
580.506	23.62
580.928	23.51
581.35	23.42
581.772	23.33
582.194	23.22
582.616	23.12
583.038	23.02
583.46	22.95
583.882	22.86
584.303	22.78
584.725	22.7
585.147	22.62
585.568	22.53
585.99	22.46
586.411	22.39
586.833	22.34
587.254	22.26
587.675	22.2
588.096	22.13
588.518	22.08
588.939	22.01
589.36	21.92
589.781	21.88
590.202	21.82
590.623	21.76
591.043	21.7
591.464	21.63
591.885	21.58
592.305	21.53
592.726	21.47
593.147	21.44
593.567	21.37
593.987	21.36
594.408	21.31
594.828	21.28
595.248	21.24
595.669	21.21
596.089	21.17
596.509	21.12
596.929	21.07
597.349	21.01
597.769	20.93
598.189	20.91
598.608	20.84
599.028	20.78
599.448	20.73
599.867	20.66
600.287	20.59
600.706	20.54
601.126	20.49
601.545	20.42
601.965	20.38
602.384	20.33
602.803	20.25
603.222	20.18
603.641	20.11
604.061	20.03
604.48	19.96
604.898	19.88
605.317	19.81
605.736	19.71
606.155	19.62
606.574	19.52
606.992	19.41
607.411	19.33
607.829	19.19
608.248	19.1
608.666	19
609.085	18.9
609.503	18.81
609.921	18.69
610.339	18.59
610.758	18.48
611.176	18.38
611.594	18.28
612.012	18.16
612.43	18.11
612.847	18
613.265	17.9
613.683	17.8
614.101	17.67
614.518	17.57
614.936	17.47
615.353	17.39
615.771	17.29
616.188	17.22
616.606	17.14
617.023	17.03
617.44	16.96
617.857	16.86
618.274	16.78
618.691	16.73
619.108	16.67
619.525	16.62
619.942	16.55
620.359	16.5
620.776	16.45
621.192	16.41
621.609	16.37
622.026	16.34
622.442	16.29
622.859	16.27
623.275	16.25
623.691	16.21
624.108	16.18
624.524	16.16
624.94	16.13
625.356	16.11
625.772	16.09
626.188	16.09
626.604	16.06
627.02	16.06
627.436	16.05
627.852	16.02
628.268	16.01
628.683	15.99
629.099	15.97
629.514	15.93
629.93	15.9
630.345	15.86
630.761	15.8
631.176	15.76
631.591	15.71
632.007	15.65
632.422	15.6
632.837	15.53
633.252	15.45
633.667	15.36
634.082	15.27
634.497	15.15
634.911	15.03
635.326	14.9
635.741	14.77
636.155	14.64
636.57	14.51
636.984	14.36
637.399	14.18
637.813	14.02
638.228	13.85
638.642	13.7
639.056	13.54
639.47	13.36
639.884	13.21
640.298	13.02
640.712	12.83
641.126	12.66
641.54	12.47
641.954	12.32
642.368	12.15
642.781	11.97
643.195	11.78
643.609	11.63
644.022	11.47
644.436	11.31
644.849	11.16
645.262	11.02
645.676	10.87
646.089	10.73
646.502	10.59
646.915	10.48
647.328	10.36
647.741	10.26
648.154	10.16
648.567	10.08
648.98	9.99
649.393	9.93
649.805	9.84
650.218	9.77
650.631	9.7
651.043	9.65
651.456	9.58
651.868	9.51
652.28	9.45
652.693	9.37
653.105	9.28
653.517	9.21
653.929	9.12
654.341	9.04
654.753	8.95
655.165	8.86
655.577	8.74
655.989	8.63
656.401	8.51
656.813	8.39
657.224	8.27
657.636	8.14
658.047	8
658.459	7.85
658.87	7.71
659.282	7.58
659.693	7.43
660.104	7.31
660.515	7.17
660.926	7.04
661.338	6.89
661.749	6.74
662.159	6.62
662.57	6.49
662.981	6.37
663.392	6.24
663.803	6.12
664.213	6
664.624	5.89
665.035	5.78
665.445	5.68
665.855	5.6
666.266	5.53
666.676	5.45
667.086	5.38
667.497	5.33
667.907	5.25
668.317	5.18
668.727	5.15
669.137	5.11
669.547	5.09
669.956	5.05
670.366	5.01
670.776	4.99
671.186	4.95
671.595	4.95
672.005	4.94
672.414	4.95
672.824	4.96
673.233	4.95
673.642	4.94
674.052	4.95
674.461	4.96
674.87	4.99
675.279	5.01
675.688	5.03
676.097	5.06
676.506	5.09
676.915	5.12
677.323	5.16
677.732	5.22
678.141	5.28
678.549	5.36
678.958	5.43
679.366	5.5
679.775	5.6
680.183	5.71
680.592	5.82
681	5.95
681.408	6.1
681.816	6.26
682.224	6.45
682.632	6.66
683.04	6.88
683.448	7.11
683.856	7.41
684.264	7.72
684.671	8.06
685.079	8.43
685.487	8.84
685.894	9.28
686.302	9.74
686.709	10.22
687.116	10.74
687.524	11.31
687.931	11.9
688.338	12.52
688.745	13.16
689.152	13.83
689.559	14.53
689.966	15.23
690.373	15.96
690.78	16.7
691.187	17.46
691.593	18.21
692	18.97
692.407	19.72
692.813	20.49
693.22	21.24
693.626	22.01
694.032	22.78
694.439	23.55
694.845	24.28
695.251	25.01
695.657	25.73
696.063	26.46
696.469	27.17
696.875	27.86
697.281	28.52
697.687	29.19
698.093	29.82
698.498	30.43
698.904	31.02
699.31	31.63
699.715	32.24
700.12	32.8
700.526	33.34
700.931	33.9
701.337	34.43
701.742	34.94
702.147	35.45
702.552	35.96
702.957	36.45
703.362	36.93
703.767	37.4
704.172	37.86
704.577	38.3
704.981	38.72
705.386	39.15
705.791	39.58
706.195	39.98
706.6	40.37
707.004	40.75
707.408	41.1
707.813	41.47
708.217	41.79
708.621	42.14
709.025	42.49
709.43	42.81
709.834	43.13
710.237	43.4
710.641	43.73
711.045	44.02
711.449	44.3
711.853	44.6
712.256	44.89
712.66	45.17
713.064	45.4
713.467	45.69
713.87	45.96
714.274	46.22
714.677	46.49
715.08	46.74
715.484	46.96
715.887	47.21
716.29	47.42
716.693	47.62
717.096	47.86
717.499	48.09
717.901	48.27
718.304	48.47
718.707	48.64
719.109	48.82
719.512	49.01
719.915	49.22
720.317	49.41
720.719	49.59
721.122	49.74
721.524	49.9
721.926	50.04
722.328	50.21
722.731	50.37
723.133	50.54
723.535	50.71
723.937	50.85
724.338	50.98
724.74	51.08
725.142	51.22
725.544	51.38
725.945	51.5
726.347	51.63
726.748	51.67
727.15	51.77
727.551	51.86
727.952	51.93
728.354	52.01
728.755	52.09
729.156	52.19
729.557	52.28
729.958	52.33
730.359	52.38
730.76	52.44
731.161	52.57
731.562	52.62
731.962	52.66
732.363	52.72
732.763	52.8
733.164	52.86
733.564	52.89
733.965	52.91
734.365	52.97
734.766	52.99
735.166	53.03
735.566	53.06
735.966	53.09
736.366	53.15
736.766	53.2
737.166	53.21
737.566	53.24
737.966	53.3
738.365	53.34
738.765	53.39
739.165	53.41
739.564	53.45
739.964	53.48
740.363	53.52
740.763	53.54
741.162	53.56
741.561	53.61
741.96	53.64
742.36	53.66
742.759	53.65
743.158	53.65
743.557	53.7
743.955	53.73
744.354	53.75
744.753	53.8
745.152	53.82
745.55	53.82
745.949	53.82
746.348	53.86
746.746	53.86
747.144	53.9
747.543	53.93
747.941	53.97
748.339	54.01
748.737	54.05
749.136	54.04
749.534	54.06
749.932	54.07
750.33	54.09
750.727	54.08
751.125	54.07
751.523	54.05
751.921	54.08
752.318	54.03
752.716	54.01
753.113	53.99
753.511	53.96
753.908	53.94
754.305	53.95
754.703	53.92
755.1	53.92
755.497	53.92
755.894	53.91
756.291	53.89
756.688	53.9
757.085	53.9
757.482	53.9
757.878	53.94
758.275	53.93
758.672	53.96
759.068	53.99
759.465	53.98
759.861	53.98
760.258	54
760.654	54.01
761.05	54.03
761.447	54
761.843	53.97
762.239	53.97
762.635	53.98
763.031	53.96
763.427	53.92
763.822	53.89
764.218	53.85
764.614	53.81
765.01	53.78
765.405	53.74
765.801	53.72
766.196	53.71
766.592	53.67
766.987	53.66
767.382	53.65
767.778	53.68
768.173	53.7
768.568	53.72
768.963	53.71
769.358	53.72
769.753	53.75
770.148	53.78
770.542	53.75
770.937	53.73
771.332	53.73
771.726	53.68
772.121	53.62
772.515	53.62
772.91	53.61
773.304	53.59
773.699	53.58
774.093	53.53
774.487	53.52
774.881	53.56
775.275	53.59
775.669	53.56
776.063	53.57
776.457	53.55
776.851	53.52
777.245	53.55
777.638	53.56
778.032	53.57
778.425	53.59
778.819	53.6
779.212	53.57
779.606	53.57
779.999	53.57
780.392	53.59
780.786	53.65
781.179	53.7
781.572	53.68
781.965	53.71
