Data from N_2_dec_on_6n_057_Splice17_07.txt Node
Date: Sat Feb 29 13:59:57 EST 2020
User: sa697716
Spectrometer: FLMS03696
Trigger mode: 0
Integration Time (sec): 3.180400E-1
Scans to average: 20
Electric dark correction enabled: true
Nonlinearity correction enabled: true
Boxcar width: 5
XAxis mode: Wavelengths
Number of Pixels in Spectrum: 2048
>>>>>Begin Spectral Data<<<<<
187.83	30.91
188.298	25.92
188.766	28.99
189.233	15.36
189.701	34.28
190.169	34.7
190.636	15.29
191.104	-10.48
191.571	-71.59
192.039	136.8
192.506	-146.63
192.974	-3262.57
193.441	904.49
193.908	-57.04
194.375	-142.31
194.842	-9.05
195.31	-65.8
195.777	-149.47
196.244	-21.46
196.711	7.11
197.177	8.66
197.644	11.31
198.111	11.02
198.578	12.25
199.045	12.71
199.511	12.79
199.978	12.86
200.445	13.43
200.911	14.07
201.378	14
201.844	14.47
202.31	14.86
202.777	14.88
203.243	15.86
203.709	16.39
204.176	16.27
204.642	16.4
205.108	16.88
205.574	17.63
206.04	17.96
206.506	18.05
206.972	18.47
207.438	18.36
207.903	19.09
208.369	18.6
208.835	18.7
209.301	18.87
209.766	18.93
210.232	18.64
210.697	18.43
211.163	18.27
211.628	17.93
212.094	17.69
212.559	17.64
213.024	17.06
213.49	16.82
213.955	16.74
214.42	16.46
214.885	16.27
215.35	16.35
215.815	16.15
216.28	15.81
216.745	15.87
217.21	15.77
217.675	15.61
218.14	15.48
218.604	15.26
219.069	15.01
219.534	14.89
219.998	14.64
220.463	14.47
220.927	14.32
221.392	14.19
221.856	14.05
222.32	13.86
222.785	13.84
223.249	13.71
223.713	13.61
224.177	13.48
224.642	13.39
225.106	13.29
225.57	13.18
226.034	13.09
226.497	12.97
226.961	12.82
227.425	12.7
227.889	12.58
228.353	12.43
228.816	12.31
229.28	12.16
229.744	12.03
230.207	11.94
230.671	11.81
231.134	11.69
231.597	11.59
232.061	11.5
232.524	11.41
232.987	11.29
233.45	11.21
233.914	11.11
234.377	11.04
234.84	10.94
235.303	10.84
235.766	10.75
236.229	10.66
236.691	10.58
237.154	10.5
237.617	10.4
238.08	10.33
238.542	10.24
239.005	10.17
239.468	10.08
239.93	10
240.393	9.92
240.855	9.84
241.317	9.78
241.78	9.71
242.242	9.61
242.704	9.54
243.166	9.46
243.629	9.39
244.091	9.32
244.553	9.27
245.015	9.22
245.477	9.16
245.939	9.1
246.4	9.02
246.862	8.96
247.324	8.93
247.786	8.87
248.247	8.81
248.709	8.76
249.17	8.71
249.632	8.65
250.093	8.58
250.555	8.54
251.016	8.49
251.477	8.46
251.939	8.42
252.4	8.39
252.861	8.36
253.322	8.33
253.783	8.31
254.244	8.27
254.705	8.24
255.166	8.23
255.627	8.2
256.088	8.16
256.549	8.14
257.009	8.1
257.47	8.08
257.931	8.04
258.391	8
258.852	7.96
259.312	7.94
259.773	7.91
260.233	7.88
260.694	7.85
261.154	7.83
261.614	7.8
262.074	7.78
262.534	7.74
262.994	7.73
263.455	7.7
263.915	7.68
264.374	7.65
264.834	7.63
265.294	7.6
265.754	7.58
266.214	7.56
266.673	7.54
267.133	7.52
267.593	7.51
268.052	7.49
268.512	7.48
268.971	7.46
269.431	7.45
269.89	7.44
270.349	7.43
270.809	7.42
271.268	7.41
271.727	7.4
272.186	7.38
272.645	7.37
273.104	7.36
273.563	7.35
274.022	7.34
274.481	7.32
274.94	7.31
275.399	7.28
275.857	7.27
276.316	7.25
276.775	7.23
277.233	7.21
277.692	7.19
278.15	7.17
278.609	7.15
279.067	7.12
279.525	7.1
279.984	7.09
280.442	7.07
280.9	7.05
281.358	7.04
281.816	7.02
282.274	7.01
282.732	6.99
283.19	6.99
283.648	6.97
284.106	6.95
284.564	6.95
285.021	6.93
285.479	6.93
285.937	6.91
286.394	6.91
286.852	6.9
287.309	6.89
287.767	6.88
288.224	6.87
288.682	6.87
289.139	6.87
289.596	6.85
290.053	6.84
290.511	6.82
290.968	6.82
291.425	6.8
291.882	6.79
292.339	6.77
292.796	6.75
293.252	6.73
293.709	6.72
294.166	6.71
294.623	6.7
295.079	6.7
295.536	6.68
295.992	6.67
296.449	6.66
296.905	6.64
297.362	6.64
297.818	6.64
298.274	6.63
298.731	6.62
299.187	6.61
299.643	6.6
300.099	6.6
300.555	6.6
301.011	6.59
301.467	6.58
301.923	6.58
302.379	6.58
302.835	6.57
303.291	6.56
303.746	6.55
304.202	6.54
304.658	6.53
305.113	6.53
305.569	6.52
306.024	6.51
306.479	6.51
306.935	6.51
307.39	6.5
307.845	6.51
308.301	6.52
308.756	6.53
309.211	6.53
309.666	6.54
310.121	6.53
310.576	6.53
311.031	6.53
311.486	6.53
311.94	6.53
312.395	6.54
312.85	6.53
313.305	6.51
313.759	6.5
314.214	6.5
314.668	6.49
315.123	6.49
315.577	6.49
316.032	6.49
316.486	6.5
316.94	6.49
317.394	6.48
317.849	6.48
318.303	6.48
318.757	6.47
319.211	6.46
319.665	6.46
320.119	6.46
320.572	6.46
321.026	6.45
321.48	6.44
321.934	6.44
322.387	6.44
322.841	6.43
323.295	6.43
323.748	6.43
324.202	6.42
324.655	6.42
325.108	6.4
325.562	6.39
326.015	6.38
326.468	6.36
326.921	6.35
327.374	6.35
327.827	6.35
328.28	6.33
328.733	6.33
329.186	6.32
329.639	6.32
330.092	6.32
330.545	6.32
330.997	6.32
331.45	6.31
331.903	6.3
332.355	6.29
332.808	6.29
333.26	6.29
333.713	6.28
334.165	6.28
334.617	6.28
335.069	6.26
335.522	6.27
335.974	6.27
336.426	6.27
336.878	6.28
337.33	6.28
337.782	6.29
338.234	6.29
338.686	6.28
339.137	6.29
339.589	6.28
340.041	6.29
340.493	6.27
340.944	6.26
341.396	6.26
341.847	6.25
342.299	6.24
342.75	6.22
343.201	6.21
343.653	6.2
344.104	6.18
344.555	6.17
345.006	6.16
345.457	6.16
345.908	6.15
346.359	6.15
346.81	6.14
347.261	6.12
347.712	6.12
348.163	6.11
348.613	6.11
349.064	6.1
349.515	6.09
349.965	6.08
350.416	6.08
350.866	6.08
351.317	6.08
351.767	6.08
352.217	6.08
352.668	6.09
353.118	6.08
353.568	6.08
354.018	6.08
354.468	6.07
354.918	6.08
355.368	6.08
355.818	6.08
356.268	6.08
356.718	6.07
357.168	6.05
357.617	6.05
358.067	6.05
358.517	6.04
358.966	6.06
359.416	6.07
359.865	6.06
360.315	6.06
360.764	6.06
361.213	6.06
361.663	6.07
362.112	6.08
362.561	6.08
363.01	6.09
363.459	6.08
363.908	6.07
364.357	6.07
364.806	6.07
365.255	6.07
365.703	6.07
366.152	6.07
366.601	6.07
367.05	6.08
367.498	6.09
367.947	6.09
368.395	6.11
368.844	6.11
369.292	6.11
369.74	6.12
370.189	6.12
370.637	6.14
371.085	6.14
371.533	6.15
371.981	6.16
372.429	6.15
372.877	6.15
373.325	6.15
373.773	6.16
374.221	6.18
374.669	6.19
375.116	6.18
375.564	6.19
376.012	6.19
376.459	6.2
376.907	6.22
377.354	6.24
377.801	6.26
378.249	6.27
378.696	6.29
379.143	6.3
379.591	6.32
380.038	6.35
380.485	6.37
380.932	6.4
381.379	6.41
381.826	6.42
382.273	6.43
382.72	6.45
383.166	6.47
383.613	6.49
384.06	6.51
384.506	6.53
384.953	6.53
385.4	6.55
385.846	6.57
386.292	6.59
386.739	6.6
387.185	6.64
387.631	6.66
388.078	6.68
388.524	6.67
388.97	6.69
389.416	6.7
389.862	6.71
390.308	6.71
390.754	6.73
391.2	6.74
391.645	6.77
392.091	6.78
392.537	6.78
392.983	6.8
393.428	6.83
393.874	6.84
394.319	6.84
394.765	6.86
395.21	6.86
395.655	6.86
396.101	6.87
396.546	6.87
396.991	6.87
397.436	6.87
397.881	6.88
398.326	6.89
398.771	6.91
399.216	6.92
399.661	6.93
400.106	6.95
400.551	6.96
400.995	6.96
401.44	6.96
401.885	6.97
402.329	6.98
402.774	6.98
403.218	6.98
403.663	6.97
404.107	6.98
404.551	6.99
404.995	6.97
405.44	6.97
405.884	6.96
406.328	6.96
406.772	6.97
407.216	6.96
407.66	6.95
408.104	6.94
408.547	6.94
408.991	6.93
409.435	6.91
409.879	6.92
410.322	6.93
410.766	6.93
411.209	6.92
411.653	6.9
412.096	6.89
412.54	6.9
412.983	6.9
413.426	6.9
413.869	6.91
414.312	6.94
414.756	6.94
415.199	6.94
415.642	6.95
416.085	6.96
416.527	6.98
416.97	6.98
417.413	6.97
417.856	6.96
418.298	6.94
418.741	6.93
419.184	6.89
419.626	6.89
420.069	6.89
420.511	6.88
420.953	6.87
421.396	6.87
421.838	6.87
422.28	6.88
422.722	6.89
423.164	6.91
423.606	6.92
424.048	6.93
424.49	6.95
424.932	6.94
425.374	6.92
425.816	6.91
426.258	6.89
426.699	6.87
427.141	6.85
427.582	6.83
428.024	6.82
428.465	6.81
428.907	6.82
429.348	6.8
429.789	6.81
430.231	6.81
430.672	6.81
431.113	6.83
431.554	6.83
431.995	6.84
432.436	6.83
432.877	6.82
433.318	6.82
433.759	6.82
434.2	6.81
434.64	6.8
435.081	6.79
435.522	6.81
435.962	6.81
436.403	6.84
436.843	6.84
437.284	6.85
437.724	6.9
438.164	6.9
438.604	6.91
439.045	6.92
439.485	6.94
439.925	6.94
440.365	6.93
440.805	6.93
441.245	6.9
441.685	6.93
442.125	6.94
442.564	6.93
443.004	6.94
443.444	6.96
443.883	6.98
444.323	6.98
444.762	7.02
445.202	7.06
445.641	7.09
446.081	7.13
446.52	7.11
446.959	7.12
447.398	7.17
447.837	7.2
448.276	7.2
448.716	7.21
449.154	7.23
449.593	7.22
450.032	7.22
450.471	7.21
450.91	7.21
451.349	7.24
451.787	7.25
452.226	7.21
452.664	7.2
453.103	7.2
453.541	7.2
453.98	7.21
454.418	7.21
454.856	7.2
455.295	7.21
455.733	7.21
456.171	7.2
456.609	7.19
457.047	7.2
457.485	7.2
457.923	7.21
458.361	7.22
458.798	7.23
459.236	7.23
459.674	7.25
460.111	7.24
460.549	7.23
460.987	7.23
461.424	7.24
461.862	7.24
462.299	7.24
462.736	7.24
463.173	7.25
463.611	7.22
464.048	7.22
464.485	7.2
464.922	7.2
465.359	7.22
465.796	7.2
466.233	7.21
466.67	7.22
467.106	7.19
467.543	7.18
467.98	7.17
468.416	7.19
468.853	7.2
469.29	7.21
469.726	7.22
470.162	7.2
470.599	7.21
471.035	7.21
471.471	7.2
471.907	7.2
472.344	7.21
472.78	7.21
473.216	7.22
473.652	7.21
474.088	7.22
474.523	7.21
474.959	7.22
475.395	7.22
475.831	7.23
476.266	7.22
476.702	7.22
477.138	7.21
477.573	7.19
478.008	7.18
478.444	7.19
478.879	7.17
479.314	7.17
479.75	7.18
480.185	7.17
480.62	7.18
481.055	7.18
481.49	7.19
481.925	7.18
482.36	7.19
482.795	7.18
483.229	7.17
483.664	7.17
484.099	7.17
484.534	7.16
484.968	7.18
485.403	7.17
485.837	7.16
486.271	7.17
486.706	7.19
487.14	7.19
487.574	7.2
488.009	7.22
488.443	7.24
488.877	7.26
489.311	7.27
489.745	7.29
490.179	7.31
490.613	7.33
491.046	7.35
491.48	7.39
491.914	7.42
492.348	7.45
492.781	7.47
493.215	7.5
493.648	7.55
494.082	7.6
494.515	7.63
494.948	7.67
495.382	7.72
495.815	7.77
496.248	7.81
496.681	7.85
497.114	7.9
497.547	7.95
497.98	8.02
498.413	8.07
498.846	8.13
499.279	8.2
499.711	8.28
500.144	8.35
500.577	8.43
501.009	8.51
501.442	8.61
501.874	8.7
502.306	8.81
502.739	8.9
503.171	9.01
503.603	9.12
504.036	9.24
504.468	9.37
504.9	9.5
505.332	9.63
505.764	9.78
506.196	9.94
506.627	10.09
507.059	10.23
507.491	10.38
507.923	10.55
508.354	10.73
508.786	10.89
509.217	11.05
509.649	11.24
510.08	11.44
510.512	11.61
510.943	11.8
511.374	11.99
511.805	12.19
512.237	12.4
512.668	12.61
513.099	12.83
513.53	13.07
513.961	13.31
514.391	13.52
514.822	13.73
515.253	13.96
515.684	14.19
516.114	14.44
516.545	14.69
516.975	14.94
517.406	15.18
517.836	15.39
518.267	15.62
518.697	15.86
519.127	16.1
519.558	16.35
519.988	16.58
520.418	16.78
520.848	17.01
521.278	17.23
521.708	17.34
522.138	17.55
522.567	17.76
522.997	17.94
523.427	18.14
523.857	18.32
524.286	18.5
524.716	18.67
525.145	18.87
525.575	19.03
526.004	19.17
526.433	19.42
526.863	19.59
527.292	19.75
527.721	19.89
528.15	20.02
528.579	20.15
529.008	20.28
529.437	20.4
529.866	20.49
530.295	20.61
530.724	20.75
531.152	20.86
531.581	20.95
532.01	21.04
532.438	21.13
532.867	21.23
533.295	21.31
533.723	21.4
534.152	21.48
534.58	21.55
535.008	21.59
535.436	21.63
535.865	21.67
536.293	21.72
536.721	21.77
537.149	21.8
537.576	21.84
538.004	21.87
538.432	21.89
538.86	21.92
539.287	21.96
539.715	22.01
540.143	22.02
540.57	22.06
540.998	22.09
541.425	22.1
541.852	22.14
542.28	22.16
542.707	22.18
543.134	22.2
543.561	22.2
543.988	22.21
544.415	22.22
544.842	22.26
545.269	22.27
545.696	22.28
546.123	22.32
546.549	22.32
546.976	22.36
547.403	22.39
547.829	22.42
548.256	22.44
548.682	22.45
549.108	22.47
549.535	22.47
549.961	22.47
550.387	22.47
550.813	22.43
551.24	22.43
551.666	22.43
552.092	22.41
552.518	22.39
552.943	22.39
553.369	22.38
553.795	22.35
554.221	22.34
554.646	22.33
555.072	22.31
555.498	22.3
555.923	22.28
556.349	22.22
556.774	22.19
557.199	22.15
557.625	22.09
558.05	22.02
558.475	21.95
558.9	21.88
559.325	21.79
559.75	21.71
560.175	21.64
560.6	21.54
561.025	21.48
561.449	21.39
561.874	21.3
562.299	21.21
562.723	21.11
563.148	21.03
563.572	20.95
563.997	20.84
564.421	20.73
564.846	20.61
565.27	20.5
565.694	20.38
566.118	20.25
566.542	20.13
566.966	20.01
567.39	19.9
567.814	19.75
568.238	19.6
568.662	19.47
569.086	19.35
569.509	19.24
569.933	19.11
570.357	18.97
570.78	18.85
571.204	18.73
571.627	18.61
572.05	18.48
572.474	18.38
572.897	18.28
573.32	18.16
573.743	18.07
574.166	17.95
574.589	17.86
575.012	17.79
575.435	17.67
575.858	17.58
576.281	17.5
576.704	17.42
577.126	17.31
577.549	17.24
577.972	17.17
578.394	17.09
578.817	17
579.239	16.92
579.661	16.84
580.084	16.78
580.506	16.7
580.928	16.65
581.35	16.57
581.772	16.51
582.194	16.44
582.616	16.37
583.038	16.3
583.46	16.25
583.882	16.2
584.303	16.13
584.725	16.07
585.147	15.99
585.568	15.91
585.99	15.87
586.411	15.83
586.833	15.77
587.254	15.73
587.675	15.69
588.096	15.65
588.518	15.6
588.939	15.57
589.36	15.53
589.781	15.5
590.202	15.48
590.623	15.43
591.043	15.38
591.464	15.34
591.885	15.31
592.305	15.28
592.726	15.23
593.147	15.2
593.567	15.16
593.987	15.13
594.408	15.1
594.828	15.06
595.248	15.05
595.669	15.03
596.089	15
596.509	14.95
596.929	14.9
597.349	14.86
597.769	14.83
598.189	14.81
598.608	14.77
599.028	14.73
599.448	14.71
599.867	14.67
600.287	14.63
600.706	14.6
601.126	14.58
601.545	14.53
601.965	14.5
602.384	14.46
602.803	14.43
603.222	14.39
603.641	14.34
604.061	14.3
604.48	14.25
604.898	14.22
605.317	14.17
605.736	14.12
606.155	14.09
606.574	14.04
606.992	13.98
607.411	13.93
607.829	13.83
608.248	13.8
608.666	13.74
609.085	13.69
609.503	13.63
609.921	13.57
610.339	13.53
610.758	13.49
611.176	13.44
611.594	13.4
612.012	13.35
612.43	13.35
612.847	13.3
613.265	13.27
613.683	13.2
614.101	13.15
614.518	13.11
614.936	13.05
615.353	12.99
615.771	12.93
616.188	12.87
616.606	12.83
617.023	12.77
617.44	12.72
617.857	12.67
618.274	12.63
618.691	12.6
619.108	12.56
619.525	12.54
619.942	12.51
620.359	12.48
620.776	12.46
621.192	12.44
621.609	12.41
622.026	12.39
622.442	12.38
622.859	12.37
623.275	12.36
623.691	12.35
624.108	12.34
624.524	12.33
624.94	12.32
625.356	12.31
625.772	12.3
626.188	12.3
626.604	12.29
627.02	12.28
627.436	12.27
627.852	12.25
628.268	12.24
628.683	12.22
629.099	12.23
629.514	12.21
629.93	12.18
630.345	12.16
630.761	12.12
631.176	12.09
631.591	12.05
632.007	12.02
632.422	11.99
632.837	11.92
633.252	11.87
633.667	11.79
634.082	11.73
634.497	11.66
634.911	11.58
635.326	11.49
635.741	11.41
636.155	11.31
636.57	11.21
636.984	11.1
637.399	11
637.813	10.89
638.228	10.77
638.642	10.67
639.056	10.57
639.47	10.46
639.884	10.36
640.298	10.26
640.712	10.16
641.126	10.05
641.54	9.96
641.954	9.89
642.368	9.8
642.781	9.71
643.195	9.62
643.609	9.54
644.022	9.45
644.436	9.35
644.849	9.28
645.262	9.21
645.676	9.14
646.089	9.08
646.502	8.99
646.915	8.93
647.328	8.88
647.741	8.82
648.154	8.77
648.567	8.75
648.98	8.72
649.393	8.69
649.805	8.66
650.218	8.63
650.631	8.6
651.043	8.6
651.456	8.59
651.868	8.59
652.28	8.58
652.693	8.55
653.105	8.53
653.517	8.51
653.929	8.51
654.341	8.5
654.753	8.48
655.165	8.46
655.577	8.43
655.989	8.37
656.401	8.33
656.813	8.3
657.224	8.27
657.636	8.23
658.047	8.17
658.459	8.11
658.87	8.05
659.282	8
659.693	7.94
660.104	7.9
660.515	7.85
660.926	7.8
661.338	7.75
661.749	7.69
662.159	7.65
662.57	7.61
662.981	7.58
663.392	7.53
663.803	7.5
664.213	7.48
664.624	7.45
665.035	7.42
665.445	7.4
665.855	7.4
666.266	7.39
666.676	7.38
667.086	7.38
667.497	7.37
667.907	7.36
668.317	7.36
668.727	7.35
669.137	7.35
669.547	7.37
669.956	7.37
670.366	7.37
670.776	7.38
671.186	7.38
671.595	7.4
672.005	7.42
672.414	7.45
672.824	7.49
673.233	7.53
673.642	7.55
674.052	7.59
674.461	7.63
674.87	7.68
675.279	7.71
675.688	7.76
676.097	7.82
676.506	7.88
676.915	7.93
677.323	7.96
677.732	8.02
678.141	8.08
678.549	8.14
678.958	8.21
679.366	8.27
679.775	8.35
680.183	8.45
680.592	8.53
681	8.6
681.408	8.69
681.816	8.79
682.224	8.9
682.632	9.02
683.04	9.13
683.448	9.28
683.856	9.42
684.264	9.59
684.671	9.75
685.079	9.94
685.487	10.15
685.894	10.38
686.302	10.63
686.709	10.89
687.116	11.16
687.524	11.46
687.931	11.76
688.338	12.1
688.745	12.46
689.152	12.84
689.559	13.24
689.966	13.63
690.373	14.07
690.78	14.51
691.187	14.96
691.593	15.44
692	15.93
692.407	16.45
692.813	16.97
693.22	17.49
693.626	17.98
694.032	18.51
694.439	19.05
694.845	19.57
695.251	20.12
695.657	20.66
696.063	21.18
696.469	21.7
696.875	22.19
697.281	22.68
697.687	23.19
698.093	23.71
698.498	24.2
698.904	24.67
699.31	25.14
699.715	25.6
700.12	26.05
700.526	26.5
700.931	26.96
701.337	27.42
701.742	27.84
702.147	28.26
702.552	28.67
702.957	29.07
703.362	29.48
703.767	29.87
704.172	30.23
704.577	30.6
704.981	30.98
705.386	31.32
705.791	31.67
706.195	32.03
706.6	32.35
707.004	32.68
707.408	33.01
707.813	33.33
708.217	33.69
708.621	34
709.025	34.32
709.43	34.61
709.834	34.94
710.237	35.22
710.641	35.52
711.045	35.8
711.449	36.1
711.853	36.38
712.256	36.67
712.66	36.91
713.064	37.16
713.467	37.41
713.87	37.66
714.274	37.88
714.677	38.12
715.08	38.33
715.484	38.56
715.887	38.78
716.29	39
716.693	39.19
717.096	39.42
717.499	39.65
717.901	39.83
718.304	40.05
718.707	40.23
719.109	40.44
719.512	40.66
719.915	40.85
720.317	41.02
720.719	41.17
721.122	41.34
721.524	41.49
721.926	41.63
722.328	41.81
722.731	41.96
723.133	42.13
723.535	42.25
723.937	42.36
724.338	42.48
724.74	42.61
725.142	42.73
725.544	42.8
725.945	42.91
726.347	43.01
726.748	43.07
727.15	43.16
727.551	43.22
727.952	43.33
728.354	43.44
728.755	43.56
729.156	43.66
729.557	43.77
729.958	43.93
730.359	44
730.76	44.07
731.161	44.15
731.562	44.23
731.962	44.32
732.363	44.33
732.763	44.39
733.164	44.41
733.564	44.45
733.965	44.5
734.365	44.54
734.766	44.61
735.166	44.64
735.566	44.69
735.966	44.72
736.366	44.77
736.766	44.84
737.166	44.88
737.566	44.93
737.966	44.97
738.365	44.98
738.765	45.02
739.165	45.05
739.564	45.11
739.964	45.14
740.363	45.17
740.763	45.2
741.162	45.22
741.561	45.27
741.96	45.29
742.36	45.33
742.759	45.33
743.158	45.33
743.557	45.35
743.955	45.39
744.354	45.41
744.753	45.43
745.152	45.45
745.55	45.46
745.949	45.44
746.348	45.47
746.746	45.46
747.144	45.51
747.543	45.54
747.941	45.53
748.339	45.56
748.737	45.6
749.136	45.6
749.534	45.62
749.932	45.65
750.33	45.66
750.727	45.67
751.125	45.68
751.523	45.67
751.921	45.7
752.318	45.7
752.716	45.69
753.113	45.65
753.511	45.66
753.908	45.62
754.305	45.59
754.703	45.59
755.1	45.56
755.497	45.56
755.894	45.54
756.291	45.5
756.688	45.47
757.085	45.46
757.482	45.47
757.878	45.44
758.275	45.46
758.672	45.45
759.068	45.44
759.465	45.44
759.861	45.4
760.258	45.38
760.654	45.35
761.05	45.36
761.447	45.32
761.843	45.28
762.239	45.29
762.635	45.27
763.031	45.25
763.427	45.19
763.822	45.17
764.218	45.17
764.614	45.16
765.01	45.15
765.405	45.11
765.801	45.1
766.196	45.12
766.592	45.14
766.987	45.14
767.382	45.13
767.778	45.16
768.173	45.17
768.568	45.17
768.963	45.16
769.358	45.15
769.753	45.21
770.148	45.21
770.542	45.19
770.937	45.16
771.332	45.16
771.726	45.17
772.121	45.12
772.515	45.12
772.91	45.11
773.304	45.14
773.699	45.16
774.093	45.1
774.487	45.13
774.881	45.14
775.275	45.14
775.669	45.16
776.063	45.15
776.457	45.15
776.851	45.13
777.245	45.13
777.638	45.12
778.032	45.1
778.425	45.13
778.819	45.12
779.212	45.09
779.606	45.11
779.999	45.07
780.392	45.07
780.786	45.09
781.179	45.09
781.572	45.08
