Data from N_2_dec_va_2n_049_Splice17_18.txt Node
Date: Sat Feb 29 13:56:32 EST 2020
User: sa697716
Spectrometer: FLMS03696
Trigger mode: 0
Integration Time (sec): 3.180400E-1
Scans to average: 20
Electric dark correction enabled: true
Nonlinearity correction enabled: true
Boxcar width: 5
XAxis mode: Wavelengths
Number of Pixels in Spectrum: 2048
>>>>>Begin Spectral Data<<<<<
187.83	76.31
188.298	75
188.766	69.99
189.233	63.67
189.701	76.85
190.169	77.04
190.636	76.85
191.104	55.42
191.571	101.98
192.039	82
192.506	-48.8
192.974	-1291.09
193.441	540.43
193.908	-3.96
194.375	-84.75
194.842	50.7
195.31	75.8
195.777	119.17
196.244	40.44
196.711	24.26
197.177	20.56
197.644	20.9
198.111	20.82
198.578	20.38
199.045	20.66
199.511	21
199.978	21.35
200.445	20.86
200.911	20.71
201.378	20.6
201.844	21.1
202.31	22
202.777	22.28
203.243	22.55
203.709	23.45
204.176	23.14
204.642	22.96
205.108	22.41
205.574	22.96
206.04	22.96
206.506	22.9
206.972	22.81
207.438	22.18
207.903	22.34
208.369	22
208.835	21.47
209.301	21.52
209.766	21.74
210.232	21.88
210.697	21.57
211.163	21.21
211.628	20.78
212.094	20.71
212.559	20.33
213.024	19.52
213.49	19.1
213.955	18.96
214.42	18.3
214.885	17.56
215.35	16.98
215.815	16.29
216.28	15.64
216.745	15
217.21	14.3
217.675	13.74
218.14	13.08
218.604	12.35
219.069	11.73
219.534	11.45
219.998	10.98
220.463	10.7
220.927	10.41
221.392	10.17
221.856	9.94
222.32	9.68
222.785	9.47
223.249	9.29
223.713	9.17
224.177	8.98
224.642	8.78
225.106	8.63
225.57	8.45
226.034	8.34
226.497	8.21
226.961	8.08
227.425	7.92
227.889	7.79
228.353	7.68
228.816	7.56
229.28	7.46
229.744	7.37
230.207	7.3
230.671	7.2
231.134	7.08
231.597	6.97
232.061	6.89
232.524	6.82
232.987	6.74
233.45	6.66
233.914	6.59
234.377	6.53
234.84	6.46
235.303	6.38
235.766	6.31
236.229	6.23
236.691	6.17
237.154	6.12
237.617	6.06
238.08	6
238.542	5.94
239.005	5.88
239.468	5.8
239.93	5.75
240.393	5.69
240.855	5.62
241.317	5.58
241.78	5.53
242.242	5.48
242.704	5.42
243.166	5.36
243.629	5.32
244.091	5.24
244.553	5.2
245.015	5.15
245.477	5.1
245.939	5.06
246.4	5.01
246.862	4.96
247.324	4.92
247.786	4.89
248.247	4.85
248.709	4.8
249.17	4.78
249.632	4.73
250.093	4.69
250.555	4.66
251.016	4.64
251.477	4.6
251.939	4.56
252.4	4.52
252.861	4.48
253.322	4.44
253.783	4.43
254.244	4.4
254.705	4.38
255.166	4.38
255.627	4.36
256.088	4.33
256.549	4.31
257.009	4.28
257.47	4.27
257.931	4.24
258.391	4.21
258.852	4.18
259.312	4.14
259.773	4.11
260.233	4.07
260.694	4.05
261.154	4.02
261.614	3.99
262.074	3.97
262.534	3.94
262.994	3.92
263.455	3.9
263.915	3.88
264.374	3.87
264.834	3.85
265.294	3.82
265.754	3.8
266.214	3.78
266.673	3.76
267.133	3.74
267.593	3.73
268.052	3.71
268.512	3.69
268.971	3.67
269.431	3.65
269.89	3.64
270.349	3.62
270.809	3.62
271.268	3.61
271.727	3.59
272.186	3.58
272.645	3.56
273.104	3.55
273.563	3.55
274.022	3.54
274.481	3.53
274.94	3.52
275.399	3.51
275.857	3.49
276.316	3.47
276.775	3.46
277.233	3.44
277.692	3.44
278.15	3.42
278.609	3.4
279.067	3.38
279.525	3.36
279.984	3.35
280.442	3.34
280.9	3.33
281.358	3.32
281.816	3.31
282.274	3.3
282.732	3.3
283.19	3.29
283.648	3.27
284.106	3.27
284.564	3.27
285.021	3.26
285.479	3.25
285.937	3.24
286.394	3.23
286.852	3.21
287.309	3.2
287.767	3.19
288.224	3.18
288.682	3.17
289.139	3.16
289.596	3.14
290.053	3.12
290.511	3.1
290.968	3.1
291.425	3.08
291.882	3.07
292.339	3.06
292.796	3.03
293.252	3.02
293.709	3.01
294.166	3
294.623	3
295.079	2.99
295.536	2.98
295.992	2.96
296.449	2.96
296.905	2.94
297.362	2.93
297.818	2.93
298.274	2.92
298.731	2.91
299.187	2.9
299.643	2.89
300.099	2.88
300.555	2.87
301.011	2.87
301.467	2.86
301.923	2.86
302.379	2.86
302.835	2.85
303.291	2.84
303.746	2.83
304.202	2.82
304.658	2.81
305.113	2.81
305.569	2.81
306.024	2.8
306.479	2.79
306.935	2.78
307.39	2.77
307.845	2.77
308.301	2.77
308.756	2.76
309.211	2.77
309.666	2.76
310.121	2.76
310.576	2.75
311.031	2.75
311.486	2.75
311.94	2.75
312.395	2.75
312.85	2.75
313.305	2.75
313.759	2.75
314.214	2.74
314.668	2.73
315.123	2.73
315.577	2.74
316.032	2.73
316.486	2.71
316.94	2.71
317.394	2.69
317.849	2.68
318.303	2.68
318.757	2.67
319.211	2.65
319.665	2.64
320.119	2.63
320.572	2.62
321.026	2.62
321.48	2.62
321.934	2.62
322.387	2.61
322.841	2.6
323.295	2.59
323.748	2.58
324.202	2.58
324.655	2.58
325.108	2.57
325.562	2.56
326.015	2.54
326.468	2.53
326.921	2.51
327.374	2.52
327.827	2.52
328.28	2.51
328.733	2.51
329.186	2.5
329.639	2.5
330.092	2.49
330.545	2.49
330.997	2.5
331.45	2.5
331.903	2.5
332.355	2.49
332.808	2.5
333.26	2.48
333.713	2.5
334.165	2.5
334.617	2.5
335.069	2.5
335.522	2.5
335.974	2.51
336.426	2.51
336.878	2.51
337.33	2.51
337.782	2.51
338.234	2.51
338.686	2.5
339.137	2.49
339.589	2.49
340.041	2.5
340.493	2.49
340.944	2.48
341.396	2.46
341.847	2.46
342.299	2.44
342.75	2.43
343.201	2.42
343.653	2.41
344.104	2.4
344.555	2.39
345.006	2.37
345.457	2.36
345.908	2.36
346.359	2.35
346.81	2.35
347.261	2.36
347.712	2.35
348.163	2.36
348.613	2.35
349.064	2.34
349.515	2.33
349.965	2.34
350.416	2.34
350.866	2.34
351.317	2.34
351.767	2.34
352.217	2.33
352.668	2.34
353.118	2.34
353.568	2.35
354.018	2.36
354.468	2.36
354.918	2.36
355.368	2.36
355.818	2.36
356.268	2.36
356.718	2.35
357.168	2.34
357.617	2.33
358.067	2.33
358.517	2.32
358.966	2.32
359.416	2.32
359.865	2.32
360.315	2.33
360.764	2.32
361.213	2.31
361.663	2.32
362.112	2.31
362.561	2.31
363.01	2.32
363.459	2.31
363.908	2.3
364.357	2.3
364.806	2.3
365.255	2.3
365.703	2.29
366.152	2.31
366.601	2.31
367.05	2.32
367.498	2.33
367.947	2.32
368.395	2.34
368.844	2.35
369.292	2.34
369.74	2.34
370.189	2.34
370.637	2.35
371.085	2.35
371.533	2.35
371.981	2.35
372.429	2.35
372.877	2.35
373.325	2.36
373.773	2.36
374.221	2.36
374.669	2.37
375.116	2.37
375.564	2.37
376.012	2.39
376.459	2.4
376.907	2.42
377.354	2.43
377.801	2.45
378.249	2.46
378.696	2.48
379.143	2.51
379.591	2.53
380.038	2.56
380.485	2.59
380.932	2.6
381.379	2.61
381.826	2.64
382.273	2.66
382.72	2.68
383.166	2.69
383.613	2.72
384.06	2.73
384.506	2.75
384.953	2.78
385.4	2.8
385.846	2.83
386.292	2.87
386.739	2.87
387.185	2.9
387.631	2.93
388.078	2.97
388.524	2.99
388.97	3.02
389.416	3.05
389.862	3.08
390.308	3.11
390.754	3.14
391.2	3.17
391.645	3.2
392.091	3.23
392.537	3.27
392.983	3.31
393.428	3.34
393.874	3.38
394.319	3.4
394.765	3.42
395.21	3.43
395.655	3.47
396.101	3.49
396.546	3.53
396.991	3.55
397.436	3.55
397.881	3.56
398.326	3.6
398.771	3.62
399.216	3.65
399.661	3.68
400.106	3.72
400.551	3.72
400.995	3.72
401.44	3.72
401.885	3.72
402.329	3.74
402.774	3.75
403.218	3.75
403.663	3.74
404.107	3.75
404.551	3.75
404.995	3.74
405.44	3.73
405.884	3.74
406.328	3.74
406.772	3.74
407.216	3.75
407.66	3.75
408.104	3.74
408.547	3.74
408.991	3.73
409.435	3.72
409.879	3.73
410.322	3.74
410.766	3.74
411.209	3.73
411.653	3.72
412.096	3.71
412.54	3.72
412.983	3.73
413.426	3.75
413.869	3.76
414.312	3.77
414.756	3.78
415.199	3.79
415.642	3.81
416.085	3.82
416.527	3.84
416.97	3.86
417.413	3.84
417.856	3.83
418.298	3.82
418.741	3.82
419.184	3.81
419.626	3.8
420.069	3.79
420.511	3.77
420.953	3.76
421.396	3.75
421.838	3.77
422.28	3.78
422.722	3.79
423.164	3.79
423.606	3.8
424.048	3.79
424.49	3.79
424.932	3.79
425.374	3.79
425.816	3.79
426.258	3.77
426.699	3.75
427.141	3.72
427.582	3.71
428.024	3.7
428.465	3.68
428.907	3.68
429.348	3.66
429.789	3.66
430.231	3.66
430.672	3.67
431.113	3.67
431.554	3.68
431.995	3.69
432.436	3.7
432.877	3.69
433.318	3.69
433.759	3.69
434.2	3.7
434.64	3.73
435.081	3.74
435.522	3.74
435.962	3.76
436.403	3.78
436.843	3.79
437.284	3.8
437.724	3.83
438.164	3.84
438.604	3.85
439.045	3.87
439.485	3.86
439.925	3.86
440.365	3.88
440.805	3.88
441.245	3.89
441.685	3.92
442.125	3.94
442.564	3.96
443.004	4
443.444	4.05
443.883	4.1
444.323	4.13
444.762	4.19
445.202	4.25
445.641	4.28
446.081	4.35
446.52	4.37
446.959	4.4
447.398	4.47
447.837	4.51
448.276	4.54
448.716	4.56
449.154	4.6
449.593	4.65
450.032	4.67
450.471	4.72
450.91	4.76
451.349	4.81
451.787	4.84
452.226	4.83
452.664	4.84
453.103	4.86
453.541	4.87
453.98	4.87
454.418	4.85
454.856	4.86
455.295	4.85
455.733	4.83
456.171	4.83
456.609	4.84
457.047	4.83
457.485	4.84
457.923	4.83
458.361	4.83
458.798	4.86
459.236	4.87
459.674	4.85
460.111	4.86
460.549	4.85
460.987	4.84
461.424	4.83
461.862	4.84
462.299	4.85
462.736	4.85
463.173	4.84
463.611	4.83
464.048	4.84
464.485	4.84
464.922	4.83
465.359	4.85
465.796	4.85
466.233	4.87
466.67	4.87
467.106	4.84
467.543	4.85
467.98	4.85
468.416	4.84
468.853	4.85
469.29	4.85
469.726	4.86
470.162	4.87
470.599	4.87
471.035	4.88
471.471	4.88
471.907	4.91
472.344	4.92
472.78	4.94
473.216	4.96
473.652	4.97
474.088	4.99
474.523	5
474.959	5.01
475.395	5.01
475.831	5.02
476.266	5.03
476.702	5.02
477.138	5.01
477.573	5.01
478.008	5.01
478.444	5.02
478.879	5.03
479.314	5.04
479.75	5.06
480.185	5.06
480.62	5.06
481.055	5.05
481.49	5.06
481.925	5.07
482.36	5.07
482.795	5.07
483.229	5.08
483.664	5.08
484.099	5.08
484.534	5.09
484.968	5.11
485.403	5.13
485.837	5.16
486.271	5.18
486.706	5.21
487.14	5.25
487.574	5.29
488.009	5.33
488.443	5.36
488.877	5.41
489.311	5.45
489.745	5.5
490.179	5.54
490.613	5.59
491.046	5.66
491.48	5.72
491.914	5.78
492.348	5.85
492.781	5.91
493.215	5.99
493.648	6.07
494.082	6.15
494.515	6.24
494.948	6.33
495.382	6.42
495.815	6.52
496.248	6.63
496.681	6.73
497.114	6.84
497.547	6.96
497.98	7.09
498.413	7.22
498.846	7.37
499.279	7.5
499.711	7.64
500.144	7.8
500.577	7.96
501.009	8.11
501.442	8.29
501.874	8.47
502.306	8.66
502.739	8.85
503.171	9.04
503.603	9.24
504.036	9.48
504.468	9.71
504.9	9.95
505.332	10.19
505.764	10.46
506.196	10.73
506.627	11
507.059	11.27
507.491	11.56
507.923	11.87
508.354	12.17
508.786	12.47
509.217	12.77
509.649	13.11
510.08	13.44
510.512	13.76
510.943	14.09
511.374	14.44
511.805	14.8
512.237	15.15
512.668	15.49
513.099	15.87
513.53	16.23
513.961	16.6
514.391	16.95
514.822	17.33
515.253	17.73
515.684	18.09
516.114	18.48
516.545	18.86
516.975	19.24
517.406	19.63
517.836	19.99
518.267	20.36
518.697	20.76
519.127	21.13
519.558	21.47
519.988	21.84
520.418	22.21
520.848	22.54
521.278	22.89
521.708	23.13
522.138	23.45
522.567	23.79
522.997	24.1
523.427	24.4
523.857	24.67
524.286	24.97
524.716	25.22
525.145	25.5
525.575	25.77
526.004	26.01
526.433	26.36
526.863	26.6
527.292	26.81
527.721	27.04
528.15	27.23
528.579	27.47
529.008	27.66
529.437	27.84
529.866	28
530.295	28.16
530.724	28.34
531.152	28.48
531.581	28.62
532.01	28.74
532.438	28.85
532.867	28.98
533.295	29.09
533.723	29.22
534.152	29.33
534.58	29.42
535.008	29.5
535.436	29.59
535.865	29.66
536.293	29.74
536.721	29.81
537.149	29.88
537.576	29.96
538.004	30.02
538.432	30.05
538.86	30.1
539.287	30.16
539.715	30.21
540.143	30.24
540.57	30.28
540.998	30.33
541.425	30.37
541.852	30.41
542.28	30.43
542.707	30.46
543.134	30.5
543.561	30.51
543.988	30.52
544.415	30.56
544.842	30.58
545.269	30.62
545.696	30.64
546.123	30.68
546.549	30.71
546.976	30.73
547.403	30.77
547.829	30.8
548.256	30.85
548.682	30.88
549.108	30.91
549.535	30.93
549.961	30.93
550.387	30.94
550.813	30.91
551.24	30.92
551.666	30.93
552.092	30.93
552.518	30.91
552.943	30.9
553.369	30.87
553.795	30.85
554.221	30.84
554.646	30.82
555.072	30.79
555.498	30.75
555.923	30.72
556.349	30.66
556.774	30.6
557.199	30.54
557.625	30.47
558.05	30.42
558.475	30.33
558.9	30.24
559.325	30.15
559.75	30.06
560.175	29.98
560.6	29.87
561.025	29.77
561.449	29.67
561.874	29.55
562.299	29.42
562.723	29.28
563.148	29.16
563.572	29.05
563.997	28.91
564.421	28.75
564.846	28.61
565.27	28.47
565.694	28.31
566.118	28.14
566.542	28.01
566.966	27.86
567.39	27.69
567.814	27.51
568.238	27.32
568.662	27.16
569.086	26.98
569.509	26.79
569.933	26.61
570.357	26.43
570.78	26.26
571.204	26.06
571.627	25.89
572.05	25.73
572.474	25.59
572.897	25.41
573.32	25.25
573.743	25.09
574.166	24.95
574.589	24.8
575.012	24.65
575.435	24.51
575.858	24.38
576.281	24.25
576.704	24.11
577.126	23.96
577.549	23.86
577.972	23.75
578.394	23.63
578.817	23.51
579.239	23.39
579.661	23.28
580.084	23.18
580.506	23.07
580.928	22.99
581.35	22.89
581.772	22.81
582.194	22.71
582.616	22.62
583.038	22.54
583.46	22.46
583.882	22.37
584.303	22.28
584.725	22.2
585.147	22.12
585.568	22.03
585.99	21.95
586.411	21.84
586.833	21.77
587.254	21.69
587.675	21.61
588.096	21.54
588.518	21.47
588.939	21.42
589.36	21.34
589.781	21.28
590.202	21.22
590.623	21.16
591.043	21.12
591.464	21.07
591.885	21.03
592.305	20.99
592.726	20.93
593.147	20.9
593.567	20.84
593.987	20.82
594.408	20.77
594.828	20.73
595.248	20.7
595.669	20.66
596.089	20.61
596.509	20.55
596.929	20.51
597.349	20.47
597.769	20.42
598.189	20.37
598.608	20.32
599.028	20.28
599.448	20.24
599.867	20.18
600.287	20.13
600.706	20.08
601.126	20.02
601.545	19.96
601.965	19.91
602.384	19.86
602.803	19.78
603.222	19.72
603.641	19.64
604.061	19.56
604.48	19.47
604.898	19.39
605.317	19.31
605.736	19.23
606.155	19.13
606.574	19.03
606.992	18.92
607.411	18.85
607.829	18.72
608.248	18.61
608.666	18.52
609.085	18.41
609.503	18.33
609.921	18.23
610.339	18.13
610.758	18.04
611.176	17.95
611.594	17.85
612.012	17.72
612.43	17.68
612.847	17.57
613.265	17.48
613.683	17.38
614.101	17.27
614.518	17.17
614.936	17.08
615.353	16.97
615.771	16.87
616.188	16.8
616.606	16.72
617.023	16.62
617.44	16.57
617.857	16.5
618.274	16.44
618.691	16.37
619.108	16.31
619.525	16.24
619.942	16.2
620.359	16.16
620.776	16.1
621.192	16.07
621.609	16.03
622.026	15.97
622.442	15.94
622.859	15.9
623.275	15.87
623.691	15.84
624.108	15.83
624.524	15.8
624.94	15.78
625.356	15.74
625.772	15.72
626.188	15.71
626.604	15.69
627.02	15.67
627.436	15.67
627.852	15.65
628.268	15.62
628.683	15.61
629.099	15.58
629.514	15.55
629.93	15.55
630.345	15.5
630.761	15.46
631.176	15.43
631.591	15.36
632.007	15.29
632.422	15.22
632.837	15.16
633.252	15.09
633.667	15.01
634.082	14.92
634.497	14.8
634.911	14.69
635.326	14.58
635.741	14.44
636.155	14.33
636.57	14.2
636.984	14.07
637.399	13.91
637.813	13.73
638.228	13.57
638.642	13.41
639.056	13.25
639.47	13.1
639.884	12.91
640.298	12.74
640.712	12.57
641.126	12.39
641.54	12.21
641.954	12.05
642.368	11.88
642.781	11.72
643.195	11.55
643.609	11.39
644.022	11.23
644.436	11.07
644.849	10.93
645.262	10.78
645.676	10.65
646.089	10.52
646.502	10.39
646.915	10.28
647.328	10.17
647.741	10.06
648.154	9.96
648.567	9.88
648.98	9.81
649.393	9.74
649.805	9.65
650.218	9.58
650.631	9.53
651.043	9.47
651.456	9.41
651.868	9.34
652.28	9.28
652.693	9.2
653.105	9.12
653.517	9.04
653.929	8.96
654.341	8.88
654.753	8.77
655.165	8.67
655.577	8.55
655.989	8.43
656.401	8.32
656.813	8.2
657.224	8.08
657.636	7.97
658.047	7.83
658.459	7.69
658.87	7.55
659.282	7.44
659.693	7.3
660.104	7.17
660.515	7.04
660.926	6.91
661.338	6.78
661.749	6.64
662.159	6.5
662.57	6.38
662.981	6.25
663.392	6.13
663.803	6.01
664.213	5.9
664.624	5.8
665.035	5.69
665.445	5.6
665.855	5.52
666.266	5.45
666.676	5.36
667.086	5.3
667.497	5.24
667.907	5.18
668.317	5.12
668.727	5.08
669.137	5.04
669.547	5.01
669.956	4.97
670.366	4.94
670.776	4.92
671.186	4.9
671.595	4.89
672.005	4.89
672.414	4.88
672.824	4.89
673.233	4.9
673.642	4.89
674.052	4.89
674.461	4.9
674.87	4.91
675.279	4.92
675.688	4.95
676.097	4.98
676.506	5
676.915	5.03
677.323	5.07
677.732	5.11
678.141	5.18
678.549	5.25
678.958	5.33
679.366	5.4
679.775	5.49
680.183	5.59
680.592	5.7
681	5.82
681.408	5.98
681.816	6.13
682.224	6.31
682.632	6.51
683.04	6.73
683.448	6.98
683.856	7.27
684.264	7.59
684.671	7.93
685.079	8.29
685.487	8.68
685.894	9.1
686.302	9.56
686.709	10.04
687.116	10.56
687.524	11.11
687.931	11.69
688.338	12.28
688.745	12.88
689.152	13.54
689.559	14.2
689.966	14.9
690.373	15.61
690.78	16.31
691.187	17.05
691.593	17.78
692	18.52
692.407	19.25
692.813	20.02
693.22	20.77
693.626	21.5
694.032	22.23
694.439	22.97
694.845	23.69
695.251	24.43
695.657	25.15
696.063	25.84
696.469	26.5
696.875	27.16
697.281	27.79
697.687	28.47
698.093	29.12
698.498	29.74
698.904	30.33
699.31	30.9
699.715	31.48
700.12	32.03
700.526	32.58
700.931	33.12
701.337	33.66
701.742	34.16
702.147	34.66
702.552	35.13
702.957	35.59
703.362	36.07
703.767	36.53
704.172	36.96
704.577	37.35
704.981	37.8
705.386	38.21
705.791	38.61
706.195	38.98
706.6	39.31
707.004	39.7
707.408	40.04
707.813	40.37
708.217	40.74
708.621	41.08
709.025	41.44
709.43	41.75
709.834	42.08
710.237	42.37
710.641	42.72
711.045	43.04
711.449	43.29
711.853	43.62
712.256	43.89
712.66	44.15
713.064	44.42
713.467	44.66
713.87	44.92
714.274	45.18
714.677	45.43
715.08	45.66
715.484	45.88
715.887	46.16
716.29	46.37
716.693	46.6
717.096	46.8
717.499	46.99
717.901	47.19
718.304	47.36
718.707	47.53
719.109	47.71
719.512	47.91
719.915	48.09
720.317	48.25
720.719	48.42
721.122	48.58
721.524	48.75
721.926	48.94
722.328	49.1
722.731	49.25
723.133	49.4
723.535	49.56
723.937	49.68
724.338	49.77
724.74	49.89
725.142	50.03
725.544	50.13
725.945	50.24
726.347	50.34
726.748	50.39
727.15	50.46
727.551	50.57
727.952	50.65
728.354	50.75
728.755	50.85
729.156	50.94
729.557	51.01
729.958	51.1
730.359	51.17
730.76	51.21
731.161	51.3
731.562	51.38
731.962	51.43
732.363	51.47
732.763	51.53
733.164	51.58
733.564	51.63
733.965	51.67
734.365	51.68
734.766	51.7
735.166	51.75
735.566	51.79
735.966	51.83
736.366	51.87
736.766	51.92
737.166	51.94
737.566	51.98
737.966	52.01
738.365	52.07
738.765	52.14
739.165	52.17
739.564	52.21
739.964	52.26
740.363	52.26
740.763	52.27
741.162	52.27
741.561	52.31
741.96	52.34
742.36	52.36
742.759	52.32
743.158	52.3
743.557	52.34
743.955	52.37
744.354	52.38
744.753	52.44
745.152	52.47
745.55	52.52
745.949	52.53
746.348	52.55
746.746	52.55
747.144	52.63
747.543	52.67
747.941	52.7
748.339	52.72
748.737	52.77
749.136	52.78
749.534	52.84
749.932	52.84
750.33	52.82
750.727	52.85
751.125	52.86
751.523	52.84
751.921	52.86
752.318	52.87
752.716	52.84
753.113	52.84
753.511	52.83
753.908	52.78
754.305	52.76
754.703	52.76
755.1	52.72
755.497	52.75
755.894	52.77
756.291	52.74
756.688	52.72
757.085	52.72
757.482	52.69
757.878	52.67
758.275	52.7
758.672	52.71
759.068	52.7
759.465	52.72
759.861	52.7
760.258	52.66
760.654	52.66
761.05	52.67
761.447	52.66
761.843	52.63
762.239	52.61
762.635	52.58
763.031	52.55
763.427	52.55
763.822	52.5
764.218	52.48
764.614	52.5
765.01	52.49
765.405	52.46
765.801	52.43
766.196	52.42
766.592	52.43
766.987	52.43
767.382	52.43
767.778	52.47
768.173	52.51
768.568	52.49
768.963	52.46
769.358	52.46
769.753	52.47
770.148	52.51
770.542	52.49
770.937	52.49
771.332	52.49
771.726	52.49
772.121	52.44
772.515	52.41
772.91	52.44
773.304	52.45
773.699	52.45
774.093	52.44
774.487	52.41
774.881	52.43
775.275	52.47
775.669	52.49
776.063	52.48
776.457	52.44
776.851	52.41
777.245	52.41
777.638	52.38
778.032	52.39
778.425	52.42
778.819	52.44
779.212	52.45
779.606	52.42
779.999	52.36
780.392	52.37
780.786	52.38
781.179	52.41
781.572	52.38
781.965	52.39
782.358	52.34
