Data from N_2_div_oh_2n_065_Splice17_01.txt Node
Date: Sat Feb 29 14:03:34 EST 2020
User: sa697716
Spectrometer: FLMS03696
Trigger mode: 0
Integration Time (sec): 3.180400E-1
Scans to average: 20
Electric dark correction enabled: true
Nonlinearity correction enabled: true
Boxcar width: 5
XAxis mode: Wavelengths
Number of Pixels in Spectrum: 2048
>>>>>Begin Spectral Data<<<<<
187.83	106.02
188.298	106.04
188.766	104.66
189.233	96.15
189.701	95.36
190.169	79.68
190.636	61.37
191.104	50.39
191.571	11.64
192.039	123.81
192.506	274.52
192.974	8749.17
193.441	-669.13
193.908	128.97
194.375	169.71
194.842	125.71
195.31	-1.48
195.777	-4.09
196.244	15.69
196.711	19.61
197.177	17.33
197.644	16.84
198.111	16.72
198.578	17.87
199.045	18.65
199.511	18.29
199.978	18.83
200.445	19.23
200.911	19.25
201.378	19.58
201.844	20.23
202.31	20.93
202.777	21.05
203.243	21.55
203.709	21.33
204.176	20.92
204.642	21.36
205.108	21.54
205.574	21.88
206.04	21.93
206.506	21.58
206.972	21.38
207.438	21.19
207.903	21.55
208.369	21.4
208.835	21.62
209.301	22.16
209.766	21.89
210.232	21.81
210.697	21.65
211.163	21.66
211.628	21.37
212.094	20.94
212.559	20.75
213.024	20.56
213.49	20.28
213.955	20.09
214.42	19.56
214.885	19.15
215.35	18.67
215.815	18.31
216.28	17.7
216.745	17.3
217.21	16.86
217.675	16.34
218.14	15.71
218.604	15.22
219.069	14.84
219.534	14.56
219.998	14.3
220.463	14.16
220.927	13.86
221.392	13.62
221.856	13.47
222.32	13.29
222.785	13.16
223.249	13.04
223.713	12.94
224.177	12.78
224.642	12.64
225.106	12.51
225.57	12.31
226.034	12.21
226.497	12.07
226.961	11.89
227.425	11.75
227.889	11.58
228.353	11.44
228.816	11.3
229.28	11.16
229.744	11.03
230.207	10.92
230.671	10.81
231.134	10.66
231.597	10.55
232.061	10.44
232.524	10.34
232.987	10.26
233.45	10.16
233.914	10.03
234.377	9.95
234.84	9.85
235.303	9.76
235.766	9.67
236.229	9.58
236.691	9.5
237.154	9.41
237.617	9.32
238.08	9.21
238.542	9.11
239.005	9.02
239.468	8.91
239.93	8.83
240.393	8.75
240.855	8.66
241.317	8.57
241.78	8.49
242.242	8.42
242.704	8.36
243.166	8.31
243.629	8.27
244.091	8.23
244.553	8.18
245.015	8.13
245.477	8.06
245.939	8.01
246.4	7.97
246.862	7.92
247.324	7.87
247.786	7.81
248.247	7.76
248.709	7.71
249.17	7.65
249.632	7.61
250.093	7.55
250.555	7.5
251.016	7.47
251.477	7.43
251.939	7.38
252.4	7.35
252.861	7.32
253.322	7.27
253.783	7.24
254.244	7.2
254.705	7.16
255.166	7.14
255.627	7.12
256.088	7.06
256.549	7.04
257.009	7.01
257.47	6.98
257.931	6.94
258.391	6.91
258.852	6.88
259.312	6.84
259.773	6.82
260.233	6.77
260.694	6.75
261.154	6.73
261.614	6.69
262.074	6.67
262.534	6.63
262.994	6.61
263.455	6.59
263.915	6.57
264.374	6.54
264.834	6.52
265.294	6.51
265.754	6.48
266.214	6.46
266.673	6.44
267.133	6.42
267.593	6.4
268.052	6.38
268.512	6.36
268.971	6.35
269.431	6.33
269.89	6.32
270.349	6.3
270.809	6.29
271.268	6.28
271.727	6.27
272.186	6.25
272.645	6.24
273.104	6.23
273.563	6.22
274.022	6.21
274.481	6.2
274.94	6.18
275.399	6.16
275.857	6.15
276.316	6.14
276.775	6.11
277.233	6.1
277.692	6.08
278.15	6.06
278.609	6.03
279.067	6
279.525	5.98
279.984	5.96
280.442	5.95
280.9	5.93
281.358	5.92
281.816	5.9
282.274	5.88
282.732	5.87
283.19	5.86
283.648	5.85
284.106	5.83
284.564	5.82
285.021	5.82
285.479	5.79
285.937	5.77
286.394	5.76
286.852	5.75
287.309	5.74
287.767	5.73
288.224	5.71
288.682	5.7
289.139	5.69
289.596	5.67
290.053	5.65
290.511	5.62
290.968	5.6
291.425	5.59
291.882	5.57
292.339	5.56
292.796	5.53
293.252	5.52
293.709	5.5
294.166	5.48
294.623	5.47
295.079	5.46
295.536	5.46
295.992	5.45
296.449	5.44
296.905	5.43
297.362	5.41
297.818	5.41
298.274	5.4
298.731	5.38
299.187	5.37
299.643	5.36
300.099	5.35
300.555	5.34
301.011	5.33
301.467	5.31
301.923	5.29
302.379	5.29
302.835	5.28
303.291	5.27
303.746	5.26
304.202	5.24
304.658	5.23
305.113	5.22
305.569	5.21
306.024	5.2
306.479	5.19
306.935	5.18
307.39	5.17
307.845	5.16
308.301	5.15
308.756	5.15
309.211	5.15
309.666	5.15
310.121	5.14
310.576	5.13
311.031	5.13
311.486	5.13
311.94	5.12
312.395	5.12
312.85	5.12
313.305	5.11
313.759	5.11
314.214	5.1
314.668	5.09
315.123	5.09
315.577	5.08
316.032	5.07
316.486	5.06
316.94	5.05
317.394	5.04
317.849	5.02
318.303	5.02
318.757	5
319.211	4.99
319.665	4.98
320.119	4.97
320.572	4.97
321.026	4.96
321.48	4.95
321.934	4.96
322.387	4.96
322.841	4.94
323.295	4.93
323.748	4.93
324.202	4.93
324.655	4.92
325.108	4.9
325.562	4.88
326.015	4.87
326.468	4.86
326.921	4.84
327.374	4.83
327.827	4.82
328.28	4.81
328.733	4.79
329.186	4.79
329.639	4.78
330.092	4.78
330.545	4.78
330.997	4.77
331.45	4.77
331.903	4.76
332.355	4.76
332.808	4.75
333.26	4.75
333.713	4.75
334.165	4.75
334.617	4.76
335.069	4.76
335.522	4.77
335.974	4.77
336.426	4.78
336.878	4.78
337.33	4.78
337.782	4.79
338.234	4.78
338.686	4.78
339.137	4.78
339.589	4.77
340.041	4.75
340.493	4.73
340.944	4.72
341.396	4.71
341.847	4.69
342.299	4.67
342.75	4.65
343.201	4.63
343.653	4.62
344.104	4.61
344.555	4.6
345.006	4.58
345.457	4.57
345.908	4.56
346.359	4.56
346.81	4.55
347.261	4.54
347.712	4.55
348.163	4.55
348.613	4.53
349.064	4.51
349.515	4.51
349.965	4.51
350.416	4.5
350.866	4.5
351.317	4.49
351.767	4.49
352.217	4.49
352.668	4.5
353.118	4.5
353.568	4.5
354.018	4.51
354.468	4.5
354.918	4.5
355.368	4.51
355.818	4.5
356.268	4.5
356.718	4.49
357.168	4.49
357.617	4.48
358.067	4.48
358.517	4.48
358.966	4.49
359.416	4.49
359.865	4.49
360.315	4.49
360.764	4.5
361.213	4.49
361.663	4.5
362.112	4.51
362.561	4.51
363.01	4.51
363.459	4.51
363.908	4.5
364.357	4.5
364.806	4.5
365.255	4.5
365.703	4.5
366.152	4.51
366.601	4.51
367.05	4.51
367.498	4.51
367.947	4.51
368.395	4.53
368.844	4.54
369.292	4.54
369.74	4.53
370.189	4.53
370.637	4.54
371.085	4.55
371.533	4.56
371.981	4.57
372.429	4.57
372.877	4.58
373.325	4.58
373.773	4.59
374.221	4.61
374.669	4.63
375.116	4.65
375.564	4.67
376.012	4.68
376.459	4.7
376.907	4.73
377.354	4.75
377.801	4.76
378.249	4.8
378.696	4.84
379.143	4.86
379.591	4.9
380.038	4.94
380.485	4.98
380.932	5.01
381.379	5.04
381.826	5.08
382.273	5.11
382.72	5.14
383.166	5.17
383.613	5.2
384.06	5.25
384.506	5.28
384.953	5.31
385.4	5.34
385.846	5.37
386.292	5.41
386.739	5.44
387.185	5.49
387.631	5.55
388.078	5.59
388.524	5.62
388.97	5.66
389.416	5.69
389.862	5.74
390.308	5.78
390.754	5.82
391.2	5.87
391.645	5.92
392.091	5.96
392.537	5.99
392.983	6.03
393.428	6.07
393.874	6.13
394.319	6.17
394.765	6.2
395.21	6.22
395.655	6.25
396.101	6.28
396.546	6.31
396.991	6.33
397.436	6.35
397.881	6.37
398.326	6.42
398.771	6.44
399.216	6.48
399.661	6.51
400.106	6.55
400.551	6.56
400.995	6.56
401.44	6.57
401.885	6.59
402.329	6.61
402.774	6.6
403.218	6.59
403.663	6.58
404.107	6.6
404.551	6.6
404.995	6.6
405.44	6.6
405.884	6.61
406.328	6.61
406.772	6.63
407.216	6.62
407.66	6.63
408.104	6.63
408.547	6.65
408.991	6.63
409.435	6.63
409.879	6.64
410.322	6.67
410.766	6.67
411.209	6.67
411.653	6.66
412.096	6.67
412.54	6.68
412.983	6.7
413.426	6.7
413.869	6.71
414.312	6.73
414.756	6.74
415.199	6.74
415.642	6.77
416.085	6.77
416.527	6.78
416.97	6.8
417.413	6.8
417.856	6.79
418.298	6.78
418.741	6.78
419.184	6.76
419.626	6.75
420.069	6.74
420.511	6.74
420.953	6.75
421.396	6.75
421.838	6.75
422.28	6.77
422.722	6.78
423.164	6.78
423.606	6.78
424.048	6.77
424.49	6.78
424.932	6.77
425.374	6.75
425.816	6.71
426.258	6.67
426.699	6.63
427.141	6.6
427.582	6.59
428.024	6.58
428.465	6.6
428.907	6.6
429.348	6.59
429.789	6.59
430.231	6.58
430.672	6.61
431.113	6.63
431.554	6.66
431.995	6.67
432.436	6.67
432.877	6.67
433.318	6.65
433.759	6.65
434.2	6.66
434.64	6.68
435.081	6.68
435.522	6.7
435.962	6.72
436.403	6.72
436.843	6.73
437.284	6.75
437.724	6.78
438.164	6.82
438.604	6.85
439.045	6.87
439.485	6.9
439.925	6.92
440.365	6.92
440.805	6.93
441.245	6.94
441.685	6.97
442.125	6.98
442.564	7
443.004	7.03
443.444	7.04
443.883	7.08
444.323	7.1
444.762	7.14
445.202	7.2
445.641	7.24
446.081	7.3
446.52	7.33
446.959	7.39
447.398	7.45
447.837	7.48
448.276	7.52
448.716	7.54
449.154	7.57
449.593	7.6
450.032	7.62
450.471	7.65
450.91	7.66
451.349	7.68
451.787	7.66
452.226	7.66
452.664	7.66
453.103	7.67
453.541	7.68
453.98	7.67
454.418	7.66
454.856	7.63
455.295	7.63
455.733	7.62
456.171	7.59
456.609	7.62
457.047	7.59
457.485	7.59
457.923	7.59
458.361	7.59
458.798	7.59
459.236	7.6
459.674	7.61
460.111	7.63
460.549	7.64
460.987	7.66
461.424	7.65
461.862	7.67
462.299	7.69
462.736	7.69
463.173	7.69
463.611	7.7
464.048	7.72
464.485	7.72
464.922	7.71
465.359	7.72
465.796	7.72
466.233	7.73
466.67	7.75
467.106	7.75
467.543	7.76
467.98	7.78
468.416	7.8
468.853	7.8
469.29	7.83
469.726	7.84
470.162	7.84
470.599	7.85
471.035	7.86
471.471	7.86
471.907	7.88
472.344	7.89
472.78	7.88
473.216	7.88
473.652	7.89
474.088	7.91
474.523	7.93
474.959	7.94
475.395	7.96
475.831	7.98
476.266	7.98
476.702	7.97
477.138	7.97
477.573	7.97
478.008	7.99
478.444	8
478.879	8
479.314	7.99
479.75	8
480.185	7.98
480.62	7.98
481.055	7.99
481.49	7.98
481.925	7.97
482.36	7.95
482.795	7.93
483.229	7.92
483.664	7.91
484.099	7.91
484.534	7.91
484.968	7.93
485.403	7.92
485.837	7.92
486.271	7.95
486.706	7.97
487.14	8.01
487.574	8.04
488.009	8.07
488.443	8.09
488.877	8.12
489.311	8.14
489.745	8.17
490.179	8.22
490.613	8.26
491.046	8.31
491.48	8.37
491.914	8.43
492.348	8.48
492.781	8.56
493.215	8.62
493.648	8.71
494.082	8.79
494.515	8.88
494.948	8.97
495.382	9.05
495.815	9.15
496.248	9.23
496.681	9.32
497.114	9.43
497.547	9.54
497.98	9.67
498.413	9.78
498.846	9.91
499.279	10.04
499.711	10.17
500.144	10.32
500.577	10.47
501.009	10.63
501.442	10.8
501.874	10.98
502.306	11.14
502.739	11.32
503.171	11.53
503.603	11.72
504.036	11.94
504.468	12.16
504.9	12.4
505.332	12.63
505.764	12.88
506.196	13.11
506.627	13.36
507.059	13.63
507.491	13.89
507.923	14.16
508.354	14.45
508.786	14.73
509.217	15.01
509.649	15.29
510.08	15.6
510.512	15.9
510.943	16.2
511.374	16.54
511.805	16.85
512.237	17.18
512.668	17.48
513.099	17.79
513.53	18.13
513.961	18.48
514.391	18.82
514.822	19.16
515.253	19.51
515.684	19.89
516.114	20.23
516.545	20.59
516.975	20.97
517.406	21.36
517.836	21.72
518.267	22.1
518.697	22.46
519.127	22.82
519.558	23.18
519.988	23.51
520.418	23.85
520.848	24.2
521.278	24.54
521.708	24.74
522.138	25.03
522.567	25.35
522.997	25.65
523.427	25.93
523.857	26.2
524.286	26.5
524.716	26.78
525.145	27.05
525.575	27.29
526.004	27.53
526.433	27.87
526.863	28.14
527.292	28.39
527.721	28.6
528.15	28.8
528.579	28.99
529.008	29.18
529.437	29.34
529.866	29.51
530.295	29.69
530.724	29.88
531.152	30.04
531.581	30.17
532.01	30.28
532.438	30.43
532.867	30.58
533.295	30.72
533.723	30.87
534.152	31
534.58	31.11
535.008	31.2
535.436	31.29
535.865	31.38
536.293	31.47
536.721	31.55
537.149	31.63
537.576	31.7
538.004	31.76
538.432	31.81
538.86	31.88
539.287	31.96
539.715	32.03
540.143	32.07
540.57	32.13
540.998	32.2
541.425	32.27
541.852	32.33
542.28	32.38
542.707	32.46
543.134	32.5
543.561	32.52
543.988	32.55
544.415	32.58
544.842	32.64
545.269	32.69
545.696	32.72
546.123	32.76
546.549	32.79
546.976	32.82
547.403	32.84
547.829	32.88
548.256	32.93
548.682	32.95
549.108	32.99
549.535	33.03
549.961	33.04
550.387	33.05
550.813	33.06
551.24	33.07
551.666	33.09
552.092	33.11
552.518	33.1
552.943	33.11
553.369	33.1
553.795	33.09
554.221	33.05
554.646	33.04
555.072	33.01
555.498	32.96
555.923	32.94
556.349	32.88
556.774	32.83
557.199	32.8
557.625	32.69
558.05	32.62
558.475	32.56
558.9	32.49
559.325	32.39
559.75	32.29
560.175	32.21
560.6	32.09
561.025	32
561.449	31.88
561.874	31.77
562.299	31.68
562.723	31.59
563.148	31.47
563.572	31.37
563.997	31.24
564.421	31.14
564.846	31.01
565.27	30.91
565.694	30.78
566.118	30.64
566.542	30.5
566.966	30.35
567.39	30.18
567.814	30.04
568.238	29.88
568.662	29.75
569.086	29.58
569.509	29.45
569.933	29.27
570.357	29.1
570.78	28.96
571.204	28.81
571.627	28.66
572.05	28.53
572.474	28.39
572.897	28.25
573.32	28.1
573.743	27.94
574.166	27.8
574.589	27.65
575.012	27.53
575.435	27.39
575.858	27.26
576.281	27.14
576.704	27
577.126	26.87
577.549	26.77
577.972	26.65
578.394	26.56
578.817	26.47
579.239	26.38
579.661	26.28
580.084	26.21
580.506	26.12
580.928	26.02
581.35	25.94
581.772	25.87
582.194	25.75
582.616	25.68
583.038	25.6
583.46	25.49
583.882	25.4
584.303	25.32
584.725	25.22
585.147	25.11
585.568	25.03
585.99	24.95
586.411	24.85
586.833	24.79
587.254	24.73
587.675	24.67
588.096	24.62
588.518	24.56
588.939	24.5
589.36	24.45
589.781	24.41
590.202	24.38
590.623	24.33
591.043	24.3
591.464	24.25
591.885	24.2
592.305	24.14
592.726	24.09
593.147	24.06
593.567	24.01
593.987	23.99
594.408	23.95
594.828	23.9
595.248	23.87
595.669	23.85
596.089	23.8
596.509	23.74
596.929	23.71
597.349	23.65
597.769	23.6
598.189	23.57
598.608	23.49
599.028	23.45
599.448	23.41
599.867	23.34
600.287	23.27
600.706	23.22
601.126	23.18
601.545	23.13
601.965	23.08
602.384	23.02
602.803	22.94
603.222	22.89
603.641	22.81
604.061	22.72
604.48	22.64
604.898	22.56
605.317	22.48
605.736	22.39
606.155	22.28
606.574	22.19
606.992	22.09
607.411	22
607.829	21.87
608.248	21.77
608.666	21.69
609.085	21.58
609.503	21.47
609.921	21.37
610.339	21.27
610.758	21.18
611.176	21.07
611.594	20.97
612.012	20.88
612.43	20.82
612.847	20.71
613.265	20.62
613.683	20.53
614.101	20.43
614.518	20.33
614.936	20.24
615.353	20.14
615.771	20.07
616.188	20
616.606	19.91
617.023	19.82
617.44	19.75
617.857	19.68
618.274	19.62
618.691	19.57
619.108	19.51
619.525	19.44
619.942	19.38
620.359	19.34
620.776	19.27
621.192	19.25
621.609	19.21
622.026	19.16
622.442	19.11
622.859	19.07
623.275	19.05
623.691	19.04
624.108	19.02
624.524	18.99
624.94	18.96
625.356	18.93
625.772	18.9
626.188	18.91
626.604	18.89
627.02	18.89
627.436	18.88
627.852	18.85
628.268	18.81
628.683	18.79
629.099	18.79
629.514	18.77
629.93	18.74
630.345	18.71
630.761	18.65
631.176	18.61
631.591	18.56
632.007	18.5
632.422	18.46
632.837	18.42
633.252	18.35
633.667	18.24
634.082	18.17
634.497	18.08
634.911	18
635.326	17.9
635.741	17.78
636.155	17.68
636.57	17.53
636.984	17.38
637.399	17.21
637.813	17.04
638.228	16.89
638.642	16.74
639.056	16.56
639.47	16.37
639.884	16.2
640.298	16.02
640.712	15.82
641.126	15.64
641.54	15.45
641.954	15.28
642.368	15.1
642.781	14.93
643.195	14.74
643.609	14.59
644.022	14.42
644.436	14.25
644.849	14.07
645.262	13.92
645.676	13.77
646.089	13.62
646.502	13.49
646.915	13.35
647.328	13.22
647.741	13.1
648.154	12.98
648.567	12.89
648.98	12.8
649.393	12.73
649.805	12.66
650.218	12.6
650.631	12.54
651.043	12.47
651.456	12.4
651.868	12.33
652.28	12.26
652.693	12.19
653.105	12.09
653.517	12.01
653.929	11.92
654.341	11.83
654.753	11.73
655.165	11.63
655.577	11.52
655.989	11.4
656.401	11.29
656.813	11.17
657.224	11.05
657.636	10.94
658.047	10.81
658.459	10.67
658.87	10.53
659.282	10.4
659.693	10.25
660.104	10.1
660.515	9.96
660.926	9.83
661.338	9.67
661.749	9.52
662.159	9.38
662.57	9.23
662.981	9.11
663.392	8.98
663.803	8.86
664.213	8.74
664.624	8.64
665.035	8.53
665.445	8.42
665.855	8.34
666.266	8.25
666.676	8.15
667.086	8.08
667.497	8
667.907	7.92
668.317	7.85
668.727	7.8
669.137	7.75
669.547	7.71
669.956	7.67
670.366	7.65
670.776	7.62
671.186	7.61
671.595	7.59
672.005	7.58
672.414	7.57
672.824	7.57
673.233	7.57
673.642	7.55
674.052	7.55
674.461	7.55
674.87	7.56
675.279	7.57
675.688	7.59
676.097	7.61
676.506	7.65
676.915	7.69
677.323	7.74
677.732	7.79
678.141	7.85
678.549	7.94
678.958	8.02
679.366	8.09
679.775	8.2
680.183	8.33
680.592	8.45
681	8.59
681.408	8.76
681.816	8.92
682.224	9.13
682.632	9.36
683.04	9.59
683.448	9.87
683.856	10.18
684.264	10.52
684.671	10.87
685.079	11.26
685.487	11.7
685.894	12.15
686.302	12.63
686.709	13.14
687.116	13.68
687.524	14.25
687.931	14.85
688.338	15.48
688.745	16.1
689.152	16.78
689.559	17.44
689.966	18.12
690.373	18.84
690.78	19.56
691.187	20.27
691.593	20.99
692	21.7
692.407	22.42
692.813	23.14
693.22	23.85
693.626	24.54
694.032	25.26
694.439	25.96
694.845	26.63
695.251	27.3
695.657	27.96
696.063	28.59
696.469	29.23
696.875	29.84
697.281	30.44
697.687	31.05
698.093	31.63
698.498	32.18
698.904	32.75
699.31	33.28
699.715	33.81
700.12	34.32
700.526	34.84
700.931	35.32
701.337	35.81
701.742	36.25
702.147	36.68
702.552	37.14
702.957	37.55
703.362	37.95
703.767	38.36
704.172	38.74
704.577	39.1
704.981	39.45
705.386	39.79
705.791	40.11
706.195	40.45
706.6	40.77
707.004	41.08
707.408	41.38
707.813	41.68
708.217	41.95
708.621	42.23
709.025	42.51
709.43	42.79
709.834	43.09
710.237	43.34
710.641	43.61
711.045	43.86
711.449	44.11
711.853	44.37
712.256	44.63
712.66	44.87
713.064	45.08
713.467	45.29
713.87	45.51
714.274	45.69
714.677	45.93
715.08	46.1
715.484	46.28
715.887	46.47
716.29	46.63
716.693	46.76
717.096	46.94
717.499	47.11
717.901	47.24
718.304	47.39
718.707	47.55
719.109	47.7
719.512	47.87
719.915	48.04
720.317	48.19
720.719	48.34
721.122	48.49
721.524	48.61
721.926	48.75
722.328	48.91
722.731	49.05
723.133	49.16
723.535	49.29
723.937	49.41
724.338	49.51
724.74	49.6
725.142	49.7
725.544	49.81
725.945	49.91
726.347	50
726.748	50.07
727.15	50.14
727.551	50.24
727.952	50.31
728.354	50.41
728.755	50.5
729.156	50.58
729.557	50.64
729.958	50.7
730.359	50.8
730.76	50.86
731.161	50.93
731.562	50.99
731.962	51.03
732.363	51.07
732.763	51.12
733.164	51.15
733.564	51.19
733.965	51.26
734.365	51.34
734.766	51.32
735.166	51.33
735.566	51.36
735.966	51.38
736.366	51.4
736.766	51.42
737.166	51.41
737.566	51.44
737.966	51.49
738.365	51.5
738.765	51.51
739.165	51.56
739.564	51.59
739.964	51.6
740.363	51.64
740.763	51.67
741.162	51.69
741.561	51.72
741.96	51.72
742.36	51.74
742.759	51.72
743.158	51.71
743.557	51.72
743.955	51.79
744.354	51.82
744.753	51.84
745.152	51.83
745.55	51.85
745.949	51.86
746.348	51.88
746.746	51.89
747.144	51.92
747.543	51.93
747.941	51.94
748.339	51.93
748.737	51.93
749.136	51.96
749.534	51.98
749.932	51.99
750.33	51.99
750.727	52.01
751.125	52
751.523	52.01
751.921	52.05
752.318	52.06
752.716	52.05
753.113	52.05
753.511	52.02
753.908	52.03
754.305	51.97
754.703	51.97
755.1	51.92
755.497	51.87
755.894	51.81
756.291	51.71
756.688	51.65
757.085	51.58
757.482	51.5
757.878	51.46
758.275	51.41
758.672	51.42
759.068	51.36
759.465	51.3
759.861	51.29
760.258	51.26
760.654	51.28
761.05	51.31
761.447	51.31
761.843	51.33
762.239	51.32
762.635	51.33
763.031	51.32
763.427	51.36
763.822	51.42
764.218	51.46
764.614	51.49
765.01	51.5
765.405	51.5
765.801	51.53
766.196	51.58
766.592	51.63
766.987	51.65
767.382	51.66
767.778	51.66
768.173	51.68
768.568	51.65
768.963	51.62
769.358	51.61
769.753	51.63
770.148	51.64
770.542	51.61
770.937	51.6
771.332	51.59
771.726	51.56
772.121	51.54
772.515	51.53
772.91	51.55
773.304	51.57
773.699	51.56
774.093	51.52
774.487	51.5
774.881	51.51
775.275	51.49
775.669	51.51
776.063	51.46
776.457	51.45
776.851	51.42
777.245	51.39
777.638	51.41
778.032	51.44
778.425	51.48
778.819	51.5
779.212	51.51
779.606	51.52
779.999	51.5
780.392	51.55
