Data from N_2_div_pa_2n_085_Splice17_18.txt Node
Date: Sat Feb 29 14:14:31 EST 2020
User: sa697716
Spectrometer: FLMS03696
Trigger mode: 0
Integration Time (sec): 3.180400E-1
Scans to average: 20
Electric dark correction enabled: true
Nonlinearity correction enabled: true
Boxcar width: 5
XAxis mode: Wavelengths
Number of Pixels in Spectrum: 2048
>>>>>Begin Spectral Data<<<<<
187.83	66.49
188.298	53.89
188.766	50.43
189.233	45.34
189.701	48.62
190.169	59.21
190.636	46.9
191.104	20.11
191.571	-148.97
192.039	154.75
192.506	-206.34
192.974	2907.37
193.441	294.5
193.908	-4.4
194.375	-31.25
194.842	8.75
195.31	24.5
195.777	-12.6
196.244	12.51
196.711	31.9
197.177	33.22
197.644	33.05
198.111	32.87
198.578	33.28
199.045	34.3
199.511	33.89
199.978	33.85
200.445	34.12
200.911	34.34
201.378	34.61
201.844	35.04
202.31	35.42
202.777	35.68
203.243	36.05
203.709	36.32
204.176	35.62
204.642	35.69
205.108	35.73
205.574	36.2
206.04	36.41
206.506	36.35
206.972	36.01
207.438	35.89
207.903	36.04
208.369	35.23
208.835	34.69
209.301	34.79
209.766	34.83
210.232	34.57
210.697	33.86
211.163	33.06
211.628	32.47
212.094	31.69
212.559	31.06
213.024	30.36
213.49	29.89
213.955	29.62
214.42	28.9
214.885	27.88
215.35	26.9
215.815	25.68
216.28	24.7
216.745	23.49
217.21	22.22
217.675	21.01
218.14	19.74
218.604	18.64
219.069	17.67
219.534	16.82
219.998	16.22
220.463	15.67
220.927	15.24
221.392	14.76
221.856	14.36
222.32	14.03
222.785	13.69
223.249	13.44
223.713	13.27
224.177	13.04
224.642	12.86
225.106	12.64
225.57	12.43
226.034	12.26
226.497	12.08
226.961	11.92
227.425	11.73
227.889	11.59
228.353	11.41
228.816	11.23
229.28	11.05
229.744	10.93
230.207	10.79
230.671	10.67
231.134	10.52
231.597	10.4
232.061	10.28
232.524	10.2
232.987	10.09
233.45	9.99
233.914	9.92
234.377	9.84
234.84	9.74
235.303	9.66
235.766	9.58
236.229	9.51
236.691	9.44
237.154	9.35
237.617	9.25
238.08	9.17
238.542	9.08
239.005	8.99
239.468	8.92
239.93	8.84
240.393	8.77
240.855	8.69
241.317	8.61
241.78	8.57
242.242	8.51
242.704	8.45
243.166	8.39
243.629	8.35
244.091	8.31
244.553	8.25
245.015	8.2
245.477	8.14
245.939	8.1
246.4	8.04
246.862	7.98
247.324	7.93
247.786	7.89
248.247	7.85
248.709	7.81
249.17	7.75
249.632	7.71
250.093	7.64
250.555	7.61
251.016	7.57
251.477	7.52
251.939	7.47
252.4	7.44
252.861	7.4
253.322	7.35
253.783	7.33
254.244	7.29
254.705	7.26
255.166	7.24
255.627	7.21
256.088	7.16
256.549	7.13
257.009	7.11
257.47	7.08
257.931	7.04
258.391	6.99
258.852	6.94
259.312	6.91
259.773	6.87
260.233	6.84
260.694	6.8
261.154	6.77
261.614	6.73
262.074	6.69
262.534	6.64
262.994	6.62
263.455	6.59
263.915	6.55
264.374	6.51
264.834	6.49
265.294	6.45
265.754	6.42
266.214	6.39
266.673	6.37
267.133	6.34
267.593	6.32
268.052	6.28
268.512	6.26
268.971	6.24
269.431	6.22
269.89	6.19
270.349	6.17
270.809	6.16
271.268	6.14
271.727	6.12
272.186	6.1
272.645	6.08
273.104	6.07
273.563	6.06
274.022	6.05
274.481	6.02
274.94	6.01
275.399	5.99
275.857	5.97
276.316	5.94
276.775	5.92
277.233	5.9
277.692	5.88
278.15	5.85
278.609	5.83
279.067	5.8
279.525	5.78
279.984	5.76
280.442	5.75
280.9	5.74
281.358	5.72
281.816	5.7
282.274	5.68
282.732	5.68
283.19	5.67
283.648	5.67
284.106	5.65
284.564	5.65
285.021	5.63
285.479	5.63
285.937	5.61
286.394	5.59
286.852	5.59
287.309	5.58
287.767	5.56
288.224	5.54
288.682	5.53
289.139	5.53
289.596	5.51
290.053	5.5
290.511	5.48
290.968	5.47
291.425	5.46
291.882	5.44
292.339	5.43
292.796	5.41
293.252	5.4
293.709	5.38
294.166	5.36
294.623	5.35
295.079	5.34
295.536	5.32
295.992	5.31
296.449	5.3
296.905	5.29
297.362	5.27
297.818	5.27
298.274	5.27
298.731	5.26
299.187	5.25
299.643	5.24
300.099	5.24
300.555	5.22
301.011	5.23
301.467	5.21
301.923	5.2
302.379	5.2
302.835	5.2
303.291	5.18
303.746	5.17
304.202	5.16
304.658	5.15
305.113	5.13
305.569	5.13
306.024	5.12
306.479	5.13
306.935	5.12
307.39	5.12
307.845	5.12
308.301	5.12
308.756	5.12
309.211	5.12
309.666	5.12
310.121	5.12
310.576	5.12
311.031	5.11
311.486	5.11
311.94	5.11
312.395	5.11
312.85	5.11
313.305	5.11
313.759	5.12
314.214	5.12
314.668	5.13
315.123	5.13
315.577	5.13
316.032	5.13
316.486	5.13
316.94	5.12
317.394	5.1
317.849	5.1
318.303	5.08
318.757	5.07
319.211	5.05
319.665	5.04
320.119	5.03
320.572	5.03
321.026	5.01
321.48	5.01
321.934	5
322.387	5
322.841	4.99
323.295	4.99
323.748	4.98
324.202	4.99
324.655	4.98
325.108	4.97
325.562	4.95
326.015	4.94
326.468	4.93
326.921	4.92
327.374	4.91
327.827	4.91
328.28	4.89
328.733	4.89
329.186	4.88
329.639	4.87
330.092	4.86
330.545	4.86
330.997	4.87
331.45	4.87
331.903	4.87
332.355	4.87
332.808	4.86
333.26	4.88
333.713	4.88
334.165	4.88
334.617	4.9
335.069	4.89
335.522	4.9
335.974	4.9
336.426	4.9
336.878	4.9
337.33	4.9
337.782	4.9
338.234	4.9
338.686	4.89
339.137	4.89
339.589	4.88
340.041	4.88
340.493	4.86
340.944	4.86
341.396	4.86
341.847	4.85
342.299	4.84
342.75	4.82
343.201	4.81
343.653	4.79
344.104	4.78
344.555	4.76
345.006	4.75
345.457	4.74
345.908	4.74
346.359	4.74
346.81	4.74
347.261	4.73
347.712	4.73
348.163	4.72
348.613	4.72
349.064	4.71
349.515	4.71
349.965	4.69
350.416	4.69
350.866	4.69
351.317	4.68
351.767	4.67
352.217	4.66
352.668	4.65
353.118	4.66
353.568	4.66
354.018	4.67
354.468	4.67
354.918	4.68
355.368	4.68
355.818	4.66
356.268	4.67
356.718	4.67
357.168	4.66
357.617	4.67
358.067	4.67
358.517	4.66
358.966	4.66
359.416	4.68
359.865	4.69
360.315	4.69
360.764	4.71
361.213	4.71
361.663	4.71
362.112	4.72
362.561	4.72
363.01	4.72
363.459	4.72
363.908	4.72
364.357	4.72
364.806	4.71
365.255	4.71
365.703	4.72
366.152	4.72
366.601	4.72
367.05	4.72
367.498	4.73
367.947	4.72
368.395	4.73
368.844	4.73
369.292	4.73
369.74	4.75
370.189	4.75
370.637	4.75
371.085	4.76
371.533	4.77
371.981	4.78
372.429	4.77
372.877	4.78
373.325	4.78
373.773	4.79
374.221	4.8
374.669	4.79
375.116	4.78
375.564	4.78
376.012	4.77
376.459	4.78
376.907	4.79
377.354	4.79
377.801	4.81
378.249	4.83
378.696	4.83
379.143	4.83
379.591	4.85
380.038	4.86
380.485	4.87
380.932	4.88
381.379	4.88
381.826	4.89
382.273	4.9
382.72	4.9
383.166	4.91
383.613	4.93
384.06	4.94
384.506	4.95
384.953	4.96
385.4	4.98
385.846	4.99
386.292	5.01
386.739	5.01
387.185	5.03
387.631	5.04
388.078	5.07
388.524	5.06
388.97	5.08
389.416	5.07
389.862	5.09
390.308	5.1
390.754	5.11
391.2	5.13
391.645	5.17
392.091	5.18
392.537	5.2
392.983	5.22
393.428	5.26
393.874	5.28
394.319	5.32
394.765	5.34
395.21	5.36
395.655	5.38
396.101	5.41
396.546	5.43
396.991	5.45
397.436	5.46
397.881	5.49
398.326	5.52
398.771	5.57
399.216	5.61
399.661	5.68
400.106	5.73
400.551	5.77
400.995	5.79
401.44	5.82
401.885	5.86
402.329	5.91
402.774	5.94
403.218	5.97
403.663	5.99
404.107	6.03
404.551	6.05
404.995	6.08
405.44	6.12
405.884	6.16
406.328	6.2
406.772	6.25
407.216	6.29
407.66	6.34
408.104	6.38
408.547	6.43
408.991	6.45
409.435	6.48
409.879	6.51
410.322	6.55
410.766	6.58
411.209	6.62
411.653	6.64
412.096	6.67
412.54	6.72
412.983	6.75
413.426	6.79
413.869	6.85
414.312	6.91
414.756	6.97
415.199	7.02
415.642	7.08
416.085	7.13
416.527	7.2
416.97	7.27
417.413	7.29
417.856	7.32
418.298	7.33
418.741	7.35
419.184	7.38
419.626	7.4
420.069	7.41
420.511	7.43
420.953	7.44
421.396	7.45
421.838	7.46
422.28	7.51
422.722	7.56
423.164	7.61
423.606	7.64
424.048	7.66
424.49	7.71
424.932	7.74
425.374	7.75
425.816	7.78
426.258	7.78
426.699	7.76
427.141	7.75
427.582	7.73
428.024	7.75
428.465	7.76
428.907	7.78
429.348	7.77
429.789	7.78
430.231	7.77
430.672	7.77
431.113	7.8
431.554	7.85
431.995	7.86
432.436	7.88
432.877	7.86
433.318	7.85
433.759	7.84
434.2	7.85
434.64	7.86
435.081	7.87
435.522	7.89
435.962	7.89
436.403	7.91
436.843	7.93
437.284	7.96
437.724	7.99
438.164	8.02
438.604	8.05
439.045	8.07
439.485	8.08
439.925	8.1
440.365	8.11
440.805	8.11
441.245	8.09
441.685	8.09
442.125	8.09
442.564	8.11
443.004	8.11
443.444	8.11
443.883	8.11
444.323	8.12
444.762	8.16
445.202	8.2
445.641	8.21
446.081	8.25
446.52	8.26
446.959	8.26
447.398	8.29
447.837	8.32
448.276	8.32
448.716	8.33
449.154	8.34
449.593	8.34
450.032	8.34
450.471	8.35
450.91	8.33
451.349	8.34
451.787	8.35
452.226	8.32
452.664	8.29
453.103	8.28
453.541	8.28
453.98	8.29
454.418	8.26
454.856	8.24
455.295	8.23
455.733	8.21
456.171	8.2
456.609	8.18
457.047	8.18
457.485	8.16
457.923	8.16
458.361	8.14
458.798	8.13
459.236	8.13
459.674	8.13
460.111	8.14
460.549	8.15
460.987	8.15
461.424	8.14
461.862	8.13
462.299	8.14
462.736	8.14
463.173	8.12
463.611	8.12
464.048	8.12
464.485	8.11
464.922	8.08
465.359	8.08
465.796	8.06
466.233	8.07
466.67	8.09
467.106	8.07
467.543	8.08
467.98	8.1
468.416	8.11
468.853	8.13
469.29	8.14
469.726	8.17
470.162	8.15
470.599	8.16
471.035	8.16
471.471	8.14
471.907	8.17
472.344	8.18
472.78	8.17
473.216	8.16
473.652	8.14
474.088	8.15
474.523	8.13
474.959	8.14
475.395	8.14
475.831	8.13
476.266	8.14
476.702	8.14
477.138	8.13
477.573	8.13
478.008	8.13
478.444	8.12
478.879	8.11
479.314	8.1
479.75	8.1
480.185	8.09
480.62	8.08
481.055	8.06
481.49	8.03
481.925	8.01
482.36	7.99
482.795	7.97
483.229	7.96
483.664	7.95
484.099	7.95
484.534	7.93
484.968	7.92
485.403	7.9
485.837	7.89
486.271	7.89
486.706	7.88
487.14	7.88
487.574	7.87
488.009	7.87
488.443	7.86
488.877	7.84
489.311	7.85
489.745	7.85
490.179	7.87
490.613	7.87
491.046	7.88
491.48	7.89
491.914	7.88
492.348	7.89
492.781	7.89
493.215	7.89
493.648	7.91
494.082	7.91
494.515	7.92
494.948	7.91
495.382	7.92
495.815	7.93
496.248	7.93
496.681	7.95
497.114	7.96
497.547	7.98
497.98	7.99
498.413	8
498.846	8.02
499.279	8.04
499.711	8.06
500.144	8.08
500.577	8.09
501.009	8.12
501.442	8.13
501.874	8.16
502.306	8.18
502.739	8.21
503.171	8.24
503.603	8.27
504.036	8.29
504.468	8.33
504.9	8.38
505.332	8.41
505.764	8.45
506.196	8.52
506.627	8.56
507.059	8.61
507.491	8.68
507.923	8.73
508.354	8.77
508.786	8.84
509.217	8.88
509.649	8.93
510.08	9
510.512	9.05
510.943	9.11
511.374	9.18
511.805	9.25
512.237	9.32
512.668	9.39
513.099	9.47
513.53	9.57
513.961	9.66
514.391	9.75
514.822	9.83
515.253	9.93
515.684	10.02
516.114	10.13
516.545	10.23
516.975	10.33
517.406	10.44
517.836	10.54
518.267	10.64
518.697	10.77
519.127	10.89
519.558	11.01
519.988	11.1
520.418	11.23
520.848	11.35
521.278	11.47
521.708	11.54
522.138	11.66
522.567	11.77
522.997	11.87
523.427	11.98
523.857	12.08
524.286	12.2
524.716	12.32
525.145	12.43
525.575	12.53
526.004	12.64
526.433	12.79
526.863	12.89
527.292	12.99
527.721	13.09
528.15	13.17
528.579	13.26
529.008	13.36
529.437	13.43
529.866	13.5
530.295	13.59
530.724	13.67
531.152	13.75
531.581	13.81
532.01	13.89
532.438	13.97
532.867	14.05
533.295	14.09
533.723	14.15
534.152	14.19
534.58	14.24
535.008	14.27
535.436	14.31
535.865	14.35
536.293	14.4
536.721	14.43
537.149	14.46
537.576	14.49
538.004	14.52
538.432	14.55
538.86	14.59
539.287	14.61
539.715	14.64
540.143	14.66
540.57	14.68
540.998	14.7
541.425	14.72
541.852	14.74
542.28	14.74
542.707	14.77
543.134	14.79
543.561	14.78
543.988	14.8
544.415	14.82
544.842	14.84
545.269	14.85
545.696	14.85
546.123	14.86
546.549	14.87
546.976	14.9
547.403	14.91
547.829	14.92
548.256	14.96
548.682	14.96
549.108	14.98
549.535	14.98
549.961	14.99
550.387	14.98
550.813	14.98
551.24	14.98
551.666	14.98
552.092	14.97
552.518	14.96
552.943	14.94
553.369	14.92
553.795	14.92
554.221	14.9
554.646	14.88
555.072	14.86
555.498	14.84
555.923	14.82
556.349	14.77
556.774	14.73
557.199	14.69
557.625	14.65
558.05	14.61
558.475	14.56
558.9	14.5
559.325	14.45
559.75	14.39
560.175	14.32
560.6	14.25
561.025	14.19
561.449	14.13
561.874	14.08
562.299	14.01
562.723	13.94
563.148	13.87
563.572	13.79
563.997	13.71
564.421	13.65
564.846	13.57
565.27	13.48
565.694	13.4
566.118	13.31
566.542	13.21
566.966	13.12
567.39	13.03
567.814	12.94
568.238	12.86
568.662	12.78
569.086	12.69
569.509	12.62
569.933	12.53
570.357	12.43
570.78	12.34
571.204	12.26
571.627	12.18
572.05	12.1
572.474	12.01
572.897	11.94
573.32	11.86
573.743	11.79
574.166	11.71
574.589	11.64
575.012	11.58
575.435	11.52
575.858	11.48
576.281	11.42
576.704	11.37
577.126	11.32
577.549	11.3
577.972	11.25
578.394	11.19
578.817	11.15
579.239	11.12
579.661	11.1
580.084	11.07
580.506	11.04
580.928	11
581.35	10.97
581.772	10.95
582.194	10.91
582.616	10.87
583.038	10.85
583.46	10.83
583.882	10.8
584.303	10.78
584.725	10.75
585.147	10.68
585.568	10.65
585.99	10.63
586.411	10.6
586.833	10.57
587.254	10.55
587.675	10.54
588.096	10.51
588.518	10.49
588.939	10.46
589.36	10.44
589.781	10.46
590.202	10.45
590.623	10.43
591.043	10.4
591.464	10.38
591.885	10.36
592.305	10.34
592.726	10.32
593.147	10.31
593.567	10.28
593.987	10.28
594.408	10.25
594.828	10.24
595.248	10.24
595.669	10.22
596.089	10.21
596.509	10.18
596.929	10.15
597.349	10.13
597.769	10.12
598.189	10.11
598.608	10.09
599.028	10.06
599.448	10.05
599.867	10.01
600.287	10
600.706	9.99
601.126	9.97
601.545	9.95
601.965	9.93
602.384	9.91
602.803	9.87
603.222	9.85
603.641	9.82
604.061	9.8
604.48	9.78
604.898	9.75
605.317	9.73
605.736	9.71
606.155	9.68
606.574	9.67
606.992	9.62
607.411	9.6
607.829	9.53
608.248	9.51
608.666	9.48
609.085	9.45
609.503	9.42
609.921	9.37
610.339	9.33
610.758	9.3
611.176	9.26
611.594	9.23
612.012	9.19
612.43	9.2
612.847	9.18
613.265	9.16
613.683	9.12
614.101	9.1
614.518	9.1
614.936	9.07
615.353	9.05
615.771	9.03
616.188	9.02
616.606	9.01
617.023	8.99
617.44	8.96
617.857	8.94
618.274	8.93
618.691	8.91
619.108	8.88
619.525	8.87
619.942	8.86
620.359	8.85
620.776	8.84
621.192	8.83
621.609	8.82
622.026	8.81
622.442	8.8
622.859	8.8
623.275	8.8
623.691	8.8
624.108	8.8
624.524	8.78
624.94	8.76
625.356	8.76
625.772	8.76
626.188	8.77
626.604	8.74
627.02	8.74
627.436	8.74
627.852	8.72
628.268	8.71
628.683	8.7
629.099	8.71
629.514	8.71
629.93	8.69
630.345	8.68
630.761	8.65
631.176	8.66
631.591	8.65
632.007	8.62
632.422	8.63
632.837	8.62
633.252	8.61
633.667	8.59
634.082	8.58
634.497	8.56
634.911	8.54
635.326	8.53
635.741	8.51
636.155	8.49
636.57	8.47
636.984	8.43
637.399	8.37
637.813	8.34
638.228	8.31
638.642	8.29
639.056	8.28
639.47	8.25
639.884	8.24
640.298	8.21
640.712	8.18
641.126	8.17
641.54	8.15
641.954	8.14
642.368	8.12
642.781	8.1
643.195	8.07
643.609	8.03
644.022	8.02
644.436	8
644.849	7.98
645.262	7.98
645.676	7.96
646.089	7.94
646.502	7.91
646.915	7.9
647.328	7.88
647.741	7.86
648.154	7.87
648.567	7.86
648.98	7.85
649.393	7.83
649.805	7.79
650.218	7.78
650.631	7.78
651.043	7.79
651.456	7.78
651.868	7.76
652.28	7.76
652.693	7.73
653.105	7.71
653.517	7.69
653.929	7.69
654.341	7.69
654.753	7.67
655.165	7.65
655.577	7.62
655.989	7.62
656.401	7.6
656.813	7.58
657.224	7.58
657.636	7.57
658.047	7.53
658.459	7.5
658.87	7.48
659.282	7.48
659.693	7.47
660.104	7.44
660.515	7.42
660.926	7.41
661.338	7.4
661.749	7.39
662.159	7.36
662.57	7.36
662.981	7.37
663.392	7.37
663.803	7.35
664.213	7.34
664.624	7.34
665.035	7.33
665.445	7.32
665.855	7.32
666.266	7.31
666.676	7.32
667.086	7.3
667.497	7.28
667.907	7.27
668.317	7.26
668.727	7.26
669.137	7.26
669.547	7.28
669.956	7.29
670.366	7.31
670.776	7.3
671.186	7.3
671.595	7.33
672.005	7.35
672.414	7.36
672.824	7.38
673.233	7.4
673.642	7.41
674.052	7.41
674.461	7.42
674.87	7.42
675.279	7.43
675.688	7.46
676.097	7.47
676.506	7.49
676.915	7.51
677.323	7.55
677.732	7.56
678.141	7.6
678.549	7.64
678.958	7.68
679.366	7.72
679.775	7.76
680.183	7.78
680.592	7.82
681	7.86
681.408	7.89
681.816	7.92
682.224	7.96
682.632	7.99
683.04	8.01
683.448	8.05
683.856	8.08
684.264	8.13
684.671	8.18
685.079	8.22
685.487	8.27
685.894	8.32
686.302	8.38
686.709	8.43
687.116	8.5
687.524	8.58
687.931	8.65
688.338	8.74
688.745	8.82
689.152	8.93
689.559	9.04
689.966	9.15
690.373	9.3
690.78	9.45
691.187	9.62
691.593	9.77
692	9.97
692.407	10.17
692.813	10.37
693.22	10.61
693.626	10.84
694.032	11.1
694.439	11.37
694.845	11.64
695.251	11.92
695.657	12.22
696.063	12.55
696.469	12.88
696.875	13.21
697.281	13.55
697.687	13.93
698.093	14.29
698.498	14.68
698.904	15.07
699.31	15.46
699.715	15.87
700.12	16.24
700.526	16.65
700.931	17.04
701.337	17.46
701.742	17.88
702.147	18.29
702.552	18.72
702.957	19.15
703.362	19.6
703.767	20.01
704.172	20.46
704.577	20.91
704.981	21.36
705.386	21.8
705.791	22.28
706.195	22.7
706.6	23.13
707.004	23.54
707.408	23.99
707.813	24.41
708.217	24.87
708.621	25.32
709.025	25.78
709.43	26.21
709.834	26.67
710.237	27.11
710.641	27.58
711.045	28.02
711.449	28.49
711.853	28.92
712.256	29.37
712.66	29.81
713.064	30.23
713.467	30.65
713.87	31.06
714.274	31.48
714.677	31.9
715.08	32.32
715.484	32.76
715.887	33.17
716.29	33.57
716.693	34.01
717.096	34.42
717.499	34.84
717.901	35.24
718.304	35.67
718.707	36.07
719.109	36.45
719.512	36.85
719.915	37.23
720.317	37.63
720.719	38.03
721.122	38.38
721.524	38.75
721.926	39.11
722.328	39.5
722.731	39.85
723.133	40.19
723.535	40.54
723.937	40.86
724.338	41.2
724.74	41.53
725.142	41.76
725.544	42.05
725.945	42.31
726.347	42.6
726.748	42.85
727.15	43.12
727.551	43.39
727.952	43.68
728.354	43.97
728.755	44.22
729.156	44.45
729.557	44.77
729.958	45.04
730.359	45.3
730.76	45.49
731.161	45.72
731.562	45.94
731.962	46.13
732.363	46.28
732.763	46.45
733.164	46.62
733.564	46.79
733.965	46.94
734.365	47.08
734.766	47.25
735.166	47.41
735.566	47.54
735.966	47.65
736.366	47.77
736.766	47.91
737.166	48.03
737.566	48.15
737.966	48.28
738.365	48.41
738.765	48.51
739.165	48.61
739.564	48.73
739.964	48.82
740.363	48.93
740.763	49.04
741.162	49.15
741.561	49.22
741.96	49.36
742.36	49.43
742.759	49.48
743.158	49.57
743.557	49.63
743.955	49.72
744.354	49.83
744.753	49.96
745.152	50.03
745.55	50.1
745.949	50.16
746.348	50.22
746.746	50.28
747.144	50.38
747.543	50.46
747.941	50.55
748.339	50.64
748.737	50.72
749.136	50.75
749.534	50.8
749.932	50.85
750.33	50.92
750.727	50.95
751.125	50.99
751.523	50.99
751.921	51.02
752.318	51.04
752.716	51.03
753.113	51.03
753.511	51.03
753.908	51.02
754.305	51
754.703	50.99
755.1	50.96
755.497	50.96
755.894	50.94
756.291	50.9
756.688	50.88
757.085	50.81
757.482	50.77
757.878	50.75
758.275	50.73
758.672	50.75
759.068	50.73
759.465	50.76
759.861	50.76
760.258	50.74
760.654	50.74
761.05	50.74
761.447	50.77
761.843	50.78
762.239	50.78
762.635	50.8
763.031	50.8
763.427	50.81
763.822	50.79
764.218	50.8
764.614	50.85
765.01	50.89
765.405	50.91
765.801	50.92
766.196	50.94
766.592	50.98
766.987	51
767.382	51.01
767.778	51.02
768.173	51.02
768.568	51.01
768.963	51.02
769.358	51.01
769.753	51.02
770.148	51.01
770.542	51.01
770.937	51
771.332	51
771.726	50.99
772.121	50.99
772.515	51.01
772.91	51.02
773.304	51.01
773.699	51.03
774.093	51
774.487	51.01
774.881	51
775.275	51
775.669	51.04
776.063	51.04
776.457	51.04
776.851	51.03
777.245	51.04
777.638	51.03
778.032	51.03
778.425	51.06
778.819	51.08
779.212	51.08
779.606	51.08
779.999	51.05
780.392	51.07
780.786	51.09
781.179	51.1
781.572	51.07
781.965	51.05
782.358	51.06
782.751	51.08
783.143	51.07
783.536	51.12
783.929	51.13
784.322	51.14
784.714	51.15
785.107	51.15
