Data from N_2_dec_oh_4n_045_Splice17_13.txt Node
Date: Sat Feb 29 13:54:52 EST 2020
User: sa697716
Spectrometer: FLMS03696
Trigger mode: 0
Integration Time (sec): 3.180400E-1
Scans to average: 20
Electric dark correction enabled: true
Nonlinearity correction enabled: true
Boxcar width: 5
XAxis mode: Wavelengths
Number of Pixels in Spectrum: 2048
>>>>>Begin Spectral Data<<<<<
187.83	102.73
188.298	98.04
188.766	90.9
189.233	84.72
189.701	95.05
190.169	99.72
190.636	109.41
191.104	124.21
191.571	362.58
192.039	249.23
192.506	22.72
192.974	3282.55
193.441	166.81
193.908	8.59
194.375	-33.15
194.842	101.95
195.31	75.85
195.777	48.67
196.244	28.57
196.711	26.23
197.177	25.25
197.644	25.64
198.111	25.97
198.578	26.35
199.045	26.74
199.511	27.45
199.978	27.82
200.445	28.1
200.911	28.47
201.378	28.81
201.844	29.24
202.31	29.75
202.777	30.19
203.243	30.69
203.709	31.34
204.176	31.54
204.642	31.11
205.108	30.7
205.574	30.6
206.04	30.63
206.506	30.26
206.972	30.21
207.438	29.99
207.903	29.93
208.369	29.1
208.835	28.43
209.301	28.21
209.766	27.78
210.232	27.89
210.697	27.62
211.163	27.33
211.628	26.79
212.094	26.21
212.559	25.84
213.024	24.99
213.49	24.74
213.955	24.75
214.42	24.26
214.885	23.86
215.35	23.12
215.815	22.39
216.28	21.4
216.745	20.45
217.21	19.6
217.675	18.5
218.14	17.63
218.604	16.67
219.069	15.72
219.534	15.01
219.998	14.4
220.463	13.9
220.927	13.48
221.392	13.07
221.856	12.77
222.32	12.46
222.785	12.2
223.249	11.93
223.713	11.73
224.177	11.53
224.642	11.36
225.106	11.19
225.57	11.01
226.034	10.84
226.497	10.67
226.961	10.47
227.425	10.3
227.889	10.14
228.353	9.99
228.816	9.86
229.28	9.68
229.744	9.55
230.207	9.42
230.671	9.29
231.134	9.15
231.597	9.04
232.061	8.95
232.524	8.85
232.987	8.76
233.45	8.64
233.914	8.53
234.377	8.47
234.84	8.36
235.303	8.27
235.766	8.18
236.229	8.1
236.691	8.03
237.154	7.95
237.617	7.87
238.08	7.79
238.542	7.72
239.005	7.66
239.468	7.57
239.93	7.51
240.393	7.45
240.855	7.37
241.317	7.3
241.78	7.23
242.242	7.13
242.704	7.06
243.166	7
243.629	6.94
244.091	6.86
244.553	6.8
245.015	6.74
245.477	6.66
245.939	6.6
246.4	6.55
246.862	6.5
247.324	6.48
247.786	6.44
248.247	6.4
248.709	6.34
249.17	6.3
249.632	6.26
250.093	6.21
250.555	6.18
251.016	6.15
251.477	6.1
251.939	6.06
252.4	6.02
252.861	5.98
253.322	5.92
253.783	5.9
254.244	5.87
254.705	5.84
255.166	5.82
255.627	5.79
256.088	5.75
256.549	5.73
257.009	5.7
257.47	5.68
257.931	5.64
258.391	5.61
258.852	5.57
259.312	5.54
259.773	5.5
260.233	5.46
260.694	5.43
261.154	5.4
261.614	5.36
262.074	5.33
262.534	5.29
262.994	5.26
263.455	5.24
263.915	5.21
264.374	5.17
264.834	5.14
265.294	5.11
265.754	5.08
266.214	5.06
266.673	5.04
267.133	5.01
267.593	5
268.052	4.97
268.512	4.95
268.971	4.93
269.431	4.92
269.89	4.9
270.349	4.89
270.809	4.87
271.268	4.86
271.727	4.84
272.186	4.82
272.645	4.8
273.104	4.79
273.563	4.78
274.022	4.77
274.481	4.75
274.94	4.74
275.399	4.72
275.857	4.72
276.316	4.7
276.775	4.67
277.233	4.66
277.692	4.65
278.15	4.64
278.609	4.61
279.067	4.6
279.525	4.57
279.984	4.56
280.442	4.55
280.9	4.53
281.358	4.52
281.816	4.52
282.274	4.5
282.732	4.48
283.19	4.47
283.648	4.47
284.106	4.45
284.564	4.45
285.021	4.43
285.479	4.42
285.937	4.4
286.394	4.38
286.852	4.37
287.309	4.36
287.767	4.35
288.224	4.34
288.682	4.32
289.139	4.31
289.596	4.28
290.053	4.27
290.511	4.24
290.968	4.23
291.425	4.21
291.882	4.19
292.339	4.18
292.796	4.15
293.252	4.14
293.709	4.12
294.166	4.12
294.623	4.11
295.079	4.1
295.536	4.09
295.992	4.07
296.449	4.07
296.905	4.05
297.362	4.04
297.818	4.04
298.274	4.02
298.731	4.01
299.187	3.99
299.643	3.97
300.099	3.96
300.555	3.95
301.011	3.94
301.467	3.93
301.923	3.92
302.379	3.91
302.835	3.9
303.291	3.9
303.746	3.89
304.202	3.88
304.658	3.87
305.113	3.86
305.569	3.86
306.024	3.86
306.479	3.86
306.935	3.85
307.39	3.84
307.845	3.85
308.301	3.85
308.756	3.84
309.211	3.85
309.666	3.85
310.121	3.84
310.576	3.84
311.031	3.84
311.486	3.83
311.94	3.83
312.395	3.83
312.85	3.82
313.305	3.82
313.759	3.82
314.214	3.8
314.668	3.81
315.123	3.81
315.577	3.8
316.032	3.79
316.486	3.78
316.94	3.77
317.394	3.75
317.849	3.75
318.303	3.74
318.757	3.72
319.211	3.71
319.665	3.69
320.119	3.68
320.572	3.68
321.026	3.67
321.48	3.66
321.934	3.66
322.387	3.66
322.841	3.65
323.295	3.64
323.748	3.63
324.202	3.63
324.655	3.62
325.108	3.62
325.562	3.61
326.015	3.6
326.468	3.59
326.921	3.57
327.374	3.56
327.827	3.56
328.28	3.56
328.733	3.54
329.186	3.54
329.639	3.54
330.092	3.53
330.545	3.53
330.997	3.53
331.45	3.53
331.903	3.53
332.355	3.53
332.808	3.52
333.26	3.52
333.713	3.52
334.165	3.53
334.617	3.53
335.069	3.53
335.522	3.53
335.974	3.53
336.426	3.53
336.878	3.52
337.33	3.52
337.782	3.52
338.234	3.51
338.686	3.5
339.137	3.49
339.589	3.47
340.041	3.47
340.493	3.46
340.944	3.46
341.396	3.45
341.847	3.44
342.299	3.42
342.75	3.41
343.201	3.4
343.653	3.4
344.104	3.38
344.555	3.37
345.006	3.36
345.457	3.34
345.908	3.34
346.359	3.33
346.81	3.33
347.261	3.33
347.712	3.33
348.163	3.32
348.613	3.31
349.064	3.3
349.515	3.29
349.965	3.29
350.416	3.29
350.866	3.28
351.317	3.27
351.767	3.27
352.217	3.26
352.668	3.26
353.118	3.26
353.568	3.26
354.018	3.27
354.468	3.27
354.918	3.28
355.368	3.28
355.818	3.28
356.268	3.29
356.718	3.29
357.168	3.3
357.617	3.3
358.067	3.29
358.517	3.29
358.966	3.29
359.416	3.29
359.865	3.29
360.315	3.29
360.764	3.3
361.213	3.29
361.663	3.28
362.112	3.29
362.561	3.29
363.01	3.3
363.459	3.3
363.908	3.3
364.357	3.3
364.806	3.3
365.255	3.31
365.703	3.31
366.152	3.31
366.601	3.32
367.05	3.31
367.498	3.32
367.947	3.32
368.395	3.33
368.844	3.33
369.292	3.34
369.74	3.34
370.189	3.34
370.637	3.34
371.085	3.35
371.533	3.34
371.981	3.35
372.429	3.34
372.877	3.34
373.325	3.33
373.773	3.34
374.221	3.34
374.669	3.33
375.116	3.34
375.564	3.33
376.012	3.34
376.459	3.34
376.907	3.35
377.354	3.36
377.801	3.37
378.249	3.38
378.696	3.38
379.143	3.4
379.591	3.41
380.038	3.42
380.485	3.44
380.932	3.45
381.379	3.45
381.826	3.46
382.273	3.47
382.72	3.47
383.166	3.48
383.613	3.48
384.06	3.49
384.506	3.49
384.953	3.5
385.4	3.51
385.846	3.52
386.292	3.53
386.739	3.53
387.185	3.55
387.631	3.57
388.078	3.58
388.524	3.58
388.97	3.59
389.416	3.6
389.862	3.61
390.308	3.62
390.754	3.64
391.2	3.66
391.645	3.68
392.091	3.68
392.537	3.7
392.983	3.73
393.428	3.75
393.874	3.77
394.319	3.79
394.765	3.8
395.21	3.81
395.655	3.81
396.101	3.83
396.546	3.83
396.991	3.85
397.436	3.84
397.881	3.85
398.326	3.88
398.771	3.89
399.216	3.9
399.661	3.92
400.106	3.94
400.551	3.95
400.995	3.93
401.44	3.93
401.885	3.94
402.329	3.94
402.774	3.95
403.218	3.94
403.663	3.94
404.107	3.94
404.551	3.94
404.995	3.94
405.44	3.94
405.884	3.96
406.328	3.97
406.772	3.98
407.216	3.99
407.66	4
408.104	4.01
408.547	4.02
408.991	4.02
409.435	4.02
409.879	4.02
410.322	4.04
410.766	4.06
411.209	4.08
411.653	4.08
412.096	4.08
412.54	4.09
412.983	4.09
413.426	4.11
413.869	4.13
414.312	4.16
414.756	4.18
415.199	4.18
415.642	4.19
416.085	4.19
416.527	4.22
416.97	4.23
417.413	4.22
417.856	4.22
418.298	4.22
418.741	4.2
419.184	4.2
419.626	4.2
420.069	4.2
420.511	4.2
420.953	4.19
421.396	4.19
421.838	4.21
422.28	4.23
422.722	4.27
423.164	4.27
423.606	4.27
424.048	4.26
424.49	4.27
424.932	4.26
425.374	4.27
425.816	4.25
426.258	4.23
426.699	4.2
427.141	4.19
427.582	4.19
428.024	4.2
428.465	4.21
428.907	4.24
429.348	4.23
429.789	4.25
430.231	4.25
430.672	4.27
431.113	4.3
431.554	4.32
431.995	4.33
432.436	4.33
432.877	4.33
433.318	4.32
433.759	4.32
434.2	4.35
434.64	4.36
435.081	4.35
435.522	4.37
435.962	4.39
436.403	4.42
436.843	4.43
437.284	4.45
437.724	4.48
438.164	4.49
438.604	4.51
439.045	4.5
439.485	4.51
439.925	4.52
440.365	4.51
440.805	4.49
441.245	4.47
441.685	4.47
442.125	4.46
442.564	4.46
443.004	4.46
443.444	4.46
443.883	4.46
444.323	4.48
444.762	4.48
445.202	4.51
445.641	4.53
446.081	4.57
446.52	4.58
446.959	4.56
447.398	4.58
447.837	4.6
448.276	4.61
448.716	4.64
449.154	4.64
449.593	4.67
450.032	4.67
450.471	4.67
450.91	4.65
451.349	4.66
451.787	4.67
452.226	4.65
452.664	4.64
453.103	4.63
453.541	4.61
453.98	4.61
454.418	4.57
454.856	4.55
455.295	4.54
455.733	4.52
456.171	4.51
456.609	4.52
457.047	4.53
457.485	4.54
457.923	4.54
458.361	4.53
458.798	4.55
459.236	4.55
459.674	4.57
460.111	4.56
460.549	4.56
460.987	4.57
461.424	4.56
461.862	4.54
462.299	4.53
462.736	4.53
463.173	4.53
463.611	4.53
464.048	4.55
464.485	4.53
464.922	4.53
465.359	4.54
465.796	4.55
466.233	4.57
466.67	4.59
467.106	4.59
467.543	4.59
467.98	4.59
468.416	4.59
468.853	4.57
469.29	4.58
469.726	4.58
470.162	4.57
470.599	4.56
471.035	4.56
471.471	4.55
471.907	4.55
472.344	4.54
472.78	4.54
473.216	4.54
473.652	4.54
474.088	4.54
474.523	4.54
474.959	4.52
475.395	4.52
475.831	4.51
476.266	4.5
476.702	4.49
477.138	4.48
477.573	4.47
478.008	4.44
478.444	4.44
478.879	4.44
479.314	4.42
479.75	4.41
480.185	4.4
480.62	4.38
481.055	4.37
481.49	4.35
481.925	4.35
482.36	4.34
482.795	4.33
483.229	4.32
483.664	4.31
484.099	4.31
484.534	4.3
484.968	4.29
485.403	4.29
485.837	4.3
486.271	4.31
486.706	4.3
487.14	4.31
487.574	4.32
488.009	4.33
488.443	4.33
488.877	4.33
489.311	4.34
489.745	4.35
490.179	4.36
490.613	4.36
491.046	4.37
491.48	4.39
491.914	4.4
492.348	4.42
492.781	4.43
493.215	4.46
493.648	4.48
494.082	4.51
494.515	4.53
494.948	4.56
495.382	4.58
495.815	4.61
496.248	4.64
496.681	4.67
497.114	4.69
497.547	4.72
497.98	4.75
498.413	4.8
498.846	4.83
499.279	4.87
499.711	4.92
500.144	4.97
500.577	5.02
501.009	5.08
501.442	5.14
501.874	5.22
502.306	5.29
502.739	5.36
503.171	5.43
503.603	5.52
504.036	5.62
504.468	5.72
504.9	5.82
505.332	5.93
505.764	6.05
506.196	6.16
506.627	6.28
507.059	6.42
507.491	6.55
507.923	6.7
508.354	6.85
508.786	7.01
509.217	7.16
509.649	7.34
510.08	7.52
510.512	7.7
510.943	7.91
511.374	8.12
511.805	8.32
512.237	8.54
512.668	8.76
513.099	8.99
513.53	9.24
513.961	9.49
514.391	9.73
514.822	9.97
515.253	10.24
515.684	10.49
516.114	10.77
516.545	11.05
516.975	11.35
517.406	11.65
517.836	11.93
518.267	12.22
518.697	12.53
519.127	12.84
519.558	13.15
519.988	13.46
520.418	13.76
520.848	14.06
521.278	14.37
521.708	14.69
522.138	14.99
522.567	15.29
522.997	15.58
523.427	15.87
523.857	16.15
524.286	16.43
524.716	16.71
525.145	16.98
525.575	17.23
526.004	17.48
526.433	17.7
526.863	17.95
527.292	18.17
527.721	18.39
528.15	18.59
528.579	18.79
529.008	18.98
529.437	19.16
529.866	19.31
530.295	19.48
530.724	19.65
531.152	19.81
531.581	19.94
532.01	20.1
532.438	20.23
532.867	20.35
533.295	20.49
533.723	20.61
534.152	20.72
534.58	20.83
535.008	20.92
535.436	20.98
535.865	21.06
536.293	21.13
536.721	21.2
537.149	21.27
537.576	21.35
538.004	21.4
538.432	21.45
538.86	21.5
539.287	21.54
539.715	21.6
540.143	21.65
540.57	21.69
540.998	21.74
541.425	21.78
541.852	21.81
542.28	21.82
542.707	21.85
543.134	21.88
543.561	21.89
543.988	21.93
544.415	21.96
544.842	21.99
545.269	22.04
545.696	22.06
546.123	22.09
546.549	22.13
546.976	22.16
547.403	22.2
547.829	22.23
548.256	22.28
548.682	22.31
549.108	22.32
549.535	22.34
549.961	22.33
550.387	22.34
550.813	22.35
551.24	22.35
551.666	22.34
552.092	22.33
552.518	22.3
552.943	22.27
553.369	22.25
553.795	22.2
554.221	22.17
554.646	22.11
555.072	22.04
555.498	21.97
555.923	21.9
556.349	21.81
556.774	21.71
557.199	21.66
557.625	21.58
558.05	21.47
558.475	21.38
558.9	21.27
559.325	21.17
559.75	21.05
560.175	20.92
560.6	20.79
561.025	20.66
561.449	20.53
561.874	20.36
562.299	20.18
562.723	20.02
563.148	19.85
563.572	19.67
563.997	19.5
564.421	19.32
564.846	19.14
565.27	18.96
565.694	18.76
566.118	18.56
566.542	18.37
566.966	18.19
567.39	18
567.814	17.81
568.238	17.61
568.662	17.41
569.086	17.21
569.509	17.03
569.933	16.83
570.357	16.65
570.78	16.47
571.204	16.28
571.627	16.1
572.05	15.92
572.474	15.75
572.897	15.58
573.32	15.42
573.743	15.25
574.166	15.09
574.589	14.94
575.012	14.82
575.435	14.66
575.858	14.54
576.281	14.4
576.704	14.28
577.126	14.14
577.549	14.03
577.972	13.92
578.394	13.81
578.817	13.67
579.239	13.56
579.661	13.45
580.084	13.35
580.506	13.25
580.928	13.16
581.35	13.06
581.772	12.99
582.194	12.91
582.616	12.83
583.038	12.77
583.46	12.73
583.882	12.64
584.303	12.57
584.725	12.51
585.147	12.43
585.568	12.36
585.99	12.31
586.411	12.24
586.833	12.18
587.254	12.13
587.675	12.06
588.096	11.99
588.518	11.94
588.939	11.88
589.36	11.83
589.781	11.78
590.202	11.73
590.623	11.68
591.043	11.62
591.464	11.58
591.885	11.53
592.305	11.5
592.726	11.46
593.147	11.43
593.567	11.4
593.987	11.37
594.408	11.32
594.828	11.28
595.248	11.26
595.669	11.24
596.089	11.19
596.509	11.14
596.929	11.09
597.349	11.06
597.769	11.01
598.189	10.98
598.608	10.94
599.028	10.91
599.448	10.88
599.867	10.82
600.287	10.77
600.706	10.74
601.126	10.69
601.545	10.65
601.965	10.61
602.384	10.57
602.803	10.5
603.222	10.44
603.641	10.38
604.061	10.32
604.48	10.27
604.898	10.2
605.317	10.13
605.736	10.07
606.155	10.01
606.574	9.94
606.992	9.86
607.411	9.81
607.829	9.7
608.248	9.63
608.666	9.56
609.085	9.49
609.503	9.42
609.921	9.35
610.339	9.29
610.758	9.21
611.176	9.14
611.594	9.09
612.012	9.01
612.43	8.99
612.847	8.93
613.265	8.86
613.683	8.8
614.101	8.72
614.518	8.67
614.936	8.62
615.353	8.56
615.771	8.5
616.188	8.45
616.606	8.39
617.023	8.33
617.44	8.27
617.857	8.22
618.274	8.18
618.691	8.14
619.108	8.1
619.525	8.05
619.942	8.01
620.359	7.98
620.776	7.94
621.192	7.92
621.609	7.9
622.026	7.87
622.442	7.85
622.859	7.83
623.275	7.82
623.691	7.81
624.108	7.8
624.524	7.79
624.94	7.77
625.356	7.77
625.772	7.76
626.188	7.76
626.604	7.74
627.02	7.74
627.436	7.73
627.852	7.71
628.268	7.69
628.683	7.68
629.099	7.67
629.514	7.67
629.93	7.65
630.345	7.63
630.761	7.59
631.176	7.58
631.591	7.56
632.007	7.52
632.422	7.5
632.837	7.47
633.252	7.43
633.667	7.38
634.082	7.33
634.497	7.26
634.911	7.2
635.326	7.15
635.741	7.08
636.155	7.01
636.57	6.94
636.984	6.86
637.399	6.79
637.813	6.7
638.228	6.63
638.642	6.55
639.056	6.48
639.47	6.4
639.884	6.32
640.298	6.25
640.712	6.16
641.126	6.09
641.54	6.02
641.954	5.95
642.368	5.88
642.781	5.83
643.195	5.76
643.609	5.69
644.022	5.63
644.436	5.57
644.849	5.51
645.262	5.48
645.676	5.41
646.089	5.36
646.502	5.3
646.915	5.25
647.328	5.21
647.741	5.15
648.154	5.12
648.567	5.1
648.98	5.06
649.393	5.03
649.805	5
650.218	4.99
650.631	4.98
651.043	4.97
651.456	4.95
651.868	4.93
652.28	4.92
652.693	4.9
653.105	4.87
653.517	4.84
653.929	4.84
654.341	4.82
654.753	4.8
655.165	4.76
655.577	4.72
655.989	4.7
656.401	4.67
656.813	4.64
657.224	4.61
657.636	4.59
658.047	4.56
658.459	4.51
658.87	4.48
659.282	4.45
659.693	4.43
660.104	4.41
660.515	4.38
660.926	4.36
661.338	4.34
661.749	4.3
662.159	4.27
662.57	4.25
662.981	4.23
663.392	4.2
663.803	4.17
664.213	4.16
664.624	4.16
665.035	4.15
665.445	4.14
665.855	4.14
666.266	4.15
666.676	4.16
667.086	4.17
667.497	4.18
667.907	4.18
668.317	4.18
668.727	4.2
669.137	4.2
669.547	4.21
669.956	4.21
670.366	4.22
670.776	4.23
671.186	4.25
671.595	4.27
672.005	4.29
672.414	4.31
672.824	4.35
673.233	4.36
673.642	4.38
674.052	4.4
674.461	4.43
674.87	4.46
675.279	4.49
675.688	4.5
676.097	4.53
676.506	4.55
676.915	4.59
677.323	4.63
677.732	4.67
678.141	4.7
678.549	4.74
678.958	4.77
679.366	4.81
679.775	4.84
680.183	4.89
680.592	4.93
681	4.97
681.408	5
681.816	5.04
682.224	5.08
682.632	5.14
683.04	5.19
683.448	5.25
683.856	5.32
684.264	5.38
684.671	5.47
685.079	5.56
685.487	5.68
685.894	5.8
686.302	5.94
686.709	6.08
687.116	6.25
687.524	6.44
687.931	6.65
688.338	6.88
688.745	7.16
689.152	7.46
689.559	7.78
689.966	8.11
690.373	8.48
690.78	8.88
691.187	9.31
691.593	9.75
692	10.24
692.407	10.77
692.813	11.3
693.22	11.85
693.626	12.42
694.032	13.04
694.439	13.68
694.845	14.32
695.251	14.97
695.657	15.64
696.063	16.34
696.469	17.05
696.875	17.74
697.281	18.45
697.687	19.2
698.093	19.95
698.498	20.7
698.904	21.44
699.31	22.19
699.715	22.96
700.12	23.72
700.526	24.48
700.931	25.22
701.337	25.99
701.742	26.74
702.147	27.48
702.552	28.21
702.957	28.92
703.362	29.67
703.767	30.39
704.172	31.11
704.577	31.84
704.981	32.54
705.386	33.25
705.791	33.96
706.195	34.66
706.6	35.33
707.004	36.02
707.408	36.71
707.813	37.36
708.217	38.03
708.621	38.68
709.025	39.32
709.43	39.97
709.834	40.63
710.237	41.26
710.641	41.89
711.045	42.51
711.449	43.13
711.853	43.75
712.256	44.35
712.66	44.97
713.064	45.55
713.467	46.12
713.87	46.72
714.274	47.29
714.677	47.82
715.08	48.38
715.484	49
715.887	49.55
716.29	50.11
716.693	50.64
717.096	51.16
717.499	51.68
717.901	52.19
718.304	52.7
718.707	53.17
719.109	53.72
719.512	54.24
719.915	54.66
720.317	55.15
720.719	55.57
721.122	56.02
721.524	56.48
721.926	56.93
722.328	57.38
722.731	57.8
723.133	58.2
723.535	58.59
723.937	58.95
724.338	59.31
724.74	59.67
725.142	60.03
725.544	60.39
725.945	60.73
726.347	61.07
726.748	61.35
727.15	61.66
727.551	61.99
727.952	62.27
728.354	62.58
728.755	62.87
729.156	63.13
729.557	63.4
729.958	63.66
730.359	63.89
730.76	64.09
731.161	64.35
731.562	64.54
731.962	64.75
732.363	64.94
732.763	65.16
733.164	65.34
733.564	65.52
733.965	65.68
734.365	65.83
734.766	66
735.166	66.15
735.566	66.24
735.966	66.37
736.366	66.49
736.766	66.61
737.166	66.71
737.566	66.82
737.966	66.95
738.365	67.06
738.765	67.15
739.165	67.24
739.564	67.34
739.964	67.47
740.363	67.58
740.763	67.66
741.162	67.74
741.561	67.85
741.96	67.93
742.36	68.01
742.759	68.04
743.158	68.12
743.557	68.2
743.955	68.32
744.354	68.43
744.753	68.48
745.152	68.54
745.55	68.6
745.949	68.63
746.348	68.68
746.746	68.71
747.144	68.8
747.543	68.87
747.941	68.95
748.339	68.98
748.737	69.02
749.136	69.1
749.534	69.14
749.932	69.19
750.33	69.26
750.727	69.3
751.125	69.32
751.523	69.34
751.921	69.37
752.318	69.38
752.716	69.37
753.113	69.37
753.511	69.34
753.908	69.34
754.305	69.34
754.703	69.29
755.1	69.29
755.497	69.32
755.894	69.35
756.291	69.35
756.688	69.34
757.085	69.35
757.482	69.36
757.878	69.44
758.275	69.5
758.672	69.56
759.068	69.64
759.465	69.65
759.861	69.65
760.258	69.64
760.654	69.64
761.05	69.64
761.447	69.64
761.843	69.61
762.239	69.58
762.635	69.52
763.031	69.48
763.427	69.44
763.822	69.42
764.218	69.38
764.614	69.36
765.01	69.35
765.405	69.33
765.801	69.31
766.196	69.31
766.592	69.28
766.987	69.27
767.382	69.29
767.778	69.32
768.173	69.32
768.568	69.31
768.963	69.33
769.358	69.32
769.753	69.33
770.148	69.34
770.542	69.32
770.937	69.33
771.332	69.35
771.726	69.29
772.121	69.21
772.515	69.22
772.91	69.28
773.304	69.26
773.699	69.26
774.093	69.22
774.487	69.21
774.881	69.21
775.275	69.23
775.669	69.23
776.063	69.24
776.457	69.23
776.851	69.23
777.245	69.2
777.638	69.2
778.032	69.19
778.425	69.24
778.819	69.26
779.212	69.27
779.606	69.23
779.999	69.2
780.392	69.21
780.786	69.22
781.179	69.23
781.572	69.19
781.965	69.23
782.358	69.24
782.751	69.21
783.143	69.21
783.536	69.28
783.929	69.31
784.322	69.35
784.714	69.38
785.107	69.43
