Data from N_2_dec_oh_4n_045_Splice17_01.txt Node
Date: Sat Feb 29 13:54:28 EST 2020
User: sa697716
Spectrometer: FLMS03696
Trigger mode: 0
Integration Time (sec): 3.180400E-1
Scans to average: 20
Electric dark correction enabled: true
Nonlinearity correction enabled: true
Boxcar width: 5
XAxis mode: Wavelengths
Number of Pixels in Spectrum: 2048
>>>>>Begin Spectral Data<<<<<
187.83	97.51
188.298	90.36
188.766	79.43
189.233	77.34
189.701	89.86
190.169	85.11
190.636	70.58
191.104	26.67
191.571	-161.85
192.039	-64.72
192.506	603.1
192.974	6588.33
193.441	-333.5
193.908	46.47
194.375	60.68
194.842	50.93
195.31	29.87
195.777	24.81
196.244	5.13
196.711	20.29
197.177	21.77
197.644	23.37
198.111	23.63
198.578	23.24
199.045	24.45
199.511	24.7
199.978	26.16
200.445	26.23
200.911	26.45
201.378	27.2
201.844	27.91
202.31	28.23
202.777	28.66
203.243	29.37
203.709	30.14
204.176	29.79
204.642	29.86
205.108	29.66
205.574	30.12
206.04	29.64
206.506	29.2
206.972	28.81
207.438	28.79
207.903	28.96
208.369	28.38
208.835	28.15
209.301	28.21
209.766	27.97
210.232	27.38
210.697	26.91
211.163	26.67
211.628	26.17
212.094	25.89
212.559	25.47
213.024	24.57
213.49	24.32
213.955	24.1
214.42	23.63
214.885	23.26
215.35	22.97
215.815	22.13
216.28	21.29
216.745	20.55
217.21	19.47
217.675	18.44
218.14	17.48
218.604	16.49
219.069	15.66
219.534	15
219.998	14.34
220.463	13.83
220.927	13.47
221.392	13.17
221.856	12.81
222.32	12.53
222.785	12.24
223.249	12.01
223.713	11.85
224.177	11.63
224.642	11.47
225.106	11.32
225.57	11.13
226.034	10.95
226.497	10.75
226.961	10.57
227.425	10.4
227.889	10.29
228.353	10.14
228.816	10.02
229.28	9.87
229.744	9.75
230.207	9.64
230.671	9.53
231.134	9.39
231.597	9.28
232.061	9.19
232.524	9.11
232.987	8.99
233.45	8.9
233.914	8.8
234.377	8.73
234.84	8.63
235.303	8.52
235.766	8.42
236.229	8.35
236.691	8.29
237.154	8.21
237.617	8.1
238.08	8.03
238.542	7.95
239.005	7.88
239.468	7.78
239.93	7.7
240.393	7.63
240.855	7.56
241.317	7.47
241.78	7.41
242.242	7.33
242.704	7.28
243.166	7.23
243.629	7.18
244.091	7.11
244.553	7.06
245.015	6.99
245.477	6.93
245.939	6.88
246.4	6.82
246.862	6.76
247.324	6.73
247.786	6.68
248.247	6.62
248.709	6.56
249.17	6.51
249.632	6.47
250.093	6.41
250.555	6.38
251.016	6.35
251.477	6.32
251.939	6.28
252.4	6.22
252.861	6.18
253.322	6.13
253.783	6.12
254.244	6.08
254.705	6.05
255.166	6.03
255.627	6
256.088	5.96
256.549	5.92
257.009	5.89
257.47	5.86
257.931	5.82
258.391	5.78
258.852	5.74
259.312	5.71
259.773	5.67
260.233	5.63
260.694	5.59
261.154	5.56
261.614	5.53
262.074	5.51
262.534	5.47
262.994	5.45
263.455	5.44
263.915	5.41
264.374	5.38
264.834	5.36
265.294	5.33
265.754	5.3
266.214	5.27
266.673	5.25
267.133	5.22
267.593	5.2
268.052	5.17
268.512	5.14
268.971	5.12
269.431	5.1
269.89	5.08
270.349	5.06
270.809	5.05
271.268	5.05
271.727	5.02
272.186	5.01
272.645	4.99
273.104	4.98
273.563	4.97
274.022	4.96
274.481	4.95
274.94	4.93
275.399	4.92
275.857	4.9
276.316	4.87
276.775	4.85
277.233	4.84
277.692	4.84
278.15	4.81
278.609	4.79
279.067	4.77
279.525	4.74
279.984	4.73
280.442	4.72
280.9	4.7
281.358	4.69
281.816	4.68
282.274	4.67
282.732	4.65
283.19	4.64
283.648	4.64
284.106	4.61
284.564	4.61
285.021	4.6
285.479	4.59
285.937	4.57
286.394	4.56
286.852	4.56
287.309	4.55
287.767	4.54
288.224	4.53
288.682	4.51
289.139	4.51
289.596	4.49
290.053	4.47
290.511	4.44
290.968	4.43
291.425	4.41
291.882	4.39
292.339	4.36
292.796	4.35
293.252	4.33
293.709	4.31
294.166	4.3
294.623	4.28
295.079	4.27
295.536	4.26
295.992	4.25
296.449	4.25
296.905	4.23
297.362	4.22
297.818	4.21
298.274	4.2
298.731	4.2
299.187	4.19
299.643	4.18
300.099	4.18
300.555	4.16
301.011	4.15
301.467	4.14
301.923	4.13
302.379	4.12
302.835	4.12
303.291	4.12
303.746	4.11
304.202	4.1
304.658	4.09
305.113	4.08
305.569	4.08
306.024	4.07
306.479	4.07
306.935	4.07
307.39	4.05
307.845	4.05
308.301	4.05
308.756	4.05
309.211	4.05
309.666	4.05
310.121	4.06
310.576	4.05
311.031	4.04
311.486	4.04
311.94	4.04
312.395	4.05
312.85	4.03
313.305	4.03
313.759	4.02
314.214	4.02
314.668	4.01
315.123	4
315.577	3.99
316.032	3.99
316.486	3.97
316.94	3.97
317.394	3.95
317.849	3.95
318.303	3.94
318.757	3.92
319.211	3.9
319.665	3.89
320.119	3.88
320.572	3.88
321.026	3.87
321.48	3.86
321.934	3.86
322.387	3.85
322.841	3.84
323.295	3.82
323.748	3.83
324.202	3.83
324.655	3.82
325.108	3.81
325.562	3.79
326.015	3.78
326.468	3.77
326.921	3.76
327.374	3.75
327.827	3.74
328.28	3.73
328.733	3.72
329.186	3.71
329.639	3.7
330.092	3.7
330.545	3.71
330.997	3.7
331.45	3.69
331.903	3.68
332.355	3.68
332.808	3.68
333.26	3.68
333.713	3.69
334.165	3.7
334.617	3.7
335.069	3.69
335.522	3.69
335.974	3.7
336.426	3.69
336.878	3.7
337.33	3.69
337.782	3.7
338.234	3.69
338.686	3.69
339.137	3.68
339.589	3.66
340.041	3.66
340.493	3.65
340.944	3.64
341.396	3.64
341.847	3.62
342.299	3.61
342.75	3.59
343.201	3.58
343.653	3.55
344.104	3.55
344.555	3.53
345.006	3.52
345.457	3.51
345.908	3.5
346.359	3.5
346.81	3.5
347.261	3.5
347.712	3.5
348.163	3.49
348.613	3.49
349.064	3.47
349.515	3.48
349.965	3.47
350.416	3.47
350.866	3.47
351.317	3.45
351.767	3.44
352.217	3.43
352.668	3.44
353.118	3.44
353.568	3.44
354.018	3.45
354.468	3.45
354.918	3.46
355.368	3.46
355.818	3.45
356.268	3.47
356.718	3.46
357.168	3.46
357.617	3.45
358.067	3.44
358.517	3.45
358.966	3.45
359.416	3.45
359.865	3.44
360.315	3.44
360.764	3.45
361.213	3.45
361.663	3.45
362.112	3.45
362.561	3.46
363.01	3.47
363.459	3.46
363.908	3.46
364.357	3.45
364.806	3.46
365.255	3.47
365.703	3.47
366.152	3.48
366.601	3.48
367.05	3.49
367.498	3.5
367.947	3.49
368.395	3.49
368.844	3.49
369.292	3.49
369.74	3.49
370.189	3.48
370.637	3.48
371.085	3.48
371.533	3.47
371.981	3.47
372.429	3.47
372.877	3.48
373.325	3.47
373.773	3.47
374.221	3.48
374.669	3.48
375.116	3.48
375.564	3.49
376.012	3.49
376.459	3.52
376.907	3.52
377.354	3.52
377.801	3.52
378.249	3.54
378.696	3.56
379.143	3.58
379.591	3.59
380.038	3.62
380.485	3.63
380.932	3.63
381.379	3.63
381.826	3.65
382.273	3.65
382.72	3.66
383.166	3.67
383.613	3.68
384.06	3.68
384.506	3.68
384.953	3.67
385.4	3.67
385.846	3.68
386.292	3.69
386.739	3.7
387.185	3.72
387.631	3.73
388.078	3.74
388.524	3.74
388.97	3.75
389.416	3.76
389.862	3.77
390.308	3.78
390.754	3.8
391.2	3.82
391.645	3.83
392.091	3.84
392.537	3.85
392.983	3.88
393.428	3.9
393.874	3.92
394.319	3.93
394.765	3.94
395.21	3.94
395.655	3.96
396.101	3.97
396.546	3.98
396.991	3.99
397.436	3.99
397.881	4
398.326	4.02
398.771	4.04
399.216	4.06
399.661	4.08
400.106	4.11
400.551	4.12
400.995	4.11
401.44	4.12
401.885	4.13
402.329	4.14
402.774	4.13
403.218	4.13
403.663	4.12
404.107	4.12
404.551	4.13
404.995	4.13
405.44	4.11
405.884	4.12
406.328	4.12
406.772	4.12
407.216	4.13
407.66	4.15
408.104	4.16
408.547	4.16
408.991	4.16
409.435	4.17
409.879	4.18
410.322	4.21
410.766	4.22
411.209	4.22
411.653	4.22
412.096	4.21
412.54	4.22
412.983	4.22
413.426	4.24
413.869	4.25
414.312	4.26
414.756	4.27
415.199	4.27
415.642	4.3
416.085	4.32
416.527	4.35
416.97	4.37
417.413	4.36
417.856	4.34
418.298	4.32
418.741	4.3
419.184	4.3
419.626	4.29
420.069	4.29
420.511	4.29
420.953	4.28
421.396	4.28
421.838	4.29
422.28	4.31
422.722	4.34
423.164	4.35
423.606	4.37
424.048	4.37
424.49	4.38
424.932	4.37
425.374	4.37
425.816	4.36
426.258	4.35
426.699	4.34
427.141	4.32
427.582	4.33
428.024	4.32
428.465	4.32
428.907	4.32
429.348	4.31
429.789	4.33
430.231	4.34
430.672	4.35
431.113	4.35
431.554	4.37
431.995	4.39
432.436	4.39
432.877	4.4
433.318	4.42
433.759	4.43
434.2	4.44
434.64	4.43
435.081	4.43
435.522	4.44
435.962	4.45
436.403	4.47
436.843	4.47
437.284	4.48
437.724	4.52
438.164	4.52
438.604	4.53
439.045	4.53
439.485	4.55
439.925	4.56
440.365	4.55
440.805	4.55
441.245	4.55
441.685	4.55
442.125	4.54
442.564	4.54
443.004	4.55
443.444	4.57
443.883	4.57
444.323	4.59
444.762	4.59
445.202	4.62
445.641	4.64
446.081	4.65
446.52	4.66
446.959	4.66
447.398	4.68
447.837	4.71
448.276	4.7
448.716	4.71
449.154	4.71
449.593	4.73
450.032	4.71
450.471	4.71
450.91	4.7
451.349	4.72
451.787	4.7
452.226	4.67
452.664	4.63
453.103	4.62
453.541	4.62
453.98	4.62
454.418	4.58
454.856	4.57
455.295	4.55
455.733	4.55
456.171	4.53
456.609	4.53
457.047	4.53
457.485	4.53
457.923	4.54
458.361	4.52
458.798	4.51
459.236	4.53
459.674	4.53
460.111	4.54
460.549	4.54
460.987	4.55
461.424	4.54
461.862	4.55
462.299	4.55
462.736	4.55
463.173	4.57
463.611	4.57
464.048	4.57
464.485	4.58
464.922	4.58
465.359	4.57
465.796	4.56
466.233	4.58
466.67	4.59
467.106	4.58
467.543	4.59
467.98	4.59
468.416	4.6
468.853	4.59
469.29	4.6
469.726	4.6
470.162	4.58
470.599	4.58
471.035	4.59
471.471	4.56
471.907	4.56
472.344	4.56
472.78	4.55
473.216	4.53
473.652	4.52
474.088	4.52
474.523	4.52
474.959	4.53
475.395	4.52
475.831	4.51
476.266	4.51
476.702	4.5
477.138	4.49
477.573	4.47
478.008	4.48
478.444	4.48
478.879	4.46
479.314	4.45
479.75	4.44
480.185	4.43
480.62	4.43
481.055	4.43
481.49	4.41
481.925	4.4
482.36	4.4
482.795	4.39
483.229	4.37
483.664	4.37
484.099	4.36
484.534	4.35
484.968	4.36
485.403	4.35
485.837	4.33
486.271	4.33
486.706	4.32
487.14	4.32
487.574	4.32
488.009	4.33
488.443	4.33
488.877	4.33
489.311	4.33
489.745	4.33
490.179	4.33
490.613	4.35
491.046	4.37
491.48	4.39
491.914	4.4
492.348	4.42
492.781	4.43
493.215	4.44
493.648	4.47
494.082	4.5
494.515	4.52
494.948	4.55
495.382	4.57
495.815	4.6
496.248	4.62
496.681	4.65
497.114	4.68
497.547	4.71
497.98	4.75
498.413	4.79
498.846	4.83
499.279	4.87
499.711	4.91
500.144	4.96
500.577	5
501.009	5.06
501.442	5.12
501.874	5.18
502.306	5.24
502.739	5.32
503.171	5.38
503.603	5.46
504.036	5.55
504.468	5.65
504.9	5.76
505.332	5.86
505.764	5.97
506.196	6.09
506.627	6.21
507.059	6.34
507.491	6.47
507.923	6.61
508.354	6.76
508.786	6.91
509.217	7.07
509.649	7.24
510.08	7.43
510.512	7.59
510.943	7.79
511.374	7.98
511.805	8.18
512.237	8.38
512.668	8.58
513.099	8.8
513.53	9.03
513.961	9.27
514.391	9.51
514.822	9.75
515.253	10.01
515.684	10.27
516.114	10.54
516.545	10.83
516.975	11.11
517.406	11.42
517.836	11.69
518.267	11.97
518.697	12.27
519.127	12.57
519.558	12.86
519.988	13.16
520.418	13.46
520.848	13.75
521.278	14.03
521.708	14.36
522.138	14.65
522.567	14.96
522.997	15.23
523.427	15.53
523.857	15.79
524.286	16.06
524.716	16.32
525.145	16.59
525.575	16.83
526.004	17.08
526.433	17.28
526.863	17.53
527.292	17.75
527.721	17.98
528.15	18.18
528.579	18.4
529.008	18.59
529.437	18.77
529.866	18.94
530.295	19.13
530.724	19.3
531.152	19.47
531.581	19.6
532.01	19.73
532.438	19.87
532.867	19.99
533.295	20.11
533.723	20.24
534.152	20.35
534.58	20.44
535.008	20.51
535.436	20.6
535.865	20.66
536.293	20.76
536.721	20.85
537.149	20.92
537.576	21
538.004	21.05
538.432	21.1
538.86	21.16
539.287	21.22
539.715	21.27
540.143	21.32
540.57	21.36
540.998	21.4
541.425	21.43
541.852	21.46
542.28	21.48
542.707	21.52
543.134	21.55
543.561	21.58
543.988	21.62
544.415	21.66
544.842	21.67
545.269	21.73
545.696	21.76
546.123	21.79
546.549	21.81
546.976	21.85
547.403	21.88
547.829	21.91
548.256	21.94
548.682	21.94
549.108	21.97
549.535	22
549.961	21.99
550.387	21.97
550.813	21.98
551.24	21.98
551.666	21.97
552.092	21.95
552.518	21.93
552.943	21.92
553.369	21.91
553.795	21.87
554.221	21.84
554.646	21.8
555.072	21.74
555.498	21.68
555.923	21.63
556.349	21.53
556.774	21.45
557.199	21.38
557.625	21.27
558.05	21.17
558.475	21.06
558.9	20.93
559.325	20.82
559.75	20.72
560.175	20.6
560.6	20.46
561.025	20.34
561.449	20.21
561.874	20.04
562.299	19.89
562.723	19.74
563.148	19.59
563.572	19.44
563.997	19.27
564.421	19.08
564.846	18.89
565.27	18.7
565.694	18.51
566.118	18.33
566.542	18.15
566.966	17.97
567.39	17.77
567.814	17.58
568.238	17.38
568.662	17.19
569.086	17.01
569.509	16.83
569.933	16.64
570.357	16.44
570.78	16.26
571.204	16.07
571.627	15.89
572.05	15.72
572.474	15.55
572.897	15.38
573.32	15.22
573.743	15.04
574.166	14.89
574.589	14.76
575.012	14.63
575.435	14.48
575.858	14.36
576.281	14.22
576.704	14.1
577.126	13.97
577.549	13.86
577.972	13.74
578.394	13.65
578.817	13.54
579.239	13.42
579.661	13.33
580.084	13.23
580.506	13.14
580.928	13.05
581.35	12.95
581.772	12.89
582.194	12.79
582.616	12.71
583.038	12.64
583.46	12.56
583.882	12.49
584.303	12.4
584.725	12.33
585.147	12.25
585.568	12.18
585.99	12.12
586.411	12.06
586.833	12.01
587.254	11.95
587.675	11.88
588.096	11.83
588.518	11.77
588.939	11.73
589.36	11.68
589.781	11.64
590.202	11.6
590.623	11.53
591.043	11.49
591.464	11.45
591.885	11.41
592.305	11.37
592.726	11.33
593.147	11.3
593.567	11.26
593.987	11.25
594.408	11.22
594.828	11.19
595.248	11.16
595.669	11.13
596.089	11.1
596.509	11.05
596.929	11.02
597.349	10.97
597.769	10.93
598.189	10.91
598.608	10.85
599.028	10.81
599.448	10.77
599.867	10.73
600.287	10.69
600.706	10.64
601.126	10.61
601.545	10.55
601.965	10.5
602.384	10.46
602.803	10.4
603.222	10.35
603.641	10.3
604.061	10.24
604.48	10.19
604.898	10.12
605.317	10.06
605.736	10.01
606.155	9.95
606.574	9.88
606.992	9.8
607.411	9.74
607.829	9.63
608.248	9.57
608.666	9.5
609.085	9.42
609.503	9.34
609.921	9.26
610.339	9.19
610.758	9.12
611.176	9.06
611.594	9
612.012	8.91
612.43	8.89
612.847	8.81
613.265	8.75
613.683	8.67
614.101	8.61
614.518	8.55
614.936	8.49
615.353	8.42
615.771	8.36
616.188	8.31
616.606	8.27
617.023	8.22
617.44	8.18
617.857	8.13
618.274	8.09
618.691	8.05
619.108	8.02
619.525	7.99
619.942	7.96
620.359	7.95
620.776	7.91
621.192	7.88
621.609	7.84
622.026	7.82
622.442	7.81
622.859	7.78
623.275	7.78
623.691	7.76
624.108	7.74
624.524	7.74
624.94	7.72
625.356	7.7
625.772	7.7
626.188	7.71
626.604	7.7
627.02	7.69
627.436	7.69
627.852	7.67
628.268	7.64
628.683	7.62
629.099	7.61
629.514	7.59
629.93	7.57
630.345	7.55
630.761	7.51
631.176	7.49
631.591	7.47
632.007	7.43
632.422	7.41
632.837	7.39
633.252	7.35
633.667	7.29
634.082	7.25
634.497	7.21
634.911	7.16
635.326	7.1
635.741	7.04
636.155	6.97
636.57	6.92
636.984	6.85
637.399	6.77
637.813	6.68
638.228	6.61
638.642	6.53
639.056	6.44
639.47	6.37
639.884	6.29
640.298	6.23
640.712	6.15
641.126	6.07
641.54	5.99
641.954	5.94
642.368	5.88
642.781	5.81
643.195	5.74
643.609	5.67
644.022	5.61
644.436	5.54
644.849	5.47
645.262	5.42
645.676	5.36
646.089	5.29
646.502	5.23
646.915	5.18
647.328	5.16
647.741	5.11
648.154	5.1
648.567	5.06
648.98	5.05
649.393	5.04
649.805	5
650.218	5
650.631	4.98
651.043	4.96
651.456	4.97
651.868	4.94
652.28	4.94
652.693	4.91
653.105	4.89
653.517	4.86
653.929	4.85
654.341	4.83
654.753	4.81
655.165	4.79
655.577	4.76
655.989	4.72
656.401	4.69
656.813	4.64
657.224	4.61
657.636	4.59
658.047	4.56
658.459	4.5
658.87	4.47
659.282	4.45
659.693	4.42
660.104	4.39
660.515	4.37
660.926	4.35
661.338	4.33
661.749	4.31
662.159	4.28
662.57	4.27
662.981	4.27
663.392	4.25
663.803	4.23
664.213	4.21
664.624	4.21
665.035	4.19
665.445	4.18
665.855	4.19
666.266	4.18
666.676	4.18
667.086	4.17
667.497	4.17
667.907	4.17
668.317	4.15
668.727	4.15
669.137	4.16
669.547	4.19
669.956	4.19
670.366	4.21
670.776	4.23
671.186	4.26
671.595	4.28
672.005	4.3
672.414	4.33
672.824	4.37
673.233	4.4
673.642	4.42
674.052	4.43
674.461	4.46
674.87	4.49
675.279	4.51
675.688	4.53
676.097	4.56
676.506	4.59
676.915	4.61
677.323	4.65
677.732	4.67
678.141	4.72
678.549	4.76
678.958	4.8
679.366	4.83
679.775	4.87
680.183	4.92
680.592	4.96
681	5
681.408	5.04
681.816	5.07
682.224	5.13
682.632	5.18
683.04	5.23
683.448	5.28
683.856	5.37
684.264	5.43
684.671	5.5
685.079	5.58
685.487	5.69
685.894	5.81
686.302	5.95
686.709	6.08
687.116	6.25
687.524	6.42
687.931	6.63
688.338	6.86
688.745	7.12
689.152	7.43
689.559	7.75
689.966	8.11
690.373	8.47
690.78	8.86
691.187	9.3
691.593	9.74
692	10.22
692.407	10.74
692.813	11.26
693.22	11.81
693.626	12.37
694.032	12.97
694.439	13.6
694.845	14.22
695.251	14.88
695.657	15.55
696.063	16.23
696.469	16.92
696.875	17.59
697.281	18.31
697.687	19.04
698.093	19.76
698.498	20.49
698.904	21.21
699.31	21.95
699.715	22.69
700.12	23.42
700.526	24.16
700.931	24.89
701.337	25.64
701.742	26.36
702.147	27.06
702.552	27.77
702.957	28.49
703.362	29.2
703.767	29.89
704.172	30.59
704.577	31.27
704.981	31.96
705.386	32.64
705.791	33.31
706.195	33.99
706.6	34.65
707.004	35.32
707.408	35.98
707.813	36.63
708.217	37.26
708.621	37.91
709.025	38.58
709.43	39.21
709.834	39.86
710.237	40.47
710.641	41.1
711.045	41.7
711.449	42.31
711.853	42.91
712.256	43.52
712.66	44.12
713.064	44.68
713.467	45.26
713.87	45.84
714.274	46.41
714.677	46.99
715.08	47.55
715.484	48.15
715.887	48.71
716.29	49.26
716.693	49.79
717.096	50.35
717.499	50.9
717.901	51.38
718.304	51.9
718.707	52.39
719.109	52.88
719.512	53.34
719.915	53.79
720.317	54.23
720.719	54.66
721.122	55.1
721.524	55.51
721.926	55.94
722.328	56.33
722.731	56.73
723.133	57.13
723.535	57.53
723.937	57.93
724.338	58.29
724.74	58.67
725.142	59.03
725.544	59.35
725.945	59.71
726.347	60.05
726.748	60.35
727.15	60.65
727.551	60.96
727.952	61.23
728.354	61.51
728.755	61.8
729.156	62.08
729.557	62.35
729.958	62.63
730.359	62.85
730.76	63.05
731.161	63.29
731.562	63.5
731.962	63.72
732.363	63.9
732.763	64.11
733.164	64.28
733.564	64.44
733.965	64.55
734.365	64.71
734.766	64.83
735.166	64.94
735.566	65.08
735.966	65.21
736.366	65.34
736.766	65.45
737.166	65.56
737.566	65.68
737.966	65.79
738.365	65.93
738.765	66.01
739.165	66.12
739.564	66.26
739.964	66.36
740.363	66.44
740.763	66.51
741.162	66.6
741.561	66.68
741.96	66.79
742.36	66.87
742.759	66.94
743.158	67.01
743.557	67.12
743.955	67.22
744.354	67.3
744.753	67.37
745.152	67.4
745.55	67.47
745.949	67.52
746.348	67.53
746.746	67.53
747.144	67.62
747.543	67.68
747.941	67.75
748.339	67.79
748.737	67.81
749.136	67.86
749.534	67.92
749.932	67.97
750.33	68
750.727	68.07
751.125	68.12
751.523	68.09
751.921	68.13
752.318	68.13
752.716	68.15
753.113	68.19
753.511	68.18
753.908	68.18
754.305	68.16
754.703	68.15
755.1	68.13
755.497	68.15
755.894	68.15
756.291	68.16
756.688	68.19
757.085	68.17
757.482	68.17
757.878	68.24
758.275	68.26
758.672	68.32
759.068	68.35
759.465	68.35
759.861	68.36
760.258	68.37
760.654	68.36
761.05	68.34
761.447	68.32
761.843	68.31
762.239	68.25
762.635	68.24
763.031	68.2
763.427	68.18
763.822	68.14
764.218	68.12
764.614	68.09
765.01	68.07
765.405	68.07
765.801	68.07
766.196	68.07
766.592	68.11
766.987	68.13
767.382	68.12
767.778	68.19
768.173	68.24
768.568	68.22
768.963	68.24
769.358	68.22
769.753	68.22
770.148	68.21
770.542	68.18
770.937	68.14
771.332	68.12
771.726	68.07
772.121	67.99
772.515	67.97
772.91	67.96
773.304	67.97
773.699	68
774.093	67.96
774.487	67.97
774.881	67.97
775.275	67.99
775.669	67.98
776.063	68
776.457	68
776.851	67.96
777.245	67.96
777.638	67.94
778.032	67.91
778.425	67.95
778.819	67.96
779.212	67.95
779.606	67.95
779.999	67.91
780.392	67.95
780.786	67.98
781.179	68
781.572	68
781.965	67.99
782.358	67.97
782.751	67.94
783.143	67.97
783.536	68.02
783.929	68.05
784.322	68.08
784.714	68.05
785.107	68.04
