Data from N_2_dec_ct_2n_073_Splice17_20.txt Node
Date: Sat Feb 29 14:08:47 EST 2020
User: sa697716
Spectrometer: FLMS03696
Trigger mode: 0
Integration Time (sec): 3.180400E-1
Scans to average: 20
Electric dark correction enabled: true
Nonlinearity correction enabled: true
Boxcar width: 5
XAxis mode: Wavelengths
Number of Pixels in Spectrum: 2048
>>>>>Begin Spectral Data<<<<<
187.83	98.27
188.298	101.28
188.766	85.67
189.233	82.07
189.701	96.86
190.169	80.98
190.636	94.01
191.104	104.41
191.571	416.91
192.039	237.69
192.506	-190.23
192.974	737.18
193.441	2.8
193.908	79.85
194.375	43.26
194.842	123.06
195.31	16.86
195.777	17.75
196.244	42.85
196.711	43.7
197.177	40.43
197.644	40.64
198.111	40.69
198.578	40.75
199.045	41.14
199.511	41.86
199.978	42.66
200.445	42.82
200.911	42.94
201.378	42.95
201.844	43.04
202.31	44.42
202.777	44.95
203.243	45.38
203.709	45.85
204.176	45.02
204.642	45.25
205.108	45.19
205.574	45.22
206.04	45.28
206.506	45.12
206.972	45.24
207.438	44.1
207.903	43.91
208.369	43.4
208.835	43.11
209.301	43.68
209.766	43.29
210.232	43.31
210.697	43.29
211.163	43.22
211.628	42.91
212.094	42.66
212.559	42.72
213.024	42.28
213.49	41.93
213.955	41.39
214.42	40.87
214.885	40.19
215.35	39.24
215.815	38.36
216.28	37.65
216.745	36.79
217.21	36
217.675	35.09
218.14	34.21
218.604	33.36
219.069	32.83
219.534	32.08
219.998	31.52
220.463	31.14
220.927	30.7
221.392	30.21
221.856	29.81
222.32	29.43
222.785	29.1
223.249	28.77
223.713	28.53
224.177	28.17
224.642	27.95
225.106	27.69
225.57	27.36
226.034	27.11
226.497	26.83
226.961	26.56
227.425	26.3
227.889	26.02
228.353	25.75
228.816	25.49
229.28	25.22
229.744	24.97
230.207	24.72
230.671	24.46
231.134	24.21
231.597	23.96
232.061	23.74
232.524	23.5
232.987	23.25
233.45	23.01
233.914	22.78
234.377	22.56
234.84	22.31
235.303	22.08
235.766	21.88
236.229	21.65
236.691	21.46
237.154	21.23
237.617	21.04
238.08	20.87
238.542	20.69
239.005	20.5
239.468	20.31
239.93	20.14
240.393	19.97
240.855	19.81
241.317	19.66
241.78	19.51
242.242	19.34
242.704	19.2
243.166	19.02
243.629	18.88
244.091	18.74
244.553	18.61
245.015	18.48
245.477	18.34
245.939	18.2
246.4	18.04
246.862	17.9
247.324	17.8
247.786	17.67
248.247	17.57
248.709	17.44
249.17	17.33
249.632	17.2
250.093	17.09
250.555	16.99
251.016	16.91
251.477	16.83
251.939	16.74
252.4	16.65
252.861	16.57
253.322	16.48
253.783	16.42
254.244	16.34
254.705	16.26
255.166	16.21
255.627	16.15
256.088	16.06
256.549	15.99
257.009	15.92
257.47	15.85
257.931	15.76
258.391	15.69
258.852	15.61
259.312	15.54
259.773	15.48
260.233	15.4
260.694	15.34
261.154	15.28
261.614	15.23
262.074	15.18
262.534	15.12
262.994	15.07
263.455	15.03
263.915	14.98
264.374	14.93
264.834	14.89
265.294	14.84
265.754	14.8
266.214	14.76
266.673	14.72
267.133	14.68
267.593	14.64
268.052	14.61
268.512	14.57
268.971	14.54
269.431	14.52
269.89	14.48
270.349	14.46
270.809	14.43
271.268	14.4
271.727	14.37
272.186	14.34
272.645	14.31
273.104	14.29
273.563	14.26
274.022	14.23
274.481	14.2
274.94	14.16
275.399	14.11
275.857	14.09
276.316	14.05
276.775	14.01
277.233	13.98
277.692	13.95
278.15	13.91
278.609	13.88
279.067	13.83
279.525	13.8
279.984	13.77
280.442	13.75
280.9	13.71
281.358	13.68
281.816	13.66
282.274	13.62
282.732	13.59
283.19	13.56
283.648	13.53
284.106	13.51
284.564	13.5
285.021	13.48
285.479	13.46
285.937	13.45
286.394	13.42
286.852	13.4
287.309	13.39
287.767	13.37
288.224	13.34
288.682	13.31
289.139	13.29
289.596	13.26
290.053	13.22
290.511	13.19
290.968	13.15
291.425	13.11
291.882	13.08
292.339	13.05
292.796	13.01
293.252	12.98
293.709	12.96
294.166	12.93
294.623	12.9
295.079	12.87
295.536	12.85
295.992	12.82
296.449	12.82
296.905	12.79
297.362	12.77
297.818	12.76
298.274	12.75
298.731	12.73
299.187	12.71
299.643	12.7
300.099	12.69
300.555	12.66
301.011	12.64
301.467	12.62
301.923	12.61
302.379	12.59
302.835	12.58
303.291	12.55
303.746	12.53
304.202	12.51
304.658	12.49
305.113	12.48
305.569	12.47
306.024	12.46
306.479	12.43
306.935	12.42
307.39	12.4
307.845	12.38
308.301	12.38
308.756	12.37
309.211	12.37
309.666	12.35
310.121	12.34
310.576	12.33
311.031	12.32
311.486	12.32
311.94	12.31
312.395	12.3
312.85	12.29
313.305	12.28
313.759	12.26
314.214	12.25
314.668	12.24
315.123	12.23
315.577	12.22
316.032	12.21
316.486	12.2
316.94	12.19
317.394	12.17
317.849	12.16
318.303	12.14
318.757	12.13
319.211	12.11
319.665	12.09
320.119	12.06
320.572	12.03
321.026	12
321.48	11.98
321.934	11.97
322.387	11.94
322.841	11.93
323.295	11.89
323.748	11.87
324.202	11.84
324.655	11.81
325.108	11.78
325.562	11.76
326.015	11.74
326.468	11.7
326.921	11.68
327.374	11.65
327.827	11.61
328.28	11.6
328.733	11.57
329.186	11.56
329.639	11.54
330.092	11.52
330.545	11.52
330.997	11.5
331.45	11.5
331.903	11.48
332.355	11.47
332.808	11.47
333.26	11.46
333.713	11.47
334.165	11.45
334.617	11.44
335.069	11.44
335.522	11.42
335.974	11.42
336.426	11.4
336.878	11.4
337.33	11.39
337.782	11.38
338.234	11.37
338.686	11.35
339.137	11.34
339.589	11.31
340.041	11.29
340.493	11.26
340.944	11.23
341.396	11.21
341.847	11.17
342.299	11.14
342.75	11.1
343.201	11.06
343.653	11.04
344.104	11.01
344.555	10.99
345.006	10.97
345.457	10.96
345.908	10.95
346.359	10.93
346.81	10.92
347.261	10.9
347.712	10.88
348.163	10.87
348.613	10.85
349.064	10.83
349.515	10.82
349.965	10.8
350.416	10.77
350.866	10.75
351.317	10.74
351.767	10.74
352.217	10.71
352.668	10.71
353.118	10.71
353.568	10.71
354.018	10.72
354.468	10.71
354.918	10.71
355.368	10.72
355.818	10.72
356.268	10.7
356.718	10.69
357.168	10.69
357.617	10.69
358.067	10.66
358.517	10.64
358.966	10.63
359.416	10.62
359.865	10.61
360.315	10.59
360.764	10.57
361.213	10.57
361.663	10.55
362.112	10.55
362.561	10.54
363.01	10.54
363.459	10.54
363.908	10.53
364.357	10.51
364.806	10.51
365.255	10.51
365.703	10.49
366.152	10.48
366.601	10.48
367.05	10.46
367.498	10.45
367.947	10.44
368.395	10.43
368.844	10.42
369.292	10.4
369.74	10.38
370.189	10.38
370.637	10.38
371.085	10.38
371.533	10.37
371.981	10.36
372.429	10.35
372.877	10.34
373.325	10.33
373.773	10.33
374.221	10.32
374.669	10.32
375.116	10.29
375.564	10.28
376.012	10.28
376.459	10.27
376.907	10.27
377.354	10.26
377.801	10.26
378.249	10.27
378.696	10.27
379.143	10.27
379.591	10.27
380.038	10.29
380.485	10.29
380.932	10.3
381.379	10.29
381.826	10.3
382.273	10.31
382.72	10.31
383.166	10.32
383.613	10.33
384.06	10.36
384.506	10.37
384.953	10.37
385.4	10.38
385.846	10.39
386.292	10.43
386.739	10.44
387.185	10.47
387.631	10.49
388.078	10.52
388.524	10.53
388.97	10.54
389.416	10.54
389.862	10.56
390.308	10.59
390.754	10.61
391.2	10.65
391.645	10.68
392.091	10.69
392.537	10.71
392.983	10.74
393.428	10.79
393.874	10.83
394.319	10.87
394.765	10.88
395.21	10.9
395.655	10.93
396.101	10.93
396.546	10.96
396.991	10.98
397.436	11
397.881	11.01
398.326	11.04
398.771	11.05
399.216	11.09
399.661	11.13
400.106	11.15
400.551	11.17
400.995	11.18
401.44	11.19
401.885	11.19
402.329	11.19
402.774	11.19
403.218	11.2
403.663	11.2
404.107	11.21
404.551	11.23
404.995	11.24
405.44	11.25
405.884	11.25
406.328	11.26
406.772	11.28
407.216	11.32
407.66	11.33
408.104	11.34
408.547	11.36
408.991	11.35
409.435	11.34
409.879	11.34
410.322	11.35
410.766	11.38
411.209	11.39
411.653	11.39
412.096	11.38
412.54	11.37
412.983	11.37
413.426	11.37
413.869	11.38
414.312	11.41
414.756	11.43
415.199	11.45
415.642	11.47
416.085	11.48
416.527	11.51
416.97	11.53
417.413	11.54
417.856	11.52
418.298	11.51
418.741	11.52
419.184	11.5
419.626	11.47
420.069	11.47
420.511	11.45
420.953	11.43
421.396	11.41
421.838	11.41
422.28	11.42
422.722	11.44
423.164	11.45
423.606	11.47
424.048	11.46
424.49	11.47
424.932	11.46
425.374	11.45
425.816	11.44
426.258	11.42
426.699	11.36
427.141	11.3
427.582	11.28
428.024	11.26
428.465	11.26
428.907	11.27
429.348	11.27
429.789	11.27
430.231	11.26
430.672	11.27
431.113	11.28
431.554	11.31
431.995	11.35
432.436	11.35
432.877	11.34
433.318	11.32
433.759	11.29
434.2	11.29
434.64	11.29
435.081	11.28
435.522	11.29
435.962	11.3
436.403	11.32
436.843	11.33
437.284	11.35
437.724	11.39
438.164	11.4
438.604	11.42
439.045	11.41
439.485	11.42
439.925	11.43
440.365	11.43
440.805	11.45
441.245	11.45
441.685	11.49
442.125	11.5
442.564	11.52
443.004	11.56
443.444	11.6
443.883	11.63
444.323	11.67
444.762	11.73
445.202	11.79
445.641	11.84
446.081	11.92
446.52	11.92
446.959	11.98
447.398	12.05
447.837	12.11
448.276	12.13
448.716	12.2
449.154	12.26
449.593	12.31
450.032	12.36
450.471	12.38
450.91	12.38
451.349	12.41
451.787	12.44
452.226	12.46
452.664	12.46
453.103	12.46
453.541	12.46
453.98	12.46
454.418	12.47
454.856	12.43
455.295	12.45
455.733	12.45
456.171	12.44
456.609	12.44
457.047	12.41
457.485	12.41
457.923	12.41
458.361	12.39
458.798	12.39
459.236	12.37
459.674	12.38
460.111	12.37
460.549	12.36
460.987	12.38
461.424	12.34
461.862	12.35
462.299	12.34
462.736	12.35
463.173	12.34
463.611	12.32
464.048	12.32
464.485	12.29
464.922	12.29
465.359	12.3
465.796	12.29
466.233	12.31
466.67	12.31
467.106	12.31
467.543	12.31
467.98	12.32
468.416	12.34
468.853	12.34
469.29	12.37
469.726	12.38
470.162	12.36
470.599	12.37
471.035	12.38
471.471	12.39
471.907	12.38
472.344	12.39
472.78	12.4
473.216	12.39
473.652	12.4
474.088	12.41
474.523	12.41
474.959	12.41
475.395	12.42
475.831	12.42
476.266	12.42
476.702	12.42
477.138	12.42
477.573	12.4
478.008	12.43
478.444	12.41
478.879	12.39
479.314	12.39
479.75	12.41
480.185	12.41
480.62	12.41
481.055	12.41
481.49	12.4
481.925	12.41
482.36	12.42
482.795	12.38
483.229	12.41
483.664	12.41
484.099	12.43
484.534	12.43
484.968	12.44
485.403	12.44
485.837	12.47
486.271	12.5
486.706	12.53
487.14	12.57
487.574	12.61
488.009	12.65
488.443	12.69
488.877	12.73
489.311	12.78
489.745	12.84
490.179	12.9
490.613	12.95
491.046	13.03
491.48	13.1
491.914	13.17
492.348	13.25
492.781	13.32
493.215	13.42
493.648	13.52
494.082	13.64
494.515	13.74
494.948	13.86
495.382	13.98
495.815	14.11
496.248	14.23
496.681	14.37
497.114	14.52
497.547	14.67
497.98	14.82
498.413	14.99
498.846	15.16
499.279	15.35
499.711	15.56
500.144	15.75
500.577	15.95
501.009	16.18
501.442	16.41
501.874	16.65
502.306	16.89
502.739	17.14
503.171	17.4
503.603	17.67
504.036	17.93
504.468	18.2
504.9	18.51
505.332	18.82
505.764	19.14
506.196	19.47
506.627	19.82
507.059	20.18
507.491	20.52
507.923	20.89
508.354	21.27
508.786	21.67
509.217	22.05
509.649	22.46
510.08	22.87
510.512	23.27
510.943	23.69
511.374	24.1
511.805	24.53
512.237	24.99
512.668	25.41
513.099	25.87
513.53	26.32
513.961	26.78
514.391	27.23
514.822	27.67
515.253	28.14
515.684	28.6
516.114	29.08
516.545	29.53
516.975	29.99
517.406	30.46
517.836	30.9
518.267	31.37
518.697	31.83
519.127	32.27
519.558	32.72
519.988	33.15
520.418	33.57
520.848	33.99
521.278	34.41
521.708	34.73
522.138	35.1
522.567	35.48
522.997	35.86
523.427	36.22
523.857	36.55
524.286	36.9
524.716	37.22
525.145	37.55
525.575	37.84
526.004	38.14
526.433	38.52
526.863	38.83
527.292	39.1
527.721	39.34
528.15	39.58
528.579	39.85
529.008	40.09
529.437	40.32
529.866	40.53
530.295	40.74
530.724	40.96
531.152	41.14
531.581	41.32
532.01	41.49
532.438	41.66
532.867	41.82
533.295	41.95
533.723	42.11
534.152	42.22
534.58	42.33
535.008	42.43
535.436	42.51
535.865	42.59
536.293	42.69
536.721	42.78
537.149	42.85
537.576	42.91
538.004	42.96
538.432	42.99
538.86	43.07
539.287	43.14
539.715	43.21
540.143	43.28
540.57	43.34
540.998	43.38
541.425	43.43
541.852	43.49
542.28	43.53
542.707	43.6
543.134	43.65
543.561	43.68
543.988	43.72
544.415	43.74
544.842	43.77
545.269	43.81
545.696	43.85
546.123	43.88
546.549	43.92
546.976	43.95
547.403	43.97
547.829	44.01
548.256	44.04
548.682	44.07
549.108	44.09
549.535	44.09
549.961	44.09
550.387	44.07
550.813	44.06
551.24	44.04
551.666	44.07
552.092	44.07
552.518	44.05
552.943	44.04
553.369	44.02
553.795	44
554.221	43.97
554.646	43.93
555.072	43.92
555.498	43.87
555.923	43.82
556.349	43.73
556.774	43.65
557.199	43.57
557.625	43.46
558.05	43.35
558.475	43.25
558.9	43.16
559.325	43.06
559.75	42.96
560.175	42.83
560.6	42.69
561.025	42.56
561.449	42.42
561.874	42.25
562.299	42.13
562.723	41.99
563.148	41.83
563.572	41.67
563.997	41.49
564.421	41.3
564.846	41.11
565.27	40.91
565.694	40.71
566.118	40.52
566.542	40.34
566.966	40.12
567.39	39.89
567.814	39.68
568.238	39.44
568.662	39.22
569.086	38.98
569.509	38.74
569.933	38.51
570.357	38.28
570.78	38.06
571.204	37.82
571.627	37.59
572.05	37.37
572.474	37.14
572.897	36.91
573.32	36.69
573.743	36.47
574.166	36.27
574.589	36.06
575.012	35.87
575.435	35.64
575.858	35.47
576.281	35.28
576.704	35.08
577.126	34.91
577.549	34.77
577.972	34.61
578.394	34.46
578.817	34.31
579.239	34.17
579.661	34.03
580.084	33.92
580.506	33.79
580.928	33.67
581.35	33.58
581.772	33.47
582.194	33.35
582.616	33.25
583.038	33.15
583.46	33.06
583.882	32.97
584.303	32.86
584.725	32.77
585.147	32.65
585.568	32.55
585.99	32.43
586.411	32.34
586.833	32.25
587.254	32.17
587.675	32.08
588.096	31.99
588.518	31.91
588.939	31.87
589.36	31.79
589.781	31.73
590.202	31.68
590.623	31.62
591.043	31.56
591.464	31.48
591.885	31.44
592.305	31.4
592.726	31.37
593.147	31.34
593.567	31.25
593.987	31.21
594.408	31.15
594.828	31.09
595.248	31.06
595.669	31.02
596.089	30.99
596.509	30.9
596.929	30.86
597.349	30.79
597.769	30.72
598.189	30.68
598.608	30.62
599.028	30.56
599.448	30.5
599.867	30.41
600.287	30.34
600.706	30.24
601.126	30.18
601.545	30.09
601.965	30.01
602.384	29.93
602.803	29.82
603.222	29.73
603.641	29.65
604.061	29.53
604.48	29.43
604.898	29.32
605.317	29.2
605.736	29.08
606.155	28.94
606.574	28.81
606.992	28.66
607.411	28.53
607.829	28.36
608.248	28.21
608.666	28.08
609.085	27.92
609.503	27.78
609.921	27.63
610.339	27.5
610.758	27.38
611.176	27.23
611.594	27.09
612.012	26.97
612.43	26.87
612.847	26.73
613.265	26.6
613.683	26.48
614.101	26.34
614.518	26.25
614.936	26.12
615.353	25.98
615.771	25.87
616.188	25.77
616.606	25.65
617.023	25.53
617.44	25.44
617.857	25.32
618.274	25.23
618.691	25.15
619.108	25.05
619.525	24.97
619.942	24.91
620.359	24.85
620.776	24.78
621.192	24.73
621.609	24.69
622.026	24.64
622.442	24.59
622.859	24.54
623.275	24.51
623.691	24.47
624.108	24.45
624.524	24.41
624.94	24.38
625.356	24.35
625.772	24.33
626.188	24.31
626.604	24.29
627.02	24.28
627.436	24.27
627.852	24.25
628.268	24.23
628.683	24.21
629.099	24.19
629.514	24.16
629.93	24.15
630.345	24.1
630.761	24.05
631.176	24.01
631.591	23.95
632.007	23.89
632.422	23.82
632.837	23.75
633.252	23.67
633.667	23.57
634.082	23.48
634.497	23.36
634.911	23.25
635.326	23.13
635.741	23
636.155	22.86
636.57	22.72
636.984	22.56
637.399	22.38
637.813	22.19
638.228	22.03
638.642	21.86
639.056	21.67
639.47	21.49
639.884	21.3
640.298	21.1
640.712	20.9
641.126	20.71
641.54	20.53
641.954	20.35
642.368	20.16
642.781	19.94
643.195	19.73
643.609	19.56
644.022	19.37
644.436	19.18
644.849	19
645.262	18.83
645.676	18.63
646.089	18.45
646.502	18.27
646.915	18.11
647.328	17.98
647.741	17.82
648.154	17.69
648.567	17.59
648.98	17.48
649.393	17.36
649.805	17.25
650.218	17.17
650.631	17.06
651.043	16.97
651.456	16.88
651.868	16.78
652.28	16.68
652.693	16.55
653.105	16.44
653.517	16.31
653.929	16.19
654.341	16.07
654.753	15.93
655.165	15.79
655.577	15.64
655.989	15.48
656.401	15.31
656.813	15.13
657.224	14.97
657.636	14.8
658.047	14.63
658.459	14.46
658.87	14.27
659.282	14.1
659.693	13.92
660.104	13.73
660.515	13.55
660.926	13.38
661.338	13.22
661.749	13.04
662.159	12.85
662.57	12.69
662.981	12.52
663.392	12.36
663.803	12.21
664.213	12.08
664.624	11.96
665.035	11.83
665.445	11.73
665.855	11.61
666.266	11.51
666.676	11.41
667.086	11.33
667.497	11.25
667.907	11.18
668.317	11.11
668.727	11.05
669.137	10.98
669.547	10.94
669.956	10.89
670.366	10.87
670.776	10.83
671.186	10.81
671.595	10.8
672.005	10.78
672.414	10.76
672.824	10.76
673.233	10.76
673.642	10.76
674.052	10.76
674.461	10.77
674.87	10.79
675.279	10.8
675.688	10.83
676.097	10.84
676.506	10.88
676.915	10.91
677.323	10.95
677.732	10.99
678.141	11.06
678.549	11.13
678.958	11.21
679.366	11.28
679.775	11.38
680.183	11.48
680.592	11.61
681	11.75
681.408	11.92
681.816	12.1
682.224	12.3
682.632	12.55
683.04	12.79
683.448	13.07
683.856	13.38
684.264	13.74
684.671	14.15
685.079	14.58
685.487	15.06
685.894	15.55
686.302	16.1
686.709	16.67
687.116	17.28
687.524	17.94
687.931	18.63
688.338	19.35
688.745	20.1
689.152	20.9
689.559	21.7
689.966	22.52
690.373	23.41
690.78	24.28
691.187	25.19
691.593	26.1
692	27.02
692.407	27.94
692.813	28.89
693.22	29.79
693.626	30.7
694.032	31.62
694.439	32.54
694.845	33.42
695.251	34.3
695.657	35.16
696.063	36.02
696.469	36.88
696.875	37.69
697.281	38.5
697.687	39.37
698.093	40.14
698.498	40.95
698.904	41.73
699.31	42.46
699.715	43.2
700.12	43.89
700.526	44.61
700.931	45.28
701.337	45.98
701.742	46.6
702.147	47.22
702.552	47.85
702.957	48.46
703.362	49.05
703.767	49.64
704.172	50.2
704.577	50.78
704.981	51.29
705.386	51.79
705.791	52.28
706.195	52.81
706.6	53.28
707.004	53.76
707.408	54.21
707.813	54.66
708.217	55.12
708.621	55.55
709.025	55.98
709.43	56.4
709.834	56.87
710.237	57.26
710.641	57.65
711.045	57.99
711.449	58.33
711.853	58.69
712.256	59.08
712.66	59.41
713.064	59.73
713.467	60.04
713.87	60.35
714.274	60.63
714.677	60.96
715.08	61.22
715.484	61.57
715.887	61.89
716.29	62.15
716.693	62.37
717.096	62.64
717.499	62.95
717.901	63.2
718.304	63.48
718.707	63.74
719.109	64.03
719.512	64.32
719.915	64.56
720.317	64.76
720.719	64.98
721.122	65.24
721.524	65.46
721.926	65.67
722.328	65.88
722.731	66.09
723.133	66.3
723.535	66.46
723.937	66.62
724.338	66.76
724.74	66.93
725.142	67.06
725.544	67.2
725.945	67.34
726.347	67.49
726.748	67.59
727.15	67.67
727.551	67.78
727.952	67.88
728.354	68.05
728.755	68.18
729.156	68.35
729.557	68.57
729.958	68.68
730.359	68.78
730.76	68.85
731.161	68.98
731.562	69.08
731.962	69.17
732.363	69.28
732.763	69.35
733.164	69.42
733.564	69.43
733.965	69.43
734.365	69.46
734.766	69.53
735.166	69.56
735.566	69.57
735.966	69.6
736.366	69.61
736.766	69.61
737.166	69.62
737.566	69.64
737.966	69.67
738.365	69.72
738.765	69.77
739.165	69.74
739.564	69.82
739.964	69.88
740.363	69.93
740.763	69.98
741.162	70.03
741.561	70.09
741.96	70.14
742.36	70.19
742.759	70.19
743.158	70.19
743.557	70.24
743.955	70.32
744.354	70.36
744.753	70.38
745.152	70.39
745.55	70.42
745.949	70.42
746.348	70.47
746.746	70.48
747.144	70.54
747.543	70.58
747.941	70.67
748.339	70.66
748.737	70.69
749.136	70.71
749.534	70.78
749.932	70.79
750.33	70.81
750.727	70.79
751.125	70.81
751.523	70.76
751.921	70.79
752.318	70.76
752.716	70.74
753.113	70.7
753.511	70.68
753.908	70.66
754.305	70.64
754.703	70.62
755.1	70.64
755.497	70.63
755.894	70.68
756.291	70.62
756.688	70.6
757.085	70.59
757.482	70.6
757.878	70.63
758.275	70.62
758.672	70.64
759.068	70.65
759.465	70.62
759.861	70.59
760.258	70.53
760.654	70.54
761.05	70.55
761.447	70.53
761.843	70.5
