Data from N_2_hir_il_4n_053_Splice17_20.txt Node
Date: Sat Feb 29 13:58:24 EST 2020
User: sa697716
Spectrometer: FLMS03696
Trigger mode: 0
Integration Time (sec): 3.180400E-1
Scans to average: 20
Electric dark correction enabled: true
Nonlinearity correction enabled: true
Boxcar width: 5
XAxis mode: Wavelengths
Number of Pixels in Spectrum: 2048
>>>>>Begin Spectral Data<<<<<
187.83	120.07
188.298	104.05
188.766	98.64
189.233	89.99
189.701	105.49
190.169	105.29
190.636	103.98
191.104	90.61
191.571	162.81
192.039	249.74
192.506	-444.9
192.974	3732.64
193.441	358.1
193.908	13.22
194.375	-42.86
194.842	137.39
195.31	99.73
195.777	109.7
196.244	46.52
196.711	27
197.177	22.22
197.644	20.76
198.111	19.63
198.578	19.25
199.045	20.04
199.511	19.59
199.978	19.56
200.445	19.54
200.911	19.69
201.378	19.57
201.844	20.13
202.31	20.84
202.777	21.62
203.243	22.08
203.709	22.5
204.176	22.23
204.642	22.94
205.108	22.69
205.574	23.01
206.04	23.09
206.506	23.27
206.972	22.88
207.438	22.59
207.903	22.47
208.369	22.07
208.835	22.14
209.301	21.96
209.766	21.68
210.232	21.66
210.697	21.68
211.163	21.42
211.628	20.92
212.094	20.99
212.559	21.16
213.024	20.83
213.49	20.46
213.955	20.17
214.42	19.78
214.885	19.34
215.35	19.05
215.815	18.45
216.28	17.87
216.745	17.51
217.21	16.66
217.675	15.96
218.14	15.19
218.604	14.59
219.069	14.16
219.534	13.77
219.998	13.35
220.463	13.02
220.927	12.67
221.392	12.38
221.856	12.1
222.32	11.89
222.785	11.67
223.249	11.54
223.713	11.41
224.177	11.21
224.642	11.08
225.106	10.94
225.57	10.78
226.034	10.64
226.497	10.51
226.961	10.37
227.425	10.21
227.889	10.07
228.353	9.92
228.816	9.8
229.28	9.67
229.744	9.54
230.207	9.44
230.671	9.31
231.134	9.21
231.597	9.08
232.061	8.98
232.524	8.91
232.987	8.82
233.45	8.71
233.914	8.61
234.377	8.53
234.84	8.44
235.303	8.34
235.766	8.26
236.229	8.17
236.691	8.12
237.154	8.03
237.617	7.93
238.08	7.83
238.542	7.78
239.005	7.7
239.468	7.61
239.93	7.54
240.393	7.47
240.855	7.4
241.317	7.33
241.78	7.26
242.242	7.18
242.704	7.12
243.166	7.07
243.629	7
244.091	6.95
244.553	6.89
245.015	6.84
245.477	6.77
245.939	6.71
246.4	6.65
246.862	6.6
247.324	6.57
247.786	6.51
248.247	6.48
248.709	6.42
249.17	6.38
249.632	6.34
250.093	6.27
250.555	6.23
251.016	6.18
251.477	6.15
251.939	6.11
252.4	6.07
252.861	6.03
253.322	5.97
253.783	5.94
254.244	5.9
254.705	5.87
255.166	5.85
255.627	5.82
256.088	5.8
256.549	5.77
257.009	5.73
257.47	5.7
257.931	5.67
258.391	5.64
258.852	5.61
259.312	5.57
259.773	5.54
260.233	5.51
260.694	5.47
261.154	5.44
261.614	5.41
262.074	5.39
262.534	5.34
262.994	5.32
263.455	5.29
263.915	5.26
264.374	5.23
264.834	5.2
265.294	5.18
265.754	5.15
266.214	5.13
266.673	5.12
267.133	5.09
267.593	5.08
268.052	5.05
268.512	5.03
268.971	5.02
269.431	5
269.89	4.99
270.349	4.98
270.809	4.97
271.268	4.95
271.727	4.93
272.186	4.92
272.645	4.9
273.104	4.89
273.563	4.88
274.022	4.86
274.481	4.85
274.94	4.82
275.399	4.8
275.857	4.78
276.316	4.76
276.775	4.74
277.233	4.72
277.692	4.71
278.15	4.69
278.609	4.66
279.067	4.64
279.525	4.62
279.984	4.61
280.442	4.6
280.9	4.59
281.358	4.57
281.816	4.56
282.274	4.55
282.732	4.53
283.19	4.52
283.648	4.51
284.106	4.5
284.564	4.5
285.021	4.48
285.479	4.47
285.937	4.45
286.394	4.43
286.852	4.42
287.309	4.41
287.767	4.4
288.224	4.38
288.682	4.37
289.139	4.35
289.596	4.33
290.053	4.3
290.511	4.28
290.968	4.27
291.425	4.26
291.882	4.23
292.339	4.21
292.796	4.18
293.252	4.17
293.709	4.14
294.166	4.12
294.623	4.11
295.079	4.1
295.536	4.09
295.992	4.07
296.449	4.07
296.905	4.06
297.362	4.05
297.818	4.04
298.274	4.04
298.731	4.03
299.187	4.02
299.643	4.01
300.099	4.01
300.555	3.99
301.011	3.97
301.467	3.96
301.923	3.94
302.379	3.94
302.835	3.93
303.291	3.92
303.746	3.91
304.202	3.89
304.658	3.89
305.113	3.88
305.569	3.87
306.024	3.86
306.479	3.85
306.935	3.84
307.39	3.83
307.845	3.82
308.301	3.82
308.756	3.81
309.211	3.81
309.666	3.8
310.121	3.8
310.576	3.78
311.031	3.78
311.486	3.78
311.94	3.77
312.395	3.77
312.85	3.76
313.305	3.75
313.759	3.75
314.214	3.75
314.668	3.74
315.123	3.73
315.577	3.73
316.032	3.73
316.486	3.72
316.94	3.71
317.394	3.7
317.849	3.69
318.303	3.68
318.757	3.67
319.211	3.65
319.665	3.65
320.119	3.64
320.572	3.63
321.026	3.62
321.48	3.61
321.934	3.61
322.387	3.6
322.841	3.59
323.295	3.59
323.748	3.58
324.202	3.58
324.655	3.57
325.108	3.55
325.562	3.54
326.015	3.52
326.468	3.51
326.921	3.5
327.374	3.49
327.827	3.49
328.28	3.49
328.733	3.47
329.186	3.46
329.639	3.46
330.092	3.46
330.545	3.46
330.997	3.47
331.45	3.47
331.903	3.46
332.355	3.45
332.808	3.44
333.26	3.43
333.713	3.43
334.165	3.43
334.617	3.42
335.069	3.42
335.522	3.42
335.974	3.41
336.426	3.41
336.878	3.41
337.33	3.42
337.782	3.42
338.234	3.43
338.686	3.42
339.137	3.42
339.589	3.42
340.041	3.41
340.493	3.39
340.944	3.37
341.396	3.38
341.847	3.37
342.299	3.34
342.75	3.32
343.201	3.31
343.653	3.29
344.104	3.28
344.555	3.27
345.006	3.27
345.457	3.26
345.908	3.25
346.359	3.24
346.81	3.24
347.261	3.24
347.712	3.23
348.163	3.23
348.613	3.22
349.064	3.21
349.515	3.19
349.965	3.18
350.416	3.18
350.866	3.17
351.317	3.17
351.767	3.17
352.217	3.15
352.668	3.16
353.118	3.15
353.568	3.15
354.018	3.15
354.468	3.15
354.918	3.16
355.368	3.16
355.818	3.15
356.268	3.15
356.718	3.15
357.168	3.14
357.617	3.13
358.067	3.12
358.517	3.12
358.966	3.12
359.416	3.12
359.865	3.11
360.315	3.11
360.764	3.11
361.213	3.1
361.663	3.1
362.112	3.11
362.561	3.11
363.01	3.12
363.459	3.11
363.908	3.11
364.357	3.11
364.806	3.11
365.255	3.11
365.703	3.11
366.152	3.11
366.601	3.11
367.05	3.11
367.498	3.11
367.947	3.11
368.395	3.12
368.844	3.12
369.292	3.12
369.74	3.11
370.189	3.1
370.637	3.09
371.085	3.09
371.533	3.08
371.981	3.08
372.429	3.06
372.877	3.05
373.325	3.03
373.773	3.02
374.221	3.02
374.669	3.02
375.116	3.02
375.564	3.02
376.012	3.03
376.459	3.03
376.907	3.03
377.354	3.03
377.801	3.04
378.249	3.06
378.696	3.08
379.143	3.08
379.591	3.08
380.038	3.09
380.485	3.09
380.932	3.08
381.379	3.08
381.826	3.08
382.273	3.09
382.72	3.09
383.166	3.08
383.613	3.08
384.06	3.08
384.506	3.09
384.953	3.1
385.4	3.09
385.846	3.11
386.292	3.11
386.739	3.12
387.185	3.13
387.631	3.14
388.078	3.15
388.524	3.15
388.97	3.16
389.416	3.17
389.862	3.18
390.308	3.19
390.754	3.21
391.2	3.23
391.645	3.24
392.091	3.26
392.537	3.27
392.983	3.29
393.428	3.3
393.874	3.33
394.319	3.34
394.765	3.36
395.21	3.37
395.655	3.39
396.101	3.41
396.546	3.42
396.991	3.43
397.436	3.43
397.881	3.45
398.326	3.48
398.771	3.5
399.216	3.52
399.661	3.54
400.106	3.57
400.551	3.58
400.995	3.58
401.44	3.6
401.885	3.62
402.329	3.64
402.774	3.65
403.218	3.67
403.663	3.67
404.107	3.68
404.551	3.7
404.995	3.72
405.44	3.74
405.884	3.76
406.328	3.78
406.772	3.8
407.216	3.82
407.66	3.83
408.104	3.84
408.547	3.86
408.991	3.88
409.435	3.89
409.879	3.89
410.322	3.91
410.766	3.93
411.209	3.95
411.653	3.95
412.096	3.96
412.54	3.99
412.983	4.01
413.426	4.03
413.869	4.05
414.312	4.08
414.756	4.11
415.199	4.13
415.642	4.16
416.085	4.19
416.527	4.22
416.97	4.24
417.413	4.24
417.856	4.23
418.298	4.23
418.741	4.24
419.184	4.23
419.626	4.23
420.069	4.23
420.511	4.22
420.953	4.22
421.396	4.24
421.838	4.25
422.28	4.28
422.722	4.3
423.164	4.32
423.606	4.35
424.048	4.35
424.49	4.36
424.932	4.37
425.374	4.37
425.816	4.36
426.258	4.35
426.699	4.34
427.141	4.33
427.582	4.32
428.024	4.32
428.465	4.31
428.907	4.32
429.348	4.32
429.789	4.34
430.231	4.35
430.672	4.37
431.113	4.39
431.554	4.41
431.995	4.43
432.436	4.43
432.877	4.43
433.318	4.42
433.759	4.44
434.2	4.44
434.64	4.45
435.081	4.43
435.522	4.44
435.962	4.44
436.403	4.46
436.843	4.45
437.284	4.47
437.724	4.49
438.164	4.5
438.604	4.51
439.045	4.52
439.485	4.53
439.925	4.53
440.365	4.53
440.805	4.52
441.245	4.5
441.685	4.53
442.125	4.54
442.564	4.55
443.004	4.58
443.444	4.59
443.883	4.6
444.323	4.58
444.762	4.61
445.202	4.64
445.641	4.67
446.081	4.69
446.52	4.7
446.959	4.71
447.398	4.72
447.837	4.75
448.276	4.76
448.716	4.77
449.154	4.81
449.593	4.84
450.032	4.85
450.471	4.86
450.91	4.86
451.349	4.87
451.787	4.87
452.226	4.85
452.664	4.84
453.103	4.84
453.541	4.84
453.98	4.81
454.418	4.78
454.856	4.76
455.295	4.74
455.733	4.73
456.171	4.73
456.609	4.72
457.047	4.71
457.485	4.71
457.923	4.71
458.361	4.7
458.798	4.71
459.236	4.72
459.674	4.72
460.111	4.73
460.549	4.72
460.987	4.71
461.424	4.72
461.862	4.71
462.299	4.71
462.736	4.71
463.173	4.71
463.611	4.7
464.048	4.69
464.485	4.69
464.922	4.68
465.359	4.7
465.796	4.7
466.233	4.71
466.67	4.74
467.106	4.73
467.543	4.73
467.98	4.72
468.416	4.74
468.853	4.75
469.29	4.75
469.726	4.75
470.162	4.73
470.599	4.72
471.035	4.71
471.471	4.69
471.907	4.69
472.344	4.68
472.78	4.67
473.216	4.65
473.652	4.64
474.088	4.64
474.523	4.63
474.959	4.64
475.395	4.63
475.831	4.65
476.266	4.63
476.702	4.64
477.138	4.64
477.573	4.65
478.008	4.65
478.444	4.65
478.879	4.65
479.314	4.64
479.75	4.64
480.185	4.63
480.62	4.61
481.055	4.62
481.49	4.6
481.925	4.59
482.36	4.58
482.795	4.57
483.229	4.56
483.664	4.56
484.099	4.56
484.534	4.55
484.968	4.55
485.403	4.55
485.837	4.55
486.271	4.55
486.706	4.55
487.14	4.56
487.574	4.57
488.009	4.59
488.443	4.59
488.877	4.6
489.311	4.61
489.745	4.63
490.179	4.64
490.613	4.65
491.046	4.67
491.48	4.69
491.914	4.7
492.348	4.72
492.781	4.72
493.215	4.74
493.648	4.77
494.082	4.8
494.515	4.82
494.948	4.85
495.382	4.88
495.815	4.91
496.248	4.95
496.681	4.99
497.114	5.03
497.547	5.08
497.98	5.13
498.413	5.18
498.846	5.23
499.279	5.29
499.711	5.34
500.144	5.41
500.577	5.47
501.009	5.53
501.442	5.6
501.874	5.67
502.306	5.75
502.739	5.83
503.171	5.92
503.603	6.01
504.036	6.11
504.468	6.21
504.9	6.32
505.332	6.42
505.764	6.55
506.196	6.68
506.627	6.8
507.059	6.93
507.491	7.07
507.923	7.21
508.354	7.36
508.786	7.51
509.217	7.67
509.649	7.85
510.08	8.03
510.512	8.2
510.943	8.39
511.374	8.59
511.805	8.78
512.237	8.99
512.668	9.2
513.099	9.42
513.53	9.65
513.961	9.88
514.391	10.09
514.822	10.32
515.253	10.58
515.684	10.81
516.114	11.07
516.545	11.32
516.975	11.59
517.406	11.85
517.836	12.13
518.267	12.4
518.697	12.66
519.127	12.94
519.558	13.22
519.988	13.49
520.418	13.74
520.848	14
521.278	14.29
521.708	14.43
522.138	14.67
522.567	14.9
522.997	15.15
523.427	15.4
523.857	15.64
524.286	15.87
524.716	16.09
525.145	16.34
525.575	16.57
526.004	16.77
526.433	17.1
526.863	17.33
527.292	17.53
527.721	17.7
528.15	17.88
528.579	18.06
529.008	18.23
529.437	18.4
529.866	18.53
530.295	18.66
530.724	18.83
531.152	18.96
531.581	19.07
532.01	19.19
532.438	19.32
532.867	19.44
533.295	19.53
533.723	19.64
534.152	19.73
534.58	19.82
535.008	19.89
535.436	19.95
535.865	20.01
536.293	20.11
536.721	20.18
537.149	20.23
537.576	20.27
538.004	20.32
538.432	20.36
538.86	20.41
539.287	20.46
539.715	20.53
540.143	20.55
540.57	20.59
540.998	20.62
541.425	20.65
541.852	20.69
542.28	20.71
542.707	20.76
543.134	20.79
543.561	20.8
543.988	20.83
544.415	20.83
544.842	20.85
545.269	20.87
545.696	20.88
546.123	20.9
546.549	20.92
546.976	20.96
547.403	20.98
547.829	21.01
548.256	21.04
548.682	21.05
549.108	21.08
549.535	21.11
549.961	21.12
550.387	21.13
550.813	21.12
551.24	21.1
551.666	21.1
552.092	21.09
552.518	21.06
552.943	21.06
553.369	21.04
553.795	21.03
554.221	20.98
554.646	20.96
555.072	20.93
555.498	20.9
555.923	20.84
556.349	20.76
556.774	20.69
557.199	20.63
557.625	20.54
558.05	20.45
558.475	20.34
558.9	20.26
559.325	20.14
559.75	20.03
560.175	19.93
560.6	19.82
561.025	19.71
561.449	19.59
561.874	19.46
562.299	19.34
562.723	19.21
563.148	19.08
563.572	18.95
563.997	18.83
564.421	18.67
564.846	18.51
565.27	18.35
565.694	18.2
566.118	18.06
566.542	17.91
566.966	17.75
567.39	17.58
567.814	17.42
568.238	17.25
568.662	17.08
569.086	16.92
569.509	16.76
569.933	16.61
570.357	16.45
570.78	16.3
571.204	16.13
571.627	15.97
572.05	15.83
572.474	15.68
572.897	15.54
573.32	15.39
573.743	15.26
574.166	15.13
574.589	15.01
575.012	14.88
575.435	14.74
575.858	14.63
576.281	14.51
576.704	14.4
577.126	14.27
577.549	14.18
577.972	14.08
578.394	13.99
578.817	13.9
579.239	13.81
579.661	13.72
580.084	13.63
580.506	13.54
580.928	13.45
581.35	13.36
581.772	13.31
582.194	13.22
582.616	13.14
583.038	13.05
583.46	12.98
583.882	12.9
584.303	12.83
584.725	12.75
585.147	12.69
585.568	12.63
585.99	12.58
586.411	12.52
586.833	12.47
587.254	12.41
587.675	12.37
588.096	12.32
588.518	12.27
588.939	12.23
589.36	12.21
589.781	12.15
590.202	12.12
590.623	12.06
591.043	12.01
591.464	11.98
591.885	11.95
592.305	11.94
592.726	11.9
593.147	11.86
593.567	11.82
593.987	11.79
594.408	11.76
594.828	11.72
595.248	11.71
595.669	11.7
596.089	11.66
596.509	11.61
596.929	11.56
597.349	11.53
597.769	11.5
598.189	11.47
598.608	11.43
599.028	11.4
599.448	11.35
599.867	11.31
600.287	11.24
600.706	11.19
601.126	11.15
601.545	11.12
601.965	11.07
602.384	11.03
602.803	10.97
603.222	10.91
603.641	10.86
604.061	10.82
604.48	10.77
604.898	10.72
605.317	10.66
605.736	10.61
606.155	10.54
606.574	10.47
606.992	10.39
607.411	10.35
607.829	10.25
608.248	10.18
608.666	10.11
609.085	10.05
609.503	9.99
609.921	9.93
610.339	9.86
610.758	9.8
611.176	9.74
611.594	9.68
612.012	9.6
612.43	9.58
612.847	9.52
613.265	9.46
613.683	9.38
614.101	9.31
614.518	9.25
614.936	9.19
615.353	9.12
615.771	9.06
616.188	9.02
616.606	8.97
617.023	8.9
617.44	8.85
617.857	8.79
618.274	8.76
618.691	8.72
619.108	8.68
619.525	8.65
619.942	8.62
620.359	8.6
620.776	8.56
621.192	8.53
621.609	8.52
622.026	8.49
622.442	8.48
622.859	8.46
623.275	8.45
623.691	8.43
624.108	8.43
624.524	8.41
624.94	8.38
625.356	8.37
625.772	8.36
626.188	8.35
626.604	8.34
627.02	8.33
627.436	8.31
627.852	8.3
628.268	8.3
628.683	8.27
629.099	8.25
629.514	8.25
629.93	8.23
630.345	8.2
630.761	8.18
631.176	8.16
631.591	8.13
632.007	8.1
632.422	8.07
632.837	8.02
633.252	7.98
633.667	7.94
634.082	7.89
634.497	7.83
634.911	7.78
635.326	7.72
635.741	7.65
636.155	7.59
636.57	7.53
636.984	7.46
637.399	7.38
637.813	7.29
638.228	7.22
638.642	7.14
639.056	7.06
639.47	6.98
639.884	6.9
640.298	6.82
640.712	6.74
641.126	6.65
641.54	6.57
641.954	6.52
642.368	6.45
642.781	6.38
643.195	6.3
643.609	6.23
644.022	6.16
644.436	6.1
644.849	6.02
645.262	5.97
645.676	5.9
646.089	5.83
646.502	5.76
646.915	5.72
647.328	5.67
647.741	5.62
648.154	5.59
648.567	5.57
648.98	5.53
649.393	5.51
649.805	5.47
650.218	5.45
650.631	5.44
651.043	5.42
651.456	5.4
651.868	5.37
652.28	5.34
652.693	5.31
653.105	5.28
653.517	5.24
653.929	5.22
654.341	5.19
654.753	5.16
655.165	5.13
655.577	5.08
655.989	5.05
656.401	5
656.813	4.96
657.224	4.93
657.636	4.9
658.047	4.86
658.459	4.81
658.87	4.77
659.282	4.74
659.693	4.69
660.104	4.65
660.515	4.6
660.926	4.58
661.338	4.54
661.749	4.5
662.159	4.44
662.57	4.43
662.981	4.39
663.392	4.35
663.803	4.32
664.213	4.3
664.624	4.29
665.035	4.26
665.445	4.24
665.855	4.23
666.266	4.23
666.676	4.23
667.086	4.21
667.497	4.2
667.907	4.19
668.317	4.18
668.727	4.18
669.137	4.17
669.547	4.19
669.956	4.2
670.366	4.21
670.776	4.21
671.186	4.22
671.595	4.22
672.005	4.24
672.414	4.25
672.824	4.28
673.233	4.29
673.642	4.3
674.052	4.3
674.461	4.32
674.87	4.33
675.279	4.35
675.688	4.36
676.097	4.4
676.506	4.42
676.915	4.45
677.323	4.46
677.732	4.5
678.141	4.53
678.549	4.57
678.958	4.6
679.366	4.63
679.775	4.67
680.183	4.71
680.592	4.75
681	4.79
681.408	4.83
681.816	4.87
682.224	4.92
682.632	4.99
683.04	5.05
683.448	5.11
683.856	5.2
684.264	5.28
684.671	5.39
685.079	5.48
685.487	5.61
685.894	5.75
686.302	5.91
686.709	6.08
687.116	6.25
687.524	6.45
687.931	6.69
688.338	6.94
688.745	7.2
689.152	7.49
689.559	7.81
689.966	8.14
690.373	8.51
690.78	8.9
691.187	9.3
691.593	9.72
692	10.17
692.407	10.65
692.813	11.13
693.22	11.64
693.626	12.15
694.032	12.7
694.439	13.26
694.845	13.8
695.251	14.38
695.657	14.95
696.063	15.57
696.469	16.18
696.875	16.78
697.281	17.37
697.687	17.99
698.093	18.6
698.498	19.22
698.904	19.84
699.31	20.44
699.715	21.06
700.12	21.66
700.526	22.23
700.931	22.82
701.337	23.41
701.742	24.01
702.147	24.58
702.552	25.17
702.957	25.73
703.362	26.32
703.767	26.88
704.172	27.43
704.577	28
704.981	28.57
705.386	29.12
705.791	29.67
706.195	30.2
706.6	30.7
707.004	31.23
707.408	31.74
707.813	32.2
708.217	32.72
708.621	33.25
709.025	33.75
709.43	34.24
709.834	34.71
710.237	35.18
710.641	35.66
711.045	36.14
711.449	36.6
711.853	37.1
712.256	37.6
712.66	38.06
713.064	38.48
713.467	38.9
713.87	39.34
714.274	39.79
714.677	40.23
715.08	40.68
715.484	41.12
715.887	41.53
716.29	41.9
716.693	42.29
717.096	42.66
717.499	43.04
717.901	43.41
718.304	43.76
718.707	44.1
719.109	44.44
719.512	44.76
719.915	45.1
720.317	45.43
720.719	45.76
721.122	46.04
721.524	46.37
721.926	46.72
722.328	47.06
722.731	47.39
723.133	47.7
723.535	48.02
723.937	48.31
724.338	48.54
724.74	48.79
725.142	49.06
725.544	49.35
725.945	49.62
726.347	49.83
726.748	50.02
727.15	50.23
727.551	50.43
727.952	50.59
728.354	50.8
728.755	51.02
729.156	51.26
729.557	51.44
729.958	51.63
730.359	51.77
730.76	51.94
731.161	52.11
731.562	52.29
731.962	52.44
732.363	52.58
732.763	52.72
733.164	52.86
733.564	52.95
733.965	53.03
734.365	53.11
734.766	53.23
735.166	53.3
735.566	53.39
735.966	53.45
736.366	53.54
736.766	53.67
737.166	53.78
737.566	53.86
737.966	53.96
738.365	54.08
738.765	54.2
739.165	54.26
739.564	54.36
739.964	54.45
740.363	54.54
740.763	54.63
741.162	54.67
741.561	54.71
741.96	54.81
742.36	54.91
742.759	54.95
743.158	54.98
743.557	55.05
743.955	55.16
744.354	55.21
744.753	55.29
745.152	55.33
745.55	55.38
745.949	55.44
746.348	55.48
746.746	55.47
747.144	55.56
747.543	55.59
747.941	55.64
748.339	55.68
748.737	55.73
749.136	55.76
749.534	55.8
749.932	55.85
750.33	55.84
750.727	55.85
751.125	55.85
751.523	55.84
751.921	55.88
752.318	55.89
752.716	55.88
753.113	55.86
753.511	55.82
753.908	55.85
754.305	55.85
754.703	55.86
755.1	55.84
755.497	55.86
755.894	55.88
756.291	55.82
756.688	55.8
757.085	55.75
757.482	55.77
757.878	55.8
758.275	55.76
758.672	55.79
759.068	55.82
759.465	55.82
759.861	55.83
760.258	55.79
760.654	55.82
761.05	55.83
761.447	55.85
761.843	55.83
762.239	55.78
762.635	55.8
763.031	55.75
763.427	55.7
763.822	55.7
764.218	55.68
764.614	55.69
765.01	55.68
765.405	55.67
765.801	55.67
766.196	55.66
766.592	55.69
766.987	55.69
767.382	55.69
767.778	55.73
768.173	55.74
768.568	55.71
768.963	55.72
769.358	55.74
769.753	55.76
770.148	55.77
770.542	55.77
770.937	55.75
771.332	55.75
771.726	55.75
772.121	55.71
772.515	55.72
772.91	55.75
773.304	55.72
773.699	55.74
774.093	55.71
774.487	55.72
774.881	55.73
775.275	55.74
775.669	55.74
776.063	55.72
776.457	55.72
776.851	55.68
777.245	55.68
777.638	55.66
778.032	55.64
778.425	55.64
778.819	55.63
779.212	55.59
779.606	55.58
779.999	55.56
780.392	55.57
780.786	55.58
781.179	55.6
781.572	55.55
781.965	55.58
782.358	55.57
782.751	55.55
783.143	55.54
783.536	55.57
783.929	55.6
784.322	55.63
