Data from N_2_hir_il_4n_053_Splice17_08.txt Node
Date: Sat Feb 29 13:57:59 EST 2020
User: sa697716
Spectrometer: FLMS03696
Trigger mode: 0
Integration Time (sec): 3.180400E-1
Scans to average: 20
Electric dark correction enabled: true
Nonlinearity correction enabled: true
Boxcar width: 5
XAxis mode: Wavelengths
Number of Pixels in Spectrum: 2048
>>>>>Begin Spectral Data<<<<<
187.83	95.99
188.298	95.04
188.766	78.86
189.233	71.17
189.701	88.32
190.169	86.3
190.636	94.89
191.104	79.31
191.571	88.28
192.039	-28.35
192.506	495.52
192.974	6513.25
193.441	-49.03
193.908	18.26
194.375	-81.82
194.842	41.3
195.31	32.95
195.777	105.04
196.244	21.14
196.711	20.28
197.177	19
197.644	19.74
198.111	19.89
198.578	20.45
199.045	21.13
199.511	20.96
199.978	20.64
200.445	20.45
200.911	20.56
201.378	21.07
201.844	21.47
202.31	21.75
202.777	22.01
203.243	22.43
203.709	22.86
204.176	22.66
204.642	23.24
205.108	23.63
205.574	23.91
206.04	23.39
206.506	22.92
206.972	22.4
207.438	22.04
207.903	22.09
208.369	21.67
208.835	21.3
209.301	21.41
209.766	21.3
210.232	21.27
210.697	21.23
211.163	21.34
211.628	21.52
212.094	21.75
212.559	21.6
213.024	21.35
213.49	21.25
213.955	21.16
214.42	20.54
214.885	19.88
215.35	19.33
215.815	18.7
216.28	18.08
216.745	17.37
217.21	16.63
217.675	16.06
218.14	15.23
218.604	14.53
219.069	14
219.534	13.64
219.998	13.21
220.463	12.9
220.927	12.63
221.392	12.36
221.856	12.09
222.32	11.84
222.785	11.61
223.249	11.47
223.713	11.33
224.177	11.17
224.642	11.03
225.106	10.89
225.57	10.73
226.034	10.59
226.497	10.45
226.961	10.32
227.425	10.17
227.889	10.02
228.353	9.9
228.816	9.76
229.28	9.6
229.744	9.46
230.207	9.37
230.671	9.26
231.134	9.13
231.597	9
232.061	8.88
232.524	8.78
232.987	8.68
233.45	8.57
233.914	8.49
234.377	8.43
234.84	8.34
235.303	8.24
235.766	8.15
236.229	8.09
236.691	8.01
237.154	7.96
237.617	7.88
238.08	7.82
238.542	7.74
239.005	7.67
239.468	7.56
239.93	7.5
240.393	7.42
240.855	7.35
241.317	7.28
241.78	7.22
242.242	7.15
242.704	7.09
243.166	7.02
243.629	6.96
244.091	6.9
244.553	6.87
245.015	6.8
245.477	6.75
245.939	6.69
246.4	6.63
246.862	6.6
247.324	6.56
247.786	6.51
248.247	6.46
248.709	6.42
249.17	6.38
249.632	6.32
250.093	6.27
250.555	6.24
251.016	6.21
251.477	6.17
251.939	6.11
252.4	6.07
252.861	6.03
253.322	6
253.783	5.96
254.244	5.92
254.705	5.9
255.166	5.88
255.627	5.84
256.088	5.79
256.549	5.76
257.009	5.72
257.47	5.7
257.931	5.66
258.391	5.61
258.852	5.57
259.312	5.54
259.773	5.5
260.233	5.45
260.694	5.42
261.154	5.39
261.614	5.37
262.074	5.34
262.534	5.3
262.994	5.27
263.455	5.25
263.915	5.23
264.374	5.2
264.834	5.18
265.294	5.16
265.754	5.13
266.214	5.11
266.673	5.09
267.133	5.08
267.593	5.07
268.052	5.04
268.512	5.03
268.971	5.01
269.431	4.99
269.89	4.97
270.349	4.95
270.809	4.94
271.268	4.93
271.727	4.92
272.186	4.89
272.645	4.87
273.104	4.86
273.563	4.85
274.022	4.84
274.481	4.82
274.94	4.8
275.399	4.79
275.857	4.77
276.316	4.75
276.775	4.73
277.233	4.72
277.692	4.7
278.15	4.68
278.609	4.67
279.067	4.64
279.525	4.62
279.984	4.61
280.442	4.6
280.9	4.58
281.358	4.56
281.816	4.55
282.274	4.53
282.732	4.52
283.19	4.52
283.648	4.51
284.106	4.49
284.564	4.49
285.021	4.48
285.479	4.46
285.937	4.45
286.394	4.43
286.852	4.42
287.309	4.4
287.767	4.38
288.224	4.37
288.682	4.35
289.139	4.35
289.596	4.32
290.053	4.29
290.511	4.27
290.968	4.26
291.425	4.23
291.882	4.22
292.339	4.2
292.796	4.18
293.252	4.15
293.709	4.14
294.166	4.11
294.623	4.1
295.079	4.09
295.536	4.08
295.992	4.07
296.449	4.07
296.905	4.05
297.362	4.04
297.818	4.04
298.274	4.03
298.731	4.02
299.187	4.02
299.643	4.01
300.099	4
300.555	3.98
301.011	3.96
301.467	3.95
301.923	3.94
302.379	3.93
302.835	3.92
303.291	3.91
303.746	3.89
304.202	3.88
304.658	3.87
305.113	3.85
305.569	3.85
306.024	3.84
306.479	3.83
306.935	3.82
307.39	3.81
307.845	3.81
308.301	3.8
308.756	3.81
309.211	3.8
309.666	3.79
310.121	3.79
310.576	3.78
311.031	3.78
311.486	3.78
311.94	3.76
312.395	3.77
312.85	3.76
313.305	3.76
313.759	3.74
314.214	3.74
314.668	3.74
315.123	3.74
315.577	3.74
316.032	3.72
316.486	3.72
316.94	3.72
317.394	3.71
317.849	3.69
318.303	3.69
318.757	3.67
319.211	3.66
319.665	3.65
320.119	3.64
320.572	3.64
321.026	3.64
321.48	3.63
321.934	3.62
322.387	3.61
322.841	3.61
323.295	3.59
323.748	3.59
324.202	3.58
324.655	3.57
325.108	3.56
325.562	3.54
326.015	3.53
326.468	3.52
326.921	3.51
327.374	3.51
327.827	3.5
328.28	3.49
328.733	3.48
329.186	3.48
329.639	3.47
330.092	3.47
330.545	3.47
330.997	3.47
331.45	3.47
331.903	3.46
332.355	3.45
332.808	3.45
333.26	3.45
333.713	3.46
334.165	3.45
334.617	3.45
335.069	3.45
335.522	3.46
335.974	3.44
336.426	3.44
336.878	3.43
337.33	3.43
337.782	3.42
338.234	3.43
338.686	3.41
339.137	3.42
339.589	3.41
340.041	3.4
340.493	3.38
340.944	3.37
341.396	3.37
341.847	3.37
342.299	3.36
342.75	3.35
343.201	3.33
343.653	3.31
344.104	3.3
344.555	3.29
345.006	3.29
345.457	3.28
345.908	3.27
346.359	3.26
346.81	3.25
347.261	3.24
347.712	3.25
348.163	3.24
348.613	3.24
349.064	3.23
349.515	3.21
349.965	3.2
350.416	3.19
350.866	3.19
351.317	3.19
351.767	3.17
352.217	3.17
352.668	3.16
353.118	3.16
353.568	3.17
354.018	3.17
354.468	3.17
354.918	3.18
355.368	3.17
355.818	3.16
356.268	3.15
356.718	3.16
357.168	3.16
357.617	3.15
358.067	3.14
358.517	3.14
358.966	3.14
359.416	3.15
359.865	3.14
360.315	3.15
360.764	3.15
361.213	3.15
361.663	3.14
362.112	3.15
362.561	3.14
363.01	3.15
363.459	3.15
363.908	3.14
364.357	3.13
364.806	3.12
365.255	3.12
365.703	3.12
366.152	3.12
366.601	3.12
367.05	3.12
367.498	3.13
367.947	3.12
368.395	3.11
368.844	3.1
369.292	3.09
369.74	3.1
370.189	3.09
370.637	3.09
371.085	3.09
371.533	3.08
371.981	3.07
372.429	3.06
372.877	3.06
373.325	3.05
373.773	3.04
374.221	3.04
374.669	3.04
375.116	3.03
375.564	3.01
376.012	3.01
376.459	3.02
376.907	3.02
377.354	3.01
377.801	3.01
378.249	3.02
378.696	3.03
379.143	3.04
379.591	3.05
380.038	3.06
380.485	3.08
380.932	3.09
381.379	3.09
381.826	3.1
382.273	3.11
382.72	3.12
383.166	3.13
383.613	3.13
384.06	3.13
384.506	3.14
384.953	3.14
385.4	3.14
385.846	3.14
386.292	3.14
386.739	3.15
387.185	3.17
387.631	3.17
388.078	3.17
388.524	3.17
388.97	3.18
389.416	3.18
389.862	3.2
390.308	3.2
390.754	3.2
391.2	3.23
391.645	3.23
392.091	3.23
392.537	3.26
392.983	3.28
393.428	3.3
393.874	3.32
394.319	3.33
394.765	3.35
395.21	3.36
395.655	3.39
396.101	3.39
396.546	3.41
396.991	3.42
397.436	3.42
397.881	3.44
398.326	3.47
398.771	3.5
399.216	3.52
399.661	3.53
400.106	3.57
400.551	3.58
400.995	3.59
401.44	3.61
401.885	3.63
402.329	3.67
402.774	3.67
403.218	3.68
403.663	3.68
404.107	3.7
404.551	3.72
404.995	3.73
405.44	3.75
405.884	3.77
406.328	3.8
406.772	3.82
407.216	3.83
407.66	3.85
408.104	3.87
408.547	3.9
408.991	3.9
409.435	3.91
409.879	3.93
410.322	3.95
410.766	3.97
411.209	3.98
411.653	4
412.096	4
412.54	4.02
412.983	4.05
413.426	4.07
413.869	4.09
414.312	4.13
414.756	4.14
415.199	4.18
415.642	4.2
416.085	4.21
416.527	4.23
416.97	4.26
417.413	4.26
417.856	4.26
418.298	4.26
418.741	4.26
419.184	4.26
419.626	4.27
420.069	4.26
420.511	4.26
420.953	4.26
421.396	4.29
421.838	4.29
422.28	4.32
422.722	4.34
423.164	4.35
423.606	4.37
424.048	4.36
424.49	4.35
424.932	4.35
425.374	4.36
425.816	4.36
426.258	4.34
426.699	4.33
427.141	4.32
427.582	4.33
428.024	4.33
428.465	4.33
428.907	4.35
429.348	4.36
429.789	4.38
430.231	4.37
430.672	4.41
431.113	4.43
431.554	4.46
431.995	4.47
432.436	4.47
432.877	4.47
433.318	4.48
433.759	4.48
434.2	4.5
434.64	4.51
435.081	4.52
435.522	4.52
435.962	4.52
436.403	4.52
436.843	4.54
437.284	4.56
437.724	4.58
438.164	4.56
438.604	4.57
439.045	4.57
439.485	4.58
439.925	4.58
440.365	4.6
440.805	4.6
441.245	4.59
441.685	4.59
442.125	4.59
442.564	4.6
443.004	4.63
443.444	4.64
443.883	4.66
444.323	4.65
444.762	4.68
445.202	4.7
445.641	4.73
446.081	4.78
446.52	4.76
446.959	4.78
447.398	4.8
447.837	4.82
448.276	4.82
448.716	4.81
449.154	4.83
449.593	4.83
450.032	4.83
450.471	4.83
450.91	4.81
451.349	4.83
451.787	4.81
452.226	4.79
452.664	4.78
453.103	4.78
453.541	4.79
453.98	4.78
454.418	4.76
454.856	4.74
455.295	4.73
455.733	4.72
456.171	4.71
456.609	4.74
457.047	4.75
457.485	4.76
457.923	4.75
458.361	4.75
458.798	4.75
459.236	4.76
459.674	4.77
460.111	4.76
460.549	4.76
460.987	4.77
461.424	4.75
461.862	4.72
462.299	4.72
462.736	4.74
463.173	4.74
463.611	4.74
464.048	4.74
464.485	4.74
464.922	4.73
465.359	4.75
465.796	4.73
466.233	4.74
466.67	4.77
467.106	4.77
467.543	4.77
467.98	4.78
468.416	4.79
468.853	4.8
469.29	4.81
469.726	4.82
470.162	4.81
470.599	4.81
471.035	4.81
471.471	4.79
471.907	4.78
472.344	4.76
472.78	4.74
473.216	4.73
473.652	4.71
474.088	4.71
474.523	4.71
474.959	4.7
475.395	4.71
475.831	4.71
476.266	4.71
476.702	4.71
477.138	4.72
477.573	4.71
478.008	4.71
478.444	4.71
478.879	4.69
479.314	4.69
479.75	4.69
480.185	4.68
480.62	4.66
481.055	4.65
481.49	4.63
481.925	4.62
482.36	4.61
482.795	4.6
483.229	4.59
483.664	4.59
484.099	4.58
484.534	4.58
484.968	4.57
485.403	4.58
485.837	4.58
486.271	4.58
486.706	4.58
487.14	4.59
487.574	4.59
488.009	4.61
488.443	4.62
488.877	4.62
489.311	4.62
489.745	4.64
490.179	4.65
490.613	4.66
491.046	4.68
491.48	4.7
491.914	4.72
492.348	4.74
492.781	4.76
493.215	4.77
493.648	4.79
494.082	4.83
494.515	4.84
494.948	4.86
495.382	4.9
495.815	4.93
496.248	4.97
496.681	4.99
497.114	5.01
497.547	5.05
497.98	5.1
498.413	5.15
498.846	5.21
499.279	5.27
499.711	5.33
500.144	5.38
500.577	5.44
501.009	5.5
501.442	5.57
501.874	5.65
502.306	5.73
502.739	5.81
503.171	5.89
503.603	5.98
504.036	6.07
504.468	6.18
504.9	6.29
505.332	6.4
505.764	6.52
506.196	6.66
506.627	6.79
507.059	6.93
507.491	7.07
507.923	7.2
508.354	7.35
508.786	7.51
509.217	7.66
509.649	7.83
510.08	8
510.512	8.18
510.943	8.36
511.374	8.55
511.805	8.74
512.237	8.94
512.668	9.14
513.099	9.36
513.53	9.58
513.961	9.8
514.391	10.02
514.822	10.26
515.253	10.49
515.684	10.73
516.114	10.97
516.545	11.22
516.975	11.49
517.406	11.75
517.836	12.02
518.267	12.28
518.697	12.55
519.127	12.82
519.558	13.08
519.988	13.34
520.418	13.61
520.848	13.89
521.278	14.16
521.708	14.3
522.138	14.54
522.567	14.8
522.997	15.04
523.427	15.29
523.857	15.53
524.286	15.77
524.716	16
525.145	16.23
525.575	16.42
526.004	16.64
526.433	16.96
526.863	17.17
527.292	17.37
527.721	17.56
528.15	17.74
528.579	17.93
529.008	18.1
529.437	18.24
529.866	18.39
530.295	18.56
530.724	18.71
531.152	18.85
531.581	18.98
532.01	19.11
532.438	19.23
532.867	19.35
533.295	19.44
533.723	19.54
534.152	19.65
534.58	19.72
535.008	19.79
535.436	19.86
535.865	19.92
536.293	19.98
536.721	20.04
537.149	20.09
537.576	20.13
538.004	20.17
538.432	20.21
538.86	20.24
539.287	20.29
539.715	20.33
540.143	20.36
540.57	20.38
540.998	20.43
541.425	20.46
541.852	20.5
542.28	20.52
542.707	20.57
543.134	20.6
543.561	20.63
543.988	20.66
544.415	20.69
544.842	20.74
545.269	20.77
545.696	20.77
546.123	20.8
546.549	20.83
546.976	20.87
547.403	20.87
547.829	20.89
548.256	20.92
548.682	20.94
549.108	20.97
549.535	20.98
549.961	20.97
550.387	20.98
550.813	20.98
551.24	20.97
551.666	20.98
552.092	20.99
552.518	20.97
552.943	20.94
553.369	20.9
553.795	20.86
554.221	20.82
554.646	20.8
555.072	20.76
555.498	20.71
555.923	20.67
556.349	20.59
556.774	20.53
557.199	20.48
557.625	20.41
558.05	20.33
558.475	20.25
558.9	20.18
559.325	20.09
559.75	20
560.175	19.9
560.6	19.77
561.025	19.65
561.449	19.53
561.874	19.39
562.299	19.28
562.723	19.15
563.148	19.02
563.572	18.88
563.997	18.73
564.421	18.57
564.846	18.42
565.27	18.26
565.694	18.11
566.118	17.96
566.542	17.81
566.966	17.64
567.39	17.48
567.814	17.31
568.238	17.13
568.662	16.97
569.086	16.82
569.509	16.67
569.933	16.51
570.357	16.36
570.78	16.19
571.204	16.04
571.627	15.88
572.05	15.75
572.474	15.61
572.897	15.48
573.32	15.34
573.743	15.19
574.166	15.05
574.589	14.92
575.012	14.8
575.435	14.66
575.858	14.55
576.281	14.45
576.704	14.33
577.126	14.21
577.549	14.11
577.972	14
578.394	13.91
578.817	13.82
579.239	13.73
579.661	13.64
580.084	13.56
580.506	13.47
580.928	13.38
581.35	13.29
581.772	13.22
582.194	13.13
582.616	13.06
583.038	12.99
583.46	12.92
583.882	12.87
584.303	12.8
584.725	12.73
585.147	12.65
585.568	12.58
585.99	12.54
586.411	12.47
586.833	12.43
587.254	12.39
587.675	12.34
588.096	12.29
588.518	12.24
588.939	12.19
589.36	12.16
589.781	12.13
590.202	12.1
590.623	12.05
591.043	12.01
591.464	11.97
591.885	11.94
592.305	11.88
592.726	11.84
593.147	11.82
593.567	11.78
593.987	11.75
594.408	11.71
594.828	11.67
595.248	11.65
595.669	11.64
596.089	11.61
596.509	11.57
596.929	11.54
597.349	11.5
597.769	11.46
598.189	11.44
598.608	11.39
599.028	11.37
599.448	11.34
599.867	11.28
600.287	11.22
600.706	11.18
601.126	11.14
601.545	11.09
601.965	11.05
602.384	11.01
602.803	10.96
603.222	10.9
603.641	10.83
604.061	10.78
604.48	10.73
604.898	10.68
605.317	10.62
605.736	10.57
606.155	10.52
606.574	10.46
606.992	10.38
607.411	10.33
607.829	10.22
608.248	10.17
608.666	10.09
609.085	10.03
609.503	9.96
609.921	9.89
610.339	9.82
610.758	9.75
611.176	9.67
611.594	9.62
612.012	9.55
612.43	9.53
612.847	9.46
613.265	9.41
613.683	9.35
614.101	9.28
614.518	9.21
614.936	9.16
615.353	9.11
615.771	9.06
616.188	9
616.606	8.95
617.023	8.89
617.44	8.84
617.857	8.78
618.274	8.72
618.691	8.69
619.108	8.66
619.525	8.62
619.942	8.59
620.359	8.56
620.776	8.52
621.192	8.49
621.609	8.47
622.026	8.44
622.442	8.42
622.859	8.4
623.275	8.38
623.691	8.36
624.108	8.35
624.524	8.34
624.94	8.32
625.356	8.33
625.772	8.33
626.188	8.33
626.604	8.31
627.02	8.32
627.436	8.32
627.852	8.31
628.268	8.29
628.683	8.28
629.099	8.28
629.514	8.26
629.93	8.24
630.345	8.21
630.761	8.19
631.176	8.18
631.591	8.14
632.007	8.12
632.422	8.09
632.837	8.05
633.252	8.01
633.667	7.94
634.082	7.91
634.497	7.85
634.911	7.79
635.326	7.71
635.741	7.64
636.155	7.58
636.57	7.51
636.984	7.42
637.399	7.33
637.813	7.24
638.228	7.16
638.642	7.07
639.056	7
639.47	6.94
639.884	6.85
640.298	6.78
640.712	6.71
641.126	6.62
641.54	6.55
641.954	6.48
642.368	6.42
642.781	6.35
643.195	6.27
643.609	6.19
644.022	6.11
644.436	6.05
644.849	5.97
645.262	5.92
645.676	5.85
646.089	5.79
646.502	5.75
646.915	5.7
647.328	5.66
647.741	5.62
648.154	5.58
648.567	5.54
648.98	5.51
649.393	5.49
649.805	5.44
650.218	5.43
650.631	5.4
651.043	5.37
651.456	5.34
651.868	5.33
652.28	5.31
652.693	5.28
653.105	5.25
653.517	5.22
653.929	5.2
654.341	5.19
654.753	5.15
655.165	5.12
655.577	5.07
655.989	5.03
656.401	4.98
656.813	4.93
657.224	4.9
657.636	4.87
658.047	4.82
658.459	4.76
658.87	4.71
659.282	4.67
659.693	4.63
660.104	4.59
660.515	4.56
660.926	4.53
661.338	4.51
661.749	4.46
662.159	4.42
662.57	4.4
662.981	4.37
663.392	4.33
663.803	4.3
664.213	4.28
664.624	4.27
665.035	4.24
665.445	4.24
665.855	4.23
666.266	4.22
666.676	4.21
667.086	4.2
667.497	4.19
667.907	4.19
668.317	4.19
668.727	4.19
669.137	4.17
669.547	4.18
669.956	4.16
670.366	4.17
670.776	4.18
671.186	4.2
671.595	4.21
672.005	4.23
672.414	4.25
672.824	4.27
673.233	4.3
673.642	4.31
674.052	4.33
674.461	4.36
674.87	4.38
675.279	4.39
675.688	4.41
676.097	4.43
676.506	4.44
676.915	4.46
677.323	4.48
677.732	4.5
678.141	4.53
678.549	4.55
678.958	4.59
679.366	4.61
679.775	4.64
680.183	4.68
680.592	4.72
681	4.76
681.408	4.81
681.816	4.86
682.224	4.91
682.632	4.98
683.04	5.04
683.448	5.11
683.856	5.2
684.264	5.29
684.671	5.39
685.079	5.5
685.487	5.63
685.894	5.77
686.302	5.92
686.709	6.07
687.116	6.25
687.524	6.46
687.931	6.68
688.338	6.93
688.745	7.21
689.152	7.5
689.559	7.81
689.966	8.14
690.373	8.52
690.78	8.89
691.187	9.3
691.593	9.72
692	10.16
692.407	10.64
692.813	11.12
693.22	11.6
693.626	12.1
694.032	12.64
694.439	13.19
694.845	13.74
695.251	14.32
695.657	14.9
696.063	15.48
696.469	16.07
696.875	16.65
697.281	17.25
697.687	17.87
698.093	18.48
698.498	19.09
698.904	19.7
699.31	20.31
699.715	20.91
700.12	21.49
700.526	22.09
700.931	22.68
701.337	23.27
701.742	23.85
702.147	24.42
702.552	25
702.957	25.56
703.362	26.13
703.767	26.67
704.172	27.21
704.577	27.76
704.981	28.31
705.386	28.85
705.791	29.41
706.195	29.94
706.6	30.46
707.004	30.97
707.408	31.49
707.813	31.98
708.217	32.47
708.621	32.97
709.025	33.47
709.43	33.96
709.834	34.45
710.237	34.88
710.641	35.35
711.045	35.79
711.449	36.25
711.853	36.7
712.256	37.16
712.66	37.61
713.064	38.05
713.467	38.5
713.87	38.91
714.274	39.32
714.677	39.78
715.08	40.17
715.484	40.61
715.887	41.05
716.29	41.45
716.693	41.83
717.096	42.22
717.499	42.61
717.901	42.95
718.304	43.34
718.707	43.69
719.109	44.03
719.512	44.42
719.915	44.73
720.317	45.03
720.719	45.34
721.122	45.66
721.524	46
721.926	46.3
722.328	46.61
722.731	46.9
723.133	47.19
723.535	47.47
723.937	47.71
724.338	48
724.74	48.25
725.142	48.5
725.544	48.74
725.945	49
726.347	49.22
726.748	49.43
727.15	49.65
727.551	49.87
727.952	50.07
728.354	50.28
728.755	50.49
729.156	50.68
729.557	50.89
729.958	51.11
730.359	51.26
730.76	51.4
731.161	51.58
731.562	51.74
731.962	51.89
732.363	52.03
732.763	52.2
733.164	52.28
733.564	52.41
733.965	52.5
734.365	52.59
734.766	52.69
735.166	52.82
735.566	52.9
735.966	52.99
736.366	53.09
736.766	53.15
737.166	53.24
737.566	53.35
737.966	53.45
738.365	53.57
738.765	53.69
739.165	53.75
739.564	53.85
739.964	53.93
740.363	53.99
740.763	54.02
741.162	54.12
741.561	54.21
741.96	54.29
742.36	54.35
742.759	54.38
743.158	54.37
743.557	54.45
743.955	54.52
744.354	54.57
744.753	54.65
745.152	54.7
745.55	54.74
745.949	54.74
746.348	54.76
746.746	54.78
747.144	54.85
747.543	54.91
747.941	54.96
748.339	55.02
748.737	55.07
749.136	55.1
749.534	55.14
749.932	55.18
750.33	55.22
750.727	55.25
751.125	55.3
751.523	55.27
751.921	55.3
752.318	55.29
752.716	55.28
753.113	55.3
753.511	55.27
753.908	55.27
754.305	55.26
754.703	55.25
755.1	55.25
755.497	55.24
755.894	55.24
756.291	55.23
756.688	55.21
757.085	55.19
757.482	55.19
757.878	55.23
758.275	55.26
758.672	55.28
759.068	55.28
759.465	55.27
759.861	55.29
760.258	55.31
760.654	55.29
761.05	55.34
761.447	55.33
761.843	55.3
762.239	55.26
762.635	55.24
763.031	55.21
763.427	55.18
763.822	55.14
764.218	55.13
764.614	55.11
765.01	55.1
765.405	55.07
765.801	55.04
766.196	55.04
766.592	55.03
766.987	55.03
767.382	55.05
767.778	55.08
768.173	55.13
768.568	55.11
768.963	55.1
769.358	55.09
769.753	55.09
770.148	55.11
770.542	55.11
770.937	55.15
771.332	55.16
771.726	55.13
772.121	55.11
772.515	55.1
772.91	55.1
773.304	55.09
773.699	55.12
774.093	55.09
774.487	55.12
774.881	55.12
775.275	55.11
775.669	55.12
776.063	55.1
776.457	55.06
776.851	55.01
777.245	54.99
777.638	55.01
778.032	55.03
778.425	55.07
778.819	55.04
779.212	55.03
779.606	54.98
779.999	54.94
780.392	54.98
780.786	55.02
781.179	55.07
781.572	55.07
781.965	55.07
782.358	55.03
782.751	55.03
783.143	55.08
783.536	55.1
783.929	55.18
784.322	55.21
784.714	55.17
785.107	55.17
