Data from N_2_div_pa_2n_085_Splice17_07.txt Node
Date: Sat Feb 29 14:14:09 EST 2020
User: sa697716
Spectrometer: FLMS03696
Trigger mode: 0
Integration Time (sec): 3.180400E-1
Scans to average: 20
Electric dark correction enabled: true
Nonlinearity correction enabled: true
Boxcar width: 5
XAxis mode: Wavelengths
Number of Pixels in Spectrum: 2048
>>>>>Begin Spectral Data<<<<<
187.83	31.11
188.298	27.31
188.766	38.34
189.233	28.57
189.701	30.15
190.169	46.53
190.636	39.48
191.104	3.03
191.571	-156.13
192.039	32.11
192.506	-54.1
192.974	1649.82
193.441	327.55
193.908	49.3
194.375	11.54
194.842	6.17
195.31	66.09
195.777	90.02
196.244	48.26
196.711	37.37
197.177	33.52
197.644	33.84
198.111	32.33
198.578	34.28
199.045	34.77
199.511	34.8
199.978	35.02
200.445	34.94
200.911	34.91
201.378	34.8
201.844	35.21
202.31	36.23
202.777	36.55
203.243	37.33
203.709	36.97
204.176	36.24
204.642	36.29
205.108	36.03
205.574	36.38
206.04	36.18
206.506	35.87
206.972	35.81
207.438	35.22
207.903	34.92
208.369	34.07
208.835	33.89
209.301	33.72
209.766	32.79
210.232	32.32
210.697	31.63
211.163	31.02
211.628	30.44
212.094	29.95
212.559	29.29
213.024	28.53
213.49	28.23
213.955	27.51
214.42	27.09
214.885	26.67
215.35	25.85
215.815	24.48
216.28	23.14
216.745	21.8
217.21	20.19
217.675	18.85
218.14	17.59
218.604	16.28
219.069	15.33
219.534	14.41
219.998	13.58
220.463	12.99
220.927	12.52
221.392	12.08
221.856	11.66
222.32	11.34
222.785	11.01
223.249	10.76
223.713	10.59
224.177	10.36
224.642	10.19
225.106	10.06
225.57	9.85
226.034	9.69
226.497	9.53
226.961	9.37
227.425	9.21
227.889	9.1
228.353	8.98
228.816	8.85
229.28	8.71
229.744	8.61
230.207	8.49
230.671	8.41
231.134	8.29
231.597	8.19
232.061	8.13
232.524	8.04
232.987	7.95
233.45	7.83
233.914	7.74
234.377	7.69
234.84	7.6
235.303	7.54
235.766	7.46
236.229	7.41
236.691	7.36
237.154	7.31
237.617	7.25
238.08	7.2
238.542	7.16
239.005	7.11
239.468	7.03
239.93	6.97
240.393	6.91
240.855	6.84
241.317	6.8
241.78	6.74
242.242	6.67
242.704	6.61
243.166	6.56
243.629	6.5
244.091	6.45
244.553	6.41
245.015	6.37
245.477	6.32
245.939	6.29
246.4	6.23
246.862	6.19
247.324	6.16
247.786	6.12
248.247	6.08
248.709	6.05
249.17	6.01
249.632	5.97
250.093	5.91
250.555	5.87
251.016	5.84
251.477	5.8
251.939	5.76
252.4	5.72
252.861	5.68
253.322	5.64
253.783	5.61
254.244	5.57
254.705	5.54
255.166	5.54
255.627	5.5
256.088	5.47
256.549	5.45
257.009	5.41
257.47	5.39
257.931	5.35
258.391	5.32
258.852	5.29
259.312	5.26
259.773	5.22
260.233	5.18
260.694	5.14
261.154	5.12
261.614	5.08
262.074	5.06
262.534	5.02
262.994	5
263.455	4.98
263.915	4.94
264.374	4.91
264.834	4.89
265.294	4.86
265.754	4.84
266.214	4.81
266.673	4.78
267.133	4.76
267.593	4.75
268.052	4.72
268.512	4.69
268.971	4.67
269.431	4.66
269.89	4.64
270.349	4.61
270.809	4.6
271.268	4.59
271.727	4.58
272.186	4.56
272.645	4.53
273.104	4.52
273.563	4.51
274.022	4.5
274.481	4.48
274.94	4.46
275.399	4.45
275.857	4.44
276.316	4.41
276.775	4.39
277.233	4.39
277.692	4.37
278.15	4.35
278.609	4.33
279.067	4.31
279.525	4.3
279.984	4.29
280.442	4.28
280.9	4.27
281.358	4.27
281.816	4.26
282.274	4.24
282.732	4.24
283.19	4.24
283.648	4.23
284.106	4.22
284.564	4.21
285.021	4.21
285.479	4.2
285.937	4.19
286.394	4.19
286.852	4.18
287.309	4.17
287.767	4.16
288.224	4.16
288.682	4.15
289.139	4.14
289.596	4.13
290.053	4.11
290.511	4.1
290.968	4.09
291.425	4.08
291.882	4.07
292.339	4.06
292.796	4.04
293.252	4.03
293.709	4.01
294.166	4
294.623	3.99
295.079	3.98
295.536	3.98
295.992	3.97
296.449	3.95
296.905	3.94
297.362	3.92
297.818	3.91
298.274	3.91
298.731	3.9
299.187	3.9
299.643	3.89
300.099	3.89
300.555	3.87
301.011	3.87
301.467	3.87
301.923	3.87
302.379	3.87
302.835	3.88
303.291	3.87
303.746	3.87
304.202	3.86
304.658	3.85
305.113	3.84
305.569	3.84
306.024	3.83
306.479	3.83
306.935	3.82
307.39	3.82
307.845	3.81
308.301	3.81
308.756	3.81
309.211	3.81
309.666	3.81
310.121	3.81
310.576	3.8
311.031	3.8
311.486	3.8
311.94	3.8
312.395	3.81
312.85	3.8
313.305	3.8
313.759	3.8
314.214	3.79
314.668	3.78
315.123	3.79
315.577	3.79
316.032	3.79
316.486	3.79
316.94	3.79
317.394	3.79
317.849	3.78
318.303	3.78
318.757	3.77
319.211	3.76
319.665	3.76
320.119	3.75
320.572	3.75
321.026	3.74
321.48	3.73
321.934	3.73
322.387	3.71
322.841	3.7
323.295	3.69
323.748	3.69
324.202	3.69
324.655	3.69
325.108	3.68
325.562	3.67
326.015	3.66
326.468	3.65
326.921	3.64
327.374	3.64
327.827	3.64
328.28	3.64
328.733	3.63
329.186	3.63
329.639	3.63
330.092	3.62
330.545	3.63
330.997	3.63
331.45	3.63
331.903	3.63
332.355	3.63
332.808	3.64
333.26	3.64
333.713	3.64
334.165	3.64
334.617	3.65
335.069	3.66
335.522	3.66
335.974	3.67
336.426	3.68
336.878	3.67
337.33	3.67
337.782	3.67
338.234	3.67
338.686	3.66
339.137	3.66
339.589	3.64
340.041	3.64
340.493	3.61
340.944	3.6
341.396	3.6
341.847	3.59
342.299	3.59
342.75	3.57
343.201	3.56
343.653	3.56
344.104	3.55
344.555	3.55
345.006	3.53
345.457	3.53
345.908	3.52
346.359	3.52
346.81	3.52
347.261	3.51
347.712	3.5
348.163	3.49
348.613	3.48
349.064	3.46
349.515	3.46
349.965	3.45
350.416	3.45
350.866	3.45
351.317	3.44
351.767	3.44
352.217	3.43
352.668	3.43
353.118	3.44
353.568	3.46
354.018	3.48
354.468	3.48
354.918	3.49
355.368	3.49
355.818	3.5
356.268	3.5
356.718	3.5
357.168	3.51
357.617	3.51
358.067	3.5
358.517	3.49
358.966	3.49
359.416	3.5
359.865	3.5
360.315	3.5
360.764	3.5
361.213	3.5
361.663	3.5
362.112	3.5
362.561	3.51
363.01	3.52
363.459	3.53
363.908	3.52
364.357	3.53
364.806	3.53
365.255	3.55
365.703	3.55
366.152	3.56
366.601	3.57
367.05	3.58
367.498	3.58
367.947	3.58
368.395	3.6
368.844	3.6
369.292	3.6
369.74	3.61
370.189	3.62
370.637	3.63
371.085	3.64
371.533	3.64
371.981	3.65
372.429	3.67
372.877	3.68
373.325	3.69
373.773	3.71
374.221	3.74
374.669	3.75
375.116	3.76
375.564	3.78
376.012	3.81
376.459	3.83
376.907	3.85
377.354	3.87
377.801	3.89
378.249	3.92
378.696	3.94
379.143	3.96
379.591	3.98
380.038	4.01
380.485	4.02
380.932	4.04
381.379	4.07
381.826	4.08
382.273	4.09
382.72	4.11
383.166	4.12
383.613	4.15
384.06	4.17
384.506	4.2
384.953	4.21
385.4	4.24
385.846	4.25
386.292	4.28
386.739	4.31
387.185	4.35
387.631	4.39
388.078	4.42
388.524	4.44
388.97	4.47
389.416	4.49
389.862	4.51
390.308	4.55
390.754	4.59
391.2	4.62
391.645	4.66
392.091	4.69
392.537	4.73
392.983	4.77
393.428	4.8
393.874	4.83
394.319	4.87
394.765	4.91
395.21	4.93
395.655	4.96
396.101	4.99
396.546	5.01
396.991	5.03
397.436	5.05
397.881	5.08
398.326	5.12
398.771	5.16
399.216	5.21
399.661	5.26
400.106	5.31
400.551	5.35
400.995	5.37
401.44	5.41
401.885	5.45
402.329	5.48
402.774	5.49
403.218	5.53
403.663	5.55
404.107	5.59
404.551	5.62
404.995	5.64
405.44	5.66
405.884	5.7
406.328	5.72
406.772	5.76
407.216	5.8
407.66	5.84
408.104	5.87
408.547	5.9
408.991	5.9
409.435	5.92
409.879	5.94
410.322	5.99
410.766	6.01
411.209	6.05
411.653	6.06
412.096	6.07
412.54	6.09
412.983	6.11
413.426	6.14
413.869	6.16
414.312	6.21
414.756	6.24
415.199	6.26
415.642	6.31
416.085	6.34
416.527	6.39
416.97	6.43
417.413	6.45
417.856	6.47
418.298	6.47
418.741	6.49
419.184	6.49
419.626	6.5
420.069	6.52
420.511	6.5
420.953	6.5
421.396	6.5
421.838	6.52
422.28	6.54
422.722	6.56
423.164	6.58
423.606	6.6
424.048	6.61
424.49	6.63
424.932	6.62
425.374	6.65
425.816	6.65
426.258	6.63
426.699	6.61
427.141	6.59
427.582	6.58
428.024	6.6
428.465	6.6
428.907	6.61
429.348	6.62
429.789	6.62
430.231	6.62
430.672	6.64
431.113	6.68
431.554	6.7
431.995	6.73
432.436	6.74
432.877	6.72
433.318	6.71
433.759	6.71
434.2	6.72
434.64	6.73
435.081	6.73
435.522	6.75
435.962	6.77
436.403	6.79
436.843	6.81
437.284	6.84
437.724	6.88
438.164	6.92
438.604	6.95
439.045	6.94
439.485	6.97
439.925	6.98
440.365	6.96
440.805	6.95
441.245	6.92
441.685	6.93
442.125	6.91
442.564	6.92
443.004	6.91
443.444	6.91
443.883	6.91
444.323	6.89
444.762	6.93
445.202	6.98
445.641	6.99
446.081	7.03
446.52	7.02
446.959	7.03
447.398	7.06
447.837	7.09
448.276	7.09
448.716	7.12
449.154	7.16
449.593	7.18
450.032	7.18
450.471	7.2
450.91	7.19
451.349	7.21
451.787	7.22
452.226	7.2
452.664	7.18
453.103	7.18
453.541	7.18
453.98	7.16
454.418	7.13
454.856	7.09
455.295	7.07
455.733	7.07
456.171	7.04
456.609	7.04
457.047	7.02
457.485	7.02
457.923	7.01
458.361	6.99
458.798	7
459.236	7
459.674	7.01
460.111	7.02
460.549	7
460.987	7.01
461.424	7
461.862	7
462.299	7
462.736	6.99
463.173	6.99
463.611	6.98
464.048	6.98
464.485	6.98
464.922	6.97
465.359	7
465.796	6.98
466.233	6.99
466.67	7
467.106	6.99
467.543	7
467.98	7.03
468.416	7.04
468.853	7.03
469.29	7.04
469.726	7.04
470.162	7.03
470.599	7.07
471.035	7.06
471.471	7.06
471.907	7.08
472.344	7.08
472.78	7.07
473.216	7.06
473.652	7.05
474.088	7.06
474.523	7.06
474.959	7.06
475.395	7.04
475.831	7.05
476.266	7.05
476.702	7.04
477.138	7.02
477.573	7
478.008	6.98
478.444	6.98
478.879	6.96
479.314	6.94
479.75	6.93
480.185	6.92
480.62	6.89
481.055	6.89
481.49	6.86
481.925	6.85
482.36	6.84
482.795	6.81
483.229	6.79
483.664	6.78
484.099	6.77
484.534	6.76
484.968	6.75
485.403	6.74
485.837	6.73
486.271	6.72
486.706	6.71
487.14	6.72
487.574	6.72
488.009	6.74
488.443	6.73
488.877	6.73
489.311	6.73
489.745	6.74
490.179	6.75
490.613	6.73
491.046	6.75
491.48	6.75
491.914	6.76
492.348	6.77
492.781	6.76
493.215	6.77
493.648	6.78
494.082	6.79
494.515	6.79
494.948	6.81
495.382	6.83
495.815	6.84
496.248	6.86
496.681	6.86
497.114	6.87
497.547	6.88
497.98	6.89
498.413	6.91
498.846	6.92
499.279	6.94
499.711	6.95
500.144	6.96
500.577	6.98
501.009	6.98
501.442	7
501.874	7.02
502.306	7.05
502.739	7.05
503.171	7.07
503.603	7.1
504.036	7.14
504.468	7.17
504.9	7.2
505.332	7.25
505.764	7.3
506.196	7.34
506.627	7.38
507.059	7.42
507.491	7.48
507.923	7.53
508.354	7.58
508.786	7.62
509.217	7.66
509.649	7.71
510.08	7.76
510.512	7.81
510.943	7.87
511.374	7.93
511.805	7.99
512.237	8.06
512.668	8.12
513.099	8.18
513.53	8.27
513.961	8.37
514.391	8.45
514.822	8.51
515.253	8.6
515.684	8.67
516.114	8.77
516.545	8.87
516.975	8.97
517.406	9.07
517.836	9.17
518.267	9.28
518.697	9.39
519.127	9.51
519.558	9.63
519.988	9.74
520.418	9.86
520.848	9.98
521.278	10.09
521.708	10.16
522.138	10.28
522.567	10.38
522.997	10.48
523.427	10.58
523.857	10.68
524.286	10.79
524.716	10.91
525.145	11.01
525.575	11.11
526.004	11.21
526.433	11.36
526.863	11.47
527.292	11.59
527.721	11.69
528.15	11.77
528.579	11.87
529.008	11.95
529.437	12.03
529.866	12.11
530.295	12.2
530.724	12.28
531.152	12.36
531.581	12.42
532.01	12.49
532.438	12.56
532.867	12.62
533.295	12.68
533.723	12.74
534.152	12.79
534.58	12.84
535.008	12.87
535.436	12.9
535.865	12.93
536.293	12.95
536.721	12.97
537.149	13
537.576	13.05
538.004	13.08
538.432	13.11
538.86	13.14
539.287	13.16
539.715	13.18
540.143	13.21
540.57	13.22
540.998	13.27
541.425	13.29
541.852	13.31
542.28	13.31
542.707	13.33
543.134	13.35
543.561	13.35
543.988	13.38
544.415	13.41
544.842	13.45
545.269	13.49
545.696	13.49
546.123	13.52
546.549	13.53
546.976	13.56
547.403	13.57
547.829	13.58
548.256	13.61
548.682	13.61
549.108	13.62
549.535	13.61
549.961	13.59
550.387	13.59
550.813	13.59
551.24	13.6
551.666	13.59
552.092	13.6
552.518	13.6
552.943	13.58
553.369	13.56
553.795	13.55
554.221	13.54
554.646	13.53
555.072	13.5
555.498	13.48
555.923	13.45
556.349	13.4
556.774	13.36
557.199	13.34
557.625	13.3
558.05	13.26
558.475	13.21
558.9	13.17
559.325	13.11
559.75	13.05
560.175	12.99
560.6	12.94
561.025	12.9
561.449	12.82
561.874	12.74
562.299	12.67
562.723	12.61
563.148	12.52
563.572	12.45
563.997	12.38
564.421	12.3
564.846	12.21
565.27	12.11
565.694	12.01
566.118	11.93
566.542	11.85
566.966	11.76
567.39	11.66
567.814	11.57
568.238	11.47
568.662	11.39
569.086	11.31
569.509	11.23
569.933	11.13
570.357	11.05
570.78	10.96
571.204	10.87
571.627	10.79
572.05	10.73
572.474	10.66
572.897	10.59
573.32	10.51
573.743	10.43
574.166	10.37
574.589	10.32
575.012	10.28
575.435	10.22
575.858	10.17
576.281	10.12
576.704	10.07
577.126	10.02
577.549	9.98
577.972	9.95
578.394	9.91
578.817	9.85
579.239	9.81
579.661	9.75
580.084	9.72
580.506	9.69
580.928	9.65
581.35	9.61
581.772	9.59
582.194	9.57
582.616	9.53
583.038	9.5
583.46	9.5
583.882	9.48
584.303	9.47
584.725	9.45
585.147	9.39
585.568	9.37
585.99	9.35
586.411	9.32
586.833	9.29
587.254	9.27
587.675	9.25
588.096	9.23
588.518	9.21
588.939	9.18
589.36	9.17
589.781	9.17
590.202	9.16
590.623	9.13
591.043	9.11
591.464	9.09
591.885	9.08
592.305	9.08
592.726	9.05
593.147	9.03
593.567	9.02
593.987	9
594.408	8.99
594.828	8.98
595.248	8.98
595.669	8.98
596.089	8.96
596.509	8.93
596.929	8.91
597.349	8.89
597.769	8.86
598.189	8.84
598.608	8.81
599.028	8.8
599.448	8.79
599.867	8.76
600.287	8.72
600.706	8.7
601.126	8.68
601.545	8.65
601.965	8.63
602.384	8.61
602.803	8.59
603.222	8.57
603.641	8.53
604.061	8.5
604.48	8.48
604.898	8.47
605.317	8.46
605.736	8.44
606.155	8.41
606.574	8.39
606.992	8.35
607.411	8.33
607.829	8.26
608.248	8.24
608.666	8.2
609.085	8.18
609.503	8.14
609.921	8.11
610.339	8.08
610.758	8.05
611.176	8.03
611.594	8
612.012	7.96
612.43	7.97
612.847	7.96
613.265	7.94
613.683	7.91
614.101	7.87
614.518	7.85
614.936	7.82
615.353	7.8
615.771	7.77
616.188	7.76
616.606	7.75
617.023	7.74
617.44	7.72
617.857	7.7
618.274	7.68
618.691	7.67
619.108	7.65
619.525	7.64
619.942	7.63
620.359	7.63
620.776	7.61
621.192	7.6
621.609	7.58
622.026	7.56
622.442	7.54
622.859	7.55
623.275	7.56
623.691	7.55
624.108	7.55
624.524	7.54
624.94	7.52
625.356	7.52
625.772	7.51
626.188	7.53
626.604	7.52
627.02	7.52
627.436	7.5
627.852	7.48
628.268	7.47
628.683	7.46
629.099	7.46
629.514	7.46
629.93	7.45
630.345	7.44
630.761	7.43
631.176	7.42
631.591	7.41
632.007	7.41
632.422	7.42
632.837	7.42
633.252	7.4
633.667	7.38
634.082	7.37
634.497	7.35
634.911	7.32
635.326	7.31
635.741	7.29
636.155	7.28
636.57	7.27
636.984	7.22
637.399	7.19
637.813	7.18
638.228	7.17
638.642	7.15
639.056	7.13
639.47	7.13
639.884	7.09
640.298	7.07
640.712	7.04
641.126	7
641.54	7
641.954	7
642.368	6.95
642.781	6.93
643.195	6.9
643.609	6.89
644.022	6.85
644.436	6.83
644.849	6.82
645.262	6.8
645.676	6.78
646.089	6.76
646.502	6.73
646.915	6.72
647.328	6.71
647.741	6.69
648.154	6.68
648.567	6.69
648.98	6.7
649.393	6.69
649.805	6.69
650.218	6.69
650.631	6.68
651.043	6.68
651.456	6.68
651.868	6.67
652.28	6.67
652.693	6.64
653.105	6.63
653.517	6.61
653.929	6.6
654.341	6.59
654.753	6.56
655.165	6.55
655.577	6.53
655.989	6.5
656.401	6.49
656.813	6.47
657.224	6.47
657.636	6.47
658.047	6.45
658.459	6.41
658.87	6.41
659.282	6.41
659.693	6.39
660.104	6.37
660.515	6.36
660.926	6.36
661.338	6.34
661.749	6.31
662.159	6.29
662.57	6.27
662.981	6.26
663.392	6.24
663.803	6.23
664.213	6.23
664.624	6.24
665.035	6.22
665.445	6.2
665.855	6.2
666.266	6.2
666.676	6.19
667.086	6.19
667.497	6.18
667.907	6.16
668.317	6.15
668.727	6.15
669.137	6.14
669.547	6.17
669.956	6.17
670.366	6.18
670.776	6.2
671.186	6.21
671.595	6.23
672.005	6.24
672.414	6.26
672.824	6.28
673.233	6.3
673.642	6.3
674.052	6.31
674.461	6.32
674.87	6.34
675.279	6.35
675.688	6.37
676.097	6.38
676.506	6.41
676.915	6.43
677.323	6.45
677.732	6.48
678.141	6.52
678.549	6.55
678.958	6.59
679.366	6.62
679.775	6.66
680.183	6.68
680.592	6.72
681	6.73
681.408	6.76
681.816	6.8
682.224	6.83
682.632	6.86
683.04	6.88
683.448	6.93
683.856	6.95
684.264	6.99
684.671	7.03
685.079	7.07
685.487	7.14
685.894	7.19
686.302	7.23
686.709	7.27
687.116	7.33
687.524	7.4
687.931	7.46
688.338	7.56
688.745	7.65
689.152	7.74
689.559	7.85
689.966	7.97
690.373	8.1
690.78	8.25
691.187	8.42
691.593	8.57
692	8.75
692.407	8.93
692.813	9.14
693.22	9.36
693.626	9.6
694.032	9.85
694.439	10.12
694.845	10.39
695.251	10.69
695.657	10.99
696.063	11.33
696.469	11.67
696.875	12
697.281	12.32
697.687	12.7
698.093	13.06
698.498	13.44
698.904	13.84
699.31	14.23
699.715	14.62
700.12	15.02
700.526	15.43
700.931	15.84
701.337	16.29
701.742	16.71
702.147	17.15
702.552	17.59
702.957	18.02
703.362	18.47
703.767	18.92
704.172	19.38
704.577	19.82
704.981	20.28
705.386	20.75
705.791	21.23
706.195	21.7
706.6	22.16
707.004	22.62
707.408	23.09
707.813	23.52
708.217	23.97
708.621	24.44
709.025	24.93
709.43	25.37
709.834	25.83
710.237	26.27
710.641	26.75
711.045	27.19
711.449	27.66
711.853	28.11
712.256	28.59
712.66	29.08
713.064	29.55
713.467	29.98
713.87	30.46
714.274	30.92
714.677	31.37
715.08	31.81
715.484	32.28
715.887	32.74
716.29	33.19
716.693	33.63
717.096	34.05
717.499	34.49
717.901	34.95
718.304	35.38
718.707	35.8
719.109	36.25
719.512	36.68
719.915	37.11
720.317	37.51
720.719	37.93
721.122	38.33
721.524	38.76
721.926	39.13
722.328	39.52
722.731	39.92
723.133	40.3
723.535	40.67
723.937	41.03
724.338	41.35
724.74	41.69
725.142	41.94
725.544	42.25
725.945	42.54
726.347	42.85
726.748	43.14
727.15	43.41
727.551	43.72
727.952	44
728.354	44.3
728.755	44.61
729.156	44.9
729.557	45.27
729.958	45.56
730.359	45.81
730.76	46.04
731.161	46.3
731.562	46.54
731.962	46.75
732.363	46.95
732.763	47.13
733.164	47.32
733.564	47.49
733.965	47.64
734.365	47.8
734.766	47.98
735.166	48.13
735.566	48.25
735.966	48.38
736.366	48.53
736.766	48.7
737.166	48.82
737.566	48.94
737.966	49.11
738.365	49.28
738.765	49.43
739.165	49.55
739.564	49.7
739.964	49.83
740.363	49.95
740.763	50.04
741.162	50.12
741.561	50.26
741.96	50.38
742.36	50.46
742.759	50.49
743.158	50.56
743.557	50.65
743.955	50.76
744.354	50.89
744.753	50.99
745.152	51.07
745.55	51.18
745.949	51.25
746.348	51.34
746.746	51.4
747.144	51.5
747.543	51.6
747.941	51.68
748.339	51.76
748.737	51.85
749.136	51.91
749.534	52.01
749.932	52.05
750.33	52.08
750.727	52.13
751.125	52.19
751.523	52.22
751.921	52.24
752.318	52.26
752.716	52.26
753.113	52.24
753.511	52.24
753.908	52.22
754.305	52.2
754.703	52.2
755.1	52.19
755.497	52.16
755.894	52.14
756.291	52.12
756.688	52.11
757.085	52.11
757.482	52.07
757.878	52.08
758.275	52.08
758.672	52.1
759.068	52.12
759.465	52.11
759.861	52.18
760.258	52.17
760.654	52.18
761.05	52.2
761.447	52.16
761.843	52.16
762.239	52.16
762.635	52.16
763.031	52.19
763.427	52.14
763.822	52.14
764.218	52.1
764.614	52.13
765.01	52.14
765.405	52.1
765.801	52.13
766.196	52.18
766.592	52.18
766.987	52.21
767.382	52.2
767.778	52.25
768.173	52.3
768.568	52.29
768.963	52.29
769.358	52.31
769.753	52.33
770.148	52.36
770.542	52.35
770.937	52.35
771.332	52.33
771.726	52.32
772.121	52.3
772.515	52.29
772.91	52.3
773.304	52.32
773.699	52.35
774.093	52.34
774.487	52.33
774.881	52.32
775.275	52.35
775.669	52.37
776.063	52.38
776.457	52.37
776.851	52.35
777.245	52.35
777.638	52.33
778.032	52.3
778.425	52.3
778.819	52.3
779.212	52.28
779.606	52.25
779.999	52.25
780.392	52.26
780.786	52.29
781.179	52.28
781.572	52.29
781.965	52.3
782.358	52.28
782.751	52.31
783.143	52.34
783.536	52.39
783.929	52.41
784.322	52.45
784.714	52.43
785.107	52.44
785.499	52.47
785.891	52.49
786.284	52.45
786.676	52.48
787.068	52.43
787.46	52.4
787.852	52.35
788.245	52.33
788.636	52.3
