Data from N_2_hir_il_4n_053_Splice17_06.txt Node
Date: Sat Feb 29 13:57:56 EST 2020
User: sa697716
Spectrometer: FLMS03696
Trigger mode: 0
Integration Time (sec): 3.180400E-1
Scans to average: 20
Electric dark correction enabled: true
Nonlinearity correction enabled: true
Boxcar width: 5
XAxis mode: Wavelengths
Number of Pixels in Spectrum: 2048
>>>>>Begin Spectral Data<<<<<
187.83	111.25
188.298	127.08
188.766	112.47
189.233	106.28
189.701	110.09
190.169	113.05
190.636	97.26
191.104	57.64
191.571	-206.01
192.039	-9.34
192.506	140.39
192.974	6544.41
193.441	-394.3
193.908	82.2
194.375	99.94
194.842	191.53
195.31	163.37
195.777	149.95
196.244	43.68
196.711	23.24
197.177	20.51
197.644	19.38
198.111	18.35
198.578	19.1
199.045	20.05
199.511	19.97
199.978	19.62
200.445	19.49
200.911	19.52
201.378	19.37
201.844	19.7
202.31	20.09
202.777	20.81
203.243	21.66
203.709	22.23
204.176	21.88
204.642	22.11
205.108	22.4
205.574	22.73
206.04	22.74
206.506	22.84
206.972	23.02
207.438	22.66
207.903	22.52
208.369	21.94
208.835	21.77
209.301	21.74
209.766	21.5
210.232	21.36
210.697	20.89
211.163	20.75
211.628	20.68
212.094	20.31
212.559	20.31
213.024	20.03
213.49	20
213.955	19.71
214.42	19.41
214.885	19.19
215.35	18.91
215.815	18.52
216.28	18.02
216.745	17.41
217.21	16.8
217.675	16.18
218.14	15.6
218.604	14.98
219.069	14.6
219.534	14.28
219.998	13.83
220.463	13.51
220.927	13.27
221.392	12.98
221.856	12.78
222.32	12.59
222.785	12.45
223.249	12.29
223.713	12.15
224.177	11.95
224.642	11.79
225.106	11.69
225.57	11.57
226.034	11.44
226.497	11.33
226.961	11.19
227.425	11.03
227.889	10.89
228.353	10.73
228.816	10.6
229.28	10.46
229.744	10.35
230.207	10.23
230.671	10.11
231.134	9.98
231.597	9.87
232.061	9.78
232.524	9.69
232.987	9.59
233.45	9.5
233.914	9.42
234.377	9.35
234.84	9.26
235.303	9.16
235.766	9.06
236.229	8.98
236.691	8.9
237.154	8.81
237.617	8.73
238.08	8.65
238.542	8.58
239.005	8.5
239.468	8.4
239.93	8.33
240.393	8.27
240.855	8.2
241.317	8.14
241.78	8.09
242.242	8.02
242.704	7.94
243.166	7.89
243.629	7.84
244.091	7.76
244.553	7.71
245.015	7.65
245.477	7.59
245.939	7.54
246.4	7.47
246.862	7.41
247.324	7.37
247.786	7.33
248.247	7.28
248.709	7.23
249.17	7.19
249.632	7.14
250.093	7.09
250.555	7.04
251.016	7
251.477	6.96
251.939	6.91
252.4	6.86
252.861	6.82
253.322	6.78
253.783	6.76
254.244	6.72
254.705	6.68
255.166	6.66
255.627	6.63
256.088	6.59
256.549	6.55
257.009	6.52
257.47	6.5
257.931	6.46
258.391	6.4
258.852	6.36
259.312	6.32
259.773	6.27
260.233	6.23
260.694	6.2
261.154	6.16
261.614	6.12
262.074	6.09
262.534	6.05
262.994	6.04
263.455	6.02
263.915	5.99
264.374	5.97
264.834	5.95
265.294	5.92
265.754	5.89
266.214	5.87
266.673	5.85
267.133	5.83
267.593	5.81
268.052	5.77
268.512	5.75
268.971	5.73
269.431	5.71
269.89	5.69
270.349	5.68
270.809	5.67
271.268	5.65
271.727	5.62
272.186	5.61
272.645	5.58
273.104	5.57
273.563	5.55
274.022	5.54
274.481	5.52
274.94	5.5
275.399	5.48
275.857	5.47
276.316	5.44
276.775	5.42
277.233	5.4
277.692	5.39
278.15	5.36
278.609	5.35
279.067	5.32
279.525	5.3
279.984	5.28
280.442	5.26
280.9	5.24
281.358	5.22
281.816	5.2
282.274	5.19
282.732	5.17
283.19	5.16
283.648	5.14
284.106	5.13
284.564	5.13
285.021	5.11
285.479	5.1
285.937	5.08
286.394	5.07
286.852	5.06
287.309	5.05
287.767	5.04
288.224	5.02
288.682	5.01
289.139	4.99
289.596	4.98
290.053	4.96
290.511	4.93
290.968	4.91
291.425	4.9
291.882	4.88
292.339	4.86
292.796	4.84
293.252	4.82
293.709	4.79
294.166	4.77
294.623	4.76
295.079	4.76
295.536	4.74
295.992	4.72
296.449	4.71
296.905	4.69
297.362	4.68
297.818	4.66
298.274	4.66
298.731	4.65
299.187	4.65
299.643	4.63
300.099	4.63
300.555	4.61
301.011	4.61
301.467	4.59
301.923	4.59
302.379	4.59
302.835	4.58
303.291	4.56
303.746	4.55
304.202	4.53
304.658	4.51
305.113	4.5
305.569	4.49
306.024	4.47
306.479	4.46
306.935	4.45
307.39	4.44
307.845	4.43
308.301	4.43
308.756	4.42
309.211	4.42
309.666	4.42
310.121	4.41
310.576	4.41
311.031	4.4
311.486	4.4
311.94	4.39
312.395	4.39
312.85	4.39
313.305	4.39
313.759	4.38
314.214	4.38
314.668	4.37
315.123	4.37
315.577	4.36
316.032	4.35
316.486	4.34
316.94	4.33
317.394	4.32
317.849	4.31
318.303	4.29
318.757	4.28
319.211	4.26
319.665	4.24
320.119	4.23
320.572	4.21
321.026	4.2
321.48	4.19
321.934	4.19
322.387	4.18
322.841	4.16
323.295	4.16
323.748	4.15
324.202	4.15
324.655	4.14
325.108	4.13
325.562	4.12
326.015	4.11
326.468	4.1
326.921	4.08
327.374	4.08
327.827	4.07
328.28	4.07
328.733	4.07
329.186	4.06
329.639	4.05
330.092	4.05
330.545	4.05
330.997	4.06
331.45	4.05
331.903	4.05
332.355	4.04
332.808	4.03
333.26	4.02
333.713	4.01
334.165	4
334.617	3.99
335.069	3.98
335.522	3.98
335.974	3.99
336.426	3.98
336.878	3.99
337.33	3.99
337.782	3.99
338.234	3.99
338.686	3.99
339.137	3.99
339.589	3.99
340.041	3.99
340.493	3.97
340.944	3.95
341.396	3.95
341.847	3.93
342.299	3.9
342.75	3.88
343.201	3.87
343.653	3.86
344.104	3.84
344.555	3.84
345.006	3.82
345.457	3.81
345.908	3.8
346.359	3.8
346.81	3.81
347.261	3.81
347.712	3.79
348.163	3.79
348.613	3.78
349.064	3.76
349.515	3.75
349.965	3.76
350.416	3.75
350.866	3.74
351.317	3.72
351.767	3.71
352.217	3.7
352.668	3.71
353.118	3.71
353.568	3.71
354.018	3.72
354.468	3.71
354.918	3.7
355.368	3.7
355.818	3.69
356.268	3.7
356.718	3.7
357.168	3.69
357.617	3.68
358.067	3.66
358.517	3.65
358.966	3.63
359.416	3.64
359.865	3.64
360.315	3.63
360.764	3.63
361.213	3.61
361.663	3.6
362.112	3.61
362.561	3.6
363.01	3.6
363.459	3.6
363.908	3.6
364.357	3.59
364.806	3.58
365.255	3.59
365.703	3.58
366.152	3.57
366.601	3.57
367.05	3.56
367.498	3.56
367.947	3.56
368.395	3.56
368.844	3.54
369.292	3.54
369.74	3.55
370.189	3.53
370.637	3.53
371.085	3.54
371.533	3.53
371.981	3.53
372.429	3.51
372.877	3.52
373.325	3.5
373.773	3.51
374.221	3.5
374.669	3.49
375.116	3.49
375.564	3.48
376.012	3.48
376.459	3.47
376.907	3.47
377.354	3.47
377.801	3.46
378.249	3.47
378.696	3.47
379.143	3.48
379.591	3.49
380.038	3.49
380.485	3.5
380.932	3.5
381.379	3.5
381.826	3.52
382.273	3.53
382.72	3.54
383.166	3.54
383.613	3.54
384.06	3.54
384.506	3.53
384.953	3.53
385.4	3.53
385.846	3.53
386.292	3.54
386.739	3.53
387.185	3.54
387.631	3.54
388.078	3.54
388.524	3.54
388.97	3.54
389.416	3.55
389.862	3.56
390.308	3.57
390.754	3.59
391.2	3.6
391.645	3.62
392.091	3.63
392.537	3.63
392.983	3.66
393.428	3.69
393.874	3.71
394.319	3.72
394.765	3.75
395.21	3.75
395.655	3.76
396.101	3.77
396.546	3.78
396.991	3.8
397.436	3.81
397.881	3.82
398.326	3.84
398.771	3.85
399.216	3.87
399.661	3.88
400.106	3.91
400.551	3.92
400.995	3.93
401.44	3.94
401.885	3.96
402.329	3.98
402.774	4
403.218	4.01
403.663	4.02
404.107	4.04
404.551	4.06
404.995	4.08
405.44	4.1
405.884	4.12
406.328	4.14
406.772	4.16
407.216	4.18
407.66	4.19
408.104	4.2
408.547	4.23
408.991	4.25
409.435	4.27
409.879	4.28
410.322	4.3
410.766	4.32
411.209	4.33
411.653	4.34
412.096	4.35
412.54	4.37
412.983	4.39
413.426	4.41
413.869	4.42
414.312	4.44
414.756	4.47
415.199	4.48
415.642	4.51
416.085	4.54
416.527	4.56
416.97	4.59
417.413	4.61
417.856	4.63
418.298	4.63
418.741	4.64
419.184	4.64
419.626	4.65
420.069	4.67
420.511	4.67
420.953	4.66
421.396	4.69
421.838	4.69
422.28	4.71
422.722	4.72
423.164	4.73
423.606	4.74
424.048	4.74
424.49	4.75
424.932	4.74
425.374	4.75
425.816	4.75
426.258	4.72
426.699	4.72
427.141	4.71
427.582	4.71
428.024	4.72
428.465	4.73
428.907	4.74
429.348	4.74
429.789	4.76
430.231	4.76
430.672	4.79
431.113	4.82
431.554	4.84
431.995	4.87
432.436	4.87
432.877	4.87
433.318	4.86
433.759	4.87
434.2	4.87
434.64	4.87
435.081	4.87
435.522	4.87
435.962	4.87
436.403	4.88
436.843	4.88
437.284	4.9
437.724	4.92
438.164	4.96
438.604	4.98
439.045	4.99
439.485	5
439.925	5.01
440.365	5.01
440.805	5
441.245	4.98
441.685	4.99
442.125	4.98
442.564	4.98
443.004	4.98
443.444	5
443.883	5
444.323	5
444.762	5.02
445.202	5.05
445.641	5.08
446.081	5.12
446.52	5.13
446.959	5.15
447.398	5.18
447.837	5.2
448.276	5.2
448.716	5.22
449.154	5.25
449.593	5.26
450.032	5.26
450.471	5.26
450.91	5.24
451.349	5.26
451.787	5.24
452.226	5.22
452.664	5.2
453.103	5.18
453.541	5.17
453.98	5.17
454.418	5.16
454.856	5.14
455.295	5.13
455.733	5.14
456.171	5.12
456.609	5.14
457.047	5.13
457.485	5.14
457.923	5.15
458.361	5.14
458.798	5.13
459.236	5.13
459.674	5.15
460.111	5.15
460.549	5.14
460.987	5.15
461.424	5.14
461.862	5.13
462.299	5.11
462.736	5.1
463.173	5.09
463.611	5.09
464.048	5.1
464.485	5.08
464.922	5.08
465.359	5.09
465.796	5.08
466.233	5.08
466.67	5.11
467.106	5.12
467.543	5.14
467.98	5.15
468.416	5.16
468.853	5.15
469.29	5.15
469.726	5.17
470.162	5.17
470.599	5.16
471.035	5.17
471.471	5.14
471.907	5.13
472.344	5.14
472.78	5.14
473.216	5.14
473.652	5.13
474.088	5.12
474.523	5.1
474.959	5.08
475.395	5.07
475.831	5.06
476.266	5.07
476.702	5.07
477.138	5.04
477.573	5.02
478.008	5.01
478.444	5
478.879	5
479.314	5
479.75	5.01
480.185	4.99
480.62	4.99
481.055	4.99
481.49	4.98
481.925	4.98
482.36	4.97
482.795	4.96
483.229	4.95
483.664	4.95
484.099	4.94
484.534	4.93
484.968	4.93
485.403	4.92
485.837	4.91
486.271	4.91
486.706	4.91
487.14	4.92
487.574	4.92
488.009	4.93
488.443	4.93
488.877	4.95
489.311	4.96
489.745	4.97
490.179	4.99
490.613	5
491.046	5.02
491.48	5.05
491.914	5.07
492.348	5.09
492.781	5.12
493.215	5.14
493.648	5.16
494.082	5.2
494.515	5.21
494.948	5.23
495.382	5.26
495.815	5.29
496.248	5.32
496.681	5.35
497.114	5.37
497.547	5.4
497.98	5.44
498.413	5.49
498.846	5.54
499.279	5.59
499.711	5.64
500.144	5.7
500.577	5.75
501.009	5.82
501.442	5.88
501.874	5.96
502.306	6.04
502.739	6.11
503.171	6.2
503.603	6.28
504.036	6.37
504.468	6.47
504.9	6.58
505.332	6.7
505.764	6.82
506.196	6.94
506.627	7.06
507.059	7.18
507.491	7.32
507.923	7.45
508.354	7.6
508.786	7.76
509.217	7.9
509.649	8.07
510.08	8.24
510.512	8.41
510.943	8.59
511.374	8.78
511.805	8.96
512.237	9.17
512.668	9.37
513.099	9.58
513.53	9.8
513.961	10.03
514.391	10.25
514.822	10.47
515.253	10.71
515.684	10.95
516.114	11.21
516.545	11.45
516.975	11.71
517.406	11.95
517.836	12.2
518.267	12.46
518.697	12.73
519.127	13
519.558	13.26
519.988	13.5
520.418	13.77
520.848	14.03
521.278	14.3
521.708	14.43
522.138	14.69
522.567	14.92
522.997	15.15
523.427	15.37
523.857	15.59
524.286	15.82
524.716	16.05
525.145	16.27
525.575	16.49
526.004	16.69
526.433	17.02
526.863	17.22
527.292	17.43
527.721	17.63
528.15	17.81
528.579	17.97
529.008	18.14
529.437	18.29
529.866	18.42
530.295	18.56
530.724	18.71
531.152	18.83
531.581	18.95
532.01	19.05
532.438	19.17
532.867	19.27
533.295	19.38
533.723	19.49
534.152	19.59
534.58	19.69
535.008	19.75
535.436	19.8
535.865	19.87
536.293	19.94
536.721	20.02
537.149	20.08
537.576	20.14
538.004	20.2
538.432	20.22
538.86	20.26
539.287	20.28
539.715	20.33
540.143	20.38
540.57	20.41
540.998	20.46
541.425	20.49
541.852	20.5
542.28	20.52
542.707	20.57
543.134	20.6
543.561	20.61
543.988	20.65
544.415	20.67
544.842	20.7
545.269	20.73
545.696	20.74
546.123	20.76
546.549	20.79
546.976	20.82
547.403	20.83
547.829	20.87
548.256	20.9
548.682	20.92
549.108	20.95
549.535	20.94
549.961	20.95
550.387	20.95
550.813	20.96
551.24	20.94
551.666	20.94
552.092	20.94
552.518	20.92
552.943	20.91
553.369	20.87
553.795	20.84
554.221	20.82
554.646	20.79
555.072	20.76
555.498	20.71
555.923	20.66
556.349	20.58
556.774	20.5
557.199	20.42
557.625	20.33
558.05	20.25
558.475	20.16
558.9	20.08
559.325	19.99
559.75	19.9
560.175	19.8
560.6	19.72
561.025	19.62
561.449	19.5
561.874	19.4
562.299	19.28
562.723	19.15
563.148	19
563.572	18.87
563.997	18.73
564.421	18.57
564.846	18.41
565.27	18.24
565.694	18.09
566.118	17.94
566.542	17.78
566.966	17.6
567.39	17.45
567.814	17.31
568.238	17.13
568.662	16.98
569.086	16.84
569.509	16.7
569.933	16.55
570.357	16.38
570.78	16.24
571.204	16.08
571.627	15.95
572.05	15.82
572.474	15.67
572.897	15.53
573.32	15.38
573.743	15.23
574.166	15.09
574.589	14.96
575.012	14.85
575.435	14.72
575.858	14.61
576.281	14.5
576.704	14.38
577.126	14.27
577.549	14.17
577.972	14.08
578.394	13.99
578.817	13.9
579.239	13.81
579.661	13.72
580.084	13.64
580.506	13.55
580.928	13.48
581.35	13.39
581.772	13.33
582.194	13.25
582.616	13.18
583.038	13.11
583.46	13.05
583.882	12.98
584.303	12.92
584.725	12.86
585.147	12.78
585.568	12.72
585.99	12.67
586.411	12.62
586.833	12.58
587.254	12.52
587.675	12.47
588.096	12.43
588.518	12.38
588.939	12.35
589.36	12.29
589.781	12.25
590.202	12.22
590.623	12.18
591.043	12.13
591.464	12.08
591.885	12.05
592.305	12.03
592.726	11.98
593.147	11.96
593.567	11.92
593.987	11.91
594.408	11.88
594.828	11.84
595.248	11.8
595.669	11.77
596.089	11.74
596.509	11.69
596.929	11.64
597.349	11.61
597.769	11.56
598.189	11.53
598.608	11.49
599.028	11.44
599.448	11.41
599.867	11.38
600.287	11.34
600.706	11.3
601.126	11.27
601.545	11.24
601.965	11.19
602.384	11.14
602.803	11.1
603.222	11.04
603.641	11
604.061	10.96
604.48	10.9
604.898	10.85
605.317	10.79
605.736	10.73
606.155	10.67
606.574	10.61
606.992	10.55
607.411	10.49
607.829	10.38
608.248	10.32
608.666	10.24
609.085	10.18
609.503	10.11
609.921	10.05
610.339	10
610.758	9.93
611.176	9.86
611.594	9.8
612.012	9.74
612.43	9.73
612.847	9.66
613.265	9.6
613.683	9.53
614.101	9.47
614.518	9.4
614.936	9.33
615.353	9.27
615.771	9.23
616.188	9.17
616.606	9.11
617.023	9.06
617.44	9
617.857	8.96
618.274	8.92
618.691	8.89
619.108	8.86
619.525	8.83
619.942	8.8
620.359	8.77
620.776	8.75
621.192	8.73
621.609	8.7
622.026	8.69
622.442	8.65
622.859	8.63
623.275	8.63
623.691	8.61
624.108	8.59
624.524	8.57
624.94	8.54
625.356	8.52
625.772	8.51
626.188	8.52
626.604	8.51
627.02	8.51
627.436	8.5
627.852	8.48
628.268	8.46
628.683	8.45
629.099	8.44
629.514	8.44
629.93	8.43
630.345	8.42
630.761	8.38
631.176	8.36
631.591	8.34
632.007	8.3
632.422	8.27
632.837	8.25
633.252	8.21
633.667	8.16
634.082	8.12
634.497	8.04
634.911	7.97
635.326	7.91
635.741	7.85
636.155	7.79
636.57	7.72
636.984	7.63
637.399	7.54
637.813	7.46
638.228	7.39
638.642	7.31
639.056	7.25
639.47	7.17
639.884	7.1
640.298	7.01
640.712	6.93
641.126	6.84
641.54	6.76
641.954	6.7
642.368	6.64
642.781	6.57
643.195	6.49
643.609	6.42
644.022	6.36
644.436	6.29
644.849	6.23
645.262	6.17
645.676	6.11
646.089	6.06
646.502	6.01
646.915	5.97
647.328	5.93
647.741	5.89
648.154	5.85
648.567	5.83
648.98	5.8
649.393	5.76
649.805	5.73
650.218	5.71
650.631	5.69
651.043	5.67
651.456	5.64
651.868	5.6
652.28	5.57
652.693	5.53
653.105	5.51
653.517	5.48
653.929	5.46
654.341	5.44
654.753	5.41
655.165	5.37
655.577	5.32
655.989	5.26
656.401	5.22
656.813	5.18
657.224	5.16
657.636	5.11
658.047	5.06
658.459	5.01
658.87	4.96
659.282	4.93
659.693	4.9
660.104	4.87
660.515	4.85
660.926	4.83
661.338	4.8
661.749	4.75
662.159	4.73
662.57	4.71
662.981	4.69
663.392	4.65
663.803	4.64
664.213	4.62
664.624	4.61
665.035	4.57
665.445	4.55
665.855	4.55
666.266	4.55
666.676	4.53
667.086	4.52
667.497	4.5
667.907	4.5
668.317	4.49
668.727	4.49
669.137	4.49
669.547	4.51
669.956	4.51
670.366	4.52
670.776	4.53
671.186	4.54
671.595	4.55
672.005	4.56
672.414	4.58
672.824	4.59
673.233	4.61
673.642	4.61
674.052	4.63
674.461	4.65
674.87	4.66
675.279	4.67
675.688	4.67
676.097	4.69
676.506	4.72
676.915	4.75
677.323	4.79
677.732	4.83
678.141	4.86
678.549	4.9
678.958	4.93
679.366	4.95
679.775	5
680.183	5.07
680.592	5.1
681	5.14
681.408	5.17
681.816	5.2
682.224	5.24
682.632	5.31
683.04	5.35
683.448	5.42
683.856	5.51
684.264	5.58
684.671	5.68
685.079	5.78
685.487	5.91
685.894	6.04
686.302	6.19
686.709	6.35
687.116	6.51
687.524	6.71
687.931	6.92
688.338	7.15
688.745	7.42
689.152	7.7
689.559	8.01
689.966	8.34
690.373	8.69
690.78	9.07
691.187	9.48
691.593	9.92
692	10.34
692.407	10.81
692.813	11.3
693.22	11.78
693.626	12.28
694.032	12.82
694.439	13.36
694.845	13.92
695.251	14.46
695.657	15.02
696.063	15.56
696.469	16.16
696.875	16.71
697.281	17.27
697.687	17.87
698.093	18.46
698.498	19.04
698.904	19.62
699.31	20.18
699.715	20.77
700.12	21.34
700.526	21.95
700.931	22.52
701.337	23.12
701.742	23.69
702.147	24.24
702.552	24.79
702.957	25.35
703.362	25.9
703.767	26.43
704.172	26.97
704.577	27.51
704.981	28.03
705.386	28.56
705.791	29.07
706.195	29.59
706.6	30.09
707.004	30.6
707.408	31.11
707.813	31.59
708.217	32.08
708.621	32.56
709.025	33.04
709.43	33.49
709.834	33.98
710.237	34.42
710.641	34.89
711.045	35.35
711.449	35.8
711.853	36.22
712.256	36.66
712.66	37.12
713.064	37.55
713.467	37.96
713.87	38.39
714.274	38.81
714.677	39.23
715.08	39.63
715.484	40.05
715.887	40.44
716.29	40.83
716.693	41.22
717.096	41.6
717.499	41.97
717.901	42.34
718.304	42.69
718.707	43.01
719.109	43.36
719.512	43.73
719.915	44.04
720.317	44.34
720.719	44.67
721.122	44.98
721.524	45.28
721.926	45.57
722.328	45.89
722.731	46.21
723.133	46.5
723.535	46.78
723.937	47.04
724.338	47.3
724.74	47.57
725.142	47.8
725.544	48.02
725.945	48.26
726.347	48.5
726.748	48.66
727.15	48.86
727.551	49.07
727.952	49.25
728.354	49.45
728.755	49.64
729.156	49.84
729.557	50.03
729.958	50.25
730.359	50.4
730.76	50.56
731.161	50.76
731.562	50.91
731.962	51.06
732.363	51.19
732.763	51.32
733.164	51.44
733.564	51.59
733.965	51.71
734.365	51.78
734.766	51.89
735.166	51.95
735.566	52.04
735.966	52.11
736.366	52.17
736.766	52.27
737.166	52.37
737.566	52.47
737.966	52.52
738.365	52.61
738.765	52.7
739.165	52.75
739.564	52.86
739.964	52.92
740.363	53.06
740.763	53.13
741.162	53.17
741.561	53.23
741.96	53.3
742.36	53.35
742.759	53.39
743.158	53.43
743.557	53.51
743.955	53.53
744.354	53.61
744.753	53.62
745.152	53.68
745.55	53.75
745.949	53.79
746.348	53.83
746.746	53.83
747.144	53.88
747.543	53.92
747.941	53.97
748.339	54.07
748.737	54.14
749.136	54.17
749.534	54.2
749.932	54.24
750.33	54.23
750.727	54.27
751.125	54.33
751.523	54.35
751.921	54.39
752.318	54.39
752.716	54.35
753.113	54.33
753.511	54.34
753.908	54.33
754.305	54.31
754.703	54.31
755.1	54.29
755.497	54.27
755.894	54.26
756.291	54.21
756.688	54.19
757.085	54.2
757.482	54.19
757.878	54.18
758.275	54.18
758.672	54.21
759.068	54.22
759.465	54.19
759.861	54.18
760.258	54.17
760.654	54.19
761.05	54.23
761.447	54.22
761.843	54.19
762.239	54.18
762.635	54.17
763.031	54.16
763.427	54.12
763.822	54.14
764.218	54.15
764.614	54.14
765.01	54.13
765.405	54.11
765.801	54.12
766.196	54.13
766.592	54.15
766.987	54.16
767.382	54.13
767.778	54.17
768.173	54.17
768.568	54.16
768.963	54.18
769.358	54.16
769.753	54.18
770.148	54.14
770.542	54.16
770.937	54.14
771.332	54.12
771.726	54.13
772.121	54.11
772.515	54.1
772.91	54.11
773.304	54.12
773.699	54.14
774.093	54.08
774.487	54.12
774.881	54.11
775.275	54.12
775.669	54.12
776.063	54.13
776.457	54.14
776.851	54.11
777.245	54.09
777.638	54.06
778.032	54.07
778.425	54.09
778.819	54.08
779.212	54.07
779.606	54.06
779.999	54.06
780.392	54.05
780.786	54.06
781.179	54.11
781.572	54.13
781.965	54.14
782.358	54.09
782.751	54.11
783.143	54.14
783.536	54.15
783.929	54.18
784.322	54.16
784.714	54.16
785.107	54.17
