Data from N_2_div_wi_4n_061_Splice17_05.txt Node
Date: Sat Feb 29 14:01:35 EST 2020
User: sa697716
Spectrometer: FLMS03696
Trigger mode: 0
Integration Time (sec): 3.180400E-1
Scans to average: 20
Electric dark correction enabled: true
Nonlinearity correction enabled: true
Boxcar width: 5
XAxis mode: Wavelengths
Number of Pixels in Spectrum: 2048
>>>>>Begin Spectral Data<<<<<
187.83	122.53
188.298	143.21
188.766	125.1
189.233	115.78
189.701	117.57
190.169	118.01
190.636	132.7
191.104	128.79
191.571	250.01
192.039	206.75
192.506	41.89
192.974	1265.78
193.441	-245.27
193.908	99.35
194.375	80.27
194.842	102.77
195.31	79.47
195.777	155.21
196.244	43.7
196.711	24.65
197.177	19.48
197.644	18.67
198.111	19.05
198.578	19.36
199.045	20.1
199.511	20.62
199.978	21.24
200.445	21.31
200.911	21.46
201.378	21.86
201.844	21.95
202.31	23.09
202.777	23.78
203.243	24.25
203.709	24.64
204.176	23.81
204.642	23.92
205.108	23.64
205.574	24.23
206.04	23.73
206.506	23.34
206.972	23.67
207.438	23.22
207.903	23.13
208.369	22.85
208.835	22.68
209.301	22.96
209.766	22.83
210.232	22.8
210.697	22.22
211.163	22.58
211.628	22.31
212.094	21.92
212.559	21.9
213.024	21.58
213.49	21.35
213.955	21.16
214.42	20.97
214.885	20.44
215.35	20.2
215.815	19.43
216.28	18.54
216.745	17.96
217.21	17.12
217.675	16.42
218.14	15.69
218.604	15
219.069	14.5
219.534	14.01
219.998	13.52
220.463	13.17
220.927	12.91
221.392	12.6
221.856	12.35
222.32	12.19
222.785	11.97
223.249	11.76
223.713	11.59
224.177	11.38
224.642	11.24
225.106	11.12
225.57	10.96
226.034	10.84
226.497	10.71
226.961	10.57
227.425	10.39
227.889	10.24
228.353	10.1
228.816	9.98
229.28	9.84
229.744	9.73
230.207	9.59
230.671	9.47
231.134	9.33
231.597	9.23
232.061	9.12
232.524	9.04
232.987	8.95
233.45	8.86
233.914	8.77
234.377	8.7
234.84	8.59
235.303	8.53
235.766	8.45
236.229	8.39
236.691	8.32
237.154	8.26
237.617	8.18
238.08	8.11
238.542	8.05
239.005	7.98
239.468	7.9
239.93	7.84
240.393	7.78
240.855	7.7
241.317	7.63
241.78	7.56
242.242	7.49
242.704	7.43
243.166	7.37
243.629	7.31
244.091	7.25
244.553	7.21
245.015	7.15
245.477	7.09
245.939	7.04
246.4	6.97
246.862	6.92
247.324	6.87
247.786	6.82
248.247	6.77
248.709	6.73
249.17	6.68
249.632	6.63
250.093	6.56
250.555	6.51
251.016	6.48
251.477	6.45
251.939	6.4
252.4	6.36
252.861	6.31
253.322	6.27
253.783	6.23
254.244	6.19
254.705	6.16
255.166	6.13
255.627	6.09
256.088	6.04
256.549	6
257.009	5.96
257.47	5.92
257.931	5.89
258.391	5.84
258.852	5.79
259.312	5.73
259.773	5.7
260.233	5.65
260.694	5.61
261.154	5.56
261.614	5.53
262.074	5.5
262.534	5.44
262.994	5.4
263.455	5.36
263.915	5.33
264.374	5.3
264.834	5.26
265.294	5.23
265.754	5.19
266.214	5.16
266.673	5.13
267.133	5.1
267.593	5.08
268.052	5.05
268.512	5.01
268.971	4.98
269.431	4.95
269.89	4.93
270.349	4.9
270.809	4.88
271.268	4.86
271.727	4.82
272.186	4.8
272.645	4.77
273.104	4.75
273.563	4.73
274.022	4.71
274.481	4.68
274.94	4.65
275.399	4.63
275.857	4.6
276.316	4.57
276.775	4.56
277.233	4.54
277.692	4.51
278.15	4.49
278.609	4.46
279.067	4.44
279.525	4.42
279.984	4.4
280.442	4.38
280.9	4.36
281.358	4.35
281.816	4.34
282.274	4.32
282.732	4.3
283.19	4.29
283.648	4.28
284.106	4.26
284.564	4.26
285.021	4.26
285.479	4.25
285.937	4.24
286.394	4.22
286.852	4.2
287.309	4.19
287.767	4.18
288.224	4.17
288.682	4.16
289.139	4.15
289.596	4.13
290.053	4.1
290.511	4.08
290.968	4.06
291.425	4.04
291.882	4.03
292.339	4.02
292.796	4
293.252	3.98
293.709	3.96
294.166	3.94
294.623	3.93
295.079	3.91
295.536	3.91
295.992	3.9
296.449	3.89
296.905	3.88
297.362	3.86
297.818	3.85
298.274	3.84
298.731	3.82
299.187	3.82
299.643	3.81
300.099	3.8
300.555	3.78
301.011	3.77
301.467	3.75
301.923	3.75
302.379	3.73
302.835	3.72
303.291	3.71
303.746	3.7
304.202	3.68
304.658	3.67
305.113	3.67
305.569	3.67
306.024	3.66
306.479	3.66
306.935	3.65
307.39	3.64
307.845	3.63
308.301	3.63
308.756	3.63
309.211	3.64
309.666	3.64
310.121	3.63
310.576	3.61
311.031	3.61
311.486	3.61
311.94	3.61
312.395	3.61
312.85	3.61
313.305	3.61
313.759	3.61
314.214	3.61
314.668	3.6
315.123	3.61
315.577	3.62
316.032	3.61
316.486	3.61
316.94	3.6
317.394	3.59
317.849	3.59
318.303	3.58
318.757	3.56
319.211	3.54
319.665	3.53
320.119	3.52
320.572	3.51
321.026	3.5
321.48	3.48
321.934	3.48
322.387	3.47
322.841	3.46
323.295	3.45
323.748	3.45
324.202	3.45
324.655	3.45
325.108	3.44
325.562	3.42
326.015	3.41
326.468	3.4
326.921	3.39
327.374	3.38
327.827	3.37
328.28	3.36
328.733	3.36
329.186	3.35
329.639	3.34
330.092	3.34
330.545	3.34
330.997	3.34
331.45	3.35
331.903	3.35
332.355	3.35
332.808	3.35
333.26	3.36
333.713	3.36
334.165	3.36
334.617	3.36
335.069	3.36
335.522	3.37
335.974	3.37
336.426	3.37
336.878	3.37
337.33	3.37
337.782	3.36
338.234	3.37
338.686	3.36
339.137	3.36
339.589	3.35
340.041	3.34
340.493	3.33
340.944	3.33
341.396	3.33
341.847	3.32
342.299	3.29
342.75	3.28
343.201	3.26
343.653	3.25
344.104	3.23
344.555	3.22
345.006	3.2
345.457	3.19
345.908	3.18
346.359	3.18
346.81	3.17
347.261	3.17
347.712	3.17
348.163	3.17
348.613	3.15
349.064	3.14
349.515	3.13
349.965	3.13
350.416	3.13
350.866	3.13
351.317	3.12
351.767	3.11
352.217	3.11
352.668	3.11
353.118	3.11
353.568	3.12
354.018	3.13
354.468	3.13
354.918	3.14
355.368	3.14
355.818	3.13
356.268	3.13
356.718	3.13
357.168	3.12
357.617	3.11
358.067	3.11
358.517	3.09
358.966	3.1
359.416	3.1
359.865	3.1
360.315	3.09
360.764	3.1
361.213	3.08
361.663	3.08
362.112	3.09
362.561	3.1
363.01	3.1
363.459	3.09
363.908	3.08
364.357	3.08
364.806	3.08
365.255	3.08
365.703	3.07
366.152	3.09
366.601	3.09
367.05	3.08
367.498	3.08
367.947	3.08
368.395	3.09
368.844	3.09
369.292	3.1
369.74	3.1
370.189	3.1
370.637	3.1
371.085	3.1
371.533	3.1
371.981	3.11
372.429	3.1
372.877	3.11
373.325	3.11
373.773	3.11
374.221	3.11
374.669	3.11
375.116	3.11
375.564	3.12
376.012	3.12
376.459	3.14
376.907	3.15
377.354	3.15
377.801	3.14
378.249	3.15
378.696	3.16
379.143	3.18
379.591	3.19
380.038	3.21
380.485	3.24
380.932	3.25
381.379	3.25
381.826	3.26
382.273	3.28
382.72	3.3
383.166	3.32
383.613	3.32
384.06	3.32
384.506	3.32
384.953	3.33
385.4	3.34
385.846	3.34
386.292	3.35
386.739	3.35
387.185	3.37
387.631	3.37
388.078	3.38
388.524	3.39
388.97	3.4
389.416	3.43
389.862	3.44
390.308	3.45
390.754	3.47
391.2	3.48
391.645	3.51
392.091	3.52
392.537	3.54
392.983	3.56
393.428	3.58
393.874	3.62
394.319	3.63
394.765	3.65
395.21	3.66
395.655	3.67
396.101	3.69
396.546	3.71
396.991	3.72
397.436	3.73
397.881	3.75
398.326	3.79
398.771	3.8
399.216	3.82
399.661	3.84
400.106	3.87
400.551	3.87
400.995	3.87
401.44	3.86
401.885	3.88
402.329	3.89
402.774	3.89
403.218	3.89
403.663	3.88
404.107	3.89
404.551	3.9
404.995	3.89
405.44	3.9
405.884	3.92
406.328	3.93
406.772	3.93
407.216	3.94
407.66	3.95
408.104	3.95
408.547	3.96
408.991	3.95
409.435	3.94
409.879	3.95
410.322	3.96
410.766	3.97
411.209	3.99
411.653	3.98
412.096	3.98
412.54	3.97
412.983	3.97
413.426	3.99
413.869	4
414.312	4.02
414.756	4.04
415.199	4.05
415.642	4.06
416.085	4.08
416.527	4.1
416.97	4.12
417.413	4.14
417.856	4.15
418.298	4.13
418.741	4.15
419.184	4.13
419.626	4.12
420.069	4.12
420.511	4.12
420.953	4.13
421.396	4.14
421.838	4.15
422.28	4.17
422.722	4.18
423.164	4.19
423.606	4.2
424.048	4.21
424.49	4.21
424.932	4.2
425.374	4.19
425.816	4.17
426.258	4.16
426.699	4.15
427.141	4.13
427.582	4.14
428.024	4.15
428.465	4.14
428.907	4.15
429.348	4.17
429.789	4.2
430.231	4.21
430.672	4.25
431.113	4.27
431.554	4.29
431.995	4.31
432.436	4.32
432.877	4.31
433.318	4.31
433.759	4.33
434.2	4.35
434.64	4.38
435.081	4.38
435.522	4.38
435.962	4.39
436.403	4.4
436.843	4.4
437.284	4.43
437.724	4.48
438.164	4.49
438.604	4.51
439.045	4.52
439.485	4.52
439.925	4.52
440.365	4.53
440.805	4.52
441.245	4.53
441.685	4.56
442.125	4.58
442.564	4.59
443.004	4.61
443.444	4.62
443.883	4.65
444.323	4.66
444.762	4.71
445.202	4.77
445.641	4.81
446.081	4.85
446.52	4.85
446.959	4.88
447.398	4.93
447.837	4.98
448.276	5.01
448.716	5.03
449.154	5.06
449.593	5.07
450.032	5.07
450.471	5.09
450.91	5.08
451.349	5.1
451.787	5.1
452.226	5.08
452.664	5.06
453.103	5.08
453.541	5.08
453.98	5.09
454.418	5.09
454.856	5.08
455.295	5.09
455.733	5.1
456.171	5.1
456.609	5.11
457.047	5.11
457.485	5.12
457.923	5.11
458.361	5.1
458.798	5.12
459.236	5.13
459.674	5.12
460.111	5.12
460.549	5.13
460.987	5.13
461.424	5.12
461.862	5.12
462.299	5.11
462.736	5.12
463.173	5.12
463.611	5.12
464.048	5.12
464.485	5.12
464.922	5.11
465.359	5.1
465.796	5.1
466.233	5.1
466.67	5.1
467.106	5.1
467.543	5.1
467.98	5.11
468.416	5.1
468.853	5.09
469.29	5.1
469.726	5.11
470.162	5.11
470.599	5.11
471.035	5.12
471.471	5.11
471.907	5.12
472.344	5.12
472.78	5.12
473.216	5.11
473.652	5.1
474.088	5.09
474.523	5.1
474.959	5.09
475.395	5.09
475.831	5.11
476.266	5.11
476.702	5.1
477.138	5.09
477.573	5.08
478.008	5.07
478.444	5.08
478.879	5.09
479.314	5.08
479.75	5.09
480.185	5.09
480.62	5.08
481.055	5.07
481.49	5.06
481.925	5.05
482.36	5.05
482.795	5.04
483.229	5.03
483.664	5.01
484.099	5.01
484.534	5.01
484.968	5.01
485.403	5.01
485.837	5.02
486.271	5.02
486.706	5.03
487.14	5.04
487.574	5.06
488.009	5.09
488.443	5.11
488.877	5.13
489.311	5.14
489.745	5.15
490.179	5.17
490.613	5.2
491.046	5.24
491.48	5.28
491.914	5.3
492.348	5.34
492.781	5.36
493.215	5.38
493.648	5.43
494.082	5.48
494.515	5.52
494.948	5.57
495.382	5.6
495.815	5.65
496.248	5.69
496.681	5.76
497.114	5.82
497.547	5.89
497.98	5.97
498.413	6.05
498.846	6.13
499.279	6.22
499.711	6.3
500.144	6.41
500.577	6.5
501.009	6.6
501.442	6.71
501.874	6.83
502.306	6.95
502.739	7.08
503.171	7.22
503.603	7.36
504.036	7.51
504.468	7.68
504.9	7.84
505.332	8.02
505.764	8.2
506.196	8.38
506.627	8.58
507.059	8.79
507.491	8.99
507.923	9.2
508.354	9.42
508.786	9.64
509.217	9.88
509.649	10.15
510.08	10.41
510.512	10.67
510.943	10.96
511.374	11.24
511.805	11.51
512.237	11.82
512.668	12.12
513.099	12.43
513.53	12.77
513.961	13.1
514.391	13.41
514.822	13.75
515.253	14.09
515.684	14.42
516.114	14.79
516.545	15.16
516.975	15.5
517.406	15.87
517.836	16.23
518.267	16.59
518.697	16.97
519.127	17.34
519.558	17.7
519.988	18.06
520.418	18.41
520.848	18.76
521.278	19.12
521.708	19.36
522.138	19.69
522.567	20.03
522.997	20.36
523.427	20.68
523.857	21
524.286	21.33
524.716	21.64
525.145	21.96
525.575	22.26
526.004	22.52
526.433	22.89
526.863	23.18
527.292	23.43
527.721	23.69
528.15	23.9
528.579	24.14
529.008	24.36
529.437	24.57
529.866	24.76
530.295	24.95
530.724	25.17
531.152	25.36
531.581	25.51
532.01	25.67
532.438	25.8
532.867	25.95
533.295	26.08
533.723	26.21
534.152	26.33
534.58	26.44
535.008	26.51
535.436	26.58
535.865	26.67
536.293	26.76
536.721	26.84
537.149	26.91
537.576	26.97
538.004	27.02
538.432	27.06
538.86	27.1
539.287	27.16
539.715	27.22
540.143	27.25
540.57	27.27
540.998	27.31
541.425	27.36
541.852	27.39
542.28	27.4
542.707	27.44
543.134	27.47
543.561	27.48
543.988	27.5
544.415	27.53
544.842	27.57
545.269	27.6
545.696	27.61
546.123	27.62
546.549	27.65
546.976	27.7
547.403	27.7
547.829	27.74
548.256	27.75
548.682	27.77
549.108	27.77
549.535	27.8
549.961	27.79
550.387	27.79
550.813	27.79
551.24	27.79
551.666	27.79
552.092	27.79
552.518	27.77
552.943	27.78
553.369	27.75
553.795	27.71
554.221	27.66
554.646	27.64
555.072	27.61
555.498	27.55
555.923	27.5
556.349	27.41
556.774	27.32
557.199	27.24
557.625	27.16
558.05	27.07
558.475	26.96
558.9	26.87
559.325	26.74
559.75	26.6
560.175	26.48
560.6	26.34
561.025	26.22
561.449	26.05
561.874	25.91
562.299	25.74
562.723	25.58
563.148	25.41
563.572	25.24
563.997	25.07
564.421	24.89
564.846	24.69
565.27	24.5
565.694	24.29
566.118	24.11
566.542	23.92
566.966	23.73
567.39	23.52
567.814	23.31
568.238	23.09
568.662	22.9
569.086	22.68
569.509	22.49
569.933	22.27
570.357	22.06
570.78	21.86
571.204	21.65
571.627	21.44
572.05	21.26
572.474	21.09
572.897	20.9
573.32	20.7
573.743	20.55
574.166	20.37
574.589	20.21
575.012	20.07
575.435	19.9
575.858	19.75
576.281	19.62
576.704	19.47
577.126	19.31
577.549	19.2
577.972	19.07
578.394	18.93
578.817	18.8
579.239	18.68
579.661	18.57
580.084	18.46
580.506	18.34
580.928	18.21
581.35	18.1
581.772	18.01
582.194	17.89
582.616	17.79
583.038	17.7
583.46	17.62
583.882	17.51
584.303	17.41
584.725	17.31
585.147	17.22
585.568	17.15
585.99	17.06
586.411	16.97
586.833	16.89
587.254	16.81
587.675	16.74
588.096	16.65
588.518	16.6
588.939	16.54
589.36	16.46
589.781	16.41
590.202	16.34
590.623	16.28
591.043	16.22
591.464	16.17
591.885	16.11
592.305	16.06
592.726	16.02
593.147	15.96
593.567	15.91
593.987	15.89
594.408	15.83
594.828	15.78
595.248	15.75
595.669	15.71
596.089	15.68
596.509	15.63
596.929	15.6
597.349	15.55
597.769	15.52
598.189	15.49
598.608	15.43
599.028	15.39
599.448	15.36
599.867	15.3
600.287	15.25
600.706	15.2
601.126	15.16
601.545	15.1
601.965	15.04
602.384	14.98
602.803	14.91
603.222	14.84
603.641	14.78
604.061	14.72
604.48	14.66
604.898	14.57
605.317	14.5
605.736	14.42
606.155	14.34
606.574	14.27
606.992	14.17
607.411	14.1
607.829	13.99
608.248	13.9
608.666	13.8
609.085	13.71
609.503	13.62
609.921	13.54
610.339	13.45
610.758	13.36
611.176	13.26
611.594	13.17
612.012	13.06
612.43	13.01
612.847	12.91
613.265	12.82
613.683	12.73
614.101	12.64
614.518	12.53
614.936	12.44
615.353	12.37
615.771	12.29
616.188	12.23
616.606	12.15
617.023	12.08
617.44	12.02
617.857	11.95
618.274	11.88
618.691	11.83
619.108	11.79
619.525	11.74
619.942	11.69
620.359	11.65
620.776	11.6
621.192	11.57
621.609	11.54
622.026	11.5
622.442	11.49
622.859	11.45
623.275	11.44
623.691	11.4
624.108	11.39
624.524	11.37
624.94	11.34
625.356	11.34
625.772	11.32
626.188	11.3
626.604	11.28
627.02	11.26
627.436	11.27
627.852	11.25
628.268	11.24
628.683	11.2
629.099	11.19
629.514	11.17
629.93	11.14
630.345	11.11
630.761	11.07
631.176	11.04
631.591	11
632.007	10.94
632.422	10.89
632.837	10.84
633.252	10.78
633.667	10.7
634.082	10.63
634.497	10.53
634.911	10.45
635.326	10.35
635.741	10.24
636.155	10.12
636.57	10.02
636.984	9.88
637.399	9.75
637.813	9.63
638.228	9.52
638.642	9.4
639.056	9.27
639.47	9.14
639.884	9.03
640.298	8.9
640.712	8.78
641.126	8.65
641.54	8.54
641.954	8.45
642.368	8.31
642.781	8.19
643.195	8.06
643.609	7.96
644.022	7.86
644.436	7.75
644.849	7.65
645.262	7.57
645.676	7.48
646.089	7.39
646.502	7.29
646.915	7.23
647.328	7.17
647.741	7.11
648.154	7.06
648.567	7.03
648.98	6.98
649.393	6.94
649.805	6.9
650.218	6.86
650.631	6.83
651.043	6.81
651.456	6.78
651.868	6.75
652.28	6.72
652.693	6.67
653.105	6.62
653.517	6.58
653.929	6.54
654.341	6.5
654.753	6.45
655.165	6.4
655.577	6.34
655.989	6.27
656.401	6.21
656.813	6.13
657.224	6.08
657.636	6.03
658.047	5.96
658.459	5.89
658.87	5.81
659.282	5.77
659.693	5.7
660.104	5.65
660.515	5.57
660.926	5.52
661.338	5.47
661.749	5.39
662.159	5.35
662.57	5.3
662.981	5.25
663.392	5.2
663.803	5.15
664.213	5.1
664.624	5.07
665.035	5.03
665.445	5
665.855	4.97
666.266	4.96
666.676	4.93
667.086	4.9
667.497	4.88
667.907	4.88
668.317	4.86
668.727	4.86
669.137	4.85
669.547	4.86
669.956	4.85
670.366	4.87
670.776	4.86
671.186	4.87
671.595	4.9
672.005	4.92
672.414	4.93
672.824	4.96
673.233	4.98
673.642	4.99
674.052	5.01
674.461	5.03
674.87	5.05
675.279	5.08
675.688	5.1
676.097	5.13
676.506	5.16
676.915	5.19
677.323	5.24
677.732	5.28
678.141	5.32
678.549	5.37
678.958	5.43
679.366	5.48
679.775	5.54
680.183	5.61
680.592	5.68
681	5.75
681.408	5.84
681.816	5.91
682.224	6
682.632	6.12
683.04	6.22
683.448	6.34
683.856	6.47
684.264	6.61
684.671	6.78
685.079	6.96
685.487	7.17
685.894	7.39
686.302	7.65
686.709	7.93
687.116	8.23
687.524	8.6
687.931	8.95
688.338	9.35
688.745	9.8
689.152	10.28
689.559	10.76
689.966	11.28
690.373	11.86
690.78	12.44
691.187	13.05
691.593	13.68
692	14.32
692.407	14.99
692.813	15.69
693.22	16.39
693.626	17.09
694.032	17.83
694.439	18.58
694.845	19.31
695.251	20.07
695.657	20.82
696.063	21.58
696.469	22.35
696.875	23.11
697.281	23.88
697.687	24.65
698.093	25.43
698.498	26.2
698.904	26.97
699.31	27.7
699.715	28.44
700.12	29.18
700.526	29.92
700.931	30.63
701.337	31.35
701.742	32.04
702.147	32.73
702.552	33.42
702.957	34.06
703.362	34.71
703.767	35.35
704.172	36
704.577	36.62
704.981	37.24
705.386	37.84
705.791	38.44
706.195	39.04
706.6	39.58
707.004	40.15
707.408	40.72
707.813	41.27
708.217	41.84
708.621	42.39
709.025	42.92
709.43	43.45
709.834	44.01
710.237	44.53
710.641	45.05
711.045	45.58
711.449	46.05
711.853	46.58
712.256	47.07
712.66	47.58
713.064	48.07
713.467	48.54
713.87	49.02
714.274	49.48
714.677	49.94
715.08	50.36
715.484	50.8
715.887	51.27
716.29	51.68
716.693	52.1
717.096	52.53
717.499	52.9
717.901	53.3
718.304	53.66
718.707	54.02
719.109	54.39
719.512	54.78
719.915	55.13
720.317	55.48
720.719	55.81
721.122	56.13
721.524	56.43
721.926	56.77
722.328	57.07
722.731	57.39
723.133	57.7
723.535	58.02
723.937	58.27
724.338	58.56
724.74	58.83
725.142	59.05
725.544	59.29
725.945	59.54
726.347	59.76
726.748	59.97
727.15	60.19
727.551	60.41
727.952	60.57
728.354	60.78
728.755	60.95
729.156	61.12
729.557	61.32
729.958	61.49
730.359	61.64
730.76	61.79
731.161	61.96
731.562	62.11
731.962	62.23
732.363	62.34
732.763	62.47
733.164	62.57
733.564	62.68
733.965	62.79
734.365	62.9
734.766	63
735.166	63.09
735.566	63.18
735.966	63.23
736.366	63.3
736.766	63.4
737.166	63.5
737.566	63.6
737.966	63.69
738.365	63.76
738.765	63.88
739.165	63.92
739.564	64.02
739.964	64.12
740.363	64.2
740.763	64.25
741.162	64.31
741.561	64.36
741.96	64.44
742.36	64.5
742.759	64.52
743.158	64.5
743.557	64.58
743.955	64.64
744.354	64.66
744.753	64.74
745.152	64.77
745.55	64.82
745.949	64.85
746.348	64.87
746.746	64.9
747.144	65.01
747.543	65.08
747.941	65.16
748.339	65.21
748.737	65.26
749.136	65.24
749.534	65.32
749.932	65.34
750.33	65.36
750.727	65.38
751.125	65.37
751.523	65.34
751.921	65.35
752.318	65.33
752.716	65.28
753.113	65.26
753.511	65.26
753.908	65.22
754.305	65.19
754.703	65.16
755.1	65.14
755.497	65.13
755.894	65.12
756.291	65.09
756.688	65.07
757.085	65.06
757.482	65.04
757.878	65.07
758.275	65.09
758.672	65.12
759.068	65.15
759.465	65.13
759.861	65.17
760.258	65.16
760.654	65.18
761.05	65.17
761.447	65.19
761.843	65.17
762.239	65.13
762.635	65.11
763.031	65.09
763.427	65.08
763.822	65.04
764.218	65.01
764.614	65
765.01	64.96
765.405	64.91
765.801	64.89
766.196	64.87
766.592	64.88
766.987	64.89
767.382	64.85
767.778	64.85
768.173	64.88
768.568	64.87
768.963	64.85
769.358	64.88
769.753	64.92
770.148	64.92
770.542	64.93
770.937	64.88
771.332	64.89
771.726	64.9
772.121	64.86
772.515	64.85
772.91	64.86
773.304	64.86
773.699	64.8
774.093	64.75
774.487	64.75
774.881	64.76
775.275	64.81
775.669	64.77
776.063	64.74
776.457	64.74
776.851	64.71
777.245	64.72
777.638	64.72
778.032	64.77
778.425	64.84
778.819	64.84
779.212	64.81
779.606	64.8
779.999	64.83
780.392	64.83
780.786	64.85
781.179	64.87
781.572	64.85
781.965	64.84
782.358	64.81
782.751	64.78
783.143	64.77
