Data from N_2_dec_va_2n_049_Splice17_13.txt Node
Date: Sat Feb 29 13:56:23 EST 2020
User: sa697716
Spectrometer: FLMS03696
Trigger mode: 0
Integration Time (sec): 3.180400E-1
Scans to average: 20
Electric dark correction enabled: true
Nonlinearity correction enabled: true
Boxcar width: 5
XAxis mode: Wavelengths
Number of Pixels in Spectrum: 2048
>>>>>Begin Spectral Data<<<<<
187.83	94.74
188.298	91.43
188.766	72.67
189.233	61.79
189.701	63.53
190.169	58.33
190.636	50.17
191.104	-0.45
191.571	-248.86
192.039	-105.96
192.506	804.39
192.974	9837.55
193.441	-450.8
193.908	55.68
194.375	-57.03
194.842	-120.35
195.31	-65.24
195.777	-54.71
196.244	-21.52
196.711	7.51
197.177	8.65
197.644	10.85
198.111	11.44
198.578	12.59
199.045	13.2
199.511	14.12
199.978	14.84
200.445	15.15
200.911	15.43
201.378	15.73
201.844	16.51
202.31	17.01
202.777	17.41
203.243	18.25
203.709	18.48
204.176	18.56
204.642	19.19
205.108	19.31
205.574	19.62
206.04	19.69
206.506	19.88
206.972	19.81
207.438	19.67
207.903	19.85
208.369	19.36
208.835	19.58
209.301	19.64
209.766	19.09
210.232	19.26
210.697	19.09
211.163	18.84
211.628	18.58
212.094	18.11
212.559	18
213.024	17.29
213.49	17.17
213.955	16.84
214.42	16.37
214.885	16.01
215.35	15.26
215.815	14.59
216.28	14.07
216.745	13.62
217.21	13.18
217.675	12.6
218.14	11.99
218.604	11.39
219.069	10.99
219.534	10.68
219.998	10.25
220.463	10.04
220.927	9.85
221.392	9.62
221.856	9.37
222.32	9.18
222.785	9.01
223.249	8.89
223.713	8.79
224.177	8.62
224.642	8.51
225.106	8.42
225.57	8.3
226.034	8.15
226.497	8.02
226.961	7.9
227.425	7.75
227.889	7.65
228.353	7.55
228.816	7.45
229.28	7.32
229.744	7.21
230.207	7.12
230.671	7.01
231.134	6.9
231.597	6.82
232.061	6.74
232.524	6.67
232.987	6.58
233.45	6.49
233.914	6.39
234.377	6.34
234.84	6.25
235.303	6.18
235.766	6.12
236.229	6.07
236.691	6
237.154	5.95
237.617	5.88
238.08	5.81
238.542	5.75
239.005	5.71
239.468	5.64
239.93	5.59
240.393	5.55
240.855	5.48
241.317	5.43
241.78	5.39
242.242	5.33
242.704	5.28
243.166	5.25
243.629	5.2
244.091	5.14
244.553	5.12
245.015	5.07
245.477	5.02
245.939	4.98
246.4	4.93
246.862	4.89
247.324	4.86
247.786	4.81
248.247	4.78
248.709	4.74
249.17	4.71
249.632	4.65
250.093	4.6
250.555	4.57
251.016	4.54
251.477	4.5
251.939	4.47
252.4	4.43
252.861	4.41
253.322	4.37
253.783	4.35
254.244	4.32
254.705	4.29
255.166	4.27
255.627	4.25
256.088	4.23
256.549	4.2
257.009	4.18
257.47	4.15
257.931	4.12
258.391	4.09
258.852	4.06
259.312	4.04
259.773	4.02
260.233	4
260.694	3.97
261.154	3.95
261.614	3.92
262.074	3.9
262.534	3.87
262.994	3.86
263.455	3.84
263.915	3.82
264.374	3.8
264.834	3.78
265.294	3.76
265.754	3.74
266.214	3.72
266.673	3.71
267.133	3.69
267.593	3.67
268.052	3.65
268.512	3.64
268.971	3.63
269.431	3.61
269.89	3.6
270.349	3.6
270.809	3.59
271.268	3.59
271.727	3.57
272.186	3.56
272.645	3.55
273.104	3.54
273.563	3.53
274.022	3.51
274.481	3.5
274.94	3.48
275.399	3.47
275.857	3.45
276.316	3.44
276.775	3.42
277.233	3.41
277.692	3.4
278.15	3.38
278.609	3.36
279.067	3.35
279.525	3.33
279.984	3.32
280.442	3.31
280.9	3.3
281.358	3.29
281.816	3.29
282.274	3.27
282.732	3.26
283.19	3.26
283.648	3.25
284.106	3.24
284.564	3.23
285.021	3.23
285.479	3.22
285.937	3.21
286.394	3.19
286.852	3.18
287.309	3.17
287.767	3.16
288.224	3.16
288.682	3.14
289.139	3.13
289.596	3.12
290.053	3.1
290.511	3.08
290.968	3.07
291.425	3.06
291.882	3.04
292.339	3.03
292.796	3.01
293.252	2.99
293.709	2.98
294.166	2.96
294.623	2.95
295.079	2.94
295.536	2.93
295.992	2.92
296.449	2.91
296.905	2.9
297.362	2.89
297.818	2.88
298.274	2.87
298.731	2.86
299.187	2.85
299.643	2.84
300.099	2.83
300.555	2.83
301.011	2.82
301.467	2.82
301.923	2.81
302.379	2.81
302.835	2.81
303.291	2.81
303.746	2.8
304.202	2.79
304.658	2.78
305.113	2.78
305.569	2.78
306.024	2.77
306.479	2.75
306.935	2.75
307.39	2.74
307.845	2.73
308.301	2.73
308.756	2.73
309.211	2.73
309.666	2.73
310.121	2.73
310.576	2.72
311.031	2.72
311.486	2.71
311.94	2.7
312.395	2.7
312.85	2.7
313.305	2.69
313.759	2.68
314.214	2.67
314.668	2.67
315.123	2.67
315.577	2.67
316.032	2.67
316.486	2.66
316.94	2.66
317.394	2.64
317.849	2.64
318.303	2.63
318.757	2.63
319.211	2.61
319.665	2.6
320.119	2.58
320.572	2.58
321.026	2.57
321.48	2.56
321.934	2.56
322.387	2.56
322.841	2.56
323.295	2.56
323.748	2.55
324.202	2.55
324.655	2.55
325.108	2.55
325.562	2.53
326.015	2.52
326.468	2.5
326.921	2.5
327.374	2.49
327.827	2.49
328.28	2.49
328.733	2.47
329.186	2.47
329.639	2.47
330.092	2.47
330.545	2.47
330.997	2.47
331.45	2.48
331.903	2.47
332.355	2.47
332.808	2.47
333.26	2.46
333.713	2.47
334.165	2.46
334.617	2.47
335.069	2.47
335.522	2.47
335.974	2.48
336.426	2.47
336.878	2.47
337.33	2.46
337.782	2.46
338.234	2.46
338.686	2.45
339.137	2.45
339.589	2.44
340.041	2.43
340.493	2.41
340.944	2.41
341.396	2.41
341.847	2.4
342.299	2.4
342.75	2.39
343.201	2.39
343.653	2.38
344.104	2.37
344.555	2.36
345.006	2.36
345.457	2.36
345.908	2.35
346.359	2.35
346.81	2.36
347.261	2.35
347.712	2.35
348.163	2.34
348.613	2.35
349.064	2.33
349.515	2.33
349.965	2.33
350.416	2.31
350.866	2.31
351.317	2.31
351.767	2.29
352.217	2.3
352.668	2.29
353.118	2.29
353.568	2.28
354.018	2.29
354.468	2.29
354.918	2.29
355.368	2.3
355.818	2.3
356.268	2.3
356.718	2.3
357.168	2.3
357.617	2.3
358.067	2.29
358.517	2.29
358.966	2.29
359.416	2.29
359.865	2.29
360.315	2.29
360.764	2.29
361.213	2.28
361.663	2.28
362.112	2.28
362.561	2.27
363.01	2.28
363.459	2.27
363.908	2.26
364.357	2.26
364.806	2.27
365.255	2.27
365.703	2.26
366.152	2.27
366.601	2.26
367.05	2.27
367.498	2.27
367.947	2.25
368.395	2.27
368.844	2.27
369.292	2.26
369.74	2.26
370.189	2.26
370.637	2.26
371.085	2.27
371.533	2.27
371.981	2.28
372.429	2.28
372.877	2.29
373.325	2.29
373.773	2.31
374.221	2.31
374.669	2.31
375.116	2.32
375.564	2.33
376.012	2.34
376.459	2.36
376.907	2.36
377.354	2.37
377.801	2.38
378.249	2.4
378.696	2.42
379.143	2.44
379.591	2.46
380.038	2.47
380.485	2.49
380.932	2.51
381.379	2.53
381.826	2.55
382.273	2.57
382.72	2.59
383.166	2.61
383.613	2.64
384.06	2.66
384.506	2.68
384.953	2.71
385.4	2.73
385.846	2.75
386.292	2.78
386.739	2.8
387.185	2.84
387.631	2.88
388.078	2.92
388.524	2.93
388.97	2.96
389.416	2.99
389.862	3.02
390.308	3.05
390.754	3.09
391.2	3.12
391.645	3.15
392.091	3.18
392.537	3.21
392.983	3.23
393.428	3.28
393.874	3.31
394.319	3.34
394.765	3.37
395.21	3.39
395.655	3.42
396.101	3.45
396.546	3.47
396.991	3.5
397.436	3.5
397.881	3.53
398.326	3.55
398.771	3.57
399.216	3.6
399.661	3.62
400.106	3.64
400.551	3.63
400.995	3.64
401.44	3.64
401.885	3.65
402.329	3.67
402.774	3.67
403.218	3.68
403.663	3.67
404.107	3.69
404.551	3.69
404.995	3.69
405.44	3.69
405.884	3.69
406.328	3.7
406.772	3.7
407.216	3.71
407.66	3.71
408.104	3.69
408.547	3.7
408.991	3.69
409.435	3.68
409.879	3.68
410.322	3.69
410.766	3.69
411.209	3.7
411.653	3.69
412.096	3.69
412.54	3.69
412.983	3.68
413.426	3.7
413.869	3.7
414.312	3.73
414.756	3.73
415.199	3.73
415.642	3.76
416.085	3.75
416.527	3.77
416.97	3.77
417.413	3.76
417.856	3.77
418.298	3.75
418.741	3.75
419.184	3.73
419.626	3.72
420.069	3.72
420.511	3.69
420.953	3.7
421.396	3.71
421.838	3.73
422.28	3.75
422.722	3.74
423.164	3.74
423.606	3.75
424.048	3.73
424.49	3.74
424.932	3.74
425.374	3.73
425.816	3.71
426.258	3.67
426.699	3.65
427.141	3.62
427.582	3.63
428.024	3.62
428.465	3.6
428.907	3.61
429.348	3.59
429.789	3.58
430.231	3.58
430.672	3.59
431.113	3.6
431.554	3.6
431.995	3.61
432.436	3.6
432.877	3.59
433.318	3.59
433.759	3.58
434.2	3.59
434.64	3.61
435.081	3.63
435.522	3.63
435.962	3.65
436.403	3.67
436.843	3.67
437.284	3.68
437.724	3.71
438.164	3.73
438.604	3.75
439.045	3.77
439.485	3.78
439.925	3.77
440.365	3.79
440.805	3.8
441.245	3.8
441.685	3.84
442.125	3.86
442.564	3.91
443.004	3.96
443.444	3.99
443.883	4.03
444.323	4.05
444.762	4.11
445.202	4.15
445.641	4.18
446.081	4.25
446.52	4.27
446.959	4.32
447.398	4.36
447.837	4.4
448.276	4.43
448.716	4.46
449.154	4.51
449.593	4.55
450.032	4.58
450.471	4.61
450.91	4.63
451.349	4.65
451.787	4.67
452.226	4.66
452.664	4.67
453.103	4.68
453.541	4.71
453.98	4.71
454.418	4.72
454.856	4.71
455.295	4.72
455.733	4.73
456.171	4.74
456.609	4.74
457.047	4.75
457.485	4.74
457.923	4.75
458.361	4.74
458.798	4.75
459.236	4.76
459.674	4.76
460.111	4.75
460.549	4.73
460.987	4.73
461.424	4.72
461.862	4.71
462.299	4.7
462.736	4.71
463.173	4.7
463.611	4.69
464.048	4.7
464.485	4.7
464.922	4.71
465.359	4.73
465.796	4.74
466.233	4.76
466.67	4.76
467.106	4.77
467.543	4.77
467.98	4.78
468.416	4.81
468.853	4.81
469.29	4.81
469.726	4.82
470.162	4.81
470.599	4.82
471.035	4.82
471.471	4.82
471.907	4.83
472.344	4.83
472.78	4.84
473.216	4.83
473.652	4.84
474.088	4.86
474.523	4.86
474.959	4.87
475.395	4.88
475.831	4.88
476.266	4.91
476.702	4.93
477.138	4.93
477.573	4.93
478.008	4.93
478.444	4.93
478.879	4.92
479.314	4.94
479.75	4.94
480.185	4.95
480.62	4.96
481.055	4.95
481.49	4.94
481.925	4.96
482.36	4.97
482.795	4.98
483.229	4.98
483.664	4.99
484.099	5
484.534	5
484.968	5.02
485.403	5.04
485.837	5.05
486.271	5.08
486.706	5.1
487.14	5.13
487.574	5.17
488.009	5.21
488.443	5.23
488.877	5.27
489.311	5.32
489.745	5.37
490.179	5.42
490.613	5.48
491.046	5.54
491.48	5.61
491.914	5.67
492.348	5.74
492.781	5.8
493.215	5.88
493.648	5.96
494.082	6.03
494.515	6.11
494.948	6.2
495.382	6.3
495.815	6.4
496.248	6.49
496.681	6.59
497.114	6.69
497.547	6.82
497.98	6.95
498.413	7.08
498.846	7.22
499.279	7.36
499.711	7.49
500.144	7.63
500.577	7.8
501.009	7.97
501.442	8.14
501.874	8.33
502.306	8.52
502.739	8.71
503.171	8.91
503.603	9.12
504.036	9.34
504.468	9.57
504.9	9.81
505.332	10.05
505.764	10.3
506.196	10.55
506.627	10.8
507.059	11.07
507.491	11.36
507.923	11.65
508.354	11.95
508.786	12.25
509.217	12.55
509.649	12.87
510.08	13.19
510.512	13.51
510.943	13.86
511.374	14.2
511.805	14.54
512.237	14.88
512.668	15.23
513.099	15.61
513.53	15.97
513.961	16.35
514.391	16.69
514.822	17.05
515.253	17.42
515.684	17.78
516.114	18.16
516.545	18.53
516.975	18.92
517.406	19.3
517.836	19.65
518.267	20.01
518.697	20.38
519.127	20.76
519.558	21.13
519.988	21.49
520.418	21.83
520.848	22.17
521.278	22.51
521.708	22.74
522.138	23.04
522.567	23.35
522.997	23.65
523.427	23.94
523.857	24.21
524.286	24.48
524.716	24.74
525.145	25.01
525.575	25.28
526.004	25.53
526.433	25.86
526.863	26.11
527.292	26.35
527.721	26.56
528.15	26.75
528.579	26.95
529.008	27.16
529.437	27.33
529.866	27.5
530.295	27.65
530.724	27.82
531.152	27.98
531.581	28.09
532.01	28.2
532.438	28.34
532.867	28.48
533.295	28.62
533.723	28.73
534.152	28.84
534.58	28.93
535.008	29.01
535.436	29.11
535.865	29.17
536.293	29.27
536.721	29.35
537.149	29.41
537.576	29.46
538.004	29.48
538.432	29.52
538.86	29.58
539.287	29.64
539.715	29.71
540.143	29.73
540.57	29.78
540.998	29.8
541.425	29.84
541.852	29.87
542.28	29.9
542.707	29.96
543.134	29.99
543.561	30
543.988	30.02
544.415	30.05
544.842	30.07
545.269	30.11
545.696	30.14
546.123	30.18
546.549	30.2
546.976	30.24
547.403	30.25
547.829	30.28
548.256	30.31
548.682	30.33
549.108	30.33
549.535	30.34
549.961	30.34
550.387	30.33
550.813	30.33
551.24	30.32
551.666	30.31
552.092	30.31
552.518	30.29
552.943	30.28
553.369	30.26
553.795	30.25
554.221	30.23
554.646	30.2
555.072	30.17
555.498	30.13
555.923	30.12
556.349	30.06
556.774	30.01
557.199	29.96
557.625	29.9
558.05	29.81
558.475	29.73
558.9	29.67
559.325	29.59
559.75	29.5
560.175	29.41
560.6	29.29
561.025	29.19
561.449	29.07
561.874	28.97
562.299	28.85
562.723	28.75
563.148	28.62
563.572	28.49
563.997	28.37
564.421	28.22
564.846	28.07
565.27	27.92
565.694	27.75
566.118	27.61
566.542	27.44
566.966	27.3
567.39	27.13
567.814	26.97
568.238	26.78
568.662	26.59
569.086	26.45
569.509	26.29
569.933	26.11
570.357	25.95
570.78	25.77
571.204	25.6
571.627	25.43
572.05	25.26
572.474	25.11
572.897	24.97
573.32	24.81
573.743	24.63
574.166	24.46
574.589	24.31
575.012	24.17
575.435	24.02
575.858	23.9
576.281	23.76
576.704	23.64
577.126	23.51
577.549	23.4
577.972	23.3
578.394	23.19
578.817	23.09
579.239	23.01
579.661	22.89
580.084	22.79
580.506	22.67
580.928	22.56
581.35	22.46
581.772	22.36
582.194	22.26
582.616	22.16
583.038	22.07
583.46	21.99
583.882	21.89
584.303	21.82
584.725	21.75
585.147	21.67
585.568	21.6
585.99	21.51
586.411	21.44
586.833	21.35
587.254	21.29
587.675	21.22
588.096	21.15
588.518	21.1
588.939	21.02
589.36	20.95
589.781	20.89
590.202	20.84
590.623	20.79
591.043	20.73
591.464	20.67
591.885	20.63
592.305	20.6
592.726	20.54
593.147	20.5
593.567	20.46
593.987	20.43
594.408	20.39
594.828	20.34
595.248	20.3
595.669	20.27
596.089	20.24
596.509	20.19
596.929	20.13
597.349	20.09
597.769	20.05
598.189	20.01
598.608	19.95
599.028	19.91
599.448	19.86
599.867	19.82
600.287	19.77
600.706	19.72
601.126	19.66
601.545	19.61
601.965	19.56
602.384	19.51
602.803	19.42
603.222	19.35
603.641	19.3
604.061	19.23
604.48	19.15
604.898	19.06
605.317	18.98
605.736	18.9
606.155	18.82
606.574	18.73
606.992	18.62
607.411	18.53
607.829	18.39
608.248	18.29
608.666	18.18
609.085	18.1
609.503	18
609.921	17.9
610.339	17.81
610.758	17.71
611.176	17.61
611.594	17.52
612.012	17.43
612.43	17.39
612.847	17.3
613.265	17.22
613.683	17.12
614.101	17.03
614.518	16.92
614.936	16.83
615.353	16.73
615.771	16.65
616.188	16.56
616.606	16.47
617.023	16.39
617.44	16.31
617.857	16.23
618.274	16.15
618.691	16.08
619.108	16.02
619.525	15.96
619.942	15.91
620.359	15.85
620.776	15.82
621.192	15.77
621.609	15.73
622.026	15.69
622.442	15.63
622.859	15.61
623.275	15.59
623.691	15.57
624.108	15.54
624.524	15.52
624.94	15.48
625.356	15.45
625.772	15.44
626.188	15.44
626.604	15.4
627.02	15.38
627.436	15.35
627.852	15.33
628.268	15.29
628.683	15.28
629.099	15.26
629.514	15.24
629.93	15.21
630.345	15.15
630.761	15.11
631.176	15.09
631.591	15.05
632.007	15
632.422	14.94
632.837	14.89
633.252	14.81
633.667	14.72
634.082	14.63
634.497	14.53
634.911	14.44
635.326	14.31
635.741	14.19
636.155	14.07
636.57	13.94
636.984	13.79
637.399	13.64
637.813	13.48
638.228	13.32
638.642	13.17
639.056	13
639.47	12.83
639.884	12.66
640.298	12.49
640.712	12.32
641.126	12.14
641.54	11.98
641.954	11.81
642.368	11.65
642.781	11.49
643.195	11.32
643.609	11.16
644.022	11.01
644.436	10.84
644.849	10.7
645.262	10.56
645.676	10.41
646.089	10.27
646.502	10.14
646.915	10.01
647.328	9.9
647.741	9.8
648.154	9.7
648.567	9.62
648.98	9.57
649.393	9.49
649.805	9.42
650.218	9.37
650.631	9.31
651.043	9.24
651.456	9.19
651.868	9.12
652.28	9.05
652.693	8.99
653.105	8.89
653.517	8.81
653.929	8.74
654.341	8.66
654.753	8.57
655.165	8.49
655.577	8.4
655.989	8.28
656.401	8.16
656.813	8.05
657.224	7.93
657.636	7.82
658.047	7.69
658.459	7.54
658.87	7.4
659.282	7.27
659.693	7.13
660.104	6.99
660.515	6.87
660.926	6.75
661.338	6.62
661.749	6.48
662.159	6.35
662.57	6.24
662.981	6.12
663.392	6.01
663.803	5.9
664.213	5.8
664.624	5.71
665.035	5.6
665.445	5.5
665.855	5.41
666.266	5.33
666.676	5.25
667.086	5.17
667.497	5.11
667.907	5.03
668.317	4.96
668.727	4.92
669.137	4.87
669.547	4.84
669.956	4.82
670.366	4.8
670.776	4.79
671.186	4.78
671.595	4.77
672.005	4.77
672.414	4.78
672.824	4.79
673.233	4.8
673.642	4.8
674.052	4.8
674.461	4.81
674.87	4.83
675.279	4.83
675.688	4.85
676.097	4.87
676.506	4.9
676.915	4.94
677.323	4.99
677.732	5.02
678.141	5.08
678.549	5.14
678.958	5.21
679.366	5.28
679.775	5.38
680.183	5.48
680.592	5.61
681	5.73
681.408	5.87
681.816	6.02
682.224	6.2
682.632	6.39
683.04	6.61
683.448	6.85
683.856	7.12
684.264	7.41
684.671	7.74
685.079	8.09
685.487	8.5
685.894	8.93
686.302	9.37
686.709	9.84
687.116	10.34
687.524	10.88
687.931	11.45
688.338	12.03
688.745	12.65
689.152	13.29
689.559	13.93
689.966	14.59
690.373	15.28
690.78	15.99
691.187	16.72
691.593	17.44
692	18.16
692.407	18.87
692.813	19.62
693.22	20.34
693.626	21.07
694.032	21.8
694.439	22.53
694.845	23.27
695.251	23.98
695.657	24.64
696.063	25.35
696.469	26.02
696.875	26.69
697.281	27.31
697.687	27.96
698.093	28.59
698.498	29.21
698.904	29.8
699.31	30.34
699.715	30.91
700.12	31.47
700.526	32.01
700.931	32.54
701.337	33.07
701.742	33.55
702.147	34.04
702.552	34.52
702.957	34.99
703.362	35.45
703.767	35.91
704.172	36.32
704.577	36.76
704.981	37.16
705.386	37.57
705.791	37.96
706.195	38.34
706.6	38.72
707.004	39.08
707.408	39.43
707.813	39.77
708.217	40.11
708.621	40.44
709.025	40.79
709.43	41.11
709.834	41.43
710.237	41.73
710.641	42.06
711.045	42.34
711.449	42.61
711.853	42.88
712.256	43.17
712.66	43.41
713.064	43.68
713.467	43.94
713.87	44.19
714.274	44.43
714.677	44.67
715.08	44.92
715.484	45.17
715.887	45.39
716.29	45.59
716.693	45.78
717.096	45.98
717.499	46.18
717.901	46.35
718.304	46.55
718.707	46.71
719.109	46.9
719.512	47.07
719.915	47.24
720.317	47.39
720.719	47.56
721.122	47.72
721.524	47.91
721.926	48.06
722.328	48.22
722.731	48.35
723.133	48.51
723.535	48.63
723.937	48.76
724.338	48.88
724.74	49.02
725.142	49.2
725.544	49.31
725.945	49.42
726.347	49.53
726.748	49.61
727.15	49.69
727.551	49.8
727.952	49.89
728.354	49.99
728.755	50.08
729.156	50.14
729.557	50.14
729.958	50.22
730.359	50.3
730.76	50.36
731.161	50.44
731.562	50.53
731.962	50.58
732.363	50.63
732.763	50.69
733.164	50.74
733.564	50.81
733.965	50.9
734.365	50.93
734.766	50.96
735.166	50.99
735.566	51.01
735.966	51.04
736.366	51.08
736.766	51.12
737.166	51.15
737.566	51.18
737.966	51.23
738.365	51.26
738.765	51.3
739.165	51.3
739.564	51.33
739.964	51.38
740.363	51.41
740.763	51.43
741.162	51.46
741.561	51.48
741.96	51.52
742.36	51.51
742.759	51.51
743.158	51.51
743.557	51.52
743.955	51.57
744.354	51.59
744.753	51.62
745.152	51.63
745.55	51.61
745.949	51.6
746.348	51.6
746.746	51.62
747.144	51.67
747.543	51.7
747.941	51.75
748.339	51.77
748.737	51.79
749.136	51.81
749.534	51.83
749.932	51.86
750.33	51.91
750.727	51.94
751.125	51.96
751.523	51.92
751.921	51.92
752.318	51.95
752.716	51.94
753.113	51.92
753.511	51.92
753.908	51.9
754.305	51.89
754.703	51.87
755.1	51.85
755.497	51.86
755.894	51.9
756.291	51.89
756.688	51.86
757.085	51.86
757.482	51.89
757.878	51.91
758.275	51.93
758.672	51.96
759.068	51.97
759.465	52
759.861	51.98
760.258	51.94
760.654	51.95
761.05	51.94
761.447	51.91
761.843	51.89
762.239	51.84
762.635	51.82
763.031	51.8
763.427	51.77
763.822	51.73
764.218	51.71
764.614	51.67
765.01	51.64
765.405	51.63
765.801	51.61
766.196	51.59
766.592	51.57
766.987	51.56
767.382	51.56
767.778	51.58
768.173	51.58
768.568	51.57
768.963	51.59
769.358	51.6
769.753	51.62
770.148	51.64
770.542	51.64
770.937	51.64
771.332	51.64
771.726	51.6
772.121	51.59
772.515	51.55
772.91	51.56
773.304	51.56
773.699	51.54
774.093	51.5
774.487	51.5
774.881	51.49
775.275	51.49
775.669	51.47
776.063	51.48
776.457	51.46
776.851	51.45
777.245	51.45
777.638	51.47
778.032	51.5
778.425	51.52
778.819	51.51
779.212	51.49
779.606	51.51
779.999	51.53
780.392	51.54
780.786	51.55
781.179	51.58
781.572	51.59
781.965	51.57
