Data from N_3_ofc_oh_4n_Splice17_08.txt Node
Date: Sat Feb 29 15:06:09 EST 2020
User: sa697716
Spectrometer: FLMS03696
Trigger mode: 0
Integration Time (sec): 3.180400E-1
Scans to average: 20
Electric dark correction enabled: true
Nonlinearity correction enabled: true
Boxcar width: 5
XAxis mode: Wavelengths
Number of Pixels in Spectrum: 2048
>>>>>Begin Spectral Data<<<<<
187.83	119.29
188.298	119.1
188.766	99.38
189.233	102.4
189.701	107.19
190.169	104.46
190.636	115.62
191.104	126.85
191.571	299.09
192.039	331.89
192.506	-723.88
192.974	-5244.38
193.441	828.66
193.908	-33.34
194.375	-40.09
194.842	73.26
195.31	28.21
195.777	70.92
196.244	89.59
196.711	94.23
197.177	95.01
197.644	96
198.111	96.17
198.578	97.07
199.045	97.2
199.511	97.72
199.978	97.48
200.445	97.57
200.911	97.7
201.378	98.12
201.844	98.95
202.31	99.86
202.777	100.39
203.243	100.8
203.709	100.67
204.176	100.6
204.642	99.57
205.108	98.94
205.574	99.17
206.04	98.53
206.506	97.53
206.972	96.35
207.438	95.23
207.903	93.9
208.369	91.93
208.835	90.69
209.301	89.14
209.766	87.51
210.232	86.57
210.697	84.99
211.163	83.48
211.628	81.99
212.094	80.75
212.559	78.88
213.024	77.25
213.49	75.9
213.955	74.16
214.42	72.33
214.885	70.42
215.35	67.66
215.815	64.07
216.28	60.4
216.745	56.27
217.21	51.99
217.675	48.1
218.14	44.37
218.604	41.02
219.069	38.07
219.534	35.53
219.998	33.55
220.463	31.84
220.927	30.42
221.392	29.17
221.856	28.12
222.32	27.2
222.785	26.37
223.249	25.67
223.713	25.06
224.177	24.54
224.642	24.06
225.106	23.55
225.57	23.07
226.034	22.65
226.497	22.22
226.961	21.8
227.425	21.41
227.889	21.05
228.353	20.71
228.816	20.38
229.28	20.06
229.744	19.76
230.207	19.49
230.671	19.21
231.134	18.92
231.597	18.66
232.061	18.41
232.524	18.17
232.987	17.94
233.45	17.69
233.914	17.45
234.377	17.23
234.84	17.05
235.303	16.83
235.766	16.63
236.229	16.46
236.691	16.3
237.154	16.15
237.617	15.99
238.08	15.84
238.542	15.72
239.005	15.6
239.468	15.44
239.93	15.29
240.393	15.18
240.855	15.05
241.317	14.91
241.78	14.79
242.242	14.64
242.704	14.52
243.166	14.39
243.629	14.24
244.091	14.13
244.553	14.02
245.015	13.9
245.477	13.76
245.939	13.63
246.4	13.5
246.862	13.37
247.324	13.27
247.786	13.16
248.247	13.05
248.709	12.94
249.17	12.83
249.632	12.73
250.093	12.6
250.555	12.51
251.016	12.42
251.477	12.32
251.939	12.24
252.4	12.14
252.861	12.05
253.322	11.97
253.783	11.89
254.244	11.81
254.705	11.73
255.166	11.69
255.627	11.62
256.088	11.54
256.549	11.46
257.009	11.38
257.47	11.3
257.931	11.23
258.391	11.15
258.852	11.07
259.312	10.99
259.773	10.91
260.233	10.83
260.694	10.75
261.154	10.67
261.614	10.61
262.074	10.54
262.534	10.45
262.994	10.37
263.455	10.31
263.915	10.23
264.374	10.16
264.834	10.1
265.294	10.02
265.754	9.96
266.214	9.9
266.673	9.85
267.133	9.79
267.593	9.75
268.052	9.7
268.512	9.65
268.971	9.61
269.431	9.57
269.89	9.53
270.349	9.49
270.809	9.46
271.268	9.43
271.727	9.39
272.186	9.36
272.645	9.32
273.104	9.29
273.563	9.26
274.022	9.23
274.481	9.2
274.94	9.16
275.399	9.13
275.857	9.1
276.316	9.07
276.775	9.03
277.233	9
277.692	8.97
278.15	8.94
278.609	8.92
279.067	8.88
279.525	8.85
279.984	8.83
280.442	8.8
280.9	8.77
281.358	8.76
281.816	8.75
282.274	8.72
282.732	8.7
283.19	8.68
283.648	8.66
284.106	8.66
284.564	8.66
285.021	8.65
285.479	8.64
285.937	8.64
286.394	8.62
286.852	8.62
287.309	8.61
287.767	8.59
288.224	8.58
288.682	8.55
289.139	8.52
289.596	8.48
290.053	8.43
290.511	8.38
290.968	8.33
291.425	8.28
291.882	8.23
292.339	8.19
292.796	8.14
293.252	8.1
293.709	8.07
294.166	8.04
294.623	8.01
295.079	7.99
295.536	7.96
295.992	7.94
296.449	7.93
296.905	7.91
297.362	7.88
297.818	7.87
298.274	7.85
298.731	7.83
299.187	7.8
299.643	7.78
300.099	7.76
300.555	7.73
301.011	7.71
301.467	7.69
301.923	7.68
302.379	7.66
302.835	7.65
303.291	7.64
303.746	7.63
304.202	7.61
304.658	7.61
305.113	7.61
305.569	7.61
306.024	7.6
306.479	7.59
306.935	7.59
307.39	7.59
307.845	7.59
308.301	7.6
308.756	7.6
309.211	7.61
309.666	7.62
310.121	7.61
310.576	7.62
311.031	7.62
311.486	7.63
311.94	7.63
312.395	7.63
312.85	7.62
313.305	7.63
313.759	7.64
314.214	7.64
314.668	7.64
315.123	7.65
315.577	7.65
316.032	7.64
316.486	7.63
316.94	7.62
317.394	7.6
317.849	7.6
318.303	7.58
318.757	7.55
319.211	7.53
319.665	7.5
320.119	7.49
320.572	7.47
321.026	7.45
321.48	7.44
321.934	7.42
322.387	7.41
322.841	7.39
323.295	7.38
323.748	7.37
324.202	7.36
324.655	7.36
325.108	7.34
325.562	7.32
326.015	7.32
326.468	7.3
326.921	7.28
327.374	7.28
327.827	7.27
328.28	7.25
328.733	7.24
329.186	7.24
329.639	7.22
330.092	7.23
330.545	7.23
330.997	7.23
331.45	7.23
331.903	7.23
332.355	7.24
332.808	7.25
333.26	7.26
333.713	7.28
334.165	7.28
334.617	7.3
335.069	7.3
335.522	7.31
335.974	7.33
336.426	7.35
336.878	7.37
337.33	7.38
337.782	7.38
338.234	7.38
338.686	7.37
339.137	7.38
339.589	7.37
340.041	7.37
340.493	7.36
340.944	7.34
341.396	7.32
341.847	7.29
342.299	7.27
342.75	7.24
343.201	7.21
343.653	7.18
344.104	7.16
344.555	7.12
345.006	7.09
345.457	7.07
345.908	7.06
346.359	7.04
346.81	7.03
347.261	7.01
347.712	7
348.163	7
348.613	6.98
349.064	6.97
349.515	6.96
349.965	6.95
350.416	6.96
350.866	6.95
351.317	6.94
351.767	6.94
352.217	6.93
352.668	6.93
353.118	6.93
353.568	6.95
354.018	6.97
354.468	6.97
354.918	6.99
355.368	7
355.818	6.99
356.268	7
356.718	7.01
357.168	7
357.617	7.02
358.067	7.02
358.517	7.01
358.966	7.01
359.416	7.02
359.865	7.02
360.315	7.01
360.764	7.02
361.213	7.01
361.663	7.01
362.112	7.03
362.561	7.02
363.01	7.02
363.459	7.01
363.908	7
364.357	7
364.806	6.99
365.255	7
365.703	6.99
366.152	7
366.601	7
367.05	7
367.498	7
367.947	7
368.395	7.01
368.844	7.02
369.292	7.02
369.74	7.03
370.189	7.02
370.637	7.03
371.085	7.03
371.533	7.03
371.981	7.03
372.429	7.03
372.877	7.04
373.325	7.03
373.773	7.02
374.221	7.02
374.669	7.01
375.116	7.01
375.564	7
376.012	6.99
376.459	7
376.907	7.01
377.354	7.01
377.801	7.01
378.249	7.03
378.696	7.04
379.143	7.06
379.591	7.08
380.038	7.11
380.485	7.13
380.932	7.14
381.379	7.15
381.826	7.15
382.273	7.16
382.72	7.18
383.166	7.19
383.613	7.21
384.06	7.22
384.506	7.22
384.953	7.21
385.4	7.23
385.846	7.24
386.292	7.26
386.739	7.29
387.185	7.31
387.631	7.33
388.078	7.35
388.524	7.35
388.97	7.35
389.416	7.36
389.862	7.39
390.308	7.42
390.754	7.44
391.2	7.46
391.645	7.48
392.091	7.5
392.537	7.52
392.983	7.56
393.428	7.6
393.874	7.64
394.319	7.68
394.765	7.69
395.21	7.7
395.655	7.73
396.101	7.74
396.546	7.77
396.991	7.79
397.436	7.81
397.881	7.82
398.326	7.86
398.771	7.88
399.216	7.92
399.661	7.94
400.106	7.96
400.551	7.98
400.995	7.98
401.44	7.97
401.885	7.98
402.329	7.98
402.774	7.97
403.218	7.98
403.663	7.98
404.107	7.99
404.551	8.01
404.995	8.01
405.44	8.02
405.884	8.06
406.328	8.06
406.772	8.07
407.216	8.1
407.66	8.12
408.104	8.12
408.547	8.13
408.991	8.12
409.435	8.13
409.879	8.14
410.322	8.16
410.766	8.16
411.209	8.18
411.653	8.2
412.096	8.21
412.54	8.23
412.983	8.26
413.426	8.3
413.869	8.34
414.312	8.39
414.756	8.43
415.199	8.44
415.642	8.49
416.085	8.53
416.527	8.56
416.97	8.58
417.413	8.56
417.856	8.55
418.298	8.52
418.741	8.5
419.184	8.47
419.626	8.43
420.069	8.43
420.511	8.41
420.953	8.39
421.396	8.38
421.838	8.4
422.28	8.45
422.722	8.47
423.164	8.5
423.606	8.55
424.048	8.56
424.49	8.61
424.932	8.64
425.374	8.65
425.816	8.64
426.258	8.63
426.699	8.58
427.141	8.53
427.582	8.52
428.024	8.54
428.465	8.55
428.907	8.58
429.348	8.59
429.789	8.6
430.231	8.59
430.672	8.63
431.113	8.69
431.554	8.77
431.995	8.84
432.436	8.88
432.877	8.87
433.318	8.89
433.759	8.91
434.2	8.94
434.64	8.99
435.081	9.04
435.522	9.08
435.962	9.12
436.403	9.15
436.843	9.19
437.284	9.24
437.724	9.28
438.164	9.31
438.604	9.34
439.045	9.34
439.485	9.35
439.925	9.37
440.365	9.39
440.805	9.4
441.245	9.41
441.685	9.44
442.125	9.47
442.564	9.52
443.004	9.56
443.444	9.61
443.883	9.66
444.323	9.7
444.762	9.76
445.202	9.85
445.641	9.88
446.081	9.94
446.52	9.96
446.959	10
447.398	10.1
447.837	10.18
448.276	10.21
448.716	10.27
449.154	10.31
449.593	10.36
450.032	10.37
450.471	10.42
450.91	10.44
451.349	10.49
451.787	10.49
452.226	10.44
452.664	10.42
453.103	10.42
453.541	10.42
453.98	10.43
454.418	10.41
454.856	10.39
455.295	10.37
455.733	10.35
456.171	10.31
456.609	10.33
457.047	10.33
457.485	10.31
457.923	10.29
458.361	10.27
458.798	10.25
459.236	10.25
459.674	10.26
460.111	10.27
460.549	10.26
460.987	10.26
461.424	10.25
461.862	10.25
462.299	10.25
462.736	10.24
463.173	10.24
463.611	10.24
464.048	10.26
464.485	10.25
464.922	10.24
465.359	10.27
465.796	10.26
466.233	10.27
466.67	10.28
467.106	10.29
467.543	10.3
467.98	10.33
468.416	10.34
468.853	10.33
469.29	10.33
469.726	10.35
470.162	10.34
470.599	10.35
471.035	10.37
471.471	10.37
471.907	10.4
472.344	10.42
472.78	10.43
473.216	10.43
473.652	10.43
474.088	10.46
474.523	10.43
474.959	10.44
475.395	10.44
475.831	10.43
476.266	10.42
476.702	10.41
477.138	10.39
477.573	10.37
478.008	10.37
478.444	10.36
478.879	10.34
479.314	10.34
479.75	10.33
480.185	10.33
480.62	10.31
481.055	10.31
481.49	10.28
481.925	10.27
482.36	10.26
482.795	10.24
483.229	10.23
483.664	10.21
484.099	10.2
484.534	10.19
484.968	10.19
485.403	10.18
485.837	10.18
486.271	10.19
486.706	10.18
487.14	10.19
487.574	10.2
488.009	10.22
488.443	10.23
488.877	10.23
489.311	10.25
489.745	10.28
490.179	10.29
490.613	10.32
491.046	10.34
491.48	10.39
491.914	10.42
492.348	10.46
492.781	10.49
493.215	10.53
493.648	10.6
494.082	10.65
494.515	10.7
494.948	10.77
495.382	10.82
495.815	10.89
496.248	10.95
496.681	11.01
497.114	11.08
497.547	11.16
497.98	11.25
498.413	11.32
498.846	11.4
499.279	11.5
499.711	11.59
500.144	11.69
500.577	11.8
501.009	11.91
501.442	12.04
501.874	12.17
502.306	12.31
502.739	12.44
503.171	12.6
503.603	12.77
504.036	12.92
504.468	13.12
504.9	13.31
505.332	13.51
505.764	13.73
506.196	13.95
506.627	14.17
507.059	14.38
507.491	14.63
507.923	14.86
508.354	15.11
508.786	15.4
509.217	15.67
509.649	15.95
510.08	16.23
510.512	16.52
510.943	16.83
511.374	17.15
511.805	17.5
512.237	17.83
512.668	18.18
513.099	18.52
513.53	18.88
513.961	19.24
514.391	19.6
514.822	19.96
515.253	20.32
515.684	20.68
516.114	21.07
516.545	21.45
516.975	21.85
517.406	22.26
517.836	22.66
518.267	23.04
518.697	23.46
519.127	23.86
519.558	24.26
519.988	24.66
520.418	25.08
520.848	25.46
521.278	25.87
521.708	26.3
522.138	26.65
522.567	27.04
522.997	27.41
523.427	27.77
523.857	28.14
524.286	28.51
524.716	28.85
525.145	29.18
525.575	29.53
526.004	29.83
526.433	30.08
526.863	30.4
527.292	30.67
527.721	30.94
528.15	31.2
528.579	31.45
529.008	31.68
529.437	31.9
529.866	32.12
530.295	32.33
530.724	32.56
531.152	32.75
531.581	32.92
532.01	33.09
532.438	33.28
532.867	33.43
533.295	33.57
533.723	33.73
534.152	33.88
534.58	33.98
535.008	34.07
535.436	34.18
535.865	34.27
536.293	34.39
536.721	34.49
537.149	34.56
537.576	34.64
538.004	34.69
538.432	34.74
538.86	34.8
539.287	34.88
539.715	34.97
540.143	35
540.57	35.03
540.998	35.09
541.425	35.14
541.852	35.18
542.28	35.2
542.707	35.28
543.134	35.33
543.561	35.36
543.988	35.39
544.415	35.43
544.842	35.47
545.269	35.54
545.696	35.58
546.123	35.6
546.549	35.67
546.976	35.73
547.403	35.74
547.829	35.8
548.256	35.85
548.682	35.9
549.108	35.93
549.535	36
549.961	36.02
550.387	36.02
550.813	36.07
551.24	36.08
551.666	36.1
552.092	36.15
552.518	36.12
552.943	36.12
553.369	36.12
553.795	36.11
554.221	36.09
554.646	36.06
555.072	36.04
555.498	36
555.923	35.97
556.349	35.89
556.774	35.83
557.199	35.79
557.625	35.71
558.05	35.61
558.475	35.5
558.9	35.38
559.325	35.26
559.75	35.12
560.175	34.98
560.6	34.83
561.025	34.7
561.449	34.54
561.874	34.38
562.299	34.23
562.723	34.06
563.148	33.89
563.572	33.74
563.997	33.55
564.421	33.37
564.846	33.16
565.27	32.93
565.694	32.71
566.118	32.49
566.542	32.27
566.966	32.04
567.39	31.81
567.814	31.56
568.238	31.29
568.662	31.06
569.086	30.83
569.509	30.61
569.933	30.38
570.357	30.15
570.78	29.93
571.204	29.71
571.627	29.49
572.05	29.28
572.474	29.07
572.897	28.9
573.32	28.7
573.743	28.5
574.166	28.31
574.589	28.12
575.012	27.98
575.435	27.82
575.858	27.66
576.281	27.51
576.704	27.37
577.126	27.24
577.549	27.1
577.972	26.99
578.394	26.87
578.817	26.74
579.239	26.63
579.661	26.5
580.084	26.37
580.506	26.26
580.928	26.14
581.35	26.04
581.772	25.93
582.194	25.81
582.616	25.7
583.038	25.62
583.46	25.52
583.882	25.43
584.303	25.33
584.725	25.25
585.147	25.15
585.568	25.07
585.99	24.97
586.411	24.88
586.833	24.79
587.254	24.73
587.675	24.63
588.096	24.55
588.518	24.46
588.939	24.39
589.36	24.33
589.781	24.28
590.202	24.19
590.623	24.12
591.043	24.06
591.464	24
591.885	23.92
592.305	23.87
592.726	23.81
593.147	23.77
593.567	23.7
593.987	23.65
594.408	23.58
594.828	23.55
595.248	23.5
595.669	23.46
596.089	23.42
596.509	23.36
596.929	23.32
597.349	23.27
597.769	23.21
598.189	23.17
598.608	23.1
599.028	23.05
599.448	22.99
599.867	22.92
600.287	22.86
600.706	22.78
601.126	22.71
601.545	22.65
601.965	22.57
602.384	22.49
602.803	22.41
603.222	22.33
603.641	22.27
604.061	22.19
604.48	22.11
604.898	22.03
605.317	21.96
605.736	21.88
606.155	21.78
606.574	21.69
606.992	21.6
607.411	21.53
607.829	21.39
608.248	21.3
608.666	21.19
609.085	21.11
609.503	21.01
609.921	20.9
610.339	20.8
610.758	20.71
611.176	20.63
611.594	20.53
612.012	20.42
612.43	20.37
612.847	20.28
613.265	20.19
613.683	20.1
614.101	20
614.518	19.91
614.936	19.82
615.353	19.74
615.771	19.66
616.188	19.59
616.606	19.5
617.023	19.42
617.44	19.33
617.857	19.25
618.274	19.18
618.691	19.13
619.108	19.07
619.525	19
619.942	18.94
620.359	18.9
620.776	18.85
621.192	18.8
621.609	18.76
622.026	18.73
622.442	18.7
622.859	18.67
623.275	18.63
623.691	18.6
624.108	18.59
624.524	18.56
624.94	18.52
625.356	18.5
625.772	18.48
626.188	18.48
626.604	18.46
627.02	18.44
627.436	18.43
627.852	18.4
628.268	18.38
628.683	18.34
629.099	18.33
629.514	18.3
629.93	18.26
630.345	18.22
630.761	18.15
631.176	18.1
631.591	18.05
632.007	17.98
632.422	17.92
632.837	17.84
633.252	17.76
633.667	17.66
634.082	17.56
634.497	17.44
634.911	17.33
635.326	17.21
635.741	17.06
636.155	16.92
636.57	16.76
636.984	16.6
637.399	16.43
637.813	16.26
638.228	16.08
638.642	15.9
639.056	15.73
639.47	15.55
639.884	15.38
640.298	15.21
640.712	15.03
641.126	14.88
641.54	14.72
641.954	14.57
642.368	14.41
642.781	14.26
643.195	14.1
643.609	13.96
644.022	13.82
644.436	13.68
644.849	13.55
645.262	13.44
645.676	13.32
646.089	13.21
646.502	13.09
646.915	13
647.328	12.92
647.741	12.84
648.154	12.78
648.567	12.72
648.98	12.66
649.393	12.61
649.805	12.54
650.218	12.49
650.631	12.43
651.043	12.38
651.456	12.34
651.868	12.28
652.28	12.25
652.693	12.2
653.105	12.15
653.517	12.11
653.929	12.07
654.341	12.04
654.753	11.98
655.165	11.94
655.577	11.87
655.989	11.82
656.401	11.75
656.813	11.67
657.224	11.58
657.636	11.52
658.047	11.44
658.459	11.34
658.87	11.24
659.282	11.16
659.693	11.09
660.104	11.02
660.515	10.93
660.926	10.86
661.338	10.79
661.749	10.71
662.159	10.62
662.57	10.53
662.981	10.46
663.392	10.39
663.803	10.31
664.213	10.22
664.624	10.15
665.035	10.08
665.445	10.02
665.855	9.97
666.266	9.93
666.676	9.89
667.086	9.85
667.497	9.81
667.907	9.76
668.317	9.73
668.727	9.72
669.137	9.69
669.547	9.68
669.956	9.66
670.366	9.66
670.776	9.64
671.186	9.62
671.595	9.62
672.005	9.63
672.414	9.65
672.824	9.65
673.233	9.65
673.642	9.66
674.052	9.67
674.461	9.68
674.87	9.67
675.279	9.68
675.688	9.69
676.097	9.72
676.506	9.73
676.915	9.76
677.323	9.8
677.732	9.84
678.141	9.88
678.549	9.94
678.958	10
679.366	10.06
679.775	10.16
680.183	10.25
680.592	10.33
681	10.42
681.408	10.54
681.816	10.66
682.224	10.79
682.632	10.96
683.04	11.14
683.448	11.34
683.856	11.58
684.264	11.81
684.671	12.09
685.079	12.39
685.487	12.72
685.894	13.08
686.302	13.47
686.709	13.89
687.116	14.33
687.524	14.8
687.931	15.31
688.338	15.87
688.745	16.46
689.152	17.08
689.559	17.73
689.966	18.43
690.373	19.14
690.78	19.88
691.187	20.66
691.593	21.44
692	22.25
692.407	23.06
692.813	23.9
693.22	24.74
693.626	25.61
694.032	26.48
694.439	27.36
694.845	28.24
695.251	29.13
695.657	29.99
696.063	30.88
696.469	31.75
696.875	32.61
697.281	33.46
697.687	34.35
698.093	35.17
698.498	36.01
698.904	36.85
699.31	37.64
699.715	38.48
700.12	39.25
700.526	40.05
700.931	40.82
701.337	41.63
701.742	42.37
702.147	43.11
702.552	43.85
702.957	44.54
703.362	45.24
703.767	45.93
704.172	46.61
704.577	47.29
704.981	47.95
705.386	48.61
705.791	49.23
706.195	49.9
706.6	50.48
707.004	51.12
707.408	51.73
707.813	52.3
708.217	52.88
708.621	53.44
709.025	53.99
709.43	54.51
709.834	55.07
710.237	55.57
710.641	56.09
711.045	56.58
711.449	57.04
711.853	57.52
712.256	57.99
712.66	58.44
713.064	58.87
713.467	59.32
713.87	59.78
714.274	60.2
714.677	60.64
715.08	61.03
715.484	61.45
715.887	61.86
716.29	62.28
716.693	62.66
717.096	63.08
717.499	63.46
717.901	63.83
718.304	64.18
718.707	64.51
719.109	64.86
719.512	65.23
719.915	65.58
720.317	65.92
720.719	66.25
721.122	66.55
721.524	66.85
721.926	67.18
722.328	67.48
722.731	67.78
723.133	68.08
723.535	68.4
723.937	68.66
724.338	68.88
724.74	69.09
725.142	69.28
725.544	69.53
725.945	69.73
726.347	69.94
726.748	70.12
727.15	70.3
727.551	70.49
727.952	70.64
728.354	70.82
728.755	71.01
729.156	71.21
729.557	71.4
729.958	71.56
730.359	71.76
730.76	71.9
731.161	72.07
731.562	72.22
731.962	72.37
732.363	72.5
732.763	72.6
733.164	72.7
733.564	72.8
733.965	72.9
734.365	73.01
734.766	73.08
735.166	73.12
735.566	73.15
735.966	73.2
736.366	73.22
736.766	73.3
737.166	73.38
737.566	73.45
737.966	73.55
738.365	73.63
738.765	73.7
739.165	73.72
739.564	73.81
739.964	73.89
740.363	73.95
740.763	74
741.162	74.02
741.561	74.05
741.96	74.15
742.36	74.15
742.759	74.17
743.158	74.17
743.557	74.24
743.955	74.34
744.354	74.4
744.753	74.47
745.152	74.52
745.55	74.63
745.949	74.68
746.348	74.69
746.746	74.73
747.144	74.81
747.543	74.88
747.941	74.97
748.339	75
748.737	75.05
749.136	75.09
749.534	75.16
749.932	75.18
750.33	75.2
750.727	75.21
751.125	75.26
751.523	75.23
751.921	75.26
752.318	75.19
752.716	75.16
753.113	75.13
753.511	75.09
753.908	75.03
754.305	74.97
754.703	74.93
755.1	74.93
755.497	74.89
755.894	74.9
756.291	74.86
756.688	74.88
757.085	74.85
757.482	74.87
757.878	74.88
758.275	74.9
758.672	74.94
759.068	74.98
759.465	75
759.861	75.01
760.258	74.99
760.654	74.98
761.05	74.96
761.447	74.94
761.843	74.88
762.239	74.87
762.635	74.86
763.031	74.84
763.427	74.8
763.822	74.73
764.218	74.69
764.614	74.67
765.01	74.65
765.405	74.66
765.801	74.63
766.196	74.65
766.592	74.67
766.987	74.68
767.382	74.66
767.778	74.67
768.173	74.71
768.568	74.71
768.963	74.74
769.358	74.73
769.753	74.77
770.148	74.83
770.542	74.84
770.937	74.81
771.332	74.81
771.726	74.8
772.121	74.78
772.515	74.78
772.91	74.78
773.304	74.79
773.699	74.83
774.093	74.76
774.487	74.76
774.881	74.75
775.275	74.8
775.669	74.82
