Data from N_3_ofc_oh_4n_Splice17_20.txt Node
Date: Sat Feb 29 15:06:34 EST 2020
User: sa697716
Spectrometer: FLMS03696
Trigger mode: 0
Integration Time (sec): 3.180400E-1
Scans to average: 20
Electric dark correction enabled: true
Nonlinearity correction enabled: true
Boxcar width: 5
XAxis mode: Wavelengths
Number of Pixels in Spectrum: 2048
>>>>>Begin Spectral Data<<<<<
187.83	90.19
188.298	76.28
188.766	83.69
189.233	90.01
189.701	105.42
190.169	101.87
190.636	86.32
191.104	97.44
191.571	290.7
192.039	256.12
192.506	-7.07
192.974	-843.25
193.441	668.12
193.908	3.55
194.375	17.88
194.842	209.07
195.31	146.94
195.777	114.23
196.244	106.34
196.711	95.56
197.177	92.72
197.644	91.74
198.111	92.74
198.578	93.13
199.045	93.82
199.511	94.39
199.978	94.37
200.445	94.13
200.911	94.29
201.378	94.25
201.844	94.89
202.31	95.2
202.777	95.27
203.243	95.69
203.709	95.61
204.176	95.04
204.642	94.23
205.108	93.55
205.574	93.53
206.04	92.35
206.506	91.76
206.972	90.93
207.438	90.29
207.903	89.47
208.369	87.3
208.835	86.48
209.301	85.5
209.766	84.01
210.232	82.63
210.697	81.34
211.163	80.44
211.628	79.36
212.094	77.79
212.559	76.24
213.024	74.83
213.49	73.9
213.955	72.21
214.42	70.52
214.885	68.57
215.35	66.04
215.815	62.36
216.28	58.75
216.745	54.54
217.21	50.47
217.675	46.78
218.14	43.1
218.604	39.92
219.069	37.23
219.534	34.92
219.998	33.1
220.463	31.56
220.927	30.21
221.392	29.01
221.856	28.04
222.32	27.16
222.785	26.32
223.249	25.72
223.713	25.13
224.177	24.59
224.642	24.12
225.106	23.65
225.57	23.18
226.034	22.78
226.497	22.4
226.961	22
227.425	21.65
227.889	21.32
228.353	20.97
228.816	20.64
229.28	20.3
229.744	19.98
230.207	19.67
230.671	19.37
231.134	19.09
231.597	18.79
232.061	18.54
232.524	18.32
232.987	18.1
233.45	17.86
233.914	17.63
234.377	17.43
234.84	17.24
235.303	17.03
235.766	16.86
236.229	16.69
236.691	16.56
237.154	16.4
237.617	16.25
238.08	16.11
238.542	15.97
239.005	15.85
239.468	15.7
239.93	15.57
240.393	15.44
240.855	15.29
241.317	15.17
241.78	15.04
242.242	14.9
242.704	14.77
243.166	14.62
243.629	14.5
244.091	14.37
244.553	14.26
245.015	14.13
245.477	14
245.939	13.89
246.4	13.75
246.862	13.64
247.324	13.53
247.786	13.42
248.247	13.31
248.709	13.2
249.17	13.09
249.632	12.98
250.093	12.87
250.555	12.79
251.016	12.7
251.477	12.6
251.939	12.52
252.4	12.42
252.861	12.33
253.322	12.25
253.783	12.17
254.244	12.09
254.705	12
255.166	11.94
255.627	11.88
256.088	11.79
256.549	11.72
257.009	11.63
257.47	11.57
257.931	11.47
258.391	11.38
258.852	11.29
259.312	11.21
259.773	11.13
260.233	11.03
260.694	10.94
261.154	10.86
261.614	10.77
262.074	10.69
262.534	10.6
262.994	10.53
263.455	10.46
263.915	10.39
264.374	10.32
264.834	10.26
265.294	10.19
265.754	10.11
266.214	10.05
266.673	10
267.133	9.94
267.593	9.89
268.052	9.83
268.512	9.78
268.971	9.73
269.431	9.68
269.89	9.64
270.349	9.6
270.809	9.57
271.268	9.53
271.727	9.49
272.186	9.46
272.645	9.42
273.104	9.39
273.563	9.36
274.022	9.33
274.481	9.29
274.94	9.25
275.399	9.22
275.857	9.18
276.316	9.14
276.775	9.11
277.233	9.07
277.692	9.05
278.15	9.01
278.609	8.98
279.067	8.94
279.525	8.91
279.984	8.9
280.442	8.87
280.9	8.85
281.358	8.83
281.816	8.8
282.274	8.78
282.732	8.76
283.19	8.75
283.648	8.73
284.106	8.71
284.564	8.71
285.021	8.71
285.479	8.7
285.937	8.69
286.394	8.68
286.852	8.68
287.309	8.67
287.767	8.65
288.224	8.64
288.682	8.61
289.139	8.58
289.596	8.53
290.053	8.48
290.511	8.43
290.968	8.39
291.425	8.35
291.882	8.31
292.339	8.27
292.796	8.21
293.252	8.17
293.709	8.14
294.166	8.11
294.623	8.09
295.079	8.06
295.536	8.05
295.992	8.02
296.449	8
296.905	7.97
297.362	7.95
297.818	7.93
298.274	7.91
298.731	7.88
299.187	7.87
299.643	7.84
300.099	7.82
300.555	7.79
301.011	7.76
301.467	7.74
301.923	7.72
302.379	7.7
302.835	7.68
303.291	7.67
303.746	7.66
304.202	7.65
304.658	7.63
305.113	7.62
305.569	7.62
306.024	7.61
306.479	7.6
306.935	7.6
307.39	7.6
307.845	7.6
308.301	7.6
308.756	7.6
309.211	7.61
309.666	7.62
310.121	7.62
310.576	7.62
311.031	7.63
311.486	7.64
311.94	7.64
312.395	7.64
312.85	7.65
313.305	7.67
313.759	7.67
314.214	7.68
314.668	7.68
315.123	7.68
315.577	7.68
316.032	7.69
316.486	7.68
316.94	7.68
317.394	7.67
317.849	7.65
318.303	7.64
318.757	7.61
319.211	7.58
319.665	7.56
320.119	7.53
320.572	7.52
321.026	7.49
321.48	7.48
321.934	7.47
322.387	7.45
322.841	7.43
323.295	7.41
323.748	7.4
324.202	7.4
324.655	7.4
325.108	7.38
325.562	7.36
326.015	7.35
326.468	7.33
326.921	7.32
327.374	7.3
327.827	7.3
328.28	7.29
328.733	7.29
329.186	7.28
329.639	7.27
330.092	7.28
330.545	7.29
330.997	7.28
331.45	7.29
331.903	7.29
332.355	7.29
332.808	7.31
333.26	7.31
333.713	7.33
334.165	7.34
334.617	7.35
335.069	7.35
335.522	7.37
335.974	7.39
336.426	7.41
336.878	7.41
337.33	7.43
337.782	7.43
338.234	7.43
338.686	7.42
339.137	7.41
339.589	7.4
340.041	7.4
340.493	7.38
340.944	7.36
341.396	7.35
341.847	7.32
342.299	7.29
342.75	7.26
343.201	7.22
343.653	7.2
344.104	7.18
344.555	7.15
345.006	7.11
345.457	7.08
345.908	7.07
346.359	7.05
346.81	7.05
347.261	7.04
347.712	7.04
348.163	7.04
348.613	7.03
349.064	7
349.515	6.99
349.965	6.98
350.416	6.98
350.866	6.97
351.317	6.96
351.767	6.95
352.217	6.95
352.668	6.95
353.118	6.95
353.568	6.97
354.018	6.99
354.468	6.99
354.918	7.01
355.368	7.02
355.818	7.02
356.268	7.04
356.718	7.03
357.168	7.03
357.617	7.02
358.067	7.02
358.517	7.01
358.966	7.01
359.416	7.03
359.865	7.02
360.315	7.01
360.764	7.01
361.213	7
361.663	7
362.112	7.01
362.561	7.01
363.01	7.02
363.459	7.02
363.908	7.02
364.357	7.01
364.806	7
365.255	7
365.703	7
366.152	7
366.601	7
367.05	7
367.498	7
367.947	6.99
368.395	7
368.844	6.99
369.292	6.99
369.74	7
370.189	6.99
370.637	7
371.085	7.01
371.533	7
371.981	7.01
372.429	7.01
372.877	7
373.325	6.99
373.773	7
374.221	7.01
374.669	7.01
375.116	7.02
375.564	7.02
376.012	7.02
376.459	7.03
376.907	7.02
377.354	7.03
377.801	7.04
378.249	7.06
378.696	7.07
379.143	7.07
379.591	7.08
380.038	7.09
380.485	7.1
380.932	7.11
381.379	7.13
381.826	7.15
382.273	7.16
382.72	7.17
383.166	7.17
383.613	7.18
384.06	7.19
384.506	7.21
384.953	7.21
385.4	7.23
385.846	7.24
386.292	7.25
386.739	7.25
387.185	7.29
387.631	7.3
388.078	7.32
388.524	7.33
388.97	7.35
389.416	7.35
389.862	7.38
390.308	7.38
390.754	7.4
391.2	7.42
391.645	7.46
392.091	7.48
392.537	7.51
392.983	7.54
393.428	7.58
393.874	7.62
394.319	7.66
394.765	7.68
395.21	7.69
395.655	7.72
396.101	7.74
396.546	7.76
396.991	7.78
397.436	7.79
397.881	7.81
398.326	7.82
398.771	7.85
399.216	7.88
399.661	7.91
400.106	7.95
400.551	7.96
400.995	7.96
401.44	7.96
401.885	7.96
402.329	7.98
402.774	7.97
403.218	7.97
403.663	7.97
404.107	7.98
404.551	7.99
404.995	7.98
405.44	8
405.884	8.02
406.328	8.03
406.772	8.05
407.216	8.06
407.66	8.08
408.104	8.1
408.547	8.11
408.991	8.1
409.435	8.1
409.879	8.12
410.322	8.14
410.766	8.15
411.209	8.16
411.653	8.16
412.096	8.17
412.54	8.18
412.983	8.19
413.426	8.23
413.869	8.26
414.312	8.29
414.756	8.33
415.199	8.35
415.642	8.4
416.085	8.43
416.527	8.47
416.97	8.49
417.413	8.49
417.856	8.48
418.298	8.44
418.741	8.42
419.184	8.42
419.626	8.41
420.069	8.42
420.511	8.39
420.953	8.38
421.396	8.39
421.838	8.41
422.28	8.43
422.722	8.47
423.164	8.5
423.606	8.54
424.048	8.54
424.49	8.56
424.932	8.55
425.374	8.54
425.816	8.55
426.258	8.52
426.699	8.48
427.141	8.47
427.582	8.46
428.024	8.46
428.465	8.47
428.907	8.51
429.348	8.52
429.789	8.54
430.231	8.55
430.672	8.56
431.113	8.61
431.554	8.67
431.995	8.71
432.436	8.74
432.877	8.77
433.318	8.79
433.759	8.81
434.2	8.84
434.64	8.88
435.081	8.94
435.522	8.98
435.962	9.01
436.403	9.05
436.843	9.09
437.284	9.11
437.724	9.16
438.164	9.18
438.604	9.21
439.045	9.21
439.485	9.26
439.925	9.29
440.365	9.32
440.805	9.34
441.245	9.34
441.685	9.38
442.125	9.42
442.564	9.45
443.004	9.51
443.444	9.55
443.883	9.61
444.323	9.63
444.762	9.68
445.202	9.76
445.641	9.81
446.081	9.88
446.52	9.92
446.959	9.97
447.398	10.03
447.837	10.08
448.276	10.13
448.716	10.18
449.154	10.23
449.593	10.28
450.032	10.29
450.471	10.33
450.91	10.33
451.349	10.36
451.787	10.38
452.226	10.36
452.664	10.35
453.103	10.34
453.541	10.34
453.98	10.34
454.418	10.32
454.856	10.28
455.295	10.25
455.733	10.25
456.171	10.24
456.609	10.24
457.047	10.23
457.485	10.24
457.923	10.23
458.361	10.22
458.798	10.22
459.236	10.22
459.674	10.24
460.111	10.24
460.549	10.23
460.987	10.22
461.424	10.2
461.862	10.2
462.299	10.2
462.736	10.19
463.173	10.2
463.611	10.19
464.048	10.2
464.485	10.17
464.922	10.17
465.359	10.19
465.796	10.2
466.233	10.21
466.67	10.21
467.106	10.21
467.543	10.23
467.98	10.22
468.416	10.24
468.853	10.26
469.29	10.29
469.726	10.32
470.162	10.32
470.599	10.31
471.035	10.33
471.471	10.32
471.907	10.31
472.344	10.32
472.78	10.34
473.216	10.36
473.652	10.34
474.088	10.35
474.523	10.35
474.959	10.33
475.395	10.34
475.831	10.35
476.266	10.35
476.702	10.36
477.138	10.35
477.573	10.32
478.008	10.31
478.444	10.31
478.879	10.3
479.314	10.3
479.75	10.31
480.185	10.3
480.62	10.29
481.055	10.28
481.49	10.26
481.925	10.24
482.36	10.23
482.795	10.22
483.229	10.21
483.664	10.19
484.099	10.18
484.534	10.17
484.968	10.16
485.403	10.15
485.837	10.16
486.271	10.15
486.706	10.16
487.14	10.17
487.574	10.17
488.009	10.18
488.443	10.2
488.877	10.21
489.311	10.21
489.745	10.24
490.179	10.26
490.613	10.28
491.046	10.31
491.48	10.35
491.914	10.39
492.348	10.43
492.781	10.46
493.215	10.48
493.648	10.54
494.082	10.61
494.515	10.66
494.948	10.72
495.382	10.77
495.815	10.84
496.248	10.89
496.681	10.95
497.114	11.03
497.547	11.12
497.98	11.22
498.413	11.3
498.846	11.38
499.279	11.48
499.711	11.57
500.144	11.68
500.577	11.79
501.009	11.93
501.442	12.06
501.874	12.19
502.306	12.32
502.739	12.46
503.171	12.62
503.603	12.8
504.036	12.98
504.468	13.16
504.9	13.36
505.332	13.57
505.764	13.79
506.196	14.02
506.627	14.25
507.059	14.48
507.491	14.72
507.923	14.98
508.354	15.24
508.786	15.5
509.217	15.76
509.649	16.04
510.08	16.34
510.512	16.62
510.943	16.91
511.374	17.23
511.805	17.57
512.237	17.91
512.668	18.25
513.099	18.61
513.53	18.98
513.961	19.35
514.391	19.73
514.822	20.11
515.253	20.5
515.684	20.88
516.114	21.3
516.545	21.7
516.975	22.09
517.406	22.49
517.836	22.89
518.267	23.3
518.697	23.7
519.127	24.12
519.558	24.51
519.988	24.91
520.418	25.31
520.848	25.7
521.278	26.09
521.708	26.53
522.138	26.91
522.567	27.28
522.997	27.62
523.427	28.01
523.857	28.33
524.286	28.68
524.716	29.02
525.145	29.35
525.575	29.67
526.004	29.97
526.433	30.23
526.863	30.55
527.292	30.82
527.721	31.12
528.15	31.37
528.579	31.63
529.008	31.88
529.437	32.14
529.866	32.34
530.295	32.57
530.724	32.82
531.152	33.01
531.581	33.19
532.01	33.39
532.438	33.53
532.867	33.69
533.295	33.88
533.723	34.04
534.152	34.16
534.58	34.3
535.008	34.38
535.436	34.48
535.865	34.56
536.293	34.65
536.721	34.74
537.149	34.82
537.576	34.9
538.004	34.92
538.432	34.96
538.86	35.04
539.287	35.09
539.715	35.16
540.143	35.18
540.57	35.24
540.998	35.28
541.425	35.32
541.852	35.37
542.28	35.41
542.707	35.47
543.134	35.51
543.561	35.54
543.988	35.59
544.415	35.65
544.842	35.71
545.269	35.77
545.696	35.81
546.123	35.84
546.549	35.9
546.976	35.95
547.403	35.98
547.829	36.03
548.256	36.08
548.682	36.12
549.108	36.16
549.535	36.18
549.961	36.22
550.387	36.24
550.813	36.25
551.24	36.27
551.666	36.31
552.092	36.33
552.518	36.34
552.943	36.34
553.369	36.31
553.795	36.3
554.221	36.28
554.646	36.25
555.072	36.23
555.498	36.21
555.923	36.16
556.349	36.07
556.774	36.01
557.199	35.95
557.625	35.87
558.05	35.79
558.475	35.67
558.9	35.59
559.325	35.47
559.75	35.33
560.175	35.19
560.6	35.04
561.025	34.9
561.449	34.74
561.874	34.57
562.299	34.41
562.723	34.24
563.148	34.06
563.572	33.86
563.997	33.67
564.421	33.47
564.846	33.28
565.27	33.07
565.694	32.85
566.118	32.63
566.542	32.41
566.966	32.19
567.39	31.96
567.814	31.74
568.238	31.49
568.662	31.26
569.086	31.04
569.509	30.8
569.933	30.55
570.357	30.31
570.78	30.07
571.204	29.84
571.627	29.61
572.05	29.4
572.474	29.18
572.897	28.97
573.32	28.77
573.743	28.58
574.166	28.41
574.589	28.24
575.012	28.09
575.435	27.91
575.858	27.77
576.281	27.62
576.704	27.48
577.126	27.33
577.549	27.23
577.972	27.11
578.394	26.98
578.817	26.84
579.239	26.73
579.661	26.61
580.084	26.52
580.506	26.41
580.928	26.29
581.35	26.18
581.772	26.09
582.194	25.96
582.616	25.85
583.038	25.75
583.46	25.66
583.882	25.56
584.303	25.47
584.725	25.38
585.147	25.28
585.568	25.18
585.99	25.1
586.411	25.01
586.833	24.92
587.254	24.84
587.675	24.77
588.096	24.68
588.518	24.62
588.939	24.53
589.36	24.45
589.781	24.39
590.202	24.32
590.623	24.25
591.043	24.2
591.464	24.14
591.885	24.1
592.305	24.03
592.726	23.96
593.147	23.91
593.567	23.83
593.987	23.79
594.408	23.72
594.828	23.68
595.248	23.65
595.669	23.58
596.089	23.54
596.509	23.45
596.929	23.4
597.349	23.34
597.769	23.29
598.189	23.25
598.608	23.19
599.028	23.12
599.448	23.07
599.867	22.99
600.287	22.93
600.706	22.86
601.126	22.81
601.545	22.75
601.965	22.7
602.384	22.63
602.803	22.56
603.222	22.48
603.641	22.42
604.061	22.33
604.48	22.25
604.898	22.16
605.317	22.08
605.736	21.97
606.155	21.88
606.574	21.77
606.992	21.67
607.411	21.58
607.829	21.44
608.248	21.34
608.666	21.25
609.085	21.17
609.503	21.06
609.921	20.98
610.339	20.91
610.758	20.81
611.176	20.72
611.594	20.62
612.012	20.52
612.43	20.46
612.847	20.37
613.265	20.3
613.683	20.18
614.101	20.09
614.518	19.97
614.936	19.86
615.353	19.77
615.771	19.68
616.188	19.6
616.606	19.53
617.023	19.46
617.44	19.39
617.857	19.3
618.274	19.24
618.691	19.19
619.108	19.14
619.525	19.09
619.942	19.04
620.359	19.01
620.776	18.98
621.192	18.93
621.609	18.89
622.026	18.85
622.442	18.81
622.859	18.79
623.275	18.77
623.691	18.75
624.108	18.73
624.524	18.71
624.94	18.67
625.356	18.63
625.772	18.63
626.188	18.61
626.604	18.57
627.02	18.55
627.436	18.53
627.852	18.48
628.268	18.46
628.683	18.43
629.099	18.4
629.514	18.38
629.93	18.34
630.345	18.29
630.761	18.24
631.176	18.21
631.591	18.16
632.007	18.08
632.422	18.02
632.837	17.93
633.252	17.84
633.667	17.74
634.082	17.63
634.497	17.52
634.911	17.4
635.326	17.26
635.741	17.11
636.155	16.96
636.57	16.82
636.984	16.65
637.399	16.49
637.813	16.32
638.228	16.16
638.642	16
639.056	15.83
639.47	15.65
639.884	15.47
640.298	15.29
640.712	15.12
641.126	14.95
641.54	14.78
641.954	14.64
642.368	14.47
642.781	14.32
643.195	14.15
643.609	14
644.022	13.86
644.436	13.73
644.849	13.6
645.262	13.5
645.676	13.38
646.089	13.26
646.502	13.15
646.915	13.06
647.328	12.96
647.741	12.88
648.154	12.82
648.567	12.75
648.98	12.68
649.393	12.62
649.805	12.56
650.218	12.51
650.631	12.47
651.043	12.42
651.456	12.39
651.868	12.37
652.28	12.34
652.693	12.29
653.105	12.25
653.517	12.22
653.929	12.17
654.341	12.13
654.753	12.08
655.165	12.02
655.577	11.96
655.989	11.88
656.401	11.81
656.813	11.72
657.224	11.64
657.636	11.57
658.047	11.48
658.459	11.39
658.87	11.32
659.282	11.24
659.693	11.14
660.104	11.06
660.515	10.97
660.926	10.89
661.338	10.82
661.749	10.73
662.159	10.65
662.57	10.57
662.981	10.5
663.392	10.41
663.803	10.33
664.213	10.27
664.624	10.21
665.035	10.14
665.445	10.08
665.855	10.02
666.266	9.98
666.676	9.94
667.086	9.9
667.497	9.85
667.907	9.81
668.317	9.78
668.727	9.75
669.137	9.72
669.547	9.72
669.956	9.69
670.366	9.69
670.776	9.67
671.186	9.67
671.595	9.66
672.005	9.67
672.414	9.68
672.824	9.69
673.233	9.69
673.642	9.69
674.052	9.7
674.461	9.71
674.87	9.71
675.279	9.71
675.688	9.73
676.097	9.75
676.506	9.76
676.915	9.79
677.323	9.83
677.732	9.89
678.141	9.95
678.549	10.02
678.958	10.09
679.366	10.15
679.775	10.25
680.183	10.33
680.592	10.43
681	10.53
681.408	10.65
681.816	10.77
682.224	10.91
682.632	11.08
683.04	11.22
683.448	11.42
683.856	11.65
684.264	11.89
684.671	12.17
685.079	12.46
685.487	12.8
685.894	13.15
686.302	13.54
686.709	13.94
687.116	14.39
687.524	14.89
687.931	15.42
688.338	15.98
688.745	16.57
689.152	17.2
689.559	17.85
689.966	18.52
690.373	19.24
690.78	19.97
691.187	20.74
691.593	21.51
692	22.33
692.407	23.14
692.813	23.99
693.22	24.83
693.626	25.69
694.032	26.58
694.439	27.47
694.845	28.37
695.251	29.25
695.657	30.14
696.063	31.06
696.469	31.96
696.875	32.82
697.281	33.67
697.687	34.57
698.093	35.41
698.498	36.23
698.904	37.1
699.31	37.91
699.715	38.75
700.12	39.55
700.526	40.35
700.931	41.11
701.337	41.89
701.742	42.64
702.147	43.4
702.552	44.13
702.957	44.87
703.362	45.56
703.767	46.24
704.172	46.94
704.577	47.6
704.981	48.24
705.386	48.9
705.791	49.55
706.195	50.18
706.6	50.75
707.004	51.38
707.408	51.95
707.813	52.53
708.217	53.11
708.621	53.67
709.025	54.22
709.43	54.75
709.834	55.31
710.237	55.82
710.641	56.36
711.045	56.85
711.449	57.35
711.853	57.86
712.256	58.35
712.66	58.79
713.064	59.25
713.467	59.69
713.87	60.13
714.274	60.56
714.677	60.97
715.08	61.36
715.484	61.79
715.887	62.17
716.29	62.55
716.693	62.92
717.096	63.31
717.499	63.71
717.901	64.07
718.304	64.47
718.707	64.8
719.109	65.19
719.512	65.54
719.915	65.89
720.317	66.27
720.719	66.59
721.122	66.9
721.524	67.22
721.926	67.52
722.328	67.79
722.731	68.09
723.133	68.39
723.535	68.65
723.937	68.92
724.338	69.13
724.74	69.34
725.142	69.58
725.544	69.82
725.945	70.06
726.347	70.27
726.748	70.49
727.15	70.63
727.551	70.82
727.952	71.01
728.354	71.19
728.755	71.37
729.156	71.57
729.557	71.76
729.958	71.93
730.359	72.02
730.76	72.12
731.161	72.27
731.562	72.44
731.962	72.54
732.363	72.65
732.763	72.78
733.164	72.9
733.564	72.96
733.965	73.04
734.365	73.08
734.766	73.21
735.166	73.31
735.566	73.37
735.966	73.45
736.366	73.51
736.766	73.59
737.166	73.65
737.566	73.69
737.966	73.78
738.365	73.86
738.765	73.99
739.165	74.01
739.564	74.06
739.964	74.1
740.363	74.14
740.763	74.2
741.162	74.22
741.561	74.27
741.96	74.37
742.36	74.39
742.759	74.39
743.158	74.38
743.557	74.45
743.955	74.55
744.354	74.63
744.753	74.7
745.152	74.78
745.55	74.84
745.949	74.88
746.348	74.91
746.746	74.95
747.144	75.06
747.543	75.13
747.941	75.19
748.339	75.23
748.737	75.31
749.136	75.35
749.534	75.41
749.932	75.44
750.33	75.46
750.727	75.49
751.125	75.53
751.523	75.48
751.921	75.48
752.318	75.46
752.716	75.42
753.113	75.38
753.511	75.31
753.908	75.26
754.305	75.23
754.703	75.18
755.1	75.13
755.497	75.09
755.894	75.12
756.291	75.08
756.688	75.1
757.085	75.1
757.482	75.07
757.878	75.12
758.275	75.14
758.672	75.15
759.068	75.19
759.465	75.2
759.861	75.19
760.258	75.15
760.654	75.17
761.05	75.15
761.447	75.17
761.843	75.14
762.239	75.13
762.635	75.09
763.031	75.09
763.427	75.06
763.822	75.01
764.218	75.03
764.614	75.02
765.01	75
765.405	74.96
765.801	74.92
766.196	74.93
766.592	74.92
766.987	74.91
767.382	74.89
767.778	74.9
768.173	74.92
768.568	74.88
768.963	74.87
769.358	74.88
769.753	74.96
770.148	74.99
770.542	75
770.937	75
771.332	74.97
771.726	74.99
772.121	74.99
772.515	74.99
772.91	75.04
773.304	75.06
773.699	75.04
774.093	74.96
774.487	74.94
774.881	74.94
