Data from N_3_hir_il_4n_Splice17_18.txt Node
Date: Sat Feb 29 15:13:22 EST 2020
User: sa697716
Spectrometer: FLMS03696
Trigger mode: 0
Integration Time (sec): 3.180400E-1
Scans to average: 20
Electric dark correction enabled: true
Nonlinearity correction enabled: true
Boxcar width: 5
XAxis mode: Wavelengths
Number of Pixels in Spectrum: 2048
>>>>>Begin Spectral Data<<<<<
187.83	137.22
188.298	145.88
188.766	127.01
189.233	136.88
189.701	139.61
190.169	132.64
190.636	147.31
191.104	180.53
191.571	576.64
192.039	417.3
192.506	-325.67
192.974	-752.61
193.441	340.93
193.908	46.62
194.375	123.34
194.842	202.66
195.31	82.98
195.777	75.95
196.244	32.91
196.711	32.31
197.177	31.06
197.644	31.2
198.111	30.95
198.578	31.48
199.045	31.46
199.511	31.83
199.978	32.26
200.445	32.32
200.911	32.61
201.378	32.86
201.844	33.19
202.31	33.7
202.777	33.77
203.243	34.41
203.709	34.68
204.176	34.3
204.642	34.12
205.108	34.05
205.574	34.49
206.04	34.51
206.506	34.25
206.972	33.86
207.438	33.82
207.903	34.05
208.369	33.49
208.835	33.2
209.301	33.22
209.766	32.94
210.232	32.38
210.697	31.98
211.163	31.38
211.628	31.21
212.094	30.91
212.559	30.23
213.024	29.2
213.49	28.91
213.955	28.35
214.42	27.71
214.885	27.02
215.35	26.33
215.815	25.09
216.28	24.01
216.745	22.99
217.21	21.75
217.675	20.64
218.14	19.57
218.604	18.37
219.069	17.48
219.534	16.68
219.998	15.94
220.463	15.42
220.927	14.98
221.392	14.53
221.856	14.06
222.32	13.69
222.785	13.39
223.249	13.15
223.713	12.96
224.177	12.7
224.642	12.49
225.106	12.3
225.57	12.11
226.034	11.91
226.497	11.72
226.961	11.55
227.425	11.33
227.889	11.13
228.353	10.94
228.816	10.76
229.28	10.57
229.744	10.44
230.207	10.3
230.671	10.12
231.134	9.98
231.597	9.82
232.061	9.7
232.524	9.6
232.987	9.48
233.45	9.35
233.914	9.23
234.377	9.15
234.84	9.03
235.303	8.91
235.766	8.82
236.229	8.71
236.691	8.64
237.154	8.54
237.617	8.46
238.08	8.37
238.542	8.3
239.005	8.21
239.468	8.13
239.93	8.07
240.393	7.99
240.855	7.91
241.317	7.85
241.78	7.78
242.242	7.7
242.704	7.63
243.166	7.57
243.629	7.5
244.091	7.44
244.553	7.38
245.015	7.32
245.477	7.25
245.939	7.19
246.4	7.12
246.862	7.06
247.324	7.03
247.786	6.98
248.247	6.92
248.709	6.86
249.17	6.8
249.632	6.74
250.093	6.67
250.555	6.63
251.016	6.59
251.477	6.54
251.939	6.49
252.4	6.43
252.861	6.38
253.322	6.33
253.783	6.3
254.244	6.26
254.705	6.21
255.166	6.19
255.627	6.14
256.088	6.09
256.549	6.06
257.009	6.02
257.47	5.99
257.931	5.95
258.391	5.91
258.852	5.86
259.312	5.82
259.773	5.78
260.233	5.73
260.694	5.69
261.154	5.65
261.614	5.61
262.074	5.58
262.534	5.53
262.994	5.5
263.455	5.46
263.915	5.44
264.374	5.4
264.834	5.37
265.294	5.34
265.754	5.31
266.214	5.28
266.673	5.25
267.133	5.21
267.593	5.19
268.052	5.16
268.512	5.14
268.971	5.11
269.431	5.08
269.89	5.06
270.349	5.03
270.809	5.02
271.268	5
271.727	4.99
272.186	4.97
272.645	4.94
273.104	4.92
273.563	4.9
274.022	4.88
274.481	4.87
274.94	4.84
275.399	4.83
275.857	4.81
276.316	4.79
276.775	4.76
277.233	4.73
277.692	4.72
278.15	4.7
278.609	4.67
279.067	4.65
279.525	4.62
279.984	4.6
280.442	4.58
280.9	4.56
281.358	4.54
281.816	4.52
282.274	4.51
282.732	4.5
283.19	4.48
283.648	4.47
284.106	4.45
284.564	4.45
285.021	4.44
285.479	4.43
285.937	4.42
286.394	4.4
286.852	4.4
287.309	4.38
287.767	4.37
288.224	4.35
288.682	4.34
289.139	4.33
289.596	4.3
290.053	4.28
290.511	4.25
290.968	4.23
291.425	4.21
291.882	4.19
292.339	4.17
292.796	4.15
293.252	4.13
293.709	4.11
294.166	4.08
294.623	4.07
295.079	4.06
295.536	4.05
295.992	4.03
296.449	4.02
296.905	4
297.362	3.99
297.818	3.97
298.274	3.96
298.731	3.95
299.187	3.94
299.643	3.93
300.099	3.92
300.555	3.91
301.011	3.89
301.467	3.87
301.923	3.86
302.379	3.85
302.835	3.84
303.291	3.83
303.746	3.81
304.202	3.8
304.658	3.79
305.113	3.77
305.569	3.76
306.024	3.76
306.479	3.75
306.935	3.75
307.39	3.74
307.845	3.74
308.301	3.73
308.756	3.73
309.211	3.73
309.666	3.72
310.121	3.72
310.576	3.71
311.031	3.71
311.486	3.71
311.94	3.7
312.395	3.7
312.85	3.69
313.305	3.69
313.759	3.68
314.214	3.68
314.668	3.68
315.123	3.67
315.577	3.66
316.032	3.65
316.486	3.64
316.94	3.63
317.394	3.63
317.849	3.62
318.303	3.61
318.757	3.59
319.211	3.57
319.665	3.56
320.119	3.55
320.572	3.55
321.026	3.54
321.48	3.53
321.934	3.53
322.387	3.52
322.841	3.51
323.295	3.5
323.748	3.5
324.202	3.49
324.655	3.48
325.108	3.47
325.562	3.45
326.015	3.44
326.468	3.44
326.921	3.42
327.374	3.42
327.827	3.41
328.28	3.4
328.733	3.4
329.186	3.4
329.639	3.39
330.092	3.39
330.545	3.39
330.997	3.39
331.45	3.38
331.903	3.38
332.355	3.37
332.808	3.37
333.26	3.37
333.713	3.37
334.165	3.36
334.617	3.36
335.069	3.35
335.522	3.35
335.974	3.34
336.426	3.34
336.878	3.34
337.33	3.33
337.782	3.33
338.234	3.33
338.686	3.32
339.137	3.33
339.589	3.33
340.041	3.33
340.493	3.31
340.944	3.31
341.396	3.3
341.847	3.29
342.299	3.27
342.75	3.25
343.201	3.24
343.653	3.22
344.104	3.21
344.555	3.2
345.006	3.18
345.457	3.17
345.908	3.16
346.359	3.16
346.81	3.15
347.261	3.14
347.712	3.14
348.163	3.14
348.613	3.13
349.064	3.12
349.515	3.1
349.965	3.08
350.416	3.08
350.866	3.08
351.317	3.07
351.767	3.06
352.217	3.06
352.668	3.07
353.118	3.06
353.568	3.07
354.018	3.07
354.468	3.07
354.918	3.08
355.368	3.09
355.818	3.09
356.268	3.09
356.718	3.09
357.168	3.08
357.617	3.07
358.067	3.06
358.517	3.05
358.966	3.05
359.416	3.06
359.865	3.05
360.315	3.03
360.764	3.02
361.213	3.01
361.663	3
362.112	3.02
362.561	3.01
363.01	3.02
363.459	3.01
363.908	3.01
364.357	3.01
364.806	3.01
365.255	3.01
365.703	3.01
366.152	3.02
366.601	3.02
367.05	3.01
367.498	3.02
367.947	3
368.395	3.01
368.844	3.01
369.292	3
369.74	3
370.189	3
370.637	2.99
371.085	2.99
371.533	2.99
371.981	2.99
372.429	2.97
372.877	2.98
373.325	2.96
373.773	2.96
374.221	2.96
374.669	2.97
375.116	2.96
375.564	2.96
376.012	2.96
376.459	2.97
376.907	2.97
377.354	2.99
377.801	3
378.249	3.01
378.696	3.03
379.143	3.03
379.591	3.03
380.038	3.04
380.485	3.05
380.932	3.06
381.379	3.07
381.826	3.08
382.273	3.08
382.72	3.08
383.166	3.1
383.613	3.11
384.06	3.12
384.506	3.13
384.953	3.14
385.4	3.16
385.846	3.16
386.292	3.18
386.739	3.19
387.185	3.22
387.631	3.24
388.078	3.26
388.524	3.26
388.97	3.28
389.416	3.3
389.862	3.32
390.308	3.34
390.754	3.38
391.2	3.41
391.645	3.44
392.091	3.45
392.537	3.48
392.983	3.51
393.428	3.56
393.874	3.59
394.319	3.63
394.765	3.66
395.21	3.68
395.655	3.7
396.101	3.73
396.546	3.76
396.991	3.79
397.436	3.82
397.881	3.85
398.326	3.89
398.771	3.93
399.216	3.97
399.661	4.01
400.106	4.06
400.551	4.09
400.995	4.11
401.44	4.13
401.885	4.16
402.329	4.21
402.774	4.23
403.218	4.25
403.663	4.27
404.107	4.31
404.551	4.34
404.995	4.36
405.44	4.39
405.884	4.42
406.328	4.46
406.772	4.49
407.216	4.5
407.66	4.54
408.104	4.58
408.547	4.61
408.991	4.62
409.435	4.65
409.879	4.68
410.322	4.71
410.766	4.75
411.209	4.78
411.653	4.81
412.096	4.83
412.54	4.86
412.983	4.89
413.426	4.91
413.869	4.96
414.312	4.99
414.756	5.03
415.199	5.07
415.642	5.11
416.085	5.13
416.527	5.17
416.97	5.21
417.413	5.23
417.856	5.24
418.298	5.25
418.741	5.25
419.184	5.25
419.626	5.25
420.069	5.26
420.511	5.26
420.953	5.28
421.396	5.28
421.838	5.31
422.28	5.33
422.722	5.36
423.164	5.36
423.606	5.39
424.048	5.39
424.49	5.41
424.932	5.43
425.374	5.44
425.816	5.43
426.258	5.43
426.699	5.4
427.141	5.38
427.582	5.37
428.024	5.38
428.465	5.38
428.907	5.41
429.348	5.41
429.789	5.4
430.231	5.4
430.672	5.42
431.113	5.44
431.554	5.46
431.995	5.46
432.436	5.47
432.877	5.45
433.318	5.47
433.759	5.46
434.2	5.46
434.64	5.48
435.081	5.47
435.522	5.49
435.962	5.48
436.403	5.52
436.843	5.55
437.284	5.57
437.724	5.61
438.164	5.61
438.604	5.65
439.045	5.67
439.485	5.69
439.925	5.71
440.365	5.7
440.805	5.71
441.245	5.7
441.685	5.71
442.125	5.71
442.564	5.71
443.004	5.73
443.444	5.73
443.883	5.74
444.323	5.75
444.762	5.79
445.202	5.86
445.641	5.91
446.081	5.97
446.52	5.98
446.959	6.01
447.398	6.05
447.837	6.1
448.276	6.12
448.716	6.16
449.154	6.19
449.593	6.23
450.032	6.22
450.471	6.26
450.91	6.26
451.349	6.29
451.787	6.3
452.226	6.3
452.664	6.29
453.103	6.28
453.541	6.28
453.98	6.27
454.418	6.25
454.856	6.23
455.295	6.21
455.733	6.2
456.171	6.18
456.609	6.17
457.047	6.16
457.485	6.15
457.923	6.15
458.361	6.13
458.798	6.14
459.236	6.13
459.674	6.13
460.111	6.13
460.549	6.12
460.987	6.12
461.424	6.11
461.862	6.11
462.299	6.11
462.736	6.11
463.173	6.11
463.611	6.11
464.048	6.11
464.485	6.11
464.922	6.11
465.359	6.11
465.796	6.1
466.233	6.11
466.67	6.12
467.106	6.12
467.543	6.12
467.98	6.14
468.416	6.14
468.853	6.14
469.29	6.14
469.726	6.15
470.162	6.16
470.599	6.18
471.035	6.19
471.471	6.2
471.907	6.22
472.344	6.23
472.78	6.23
473.216	6.24
473.652	6.23
474.088	6.25
474.523	6.24
474.959	6.25
475.395	6.27
475.831	6.26
476.266	6.25
476.702	6.24
477.138	6.24
477.573	6.22
478.008	6.22
478.444	6.22
478.879	6.21
479.314	6.2
479.75	6.2
480.185	6.19
480.62	6.2
481.055	6.21
481.49	6.19
481.925	6.19
482.36	6.17
482.795	6.17
483.229	6.17
483.664	6.17
484.099	6.17
484.534	6.16
484.968	6.16
485.403	6.17
485.837	6.17
486.271	6.17
486.706	6.18
487.14	6.21
487.574	6.22
488.009	6.23
488.443	6.25
488.877	6.27
489.311	6.29
489.745	6.33
490.179	6.35
490.613	6.37
491.046	6.42
491.48	6.45
491.914	6.49
492.348	6.53
492.781	6.57
493.215	6.63
493.648	6.68
494.082	6.74
494.515	6.79
494.948	6.85
495.382	6.93
495.815	7
496.248	7.07
496.681	7.14
497.114	7.2
497.547	7.27
497.98	7.34
498.413	7.41
498.846	7.49
499.279	7.58
499.711	7.67
500.144	7.75
500.577	7.85
501.009	7.95
501.442	8.07
501.874	8.2
502.306	8.33
502.739	8.46
503.171	8.6
503.603	8.75
504.036	8.9
504.468	9.08
504.9	9.24
505.332	9.41
505.764	9.59
506.196	9.77
506.627	9.95
507.059	10.14
507.491	10.36
507.923	10.56
508.354	10.76
508.786	10.98
509.217	11.18
509.649	11.41
510.08	11.64
510.512	11.88
510.943	12.13
511.374	12.38
511.805	12.63
512.237	12.88
512.668	13.14
513.099	13.41
513.53	13.68
513.961	13.96
514.391	14.23
514.822	14.52
515.253	14.8
515.684	15.08
516.114	15.38
516.545	15.69
516.975	15.99
517.406	16.3
517.836	16.6
518.267	16.9
518.697	17.21
519.127	17.52
519.558	17.81
519.988	18.1
520.418	18.39
520.848	18.67
521.278	18.95
521.708	19.08
522.138	19.33
522.567	19.59
522.997	19.84
523.427	20.08
523.857	20.33
524.286	20.58
524.716	20.82
525.145	21.05
525.575	21.27
526.004	21.48
526.433	21.82
526.863	22.03
527.292	22.22
527.721	22.42
528.15	22.58
528.579	22.74
529.008	22.92
529.437	23.07
529.866	23.2
530.295	23.36
530.724	23.51
531.152	23.66
531.581	23.77
532.01	23.89
532.438	24.01
532.867	24.12
533.295	24.23
533.723	24.32
534.152	24.41
534.58	24.5
535.008	24.54
535.436	24.57
535.865	24.62
536.293	24.71
536.721	24.78
537.149	24.83
537.576	24.88
538.004	24.91
538.432	24.94
538.86	24.97
539.287	25.01
539.715	25.07
540.143	25.12
540.57	25.15
540.998	25.19
541.425	25.23
541.852	25.26
542.28	25.28
542.707	25.33
543.134	25.38
543.561	25.4
543.988	25.44
544.415	25.46
544.842	25.49
545.269	25.51
545.696	25.53
546.123	25.54
546.549	25.57
546.976	25.61
547.403	25.63
547.829	25.63
548.256	25.68
548.682	25.71
549.108	25.74
549.535	25.78
549.961	25.8
550.387	25.81
550.813	25.79
551.24	25.8
551.666	25.8
552.092	25.79
552.518	25.77
552.943	25.77
553.369	25.75
553.795	25.73
554.221	25.7
554.646	25.67
555.072	25.66
555.498	25.64
555.923	25.61
556.349	25.56
556.774	25.53
557.199	25.49
557.625	25.42
558.05	25.36
558.475	25.28
558.9	25.2
559.325	25.1
559.75	25.02
560.175	24.93
560.6	24.85
561.025	24.75
561.449	24.63
561.874	24.53
562.299	24.42
562.723	24.31
563.148	24.21
563.572	24.11
563.997	24
564.421	23.86
564.846	23.73
565.27	23.59
565.694	23.44
566.118	23.31
566.542	23.15
566.966	23
567.39	22.81
567.814	22.66
568.238	22.47
568.662	22.29
569.086	22.14
569.509	21.98
569.933	21.8
570.357	21.62
570.78	21.46
571.204	21.3
571.627	21.14
572.05	21
572.474	20.84
572.897	20.7
573.32	20.55
573.743	20.4
574.166	20.26
574.589	20.14
575.012	20.03
575.435	19.89
575.858	19.77
576.281	19.66
576.704	19.55
577.126	19.45
577.549	19.37
577.972	19.3
578.394	19.2
578.817	19.11
579.239	19.02
579.661	18.94
580.084	18.85
580.506	18.77
580.928	18.69
581.35	18.61
581.772	18.53
582.194	18.43
582.616	18.36
583.038	18.28
583.46	18.21
583.882	18.15
584.303	18.1
584.725	18.05
585.147	17.96
585.568	17.9
585.99	17.84
586.411	17.77
586.833	17.7
587.254	17.65
587.675	17.6
588.096	17.54
588.518	17.48
588.939	17.44
589.36	17.38
589.781	17.35
590.202	17.31
590.623	17.27
591.043	17.24
591.464	17.21
591.885	17.17
592.305	17.13
592.726	17.1
593.147	17.09
593.567	17.03
593.987	17.02
594.408	16.98
594.828	16.94
595.248	16.91
595.669	16.87
596.089	16.83
596.509	16.79
596.929	16.77
597.349	16.73
597.769	16.68
598.189	16.65
598.608	16.6
599.028	16.56
599.448	16.53
599.867	16.49
600.287	16.45
600.706	16.41
601.126	16.35
601.545	16.28
601.965	16.22
602.384	16.18
602.803	16.11
603.222	16.04
603.641	15.98
604.061	15.9
604.48	15.83
604.898	15.77
605.317	15.7
605.736	15.63
606.155	15.56
606.574	15.49
606.992	15.39
607.411	15.32
607.829	15.19
608.248	15.12
608.666	15.04
609.085	14.96
609.503	14.85
609.921	14.77
610.339	14.69
610.758	14.59
611.176	14.5
611.594	14.42
612.012	14.32
612.43	14.28
612.847	14.2
613.265	14.13
613.683	14.05
614.101	13.96
614.518	13.87
614.936	13.8
615.353	13.73
615.771	13.65
616.188	13.6
616.606	13.54
617.023	13.49
617.44	13.43
617.857	13.35
618.274	13.29
618.691	13.24
619.108	13.21
619.525	13.16
619.942	13.13
620.359	13.1
620.776	13.06
621.192	13.02
621.609	12.97
622.026	12.94
622.442	12.91
622.859	12.89
623.275	12.89
623.691	12.87
624.108	12.84
624.524	12.82
624.94	12.8
625.356	12.77
625.772	12.78
626.188	12.77
626.604	12.76
627.02	12.75
627.436	12.74
627.852	12.71
628.268	12.69
628.683	12.67
629.099	12.66
629.514	12.63
629.93	12.59
630.345	12.54
630.761	12.5
631.176	12.46
631.591	12.42
632.007	12.38
632.422	12.35
632.837	12.31
633.252	12.27
633.667	12.22
634.082	12.17
634.497	12.12
634.911	12.06
635.326	11.98
635.741	11.91
636.155	11.83
636.57	11.75
636.984	11.65
637.399	11.54
637.813	11.43
638.228	11.31
638.642	11.22
639.056	11.1
639.47	11
639.884	10.88
640.298	10.76
640.712	10.64
641.126	10.52
641.54	10.4
641.954	10.3
642.368	10.19
642.781	10.09
643.195	9.96
643.609	9.86
644.022	9.74
644.436	9.66
644.849	9.56
645.262	9.48
645.676	9.39
646.089	9.3
646.502	9.21
646.915	9.13
647.328	9.06
647.741	8.98
648.154	8.92
648.567	8.87
648.98	8.81
649.393	8.74
649.805	8.69
650.218	8.64
650.631	8.6
651.043	8.54
651.456	8.5
651.868	8.45
652.28	8.42
652.693	8.35
653.105	8.3
653.517	8.24
653.929	8.21
654.341	8.15
654.753	8.08
655.165	8.01
655.577	7.94
655.989	7.85
656.401	7.75
656.813	7.65
657.224	7.59
657.636	7.51
658.047	7.42
658.459	7.33
658.87	7.23
659.282	7.15
659.693	7.06
660.104	6.98
660.515	6.9
660.926	6.83
661.338	6.75
661.749	6.66
662.159	6.57
662.57	6.49
662.981	6.42
663.392	6.36
663.803	6.28
664.213	6.22
664.624	6.17
665.035	6.11
665.445	6.07
665.855	6.02
666.266	5.99
666.676	5.96
667.086	5.91
667.497	5.87
667.907	5.82
668.317	5.79
668.727	5.77
669.137	5.73
669.547	5.72
669.956	5.7
670.366	5.68
670.776	5.67
671.186	5.66
671.595	5.66
672.005	5.66
672.414	5.67
672.824	5.69
673.233	5.71
673.642	5.71
674.052	5.71
674.461	5.71
674.87	5.72
675.279	5.73
675.688	5.74
676.097	5.76
676.506	5.78
676.915	5.81
677.323	5.84
677.732	5.87
678.141	5.91
678.549	5.97
678.958	6.02
679.366	6.06
679.775	6.12
680.183	6.18
680.592	6.25
681	6.33
681.408	6.42
681.816	6.5
682.224	6.6
682.632	6.73
683.04	6.86
683.448	7
683.856	7.17
684.264	7.36
684.671	7.57
685.079	7.77
685.487	8.01
685.894	8.27
686.302	8.56
686.709	8.86
687.116	9.17
687.524	9.51
687.931	9.86
688.338	10.25
688.745	10.65
689.152	11.08
689.559	11.53
689.966	11.98
690.373	12.46
690.78	12.95
691.187	13.48
691.593	14
692	14.53
692.407	15.1
692.813	15.67
693.22	16.23
693.626	16.8
694.032	17.39
694.439	17.98
694.845	18.57
695.251	19.16
695.657	19.75
696.063	20.36
696.469	20.95
696.875	21.52
697.281	22.07
697.687	22.65
698.093	23.22
698.498	23.77
698.904	24.32
699.31	24.87
699.715	25.42
700.12	25.9
700.526	26.41
700.931	26.91
701.337	27.4
701.742	27.89
702.147	28.36
702.552	28.84
702.957	29.3
703.362	29.75
703.767	30.18
704.172	30.61
704.577	31.08
704.981	31.52
705.386	31.94
705.791	32.35
706.195	32.77
706.6	33.18
707.004	33.54
707.408	33.92
707.813	34.3
708.217	34.67
708.621	35.04
709.025	35.39
709.43	35.71
709.834	36.08
710.237	36.4
710.641	36.75
711.045	37.05
711.449	37.4
711.853	37.73
712.256	38.07
712.66	38.37
713.064	38.68
713.467	38.97
713.87	39.27
714.274	39.56
714.677	39.86
715.08	40.13
715.484	40.42
715.887	40.72
716.29	40.97
716.693	41.22
717.096	41.47
717.499	41.72
717.901	41.96
718.304	42.18
718.707	42.4
719.109	42.65
719.512	42.9
719.915	43.1
720.317	43.31
720.719	43.5
721.122	43.71
721.524	43.93
721.926	44.15
722.328	44.38
722.731	44.6
723.133	44.78
723.535	44.96
723.937	45.12
724.338	45.3
724.74	45.44
725.142	45.58
725.544	45.73
725.945	45.84
726.347	45.97
726.748	46.04
727.15	46.17
727.551	46.3
727.952	46.41
728.354	46.54
728.755	46.64
729.156	46.78
729.557	46.93
729.958	47.07
730.359	47.21
730.76	47.3
731.161	47.4
731.562	47.47
731.962	47.56
732.363	47.6
732.763	47.69
733.164	47.76
733.564	47.82
733.965	47.87
734.365	47.9
734.766	47.91
735.166	47.94
735.566	48.02
735.966	48.07
736.366	48.11
736.766	48.2
737.166	48.24
737.566	48.29
737.966	48.35
738.365	48.4
738.765	48.45
739.165	48.52
739.564	48.58
739.964	48.59
740.363	48.61
740.763	48.64
741.162	48.65
741.561	48.68
741.96	48.71
742.36	48.75
742.759	48.74
743.158	48.78
743.557	48.79
743.955	48.86
744.354	48.92
744.753	48.99
745.152	49.01
745.55	49.05
745.949	49.09
746.348	49.13
746.746	49.14
747.144	49.21
747.543	49.22
747.941	49.28
748.339	49.32
748.737	49.36
749.136	49.36
749.534	49.39
749.932	49.41
750.33	49.43
750.727	49.44
751.125	49.47
751.523	49.47
751.921	49.51
752.318	49.51
752.716	49.48
753.113	49.48
753.511	49.47
753.908	49.45
754.305	49.45
754.703	49.43
755.1	49.4
755.497	49.36
755.894	49.33
756.291	49.3
756.688	49.27
757.085	49.23
757.482	49.19
757.878	49.19
758.275	49.18
758.672	49.17
759.068	49.16
759.465	49.17
759.861	49.16
760.258	49.14
760.654	49.13
761.05	49.15
761.447	49.15
761.843	49.14
762.239	49.13
762.635	49.13
763.031	49.11
763.427	49.07
763.822	49.04
764.218	49.03
764.614	49.06
765.01	49.08
765.405	49.06
765.801	49.04
766.196	49.05
766.592	49.06
766.987	49.08
767.382	49.1
767.778	49.13
768.173	49.14
768.568	49.13
768.963	49.1
769.358	49.08
769.753	49.12
770.148	49.18
770.542	49.18
770.937	49.18
771.332	49.17
771.726	49.18
772.121	49.16
772.515	49.17
772.91	49.23
773.304	49.19
773.699	49.18
774.093	49.15
774.487	49.11
774.881	49.13
775.275	49.12
775.669	49.12
776.063	49.09
776.457	49.1
776.851	49.06
777.245	49.03
777.638	49.09
778.032	49.11
778.425	49.13
778.819	49.17
779.212	49.14
779.606	49.16
779.999	49.17
780.392	49.18
780.786	49.16
781.179	49.22
781.572	49.23
781.965	49.24
782.358	49.21
