Data from N_3_hir_il_4n_Splice17_20.txt Node
Date: Sat Feb 29 15:13:27 EST 2020
User: sa697716
Spectrometer: FLMS03696
Trigger mode: 0
Integration Time (sec): 3.180400E-1
Scans to average: 20
Electric dark correction enabled: true
Nonlinearity correction enabled: true
Boxcar width: 5
XAxis mode: Wavelengths
Number of Pixels in Spectrum: 2048
>>>>>Begin Spectral Data<<<<<
187.83	101.77
188.298	86.15
188.766	77.56
189.233	98.75
189.701	101.63
190.169	101.66
190.636	108.63
191.104	94.94
191.571	321.12
192.039	335.71
192.506	-224.93
192.974	-6454.09
193.441	1120.24
193.908	-53.87
194.375	-19.85
194.842	59.79
195.31	67.01
195.777	95.6
196.244	43.93
196.711	39.02
197.177	36.25
197.644	35.95
198.111	35.42
198.578	35.85
199.045	35.85
199.511	36.3
199.978	36.43
200.445	36.2
200.911	36.37
201.378	36.48
201.844	37.37
202.31	37.92
202.777	38.12
203.243	39
203.709	39.05
204.176	38.53
204.642	38.43
205.108	38.3
205.574	38.38
206.04	38.48
206.506	38.26
206.972	37.33
207.438	37.16
207.903	36.96
208.369	36.08
208.835	35.99
209.301	36.17
209.766	35.83
210.232	35.48
210.697	35.22
211.163	34.72
211.628	33.98
212.094	34.01
212.559	33.31
213.024	32.99
213.49	32.71
213.955	31.86
214.42	30.94
214.885	29.95
215.35	29.24
215.815	28.05
216.28	26.7
216.745	25.55
217.21	23.99
217.675	22.68
218.14	21.16
218.604	19.83
219.069	18.82
219.534	17.85
219.998	17.04
220.463	16.3
220.927	15.72
221.392	15.16
221.856	14.68
222.32	14.29
222.785	13.92
223.249	13.61
223.713	13.34
224.177	13.05
224.642	12.83
225.106	12.63
225.57	12.39
226.034	12.2
226.497	12
226.961	11.81
227.425	11.58
227.889	11.38
228.353	11.21
228.816	11.05
229.28	10.86
229.744	10.7
230.207	10.55
230.671	10.37
231.134	10.21
231.597	10.05
232.061	9.89
232.524	9.78
232.987	9.65
233.45	9.51
233.914	9.39
234.377	9.29
234.84	9.17
235.303	9.06
235.766	8.95
236.229	8.85
236.691	8.76
237.154	8.67
237.617	8.6
238.08	8.52
238.542	8.43
239.005	8.33
239.468	8.24
239.93	8.17
240.393	8.1
240.855	8.02
241.317	7.94
241.78	7.88
242.242	7.8
242.704	7.72
243.166	7.64
243.629	7.56
244.091	7.5
244.553	7.44
245.015	7.37
245.477	7.28
245.939	7.22
246.4	7.16
246.862	7.1
247.324	7.05
247.786	6.99
248.247	6.94
248.709	6.87
249.17	6.82
249.632	6.77
250.093	6.7
250.555	6.66
251.016	6.62
251.477	6.56
251.939	6.52
252.4	6.47
252.861	6.42
253.322	6.37
253.783	6.34
254.244	6.29
254.705	6.25
255.166	6.22
255.627	6.18
256.088	6.14
256.549	6.1
257.009	6.06
257.47	6.01
257.931	5.97
258.391	5.92
258.852	5.86
259.312	5.83
259.773	5.79
260.233	5.74
260.694	5.71
261.154	5.66
261.614	5.63
262.074	5.59
262.534	5.55
262.994	5.52
263.455	5.49
263.915	5.46
264.374	5.42
264.834	5.4
265.294	5.36
265.754	5.32
266.214	5.29
266.673	5.27
267.133	5.24
267.593	5.22
268.052	5.19
268.512	5.16
268.971	5.13
269.431	5.11
269.89	5.09
270.349	5.07
270.809	5.05
271.268	5.04
271.727	5.01
272.186	4.99
272.645	4.97
273.104	4.94
273.563	4.93
274.022	4.91
274.481	4.89
274.94	4.87
275.399	4.85
275.857	4.83
276.316	4.8
276.775	4.77
277.233	4.75
277.692	4.74
278.15	4.72
278.609	4.7
279.067	4.67
279.525	4.65
279.984	4.63
280.442	4.61
280.9	4.59
281.358	4.57
281.816	4.56
282.274	4.54
282.732	4.53
283.19	4.51
283.648	4.5
284.106	4.48
284.564	4.47
285.021	4.46
285.479	4.45
285.937	4.44
286.394	4.43
286.852	4.43
287.309	4.41
287.767	4.39
288.224	4.37
288.682	4.36
289.139	4.35
289.596	4.34
290.053	4.31
290.511	4.29
290.968	4.27
291.425	4.25
291.882	4.23
292.339	4.21
292.796	4.19
293.252	4.17
293.709	4.14
294.166	4.12
294.623	4.1
295.079	4.09
295.536	4.08
295.992	4.07
296.449	4.06
296.905	4.04
297.362	4.02
297.818	4.01
298.274	3.99
298.731	3.98
299.187	3.96
299.643	3.96
300.099	3.94
300.555	3.93
301.011	3.91
301.467	3.9
301.923	3.89
302.379	3.88
302.835	3.87
303.291	3.86
303.746	3.85
304.202	3.84
304.658	3.83
305.113	3.82
305.569	3.82
306.024	3.81
306.479	3.79
306.935	3.79
307.39	3.79
307.845	3.78
308.301	3.78
308.756	3.77
309.211	3.77
309.666	3.76
310.121	3.75
310.576	3.74
311.031	3.75
311.486	3.75
311.94	3.73
312.395	3.73
312.85	3.73
313.305	3.72
313.759	3.72
314.214	3.71
314.668	3.71
315.123	3.71
315.577	3.71
316.032	3.69
316.486	3.68
316.94	3.67
317.394	3.65
317.849	3.65
318.303	3.64
318.757	3.63
319.211	3.61
319.665	3.6
320.119	3.6
320.572	3.6
321.026	3.59
321.48	3.57
321.934	3.57
322.387	3.56
322.841	3.54
323.295	3.53
323.748	3.52
324.202	3.51
324.655	3.51
325.108	3.49
325.562	3.46
326.015	3.45
326.468	3.44
326.921	3.43
327.374	3.42
327.827	3.42
328.28	3.41
328.733	3.4
329.186	3.4
329.639	3.39
330.092	3.38
330.545	3.39
330.997	3.39
331.45	3.39
331.903	3.39
332.355	3.39
332.808	3.39
333.26	3.39
333.713	3.39
334.165	3.38
334.617	3.38
335.069	3.38
335.522	3.38
335.974	3.38
336.426	3.38
336.878	3.38
337.33	3.37
337.782	3.38
338.234	3.38
338.686	3.37
339.137	3.38
339.589	3.37
340.041	3.36
340.493	3.35
340.944	3.34
341.396	3.33
341.847	3.32
342.299	3.31
342.75	3.29
343.201	3.27
343.653	3.26
344.104	3.24
344.555	3.23
345.006	3.21
345.457	3.21
345.908	3.2
346.359	3.2
346.81	3.19
347.261	3.18
347.712	3.18
348.163	3.18
348.613	3.17
349.064	3.16
349.515	3.15
349.965	3.14
350.416	3.14
350.866	3.13
351.317	3.12
351.767	3.12
352.217	3.11
352.668	3.11
353.118	3.1
353.568	3.1
354.018	3.11
354.468	3.1
354.918	3.11
355.368	3.1
355.818	3.1
356.268	3.1
356.718	3.09
357.168	3.09
357.617	3.08
358.067	3.08
358.517	3.08
358.966	3.08
359.416	3.08
359.865	3.06
360.315	3.06
360.764	3.06
361.213	3.06
361.663	3.06
362.112	3.06
362.561	3.06
363.01	3.06
363.459	3.05
363.908	3.04
364.357	3.04
364.806	3.05
365.255	3.05
365.703	3.04
366.152	3.04
366.601	3.03
367.05	3.02
367.498	3.02
367.947	3.02
368.395	3.03
368.844	3.03
369.292	3.03
369.74	3.02
370.189	3.02
370.637	3.03
371.085	3.03
371.533	3.03
371.981	3.04
372.429	3.04
372.877	3.04
373.325	3.03
373.773	3.02
374.221	3.02
374.669	3.02
375.116	3.01
375.564	2.99
376.012	3
376.459	3
376.907	3.01
377.354	3.01
377.801	3.01
378.249	3.02
378.696	3.04
379.143	3.05
379.591	3.06
380.038	3.08
380.485	3.09
380.932	3.1
381.379	3.1
381.826	3.11
382.273	3.11
382.72	3.12
383.166	3.13
383.613	3.13
384.06	3.15
384.506	3.16
384.953	3.17
385.4	3.19
385.846	3.2
386.292	3.22
386.739	3.23
387.185	3.26
387.631	3.28
388.078	3.3
388.524	3.3
388.97	3.32
389.416	3.33
389.862	3.35
390.308	3.36
390.754	3.39
391.2	3.42
391.645	3.46
392.091	3.48
392.537	3.51
392.983	3.53
393.428	3.59
393.874	3.63
394.319	3.67
394.765	3.7
395.21	3.72
395.655	3.75
396.101	3.77
396.546	3.8
396.991	3.83
397.436	3.85
397.881	3.89
398.326	3.92
398.771	3.96
399.216	4
399.661	4.05
400.106	4.11
400.551	4.15
400.995	4.18
401.44	4.2
401.885	4.23
402.329	4.27
402.774	4.29
403.218	4.31
403.663	4.33
404.107	4.36
404.551	4.38
404.995	4.4
405.44	4.42
405.884	4.45
406.328	4.48
406.772	4.52
407.216	4.55
407.66	4.59
408.104	4.61
408.547	4.64
408.991	4.66
409.435	4.68
409.879	4.72
410.322	4.75
410.766	4.78
411.209	4.83
411.653	4.84
412.096	4.87
412.54	4.89
412.983	4.92
413.426	4.96
413.869	4.99
414.312	5.04
414.756	5.09
415.199	5.13
415.642	5.18
416.085	5.2
416.527	5.25
416.97	5.29
417.413	5.3
417.856	5.32
418.298	5.31
418.741	5.32
419.184	5.32
419.626	5.31
420.069	5.33
420.511	5.32
420.953	5.33
421.396	5.33
421.838	5.35
422.28	5.37
422.722	5.4
423.164	5.43
423.606	5.45
424.048	5.46
424.49	5.48
424.932	5.48
425.374	5.48
425.816	5.48
426.258	5.48
426.699	5.45
427.141	5.42
427.582	5.4
428.024	5.4
428.465	5.41
428.907	5.43
429.348	5.44
429.789	5.43
430.231	5.42
430.672	5.43
431.113	5.44
431.554	5.47
431.995	5.51
432.436	5.53
432.877	5.54
433.318	5.52
433.759	5.53
434.2	5.53
434.64	5.55
435.081	5.55
435.522	5.57
435.962	5.59
436.403	5.62
436.843	5.63
437.284	5.65
437.724	5.68
438.164	5.7
438.604	5.71
439.045	5.72
439.485	5.74
439.925	5.76
440.365	5.75
440.805	5.76
441.245	5.74
441.685	5.76
442.125	5.77
442.564	5.8
443.004	5.83
443.444	5.86
443.883	5.89
444.323	5.89
444.762	5.93
445.202	6
445.641	6.03
446.081	6.09
446.52	6.09
446.959	6.12
447.398	6.14
447.837	6.17
448.276	6.18
448.716	6.21
449.154	6.25
449.593	6.28
450.032	6.29
450.471	6.31
450.91	6.3
451.349	6.31
451.787	6.31
452.226	6.31
452.664	6.3
453.103	6.31
453.541	6.32
453.98	6.32
454.418	6.3
454.856	6.29
455.295	6.27
455.733	6.27
456.171	6.27
456.609	6.27
457.047	6.27
457.485	6.26
457.923	6.24
458.361	6.23
458.798	6.22
459.236	6.2
459.674	6.2
460.111	6.21
460.549	6.19
460.987	6.18
461.424	6.16
461.862	6.15
462.299	6.15
462.736	6.17
463.173	6.16
463.611	6.15
464.048	6.16
464.485	6.16
464.922	6.14
465.359	6.15
465.796	6.14
466.233	6.17
466.67	6.17
467.106	6.17
467.543	6.16
467.98	6.16
468.416	6.2
468.853	6.2
469.29	6.21
469.726	6.23
470.162	6.22
470.599	6.24
471.035	6.25
471.471	6.27
471.907	6.27
472.344	6.27
472.78	6.27
473.216	6.25
473.652	6.25
474.088	6.25
474.523	6.26
474.959	6.26
475.395	6.25
475.831	6.25
476.266	6.24
476.702	6.25
477.138	6.25
477.573	6.24
478.008	6.25
478.444	6.25
478.879	6.25
479.314	6.24
479.75	6.25
480.185	6.24
480.62	6.25
481.055	6.24
481.49	6.22
481.925	6.22
482.36	6.21
482.795	6.2
483.229	6.2
483.664	6.19
484.099	6.19
484.534	6.19
484.968	6.2
485.403	6.2
485.837	6.21
486.271	6.22
486.706	6.23
487.14	6.25
487.574	6.26
488.009	6.27
488.443	6.28
488.877	6.3
489.311	6.32
489.745	6.33
490.179	6.36
490.613	6.39
491.046	6.42
491.48	6.45
491.914	6.5
492.348	6.55
492.781	6.6
493.215	6.65
493.648	6.71
494.082	6.76
494.515	6.81
494.948	6.87
495.382	6.92
495.815	6.99
496.248	7.05
496.681	7.11
497.114	7.18
497.547	7.26
497.98	7.35
498.413	7.42
498.846	7.5
499.279	7.6
499.711	7.69
500.144	7.79
500.577	7.89
501.009	7.99
501.442	8.11
501.874	8.23
502.306	8.35
502.739	8.48
503.171	8.61
503.603	8.75
504.036	8.9
504.468	9.07
504.9	9.24
505.332	9.41
505.764	9.59
506.196	9.77
506.627	9.96
507.059	10.15
507.491	10.36
507.923	10.57
508.354	10.79
508.786	11.01
509.217	11.23
509.649	11.46
510.08	11.7
510.512	11.93
510.943	12.18
511.374	12.42
511.805	12.68
512.237	12.94
512.668	13.2
513.099	13.46
513.53	13.72
513.961	14.01
514.391	14.29
514.822	14.56
515.253	14.85
515.684	15.12
516.114	15.43
516.545	15.72
516.975	16
517.406	16.31
517.836	16.6
518.267	16.91
518.697	17.2
519.127	17.5
519.558	17.78
519.988	18.07
520.418	18.38
520.848	18.66
521.278	18.94
521.708	19.06
522.138	19.31
522.567	19.58
522.997	19.84
523.427	20.09
523.857	20.31
524.286	20.56
524.716	20.78
525.145	21
525.575	21.21
526.004	21.42
526.433	21.77
526.863	21.99
527.292	22.18
527.721	22.36
528.15	22.53
528.579	22.72
529.008	22.88
529.437	23.05
529.866	23.19
530.295	23.37
530.724	23.52
531.152	23.66
531.581	23.78
532.01	23.91
532.438	24.01
532.867	24.13
533.295	24.22
533.723	24.32
534.152	24.4
534.58	24.49
535.008	24.53
535.436	24.58
535.865	24.64
536.293	24.71
536.721	24.75
537.149	24.82
537.576	24.87
538.004	24.93
538.432	24.96
538.86	25.02
539.287	25.06
539.715	25.12
540.143	25.14
540.57	25.15
540.998	25.2
541.425	25.23
541.852	25.27
542.28	25.29
542.707	25.3
543.134	25.32
543.561	25.33
543.988	25.33
544.415	25.36
544.842	25.4
545.269	25.46
545.696	25.46
546.123	25.49
546.549	25.5
546.976	25.53
547.403	25.57
547.829	25.62
548.256	25.66
548.682	25.69
549.108	25.72
549.535	25.74
549.961	25.76
550.387	25.79
550.813	25.79
551.24	25.82
551.666	25.82
552.092	25.82
552.518	25.82
552.943	25.83
553.369	25.82
553.795	25.83
554.221	25.8
554.646	25.75
555.072	25.73
555.498	25.71
555.923	25.66
556.349	25.6
556.774	25.54
557.199	25.49
557.625	25.41
558.05	25.34
558.475	25.25
558.9	25.18
559.325	25.09
559.75	24.99
560.175	24.9
560.6	24.81
561.025	24.75
561.449	24.65
561.874	24.54
562.299	24.45
562.723	24.33
563.148	24.21
563.572	24.09
563.997	23.98
564.421	23.85
564.846	23.72
565.27	23.58
565.694	23.42
566.118	23.28
566.542	23.12
566.966	22.96
567.39	22.8
567.814	22.63
568.238	22.45
568.662	22.28
569.086	22.12
569.509	21.95
569.933	21.77
570.357	21.58
570.78	21.4
571.204	21.24
571.627	21.08
572.05	20.93
572.474	20.79
572.897	20.65
573.32	20.5
573.743	20.35
574.166	20.22
574.589	20.08
575.012	19.99
575.435	19.87
575.858	19.76
576.281	19.66
576.704	19.56
577.126	19.45
577.549	19.37
577.972	19.29
578.394	19.19
578.817	19.1
579.239	19.02
579.661	18.93
580.084	18.85
580.506	18.77
580.928	18.67
581.35	18.6
581.772	18.54
582.194	18.45
582.616	18.38
583.038	18.3
583.46	18.25
583.882	18.18
584.303	18.12
584.725	18.06
585.147	17.97
585.568	17.92
585.99	17.85
586.411	17.77
586.833	17.71
587.254	17.66
587.675	17.6
588.096	17.54
588.518	17.49
588.939	17.44
589.36	17.39
589.781	17.37
590.202	17.31
590.623	17.25
591.043	17.22
591.464	17.17
591.885	17.14
592.305	17.1
592.726	17.06
593.147	17.04
593.567	17
593.987	16.98
594.408	16.93
594.828	16.91
595.248	16.9
595.669	16.87
596.089	16.85
596.509	16.79
596.929	16.77
597.349	16.73
597.769	16.69
598.189	16.66
598.608	16.61
599.028	16.58
599.448	16.55
599.867	16.5
600.287	16.45
600.706	16.4
601.126	16.36
601.545	16.32
601.965	16.27
602.384	16.21
602.803	16.15
603.222	16.1
603.641	16.04
604.061	15.96
604.48	15.9
604.898	15.82
605.317	15.74
605.736	15.67
606.155	15.57
606.574	15.5
606.992	15.42
607.411	15.34
607.829	15.22
608.248	15.14
608.666	15.05
609.085	14.97
609.503	14.89
609.921	14.81
610.339	14.72
610.758	14.65
611.176	14.56
611.594	14.48
612.012	14.38
612.43	14.34
612.847	14.26
613.265	14.19
613.683	14.12
614.101	14.03
614.518	13.95
614.936	13.88
615.353	13.8
615.771	13.72
616.188	13.67
616.606	13.61
617.023	13.56
617.44	13.47
617.857	13.41
618.274	13.35
618.691	13.3
619.108	13.27
619.525	13.21
619.942	13.17
620.359	13.14
620.776	13.08
621.192	13.04
621.609	13
622.026	12.99
622.442	12.95
622.859	12.93
623.275	12.91
623.691	12.88
624.108	12.87
624.524	12.85
624.94	12.82
625.356	12.81
625.772	12.82
626.188	12.82
626.604	12.8
627.02	12.79
627.436	12.77
627.852	12.76
628.268	12.74
628.683	12.71
629.099	12.68
629.514	12.66
629.93	12.64
630.345	12.6
630.761	12.56
631.176	12.53
631.591	12.5
632.007	12.46
632.422	12.42
632.837	12.39
633.252	12.36
633.667	12.29
634.082	12.23
634.497	12.15
634.911	12.07
635.326	12
635.741	11.91
636.155	11.81
636.57	11.72
636.984	11.62
637.399	11.5
637.813	11.39
638.228	11.3
638.642	11.2
639.056	11.09
639.47	10.98
639.884	10.86
640.298	10.76
640.712	10.65
641.126	10.54
641.54	10.42
641.954	10.33
642.368	10.22
642.781	10.11
643.195	9.99
643.609	9.89
644.022	9.8
644.436	9.7
644.849	9.6
645.262	9.51
645.676	9.41
646.089	9.32
646.502	9.23
646.915	9.14
647.328	9.07
647.741	9.01
648.154	8.94
648.567	8.88
648.98	8.83
649.393	8.78
649.805	8.73
650.218	8.7
650.631	8.65
651.043	8.6
651.456	8.56
651.868	8.53
652.28	8.49
652.693	8.44
653.105	8.39
653.517	8.33
653.929	8.28
654.341	8.23
654.753	8.15
655.165	8.08
655.577	8
655.989	7.91
656.401	7.82
656.813	7.72
657.224	7.65
657.636	7.56
658.047	7.46
658.459	7.36
658.87	7.27
659.282	7.2
659.693	7.11
660.104	7.03
660.515	6.94
660.926	6.86
661.338	6.77
661.749	6.68
662.159	6.62
662.57	6.54
662.981	6.47
663.392	6.4
663.803	6.31
664.213	6.25
664.624	6.19
665.035	6.15
665.445	6.1
665.855	6.06
666.266	6.01
666.676	5.96
667.086	5.93
667.497	5.89
667.907	5.85
668.317	5.83
668.727	5.81
669.137	5.79
669.547	5.77
669.956	5.77
670.366	5.76
670.776	5.77
671.186	5.77
671.595	5.76
672.005	5.76
672.414	5.77
672.824	5.79
673.233	5.79
673.642	5.79
674.052	5.79
674.461	5.78
674.87	5.79
675.279	5.8
675.688	5.81
676.097	5.84
676.506	5.84
676.915	5.86
677.323	5.89
677.732	5.93
678.141	5.96
678.549	6.02
678.958	6.08
679.366	6.12
679.775	6.19
680.183	6.25
680.592	6.32
681	6.39
681.408	6.49
681.816	6.58
682.224	6.67
682.632	6.8
683.04	6.92
683.448	7.05
683.856	7.2
684.264	7.38
684.671	7.58
685.079	7.79
685.487	8.05
685.894	8.3
686.302	8.59
686.709	8.89
687.116	9.2
687.524	9.56
687.931	9.92
688.338	10.31
688.745	10.7
689.152	11.14
689.559	11.59
689.966	12.04
690.373	12.54
690.78	13.04
691.187	13.56
691.593	14.09
692	14.64
692.407	15.19
692.813	15.78
693.22	16.35
693.626	16.91
694.032	17.49
694.439	18.08
694.845	18.66
695.251	19.26
695.657	19.83
696.063	20.41
696.469	20.98
696.875	21.57
697.281	22.12
697.687	22.71
698.093	23.3
698.498	23.86
698.904	24.4
699.31	24.93
699.715	25.47
700.12	26
700.526	26.51
700.931	27.01
701.337	27.49
701.742	27.98
702.147	28.43
702.552	28.9
702.957	29.37
703.362	29.86
703.767	30.31
704.172	30.73
704.577	31.18
704.981	31.61
705.386	32.04
705.791	32.48
706.195	32.88
706.6	33.29
707.004	33.67
707.408	34.04
707.813	34.41
708.217	34.79
708.621	35.16
709.025	35.53
709.43	35.88
709.834	36.25
710.237	36.57
710.641	36.91
711.045	37.23
711.449	37.57
711.853	37.89
712.256	38.2
712.66	38.49
713.064	38.79
713.467	39.08
713.87	39.37
714.274	39.64
714.677	39.94
715.08	40.2
715.484	40.49
715.887	40.76
716.29	41.03
716.693	41.28
717.096	41.55
717.499	41.8
717.901	42.05
718.304	42.27
718.707	42.53
719.109	42.77
719.512	43.02
719.915	43.23
720.317	43.45
720.719	43.66
721.122	43.86
721.524	44.1
721.926	44.3
722.328	44.48
722.731	44.67
723.133	44.84
723.535	45
723.937	45.17
724.338	45.32
724.74	45.47
725.142	45.61
725.544	45.77
725.945	45.88
726.347	46.02
726.748	46.15
727.15	46.29
727.551	46.42
727.952	46.53
728.354	46.65
728.755	46.79
729.156	46.92
729.557	47.05
729.958	47.16
730.359	47.25
730.76	47.34
731.161	47.45
731.562	47.53
731.962	47.62
732.363	47.72
732.763	47.81
733.164	47.87
733.564	47.91
733.965	47.99
734.365	48.04
734.766	48.09
735.166	48.13
735.566	48.16
735.966	48.18
736.366	48.21
736.766	48.26
737.166	48.3
737.566	48.36
737.966	48.41
738.365	48.44
738.765	48.49
739.165	48.51
739.564	48.58
739.964	48.61
740.363	48.68
740.763	48.7
741.162	48.72
741.561	48.71
741.96	48.76
742.36	48.81
742.759	48.84
743.158	48.85
743.557	48.88
743.955	48.92
744.354	49
744.753	49.06
745.152	49.12
745.55	49.2
745.949	49.25
746.348	49.28
746.746	49.3
747.144	49.34
747.543	49.4
747.941	49.47
748.339	49.5
748.737	49.5
749.136	49.49
749.534	49.52
749.932	49.52
750.33	49.54
750.727	49.54
751.125	49.57
751.523	49.59
751.921	49.62
752.318	49.61
752.716	49.6
753.113	49.62
753.511	49.58
753.908	49.53
754.305	49.5
754.703	49.48
755.1	49.46
755.497	49.43
755.894	49.39
756.291	49.33
756.688	49.3
757.085	49.27
757.482	49.24
757.878	49.27
758.275	49.28
758.672	49.27
759.068	49.26
759.465	49.25
759.861	49.24
760.258	49.23
760.654	49.2
761.05	49.18
761.447	49.17
761.843	49.15
762.239	49.11
762.635	49.06
763.031	49.09
763.427	49.08
763.822	49.08
764.218	49.05
764.614	49.03
765.01	49.06
765.405	49.08
765.801	49.08
766.196	49.11
766.592	49.16
766.987	49.22
767.382	49.2
767.778	49.23
768.173	49.22
768.568	49.22
768.963	49.24
769.358	49.22
769.753	49.24
770.148	49.28
770.542	49.24
770.937	49.21
771.332	49.23
771.726	49.19
772.121	49.15
772.515	49.16
772.91	49.2
773.304	49.22
773.699	49.22
774.093	49.16
774.487	49.17
774.881	49.2
775.275	49.21
775.669	49.18
776.063	49.21
776.457	49.21
776.851	49.2
777.245	49.19
777.638	49.2
778.032	49.22
778.425	49.26
778.819	49.25
779.212	49.23
779.606	49.21
779.999	49.22
780.392	49.25
780.786	49.27
781.179	49.27
781.572	49.25
781.965	49.25
782.358	49.22
