Data from N_3_div_il_4n_Splice17_16.txt Node
Date: Sat Feb 29 14:59:58 EST 2020
User: sa697716
Spectrometer: FLMS03696
Trigger mode: 0
Integration Time (sec): 3.180400E-1
Scans to average: 20
Electric dark correction enabled: true
Nonlinearity correction enabled: true
Boxcar width: 5
XAxis mode: Wavelengths
Number of Pixels in Spectrum: 2048
>>>>>Begin Spectral Data<<<<<
187.83	109.13
188.298	117.18
188.766	111.61
189.233	94.97
189.701	91.17
190.169	104.2
190.636	121.56
191.104	148.14
191.571	823.88
192.039	751.53
192.506	-867.77
192.974	-2132.58
193.441	-50.89
193.908	99.83
194.375	71.22
194.842	144.23
195.31	142.22
195.777	81.03
196.244	52.39
196.711	56.04
197.177	53.8
197.644	54.64
198.111	53.91
198.578	53.78
199.045	54.87
199.511	54.52
199.978	54.52
200.445	54.01
200.911	54.92
201.378	54.88
201.844	55.71
202.31	56.56
202.777	56.55
203.243	57.27
203.709	56.8
204.176	56.05
204.642	56.1
205.108	55.82
205.574	56.29
206.04	55.95
206.506	55.81
206.972	54.93
207.438	54.01
207.903	53.12
208.369	51.76
208.835	51.24
209.301	50.73
209.766	49.96
210.232	49.28
210.697	48.26
211.163	47.15
211.628	46.22
212.094	45.39
212.559	44.34
213.024	43.57
213.49	42.53
213.955	41.61
214.42	40.35
214.885	38.61
215.35	36.58
215.815	34.22
216.28	32.04
216.745	29.34
217.21	26.64
217.675	24.17
218.14	21.81
218.604	19.77
219.069	18.04
219.534	16.42
219.998	15.22
220.463	14.26
220.927	13.4
221.392	12.58
221.856	11.91
222.32	11.38
222.785	10.92
223.249	10.49
223.713	10.16
224.177	9.8
224.642	9.51
225.106	9.23
225.57	8.96
226.034	8.73
226.497	8.51
226.961	8.31
227.425	8.06
227.889	7.84
228.353	7.64
228.816	7.44
229.28	7.23
229.744	7.1
230.207	6.96
230.671	6.79
231.134	6.63
231.597	6.49
232.061	6.35
232.524	6.26
232.987	6.16
233.45	6.05
233.914	5.96
234.377	5.89
234.84	5.8
235.303	5.72
235.766	5.66
236.229	5.59
236.691	5.54
237.154	5.47
237.617	5.4
238.08	5.33
238.542	5.28
239.005	5.23
239.468	5.15
239.93	5.11
240.393	5.04
240.855	4.97
241.317	4.92
241.78	4.87
242.242	4.8
242.704	4.74
243.166	4.69
243.629	4.64
244.091	4.59
244.553	4.56
245.015	4.51
245.477	4.46
245.939	4.42
246.4	4.37
246.862	4.33
247.324	4.31
247.786	4.28
248.247	4.24
248.709	4.19
249.17	4.15
249.632	4.1
250.093	4.04
250.555	4.01
251.016	3.99
251.477	3.96
251.939	3.92
252.4	3.88
252.861	3.85
253.322	3.8
253.783	3.78
254.244	3.75
254.705	3.72
255.166	3.71
255.627	3.67
256.088	3.63
256.549	3.6
257.009	3.57
257.47	3.54
257.931	3.51
258.391	3.48
258.852	3.44
259.312	3.4
259.773	3.37
260.233	3.33
260.694	3.3
261.154	3.27
261.614	3.24
262.074	3.22
262.534	3.17
262.994	3.15
263.455	3.13
263.915	3.1
264.374	3.07
264.834	3.05
265.294	3.02
265.754	2.99
266.214	2.97
266.673	2.95
267.133	2.92
267.593	2.91
268.052	2.88
268.512	2.86
268.971	2.84
269.431	2.84
269.89	2.82
270.349	2.81
270.809	2.8
271.268	2.79
271.727	2.77
272.186	2.76
272.645	2.75
273.104	2.74
273.563	2.73
274.022	2.73
274.481	2.71
274.94	2.7
275.399	2.69
275.857	2.68
276.316	2.67
276.775	2.66
277.233	2.65
277.692	2.65
278.15	2.64
278.609	2.63
279.067	2.62
279.525	2.6
279.984	2.59
280.442	2.59
280.9	2.59
281.358	2.58
281.816	2.57
282.274	2.57
282.732	2.56
283.19	2.57
283.648	2.57
284.106	2.56
284.564	2.57
285.021	2.56
285.479	2.55
285.937	2.55
286.394	2.54
286.852	2.54
287.309	2.53
287.767	2.52
288.224	2.51
288.682	2.5
289.139	2.49
289.596	2.48
290.053	2.46
290.511	2.45
290.968	2.43
291.425	2.42
291.882	2.41
292.339	2.4
292.796	2.38
293.252	2.36
293.709	2.35
294.166	2.34
294.623	2.33
295.079	2.33
295.536	2.32
295.992	2.31
296.449	2.3
296.905	2.29
297.362	2.28
297.818	2.27
298.274	2.26
298.731	2.25
299.187	2.25
299.643	2.23
300.099	2.23
300.555	2.22
301.011	2.21
301.467	2.2
301.923	2.2
302.379	2.2
302.835	2.2
303.291	2.2
303.746	2.19
304.202	2.19
304.658	2.19
305.113	2.18
305.569	2.19
306.024	2.19
306.479	2.18
306.935	2.19
307.39	2.19
307.845	2.19
308.301	2.19
308.756	2.2
309.211	2.2
309.666	2.21
310.121	2.21
310.576	2.2
311.031	2.21
311.486	2.2
311.94	2.2
312.395	2.2
312.85	2.19
313.305	2.19
313.759	2.19
314.214	2.19
314.668	2.18
315.123	2.18
315.577	2.18
316.032	2.17
316.486	2.17
316.94	2.18
317.394	2.18
317.849	2.17
318.303	2.16
318.757	2.15
319.211	2.14
319.665	2.13
320.119	2.13
320.572	2.13
321.026	2.12
321.48	2.11
321.934	2.1
322.387	2.09
322.841	2.09
323.295	2.09
323.748	2.08
324.202	2.09
324.655	2.09
325.108	2.07
325.562	2.07
326.015	2.06
326.468	2.06
326.921	2.05
327.374	2.06
327.827	2.06
328.28	2.05
328.733	2.05
329.186	2.05
329.639	2.04
330.092	2.04
330.545	2.04
330.997	2.05
331.45	2.05
331.903	2.04
332.355	2.03
332.808	2.03
333.26	2.04
333.713	2.05
334.165	2.05
334.617	2.06
335.069	2.06
335.522	2.07
335.974	2.07
336.426	2.08
336.878	2.08
337.33	2.09
337.782	2.09
338.234	2.09
338.686	2.09
339.137	2.09
339.589	2.09
340.041	2.08
340.493	2.06
340.944	2.06
341.396	2.04
341.847	2.04
342.299	2.02
342.75	2
343.201	2
343.653	1.98
344.104	1.98
344.555	1.97
345.006	1.96
345.457	1.95
345.908	1.95
346.359	1.95
346.81	1.95
347.261	1.95
347.712	1.96
348.163	1.95
348.613	1.95
349.064	1.92
349.515	1.92
349.965	1.91
350.416	1.91
350.866	1.91
351.317	1.9
351.767	1.91
352.217	1.9
352.668	1.9
353.118	1.91
353.568	1.92
354.018	1.93
354.468	1.93
354.918	1.95
355.368	1.96
355.818	1.95
356.268	1.96
356.718	1.96
357.168	1.96
357.617	1.96
358.067	1.96
358.517	1.97
358.966	1.99
359.416	2.01
359.865	2.01
360.315	2.03
360.764	2.04
361.213	2.05
361.663	2.06
362.112	2.09
362.561	2.1
363.01	2.12
363.459	2.12
363.908	2.12
364.357	2.14
364.806	2.15
365.255	2.17
365.703	2.19
366.152	2.21
366.601	2.23
367.05	2.25
367.498	2.26
367.947	2.3
368.395	2.33
368.844	2.35
369.292	2.37
369.74	2.4
370.189	2.43
370.637	2.46
371.085	2.48
371.533	2.51
371.981	2.53
372.429	2.55
372.877	2.57
373.325	2.59
373.773	2.61
374.221	2.64
374.669	2.66
375.116	2.68
375.564	2.7
376.012	2.73
376.459	2.75
376.907	2.78
377.354	2.82
377.801	2.84
378.249	2.88
378.696	2.92
379.143	2.94
379.591	2.97
380.038	3
380.485	3.04
380.932	3.07
381.379	3.09
381.826	3.12
382.273	3.14
382.72	3.17
383.166	3.2
383.613	3.23
384.06	3.26
384.506	3.29
384.953	3.3
385.4	3.32
385.846	3.33
386.292	3.36
386.739	3.38
387.185	3.41
387.631	3.43
388.078	3.45
388.524	3.45
388.97	3.47
389.416	3.48
389.862	3.49
390.308	3.51
390.754	3.53
391.2	3.55
391.645	3.57
392.091	3.58
392.537	3.59
392.983	3.6
393.428	3.62
393.874	3.63
394.319	3.64
394.765	3.64
395.21	3.64
395.655	3.64
396.101	3.65
396.546	3.64
396.991	3.64
397.436	3.63
397.881	3.64
398.326	3.66
398.771	3.67
399.216	3.69
399.661	3.72
400.106	3.74
400.551	3.73
400.995	3.72
401.44	3.72
401.885	3.72
402.329	3.73
402.774	3.71
403.218	3.7
403.663	3.69
404.107	3.66
404.551	3.66
404.995	3.64
405.44	3.64
405.884	3.63
406.328	3.62
406.772	3.63
407.216	3.62
407.66	3.64
408.104	3.65
408.547	3.64
408.991	3.64
409.435	3.63
409.879	3.64
410.322	3.65
410.766	3.65
411.209	3.66
411.653	3.64
412.096	3.64
412.54	3.63
412.983	3.63
413.426	3.63
413.869	3.65
414.312	3.67
414.756	3.67
415.199	3.67
415.642	3.7
416.085	3.7
416.527	3.74
416.97	3.75
417.413	3.74
417.856	3.74
418.298	3.73
418.741	3.72
419.184	3.72
419.626	3.71
420.069	3.71
420.511	3.71
420.953	3.7
421.396	3.69
421.838	3.69
422.28	3.71
422.722	3.73
423.164	3.75
423.606	3.75
424.048	3.75
424.49	3.75
424.932	3.75
425.374	3.74
425.816	3.74
426.258	3.72
426.699	3.7
427.141	3.67
427.582	3.66
428.024	3.66
428.465	3.66
428.907	3.67
429.348	3.67
429.789	3.67
430.231	3.66
430.672	3.66
431.113	3.67
431.554	3.69
431.995	3.72
432.436	3.71
432.877	3.71
433.318	3.7
433.759	3.68
434.2	3.7
434.64	3.71
435.081	3.72
435.522	3.76
435.962	3.78
436.403	3.8
436.843	3.79
437.284	3.82
437.724	3.85
438.164	3.86
438.604	3.92
439.045	3.91
439.485	3.91
439.925	3.93
440.365	3.89
440.805	3.89
441.245	3.87
441.685	3.87
442.125	3.86
442.564	3.85
443.004	3.86
443.444	3.85
443.883	3.87
444.323	3.86
444.762	3.89
445.202	3.94
445.641	3.93
446.081	3.97
446.52	3.98
446.959	4
447.398	4.03
447.837	4.05
448.276	4.05
448.716	4.04
449.154	4.07
449.593	4.07
450.032	4.06
450.471	4.09
450.91	4.08
451.349	4.09
451.787	4.08
452.226	4.06
452.664	4.04
453.103	4.04
453.541	4.03
453.98	4
454.418	3.98
454.856	3.94
455.295	3.91
455.733	3.88
456.171	3.86
456.609	3.84
457.047	3.83
457.485	3.82
457.923	3.8
458.361	3.79
458.798	3.8
459.236	3.8
459.674	3.81
460.111	3.82
460.549	3.82
460.987	3.81
461.424	3.81
461.862	3.8
462.299	3.81
462.736	3.81
463.173	3.81
463.611	3.8
464.048	3.81
464.485	3.79
464.922	3.77
465.359	3.78
465.796	3.77
466.233	3.78
466.67	3.79
467.106	3.78
467.543	3.79
467.98	3.79
468.416	3.8
468.853	3.8
469.29	3.82
469.726	3.83
470.162	3.83
470.599	3.84
471.035	3.85
471.471	3.83
471.907	3.85
472.344	3.83
472.78	3.83
473.216	3.82
473.652	3.81
474.088	3.8
474.523	3.79
474.959	3.77
475.395	3.77
475.831	3.76
476.266	3.75
476.702	3.74
477.138	3.74
477.573	3.72
478.008	3.72
478.444	3.7
478.879	3.71
479.314	3.7
479.75	3.7
480.185	3.69
480.62	3.68
481.055	3.67
481.49	3.66
481.925	3.65
482.36	3.64
482.795	3.62
483.229	3.63
483.664	3.62
484.099	3.61
484.534	3.6
484.968	3.6
485.403	3.59
485.837	3.58
486.271	3.59
486.706	3.58
487.14	3.6
487.574	3.6
488.009	3.61
488.443	3.61
488.877	3.62
489.311	3.62
489.745	3.64
490.179	3.64
490.613	3.66
491.046	3.67
491.48	3.69
491.914	3.7
492.348	3.72
492.781	3.73
493.215	3.74
493.648	3.77
494.082	3.81
494.515	3.83
494.948	3.86
495.382	3.88
495.815	3.93
496.248	3.96
496.681	3.99
497.114	4.04
497.547	4.08
497.98	4.13
498.413	4.17
498.846	4.22
499.279	4.26
499.711	4.31
500.144	4.37
500.577	4.42
501.009	4.49
501.442	4.56
501.874	4.61
502.306	4.69
502.739	4.75
503.171	4.83
503.603	4.91
504.036	5
504.468	5.1
504.9	5.2
505.332	5.3
505.764	5.41
506.196	5.51
506.627	5.63
507.059	5.74
507.491	5.87
507.923	5.99
508.354	6.11
508.786	6.25
509.217	6.36
509.649	6.5
510.08	6.65
510.512	6.79
510.943	6.94
511.374	7.08
511.805	7.23
512.237	7.39
512.668	7.56
513.099	7.73
513.53	7.9
513.961	8.09
514.391	8.26
514.822	8.43
515.253	8.6
515.684	8.78
516.114	8.98
516.545	9.16
516.975	9.35
517.406	9.54
517.836	9.72
518.267	9.9
518.697	10.09
519.127	10.28
519.558	10.46
519.988	10.66
520.418	10.84
520.848	11.03
521.278	11.22
521.708	11.39
522.138	11.56
522.567	11.72
522.997	11.88
523.427	12.03
523.857	12.19
524.286	12.35
524.716	12.49
525.145	12.65
525.575	12.77
526.004	12.92
526.433	13.06
526.863	13.19
527.292	13.32
527.721	13.46
528.15	13.57
528.579	13.69
529.008	13.8
529.437	13.92
529.866	14.01
530.295	14.12
530.724	14.22
531.152	14.32
531.581	14.4
532.01	14.48
532.438	14.54
532.867	14.62
533.295	14.7
533.723	14.77
534.152	14.81
534.58	14.86
535.008	14.92
535.436	14.95
535.865	14.97
536.293	15.01
536.721	15.06
537.149	15.1
537.576	15.13
538.004	15.16
538.432	15.18
538.86	15.22
539.287	15.24
539.715	15.26
540.143	15.28
540.57	15.31
540.998	15.34
541.425	15.35
541.852	15.37
542.28	15.38
542.707	15.39
543.134	15.41
543.561	15.41
543.988	15.42
544.415	15.44
544.842	15.46
545.269	15.48
545.696	15.49
546.123	15.49
546.549	15.51
546.976	15.54
547.403	15.55
547.829	15.58
548.256	15.61
548.682	15.63
549.108	15.64
549.535	15.65
549.961	15.66
550.387	15.67
550.813	15.68
551.24	15.7
551.666	15.69
552.092	15.68
552.518	15.67
552.943	15.66
553.369	15.66
553.795	15.64
554.221	15.62
554.646	15.6
555.072	15.58
555.498	15.55
555.923	15.52
556.349	15.47
556.774	15.44
557.199	15.41
557.625	15.37
558.05	15.31
558.475	15.25
558.9	15.2
559.325	15.13
559.75	15.08
560.175	15.01
560.6	14.92
561.025	14.85
561.449	14.79
561.874	14.69
562.299	14.6
562.723	14.53
563.148	14.44
563.572	14.37
563.997	14.27
564.421	14.16
564.846	14.08
565.27	13.98
565.694	13.89
566.118	13.78
566.542	13.69
566.966	13.59
567.39	13.47
567.814	13.38
568.238	13.25
568.662	13.14
569.086	13.02
569.509	12.9
569.933	12.78
570.357	12.66
570.78	12.55
571.204	12.42
571.627	12.31
572.05	12.21
572.474	12.09
572.897	12
573.32	11.89
573.743	11.81
574.166	11.72
574.589	11.64
575.012	11.58
575.435	11.5
575.858	11.44
576.281	11.38
576.704	11.3
577.126	11.22
577.549	11.16
577.972	11.11
578.394	11.04
578.817	10.99
579.239	10.92
579.661	10.86
580.084	10.81
580.506	10.76
580.928	10.69
581.35	10.64
581.772	10.61
582.194	10.56
582.616	10.51
583.038	10.46
583.46	10.41
583.882	10.38
584.303	10.34
584.725	10.29
585.147	10.22
585.568	10.19
585.99	10.17
586.411	10.13
586.833	10.1
587.254	10.07
587.675	10.05
588.096	10.02
588.518	9.98
588.939	9.95
589.36	9.93
589.781	9.93
590.202	9.9
590.623	9.85
591.043	9.81
591.464	9.78
591.885	9.75
592.305	9.73
592.726	9.7
593.147	9.69
593.567	9.67
593.987	9.64
594.408	9.61
594.828	9.59
595.248	9.57
595.669	9.57
596.089	9.55
596.509	9.51
596.929	9.47
597.349	9.44
597.769	9.41
598.189	9.39
598.608	9.36
599.028	9.33
599.448	9.3
599.867	9.27
600.287	9.22
600.706	9.18
601.126	9.14
601.545	9.11
601.965	9.06
602.384	9.02
602.803	8.97
603.222	8.92
603.641	8.88
604.061	8.83
604.48	8.79
604.898	8.76
605.317	8.71
605.736	8.67
606.155	8.62
606.574	8.6
606.992	8.55
607.411	8.52
607.829	8.44
608.248	8.4
608.666	8.35
609.085	8.3
609.503	8.24
609.921	8.19
610.339	8.13
610.758	8.09
611.176	8.03
611.594	7.99
612.012	7.92
612.43	7.93
612.847	7.87
613.265	7.83
613.683	7.78
614.101	7.73
614.518	7.69
614.936	7.65
615.353	7.61
615.771	7.57
616.188	7.52
616.606	7.49
617.023	7.44
617.44	7.4
617.857	7.37
618.274	7.34
618.691	7.32
619.108	7.29
619.525	7.25
619.942	7.24
620.359	7.22
620.776	7.19
621.192	7.18
621.609	7.15
622.026	7.14
622.442	7.12
622.859	7.09
623.275	7.1
623.691	7.08
624.108	7.08
624.524	7.06
624.94	7.05
625.356	7.04
625.772	7.03
626.188	7.03
626.604	7.01
627.02	7.02
627.436	7.02
627.852	7.01
628.268	7
628.683	6.99
629.099	6.99
629.514	6.98
629.93	6.97
630.345	6.94
630.761	6.92
631.176	6.9
631.591	6.87
632.007	6.84
632.422	6.8
632.837	6.77
633.252	6.74
633.667	6.7
634.082	6.67
634.497	6.61
634.911	6.57
635.326	6.53
635.741	6.48
636.155	6.43
636.57	6.39
636.984	6.34
637.399	6.28
637.813	6.22
638.228	6.16
638.642	6.1
639.056	6.04
639.47	5.98
639.884	5.91
640.298	5.85
640.712	5.79
641.126	5.72
641.54	5.64
641.954	5.6
642.368	5.52
642.781	5.46
643.195	5.39
643.609	5.33
644.022	5.28
644.436	5.23
644.849	5.18
645.262	5.14
645.676	5.09
646.089	5.04
646.502	4.98
646.915	4.95
647.328	4.9
647.741	4.87
648.154	4.83
648.567	4.8
648.98	4.76
649.393	4.74
649.805	4.69
650.218	4.66
650.631	4.64
651.043	4.62
651.456	4.59
651.868	4.57
652.28	4.55
652.693	4.52
653.105	4.5
653.517	4.48
653.929	4.46
654.341	4.44
654.753	4.4
655.165	4.37
655.577	4.34
655.989	4.3
656.401	4.27
656.813	4.22
657.224	4.2
657.636	4.16
658.047	4.13
658.459	4.07
658.87	4.01
659.282	3.99
659.693	3.94
660.104	3.89
660.515	3.85
660.926	3.81
661.338	3.78
661.749	3.74
662.159	3.68
662.57	3.64
662.981	3.62
663.392	3.59
663.803	3.57
664.213	3.55
664.624	3.54
665.035	3.52
665.445	3.49
665.855	3.47
666.266	3.47
666.676	3.47
667.086	3.46
667.497	3.44
667.907	3.42
668.317	3.4
668.727	3.38
669.137	3.36
669.547	3.37
669.956	3.37
670.366	3.38
670.776	3.36
671.186	3.36
671.595	3.37
672.005	3.39
672.414	3.4
672.824	3.42
673.233	3.45
673.642	3.45
674.052	3.45
674.461	3.45
674.87	3.46
675.279	3.47
675.688	3.48
676.097	3.49
676.506	3.51
676.915	3.54
677.323	3.55
677.732	3.58
678.141	3.62
678.549	3.66
678.958	3.7
679.366	3.73
679.775	3.78
680.183	3.82
680.592	3.86
681	3.9
681.408	3.94
681.816	3.98
682.224	4.04
682.632	4.1
683.04	4.17
683.448	4.23
683.856	4.32
684.264	4.43
684.671	4.53
685.079	4.64
685.487	4.77
685.894	4.9
686.302	5.06
686.709	5.22
687.116	5.39
687.524	5.57
687.931	5.77
688.338	5.99
688.745	6.21
689.152	6.47
689.559	6.74
689.966	7
690.373	7.31
690.78	7.62
691.187	7.93
691.593	8.25
692	8.6
692.407	8.94
692.813	9.3
693.22	9.66
693.626	10.02
694.032	10.4
694.439	10.79
694.845	11.17
695.251	11.56
695.657	11.95
696.063	12.34
696.469	12.73
696.875	13.12
697.281	13.51
697.687	13.9
698.093	14.29
698.498	14.68
698.904	15.06
699.31	15.44
699.715	15.8
700.12	16.17
700.526	16.56
700.931	16.92
701.337	17.27
701.742	17.63
702.147	17.98
702.552	18.34
702.957	18.7
703.362	19.04
703.767	19.36
704.172	19.7
704.577	20
704.981	20.31
705.386	20.64
705.791	20.95
706.195	21.27
706.6	21.57
707.004	21.86
707.408	22.14
707.813	22.43
708.217	22.7
708.621	22.99
709.025	23.29
709.43	23.56
709.834	23.84
710.237	24.09
710.641	24.36
711.045	24.59
711.449	24.82
711.853	25.07
712.256	25.31
712.66	25.56
713.064	25.78
713.467	26.03
713.87	26.25
714.274	26.48
714.677	26.7
715.08	26.9
715.484	27.13
715.887	27.35
716.29	27.56
716.693	27.76
717.096	27.97
717.499	28.18
717.901	28.36
718.304	28.58
718.707	28.77
719.109	28.97
719.512	29.18
719.915	29.36
720.317	29.54
720.719	29.73
721.122	29.92
721.524	30.08
721.926	30.24
722.328	30.42
722.731	30.55
723.133	30.69
723.535	30.84
723.937	30.96
724.338	31.09
724.74	31.21
725.142	31.25
725.544	31.35
725.945	31.45
726.347	31.58
726.748	31.64
727.15	31.74
727.551	31.85
727.952	31.96
728.354	32.08
728.755	32.19
729.156	32.3
729.557	32.47
729.958	32.61
730.359	32.71
730.76	32.77
731.161	32.89
731.562	32.99
731.962	33.07
732.363	33.11
732.763	33.18
733.164	33.26
733.564	33.28
733.965	33.33
734.365	33.34
734.766	33.4
735.166	33.47
735.566	33.48
735.966	33.52
736.366	33.54
736.766	33.61
737.166	33.65
737.566	33.67
737.966	33.75
738.365	33.78
738.765	33.83
739.165	33.86
739.564	33.89
739.964	33.94
740.363	33.98
740.763	34.03
741.162	34.05
741.561	34.09
741.96	34.14
742.36	34.18
742.759	34.2
743.158	34.22
743.557	34.26
743.955	34.3
744.354	34.35
744.753	34.39
745.152	34.42
745.55	34.43
745.949	34.45
746.348	34.46
746.746	34.46
747.144	34.5
747.543	34.53
747.941	34.54
748.339	34.59
748.737	34.59
749.136	34.58
749.534	34.6
749.932	34.63
750.33	34.64
750.727	34.66
751.125	34.68
751.523	34.67
751.921	34.7
752.318	34.69
752.716	34.66
753.113	34.65
753.511	34.65
753.908	34.65
754.305	34.62
754.703	34.6
755.1	34.56
755.497	34.55
755.894	34.54
756.291	34.48
756.688	34.46
757.085	34.44
757.482	34.43
757.878	34.41
758.275	34.39
758.672	34.39
759.068	34.38
759.465	34.41
759.861	34.38
760.258	34.37
760.654	34.39
761.05	34.41
761.447	34.41
761.843	34.41
762.239	34.4
762.635	34.41
763.031	34.41
763.427	34.41
763.822	34.4
764.218	34.42
764.614	34.42
765.01	34.44
765.405	34.42
765.801	34.43
766.196	34.45
766.592	34.48
766.987	34.47
767.382	34.49
767.778	34.51
768.173	34.5
768.568	34.49
768.963	34.52
769.358	34.53
769.753	34.57
770.148	34.58
770.542	34.58
770.937	34.57
771.332	34.56
771.726	34.56
772.121	34.53
772.515	34.55
772.91	34.57
773.304	34.54
773.699	34.53
774.093	34.5
774.487	34.52
774.881	34.53
775.275	34.54
775.669	34.56
776.063	34.56
776.457	34.57
776.851	34.58
777.245	34.58
777.638	34.61
778.032	34.63
778.425	34.64
778.819	34.63
779.212	34.61
779.606	34.59
779.999	34.58
780.392	34.59
780.786	34.61
781.179	34.61
781.572	34.58
781.965	34.57
782.358	34.56
782.751	34.57
783.143	34.55
783.536	34.58
783.929	34.63
784.322	34.64
784.714	34.67
785.107	34.68
785.499	34.67
785.891	34.68
786.284	34.69
786.676	34.7
