Data from N_3_ofc_oh_4n_Splice17_05.txt Node
Date: Sat Feb 29 15:06:03 EST 2020
User: sa697716
Spectrometer: FLMS03696
Trigger mode: 0
Integration Time (sec): 3.180400E-1
Scans to average: 20
Electric dark correction enabled: true
Nonlinearity correction enabled: true
Boxcar width: 5
XAxis mode: Wavelengths
Number of Pixels in Spectrum: 2048
>>>>>Begin Spectral Data<<<<<
187.83	121.16
188.298	116.64
188.766	105.63
189.233	107.31
189.701	108.17
190.169	115.56
190.636	108.37
191.104	117.21
191.571	318.68
192.039	175.15
192.506	-250.96
192.974	-2213.99
193.441	524.73
193.908	-26.63
194.375	-5.34
194.842	58.48
195.31	18.56
195.777	-22.35
196.244	71.85
196.711	92.99
197.177	92.61
197.644	94.88
198.111	94.76
198.578	95.79
199.045	97.78
199.511	97.65
199.978	97.85
200.445	98.33
200.911	98.59
201.378	98.89
201.844	99.88
202.31	101.01
202.777	101.15
203.243	102.02
203.709	101.75
204.176	100.83
204.642	100.26
205.108	99.81
205.574	99.62
206.04	99.21
206.506	98.24
206.972	97.12
207.438	96.13
207.903	94.88
208.369	93.07
208.835	91.97
209.301	90.84
209.766	89.34
210.232	87.93
210.697	86.56
211.163	84.93
211.628	83.49
212.094	81.88
212.559	80.38
213.024	78.68
213.49	77.22
213.955	75.2
214.42	73.33
214.885	70.88
215.35	68.27
215.815	64.81
216.28	61.13
216.745	56.76
217.21	52.44
217.675	48.16
218.14	44.33
218.604	40.94
219.069	38.18
219.534	35.75
219.998	33.82
220.463	32.02
220.927	30.59
221.392	29.28
221.856	28.27
222.32	27.33
222.785	26.53
223.249	25.89
223.713	25.31
224.177	24.7
224.642	24.13
225.106	23.62
225.57	23.15
226.034	22.71
226.497	22.26
226.961	21.81
227.425	21.38
227.889	21.02
228.353	20.65
228.816	20.29
229.28	19.92
229.744	19.63
230.207	19.31
230.671	19.01
231.134	18.68
231.597	18.41
232.061	18.16
232.524	17.93
232.987	17.68
233.45	17.41
233.914	17.17
234.377	16.94
234.84	16.72
235.303	16.53
235.766	16.34
236.229	16.16
236.691	15.98
237.154	15.82
237.617	15.65
238.08	15.48
238.542	15.33
239.005	15.21
239.468	15.08
239.93	14.94
240.393	14.79
240.855	14.62
241.317	14.49
241.78	14.36
242.242	14.22
242.704	14.09
243.166	13.96
243.629	13.84
244.091	13.7
244.553	13.55
245.015	13.43
245.477	13.3
245.939	13.19
246.4	13.07
246.862	12.94
247.324	12.84
247.786	12.72
248.247	12.61
248.709	12.49
249.17	12.38
249.632	12.27
250.093	12.15
250.555	12.06
251.016	11.96
251.477	11.86
251.939	11.77
252.4	11.67
252.861	11.58
253.322	11.49
253.783	11.42
254.244	11.34
254.705	11.27
255.166	11.21
255.627	11.14
256.088	11.06
256.549	10.99
257.009	10.91
257.47	10.84
257.931	10.77
258.391	10.69
258.852	10.61
259.312	10.54
259.773	10.47
260.233	10.39
260.694	10.31
261.154	10.23
261.614	10.16
262.074	10.1
262.534	10.02
262.994	9.95
263.455	9.89
263.915	9.83
264.374	9.77
264.834	9.71
265.294	9.65
265.754	9.6
266.214	9.54
266.673	9.5
267.133	9.46
267.593	9.42
268.052	9.38
268.512	9.34
268.971	9.29
269.431	9.25
269.89	9.22
270.349	9.19
270.809	9.16
271.268	9.13
271.727	9.11
272.186	9.08
272.645	9.05
273.104	9.02
273.563	8.99
274.022	8.97
274.481	8.95
274.94	8.92
275.399	8.9
275.857	8.87
276.316	8.83
276.775	8.8
277.233	8.77
277.692	8.74
278.15	8.7
278.609	8.67
279.067	8.64
279.525	8.62
279.984	8.59
280.442	8.57
280.9	8.56
281.358	8.54
281.816	8.52
282.274	8.5
282.732	8.49
283.19	8.48
283.648	8.47
284.106	8.46
284.564	8.45
285.021	8.44
285.479	8.44
285.937	8.43
286.394	8.42
286.852	8.4
287.309	8.39
287.767	8.37
288.224	8.35
288.682	8.32
289.139	8.29
289.596	8.26
290.053	8.22
290.511	8.17
290.968	8.12
291.425	8.08
291.882	8.05
292.339	8
292.796	7.95
293.252	7.9
293.709	7.87
294.166	7.84
294.623	7.81
295.079	7.78
295.536	7.75
295.992	7.73
296.449	7.71
296.905	7.68
297.362	7.66
297.818	7.65
298.274	7.64
298.731	7.62
299.187	7.6
299.643	7.58
300.099	7.57
300.555	7.55
301.011	7.53
301.467	7.51
301.923	7.5
302.379	7.49
302.835	7.48
303.291	7.46
303.746	7.45
304.202	7.43
304.658	7.42
305.113	7.41
305.569	7.4
306.024	7.4
306.479	7.39
306.935	7.39
307.39	7.39
307.845	7.39
308.301	7.39
308.756	7.39
309.211	7.4
309.666	7.41
310.121	7.41
310.576	7.41
311.031	7.42
311.486	7.42
311.94	7.42
312.395	7.41
312.85	7.41
313.305	7.41
313.759	7.4
314.214	7.4
314.668	7.39
315.123	7.39
315.577	7.38
316.032	7.37
316.486	7.36
316.94	7.35
317.394	7.33
317.849	7.31
318.303	7.29
318.757	7.27
319.211	7.24
319.665	7.22
320.119	7.2
320.572	7.18
321.026	7.17
321.48	7.15
321.934	7.15
322.387	7.13
322.841	7.11
323.295	7.11
323.748	7.11
324.202	7.1
324.655	7.09
325.108	7.07
325.562	7.05
326.015	7.04
326.468	7.02
326.921	7.01
327.374	7
327.827	7
328.28	6.98
328.733	6.96
329.186	6.96
329.639	6.95
330.092	6.94
330.545	6.95
330.997	6.95
331.45	6.96
331.903	6.96
332.355	6.96
332.808	6.97
333.26	6.98
333.713	7.01
334.165	7.02
334.617	7.03
335.069	7.05
335.522	7.06
335.974	7.07
336.426	7.08
336.878	7.08
337.33	7.08
337.782	7.1
338.234	7.1
338.686	7.1
339.137	7.1
339.589	7.1
340.041	7.09
340.493	7.06
340.944	7.05
341.396	7.04
341.847	7.01
342.299	6.98
342.75	6.95
343.201	6.93
343.653	6.9
344.104	6.88
344.555	6.85
345.006	6.82
345.457	6.82
345.908	6.8
346.359	6.79
346.81	6.78
347.261	6.78
347.712	6.77
348.163	6.76
348.613	6.75
349.064	6.73
349.515	6.72
349.965	6.73
350.416	6.72
350.866	6.72
351.317	6.72
351.767	6.72
352.217	6.73
352.668	6.73
353.118	6.74
353.568	6.76
354.018	6.78
354.468	6.78
354.918	6.78
355.368	6.78
355.818	6.79
356.268	6.79
356.718	6.78
357.168	6.77
357.617	6.77
358.067	6.75
358.517	6.74
358.966	6.74
359.416	6.74
359.865	6.75
360.315	6.74
360.764	6.75
361.213	6.76
361.663	6.78
362.112	6.79
362.561	6.79
363.01	6.8
363.459	6.79
363.908	6.8
364.357	6.81
364.806	6.8
365.255	6.81
365.703	6.81
366.152	6.8
366.601	6.79
367.05	6.78
367.498	6.79
367.947	6.79
368.395	6.8
368.844	6.79
369.292	6.78
369.74	6.79
370.189	6.8
370.637	6.8
371.085	6.79
371.533	6.8
371.981	6.8
372.429	6.8
372.877	6.8
373.325	6.79
373.773	6.8
374.221	6.8
374.669	6.8
375.116	6.78
375.564	6.77
376.012	6.79
376.459	6.8
376.907	6.82
377.354	6.83
377.801	6.85
378.249	6.86
378.696	6.87
379.143	6.89
379.591	6.9
380.038	6.93
380.485	6.96
380.932	6.96
381.379	6.96
381.826	6.97
382.273	6.98
382.72	6.99
383.166	6.99
383.613	7
384.06	7.02
384.506	7.02
384.953	7.03
385.4	7.04
385.846	7.05
386.292	7.07
386.739	7.08
387.185	7.11
387.631	7.13
388.078	7.17
388.524	7.18
388.97	7.19
389.416	7.2
389.862	7.21
390.308	7.23
390.754	7.27
391.2	7.3
391.645	7.32
392.091	7.34
392.537	7.37
392.983	7.39
393.428	7.43
393.874	7.47
394.319	7.5
394.765	7.53
395.21	7.55
395.655	7.56
396.101	7.58
396.546	7.61
396.991	7.62
397.436	7.63
397.881	7.66
398.326	7.69
398.771	7.72
399.216	7.76
399.661	7.79
400.106	7.83
400.551	7.84
400.995	7.84
401.44	7.84
401.885	7.85
402.329	7.86
402.774	7.86
403.218	7.87
403.663	7.87
404.107	7.87
404.551	7.89
404.995	7.88
405.44	7.9
405.884	7.91
406.328	7.93
406.772	7.96
407.216	7.98
407.66	8
408.104	8
408.547	8.01
408.991	8.01
409.435	8.01
409.879	8.02
410.322	8.05
410.766	8.07
411.209	8.1
411.653	8.08
412.096	8.1
412.54	8.11
412.983	8.13
413.426	8.16
413.869	8.21
414.312	8.25
414.756	8.28
415.199	8.29
415.642	8.33
416.085	8.35
416.527	8.39
416.97	8.39
417.413	8.39
417.856	8.38
418.298	8.35
418.741	8.34
419.184	8.32
419.626	8.33
420.069	8.32
420.511	8.3
420.953	8.28
421.396	8.3
421.838	8.31
422.28	8.35
422.722	8.37
423.164	8.4
423.606	8.43
424.048	8.44
424.49	8.45
424.932	8.47
425.374	8.46
425.816	8.45
426.258	8.43
426.699	8.4
427.141	8.37
427.582	8.37
428.024	8.38
428.465	8.38
428.907	8.41
429.348	8.41
429.789	8.41
430.231	8.42
430.672	8.47
431.113	8.5
431.554	8.54
431.995	8.59
432.436	8.6
432.877	8.59
433.318	8.59
433.759	8.61
434.2	8.64
434.64	8.68
435.081	8.69
435.522	8.71
435.962	8.74
436.403	8.78
436.843	8.79
437.284	8.83
437.724	8.87
438.164	8.91
438.604	8.94
439.045	8.96
439.485	8.97
439.925	8.99
440.365	8.99
440.805	9
441.245	8.98
441.685	9.01
442.125	9.04
442.564	9.05
443.004	9.08
443.444	9.1
443.883	9.13
444.323	9.16
444.762	9.22
445.202	9.28
445.641	9.31
446.081	9.36
446.52	9.37
446.959	9.41
447.398	9.47
447.837	9.52
448.276	9.52
448.716	9.56
449.154	9.6
449.593	9.62
450.032	9.62
450.471	9.67
450.91	9.67
451.349	9.69
451.787	9.68
452.226	9.65
452.664	9.63
453.103	9.62
453.541	9.62
453.98	9.58
454.418	9.55
454.856	9.53
455.295	9.5
455.733	9.49
456.171	9.47
456.609	9.47
457.047	9.45
457.485	9.43
457.923	9.44
458.361	9.42
458.798	9.43
459.236	9.42
459.674	9.41
460.111	9.41
460.549	9.39
460.987	9.39
461.424	9.36
461.862	9.37
462.299	9.35
462.736	9.34
463.173	9.33
463.611	9.31
464.048	9.33
464.485	9.33
464.922	9.31
465.359	9.34
465.796	9.33
466.233	9.35
466.67	9.37
467.106	9.39
467.543	9.39
467.98	9.4
468.416	9.42
468.853	9.41
469.29	9.43
469.726	9.46
470.162	9.46
470.599	9.47
471.035	9.47
471.471	9.45
471.907	9.45
472.344	9.46
472.78	9.46
473.216	9.46
473.652	9.46
474.088	9.44
474.523	9.45
474.959	9.43
475.395	9.42
475.831	9.41
476.266	9.4
476.702	9.39
477.138	9.36
477.573	9.35
478.008	9.34
478.444	9.31
478.879	9.3
479.314	9.27
479.75	9.27
480.185	9.27
480.62	9.25
481.055	9.25
481.49	9.23
481.925	9.21
482.36	9.2
482.795	9.18
483.229	9.17
483.664	9.16
484.099	9.15
484.534	9.14
484.968	9.12
485.403	9.12
485.837	9.11
486.271	9.11
486.706	9.12
487.14	9.12
487.574	9.12
488.009	9.13
488.443	9.13
488.877	9.15
489.311	9.17
489.745	9.19
490.179	9.22
490.613	9.24
491.046	9.27
491.48	9.31
491.914	9.34
492.348	9.36
492.781	9.42
493.215	9.46
493.648	9.5
494.082	9.55
494.515	9.6
494.948	9.65
495.382	9.72
495.815	9.78
496.248	9.85
496.681	9.92
497.114	10
497.547	10.08
497.98	10.17
498.413	10.26
498.846	10.34
499.279	10.44
499.711	10.54
500.144	10.64
500.577	10.75
501.009	10.85
501.442	10.99
501.874	11.12
502.306	11.25
502.739	11.38
503.171	11.52
503.603	11.68
504.036	11.85
504.468	12.03
504.9	12.22
505.332	12.41
505.764	12.62
506.196	12.84
506.627	13.06
507.059	13.31
507.491	13.56
507.923	13.82
508.354	14.09
508.786	14.37
509.217	14.65
509.649	14.94
510.08	15.25
510.512	15.55
510.943	15.89
511.374	16.21
511.805	16.51
512.237	16.85
512.668	17.18
513.099	17.56
513.53	17.92
513.961	18.28
514.391	18.64
514.822	19.04
515.253	19.42
515.684	19.79
516.114	20.19
516.545	20.6
516.975	21.02
517.406	21.43
517.836	21.83
518.267	22.25
518.697	22.69
519.127	23.12
519.558	23.53
519.988	23.96
520.418	24.37
520.848	24.78
521.278	25.2
521.708	25.63
522.138	26.03
522.567	26.42
522.997	26.79
523.427	27.15
523.857	27.5
524.286	27.86
524.716	28.21
525.145	28.55
525.575	28.89
526.004	29.22
526.433	29.51
526.863	29.84
527.292	30.14
527.721	30.43
528.15	30.71
528.579	30.98
529.008	31.24
529.437	31.48
529.866	31.72
530.295	31.94
530.724	32.18
531.152	32.38
531.581	32.55
532.01	32.73
532.438	32.91
532.867	33.08
533.295	33.24
533.723	33.39
534.152	33.54
534.58	33.68
535.008	33.77
535.436	33.84
535.865	33.93
536.293	34.05
536.721	34.13
537.149	34.22
537.576	34.3
538.004	34.39
538.432	34.45
538.86	34.51
539.287	34.56
539.715	34.66
540.143	34.74
540.57	34.82
540.998	34.86
541.425	34.92
541.852	34.98
542.28	35.01
542.707	35.04
543.134	35.12
543.561	35.15
543.988	35.21
544.415	35.25
544.842	35.28
545.269	35.34
545.696	35.41
546.123	35.44
546.549	35.49
546.976	35.55
547.403	35.59
547.829	35.61
548.256	35.67
548.682	35.69
549.108	35.74
549.535	35.79
549.961	35.8
550.387	35.81
550.813	35.82
551.24	35.83
551.666	35.86
552.092	35.87
552.518	35.88
552.943	35.87
553.369	35.88
553.795	35.86
554.221	35.85
554.646	35.82
555.072	35.8
555.498	35.77
555.923	35.74
556.349	35.65
556.774	35.57
557.199	35.49
557.625	35.4
558.05	35.28
558.475	35.18
558.9	35.06
559.325	34.95
559.75	34.81
560.175	34.68
560.6	34.53
561.025	34.4
561.449	34.25
561.874	34.09
562.299	33.92
562.723	33.75
563.148	33.56
563.572	33.38
563.997	33.17
564.421	32.97
564.846	32.75
565.27	32.53
565.694	32.3
566.118	32.09
566.542	31.87
566.966	31.65
567.39	31.4
567.814	31.16
568.238	30.91
568.662	30.65
569.086	30.41
569.509	30.17
569.933	29.93
570.357	29.69
570.78	29.45
571.204	29.21
571.627	28.97
572.05	28.76
572.474	28.54
572.897	28.34
573.32	28.15
573.743	27.95
574.166	27.77
574.589	27.57
575.012	27.43
575.435	27.25
575.858	27.08
576.281	26.93
576.704	26.77
577.126	26.63
577.549	26.49
577.972	26.36
578.394	26.22
578.817	26.09
579.239	25.98
579.661	25.85
580.084	25.74
580.506	25.61
580.928	25.5
581.35	25.41
581.772	25.3
582.194	25.18
582.616	25.08
583.038	24.97
583.46	24.86
583.882	24.76
584.303	24.67
584.725	24.58
585.147	24.48
585.568	24.37
585.99	24.25
586.411	24.16
586.833	24.09
587.254	24.01
587.675	23.93
588.096	23.84
588.518	23.76
588.939	23.66
589.36	23.57
589.781	23.51
590.202	23.46
590.623	23.39
591.043	23.32
591.464	23.24
591.885	23.17
592.305	23.1
592.726	23.05
593.147	23
593.567	22.94
593.987	22.87
594.408	22.81
594.828	22.76
595.248	22.71
595.669	22.66
596.089	22.6
596.509	22.52
596.929	22.47
597.349	22.4
597.769	22.34
598.189	22.28
598.608	22.22
599.028	22.16
599.448	22.11
599.867	22.04
600.287	21.97
600.706	21.92
601.126	21.87
601.545	21.81
601.965	21.74
602.384	21.67
602.803	21.6
603.222	21.52
603.641	21.44
604.061	21.34
604.48	21.26
604.898	21.18
605.317	21.09
605.736	21
606.155	20.91
606.574	20.82
606.992	20.72
607.411	20.63
607.829	20.5
608.248	20.4
608.666	20.31
609.085	20.21
609.503	20.12
609.921	20.02
610.339	19.92
610.758	19.82
611.176	19.72
611.594	19.63
612.012	19.52
612.43	19.46
612.847	19.35
613.265	19.26
613.683	19.16
614.101	19.04
614.518	18.96
614.936	18.87
615.353	18.77
615.771	18.66
616.188	18.59
616.606	18.52
617.023	18.44
617.44	18.37
617.857	18.29
618.274	18.23
618.691	18.18
619.108	18.1
619.525	18.05
619.942	18
620.359	17.96
620.776	17.91
621.192	17.86
621.609	17.81
622.026	17.77
622.442	17.75
622.859	17.71
623.275	17.7
623.691	17.67
624.108	17.65
624.524	17.63
624.94	17.61
625.356	17.58
625.772	17.57
626.188	17.57
626.604	17.55
627.02	17.52
627.436	17.48
627.852	17.44
628.268	17.42
628.683	17.38
629.099	17.37
629.514	17.34
629.93	17.3
630.345	17.23
630.761	17.17
631.176	17.12
631.591	17.07
632.007	17.01
632.422	16.94
632.837	16.85
633.252	16.77
633.667	16.65
634.082	16.54
634.497	16.44
634.911	16.33
635.326	16.18
635.741	16.04
636.155	15.9
636.57	15.76
636.984	15.6
637.399	15.43
637.813	15.24
638.228	15.07
638.642	14.92
639.056	14.73
639.47	14.56
639.884	14.38
640.298	14.2
640.712	14.02
641.126	13.84
641.54	13.68
641.954	13.53
642.368	13.38
642.781	13.23
643.195	13.05
643.609	12.9
644.022	12.76
644.436	12.65
644.849	12.53
645.262	12.39
645.676	12.28
646.089	12.16
646.502	12.05
646.915	11.96
647.328	11.87
647.741	11.79
648.154	11.73
648.567	11.67
648.98	11.61
649.393	11.55
649.805	11.5
650.218	11.47
650.631	11.43
651.043	11.4
651.456	11.35
651.868	11.31
652.28	11.28
652.693	11.23
653.105	11.18
653.517	11.12
653.929	11.07
654.341	11.03
654.753	10.97
655.165	10.91
655.577	10.83
655.989	10.77
656.401	10.68
656.813	10.6
657.224	10.53
657.636	10.45
658.047	10.36
658.459	10.26
658.87	10.17
659.282	10.09
659.693	10
660.104	9.92
660.515	9.82
660.926	9.75
661.338	9.67
661.749	9.59
662.159	9.5
662.57	9.44
662.981	9.38
663.392	9.29
663.803	9.22
664.213	9.16
664.624	9.1
665.035	9.04
665.445	8.98
665.855	8.94
666.266	8.9
666.676	8.86
667.086	8.82
667.497	8.77
667.907	8.75
668.317	8.72
668.727	8.69
669.137	8.67
669.547	8.65
669.956	8.64
670.366	8.62
670.776	8.6
671.186	8.58
671.595	8.57
672.005	8.59
672.414	8.59
672.824	8.59
673.233	8.61
673.642	8.6
674.052	8.6
674.461	8.6
674.87	8.62
675.279	8.64
675.688	8.65
676.097	8.68
676.506	8.7
676.915	8.72
677.323	8.75
677.732	8.8
678.141	8.85
678.549	8.92
678.958	8.99
679.366	9.07
679.775	9.15
680.183	9.26
680.592	9.35
681	9.45
681.408	9.56
681.816	9.7
682.224	9.83
682.632	10
683.04	10.17
683.448	10.36
683.856	10.57
684.264	10.8
684.671	11.07
685.079	11.36
685.487	11.7
685.894	12.08
686.302	12.46
686.709	12.88
687.116	13.32
687.524	13.82
687.931	14.34
688.338	14.91
688.745	15.51
689.152	16.15
689.559	16.81
689.966	17.49
690.373	18.23
690.78	19
691.187	19.79
691.593	20.59
692	21.43
692.407	22.29
692.813	23.16
693.22	24.02
693.626	24.91
694.032	25.83
694.439	26.75
694.845	27.67
695.251	28.57
695.657	29.49
696.063	30.42
696.469	31.33
696.875	32.23
697.281	33.13
697.687	34.04
698.093	34.92
698.498	35.78
698.904	36.65
699.31	37.48
699.715	38.33
700.12	39.15
700.526	40.01
700.931	40.84
701.337	41.64
701.742	42.41
702.147	43.18
702.552	43.95
702.957	44.72
703.362	45.49
703.767	46.24
704.172	46.98
704.577	47.69
704.981	48.36
705.386	49.03
705.791	49.74
706.195	50.37
706.6	51.02
707.004	51.65
707.408	52.26
707.813	52.85
708.217	53.42
708.621	53.99
709.025	54.57
709.43	55.13
709.834	55.7
710.237	56.24
710.641	56.85
711.045	57.37
711.449	57.89
711.853	58.42
712.256	58.93
712.66	59.45
713.064	59.93
713.467	60.41
713.87	60.9
714.274	61.37
714.677	61.8
715.08	62.22
715.484	62.71
715.887	63.18
716.29	63.61
716.693	63.99
717.096	64.44
717.499	64.9
717.901	65.24
718.304	65.61
718.707	65.96
719.109	66.33
719.512	66.71
719.915	67.05
720.317	67.4
720.719	67.71
721.122	68.05
721.524	68.37
721.926	68.69
722.328	69.06
722.731	69.4
723.133	69.71
723.535	70.04
723.937	70.31
724.338	70.56
724.74	70.79
725.142	71.03
725.544	71.28
725.945	71.49
726.347	71.72
726.748	71.88
727.15	72.07
727.551	72.3
727.952	72.46
728.354	72.67
728.755	72.85
729.156	73.06
729.557	73.33
729.958	73.55
730.359	73.72
730.76	73.88
731.161	74.07
731.562	74.21
731.962	74.32
732.363	74.49
732.763	74.62
733.164	74.73
733.564	74.85
733.965	74.91
734.365	74.98
734.766	75.08
735.166	75.13
735.566	75.23
735.966	75.31
736.366	75.4
736.766	75.43
737.166	75.49
737.566	75.56
737.966	75.61
738.365	75.68
738.765	75.76
739.165	75.79
739.564	75.86
739.964	75.92
740.363	75.99
740.763	76.01
741.162	76.07
741.561	76.15
741.96	76.23
742.36	76.3
742.759	76.32
743.158	76.34
743.557	76.41
743.955	76.51
744.354	76.56
744.753	76.63
745.152	76.72
745.55	76.8
745.949	76.84
746.348	76.9
746.746	76.94
747.144	77.02
747.543	77.09
747.941	77.16
748.339	77.21
748.737	77.29
749.136	77.3
749.534	77.35
749.932	77.35
750.33	77.39
750.727	77.38
751.125	77.35
751.523	77.32
751.921	77.34
752.318	77.32
752.716	77.28
753.113	77.2
753.511	77.18
753.908	77.13
754.305	77.1
754.703	77.03
755.1	77.02
755.497	77.02
755.894	77.04
756.291	76.97
756.688	76.96
757.085	76.97
757.482	77
757.878	77.04
758.275	77.05
758.672	77.1
759.068	77.14
759.465	77.15
759.861	77.16
760.258	77.11
760.654	77.16
761.05	77.15
761.447	77.1
761.843	77.05
762.239	77.01
762.635	76.99
763.031	76.96
763.427	76.89
763.822	76.85
764.218	76.82
764.614	76.84
765.01	76.81
765.405	76.83
765.801	76.81
766.196	76.8
766.592	76.81
766.987	76.82
767.382	76.83
767.778	76.88
768.173	76.92
768.568	76.93
768.963	76.91
769.358	76.92
769.753	76.93
770.148	76.98
770.542	76.99
770.937	76.97
771.332	77
771.726	76.96
772.121	76.94
772.515	76.95
772.91	76.98
773.304	77
773.699	76.98
774.093	76.95
774.487	76.97
774.881	76.99
775.275	77
775.669	77.03
776.063	77.04
776.457	77.02
776.851	76.98
777.245	76.98
777.638	77.01
778.032	77.04
778.425	77.06
