Data from N_3_div_oh_2n_Splice17_04.txt Node
Date: Sat Feb 29 14:40:25 EST 2020
User: sa697716
Spectrometer: FLMS03696
Trigger mode: 0
Integration Time (sec): 3.180400E-1
Scans to average: 20
Electric dark correction enabled: true
Nonlinearity correction enabled: true
Boxcar width: 5
XAxis mode: Wavelengths
Number of Pixels in Spectrum: 2048
>>>>>Begin Spectral Data<<<<<
187.83	45.63
188.298	46.51
188.766	40.34
189.233	37.8
189.701	50.23
190.169	52.27
190.636	49.39
191.104	43.45
191.571	160.46
192.039	313.41
192.506	-467.2
192.974	-1440.33
193.441	-138.41
193.908	60.04
194.375	137.08
194.842	157
195.31	140.73
195.777	132.15
196.244	37.94
196.711	24.57
197.177	19.68
197.644	19.11
198.111	17.66
198.578	17.23
199.045	16.87
199.511	16.69
199.978	17.4
200.445	16.97
200.911	17.16
201.378	17.43
201.844	17.76
202.31	18.21
202.777	18.86
203.243	19.49
203.709	20.15
204.176	20.35
204.642	20.53
205.108	20.44
205.574	20.88
206.04	20.93
206.506	21.31
206.972	21.37
207.438	21.62
207.903	21.55
208.369	21.37
208.835	21.27
209.301	21.41
209.766	21.55
210.232	21.81
210.697	21.78
211.163	22.15
211.628	21.87
212.094	21.57
212.559	21.36
213.024	21.33
213.49	21.23
213.955	21.02
214.42	20.86
214.885	20.69
215.35	20.57
215.815	20.21
216.28	19.96
216.745	19.78
217.21	19.69
217.675	19.5
218.14	19.09
218.604	18.71
219.069	18.47
219.534	18.21
219.998	17.85
220.463	17.64
220.927	17.48
221.392	17.21
221.856	16.99
222.32	16.78
222.785	16.55
223.249	16.4
223.713	16.29
224.177	16.08
224.642	15.94
225.106	15.81
225.57	15.62
226.034	15.47
226.497	15.33
226.961	15.15
227.425	14.96
227.889	14.84
228.353	14.66
228.816	14.49
229.28	14.32
229.744	14.15
230.207	14
230.671	13.86
231.134	13.69
231.597	13.55
232.061	13.44
232.524	13.32
232.987	13.18
233.45	13.05
233.914	12.92
234.377	12.82
234.84	12.7
235.303	12.59
235.766	12.48
236.229	12.36
236.691	12.26
237.154	12.14
237.617	12.03
238.08	11.91
238.542	11.82
239.005	11.71
239.468	11.6
239.93	11.49
240.393	11.39
240.855	11.28
241.317	11.2
241.78	11.12
242.242	11.03
242.704	10.94
243.166	10.87
243.629	10.78
244.091	10.7
244.553	10.65
245.015	10.59
245.477	10.52
245.939	10.46
246.4	10.37
246.862	10.29
247.324	10.22
247.786	10.17
248.247	10.1
248.709	10.04
249.17	9.98
249.632	9.91
250.093	9.83
250.555	9.79
251.016	9.74
251.477	9.69
251.939	9.64
252.4	9.6
252.861	9.55
253.322	9.5
253.783	9.47
254.244	9.43
254.705	9.39
255.166	9.38
255.627	9.33
256.088	9.28
256.549	9.25
257.009	9.21
257.47	9.16
257.931	9.12
258.391	9.07
258.852	9.02
259.312	8.99
259.773	8.95
260.233	8.9
260.694	8.86
261.154	8.83
261.614	8.79
262.074	8.76
262.534	8.72
262.994	8.67
263.455	8.65
263.915	8.64
264.374	8.59
264.834	8.56
265.294	8.52
265.754	8.49
266.214	8.46
266.673	8.44
267.133	8.41
267.593	8.39
268.052	8.37
268.512	8.34
268.971	8.3
269.431	8.29
269.89	8.27
270.349	8.25
270.809	8.23
271.268	8.21
271.727	8.18
272.186	8.16
272.645	8.14
273.104	8.11
273.563	8.09
274.022	8.07
274.481	8.04
274.94	8.01
275.399	7.99
275.857	7.97
276.316	7.93
276.775	7.9
277.233	7.87
277.692	7.85
278.15	7.82
278.609	7.78
279.067	7.75
279.525	7.72
279.984	7.7
280.442	7.67
280.9	7.64
281.358	7.62
281.816	7.6
282.274	7.57
282.732	7.54
283.19	7.52
283.648	7.51
284.106	7.48
284.564	7.46
285.021	7.43
285.479	7.4
285.937	7.38
286.394	7.35
286.852	7.34
287.309	7.32
287.767	7.3
288.224	7.28
288.682	7.25
289.139	7.24
289.596	7.21
290.053	7.19
290.511	7.17
290.968	7.15
291.425	7.13
291.882	7.1
292.339	7.07
292.796	7.05
293.252	7.04
293.709	7.02
294.166	6.98
294.623	6.96
295.079	6.95
295.536	6.93
295.992	6.9
296.449	6.89
296.905	6.86
297.362	6.84
297.818	6.82
298.274	6.8
298.731	6.77
299.187	6.76
299.643	6.75
300.099	6.73
300.555	6.71
301.011	6.7
301.467	6.68
301.923	6.67
302.379	6.65
302.835	6.64
303.291	6.62
303.746	6.6
304.202	6.58
304.658	6.57
305.113	6.56
305.569	6.54
306.024	6.53
306.479	6.51
306.935	6.5
307.39	6.49
307.845	6.48
308.301	6.48
308.756	6.48
309.211	6.47
309.666	6.46
310.121	6.46
310.576	6.44
311.031	6.44
311.486	6.42
311.94	6.42
312.395	6.42
312.85	6.4
313.305	6.39
313.759	6.38
314.214	6.38
314.668	6.37
315.123	6.37
315.577	6.36
316.032	6.35
316.486	6.35
316.94	6.34
317.394	6.32
317.849	6.31
318.303	6.3
318.757	6.28
319.211	6.25
319.665	6.24
320.119	6.22
320.572	6.21
321.026	6.2
321.48	6.18
321.934	6.18
322.387	6.17
322.841	6.16
323.295	6.15
323.748	6.14
324.202	6.14
324.655	6.13
325.108	6.12
325.562	6.1
326.015	6.09
326.468	6.08
326.921	6.06
327.374	6.06
327.827	6.05
328.28	6.04
328.733	6.02
329.186	6.02
329.639	6.01
330.092	6
330.545	5.99
330.997	5.99
331.45	5.98
331.903	5.98
332.355	5.96
332.808	5.97
333.26	5.96
333.713	5.96
334.165	5.96
334.617	5.95
335.069	5.94
335.522	5.94
335.974	5.93
336.426	5.94
336.878	5.93
337.33	5.93
337.782	5.93
338.234	5.93
338.686	5.93
339.137	5.93
339.589	5.92
340.041	5.92
340.493	5.91
340.944	5.9
341.396	5.89
341.847	5.89
342.299	5.88
342.75	5.86
343.201	5.84
343.653	5.83
344.104	5.81
344.555	5.8
345.006	5.79
345.457	5.77
345.908	5.76
346.359	5.77
346.81	5.76
347.261	5.75
347.712	5.74
348.163	5.74
348.613	5.72
349.064	5.71
349.515	5.7
349.965	5.7
350.416	5.69
350.866	5.7
351.317	5.68
351.767	5.68
352.217	5.67
352.668	5.68
353.118	5.68
353.568	5.69
354.018	5.7
354.468	5.7
354.918	5.71
355.368	5.72
355.818	5.71
356.268	5.72
356.718	5.73
357.168	5.73
357.617	5.72
358.067	5.73
358.517	5.72
358.966	5.74
359.416	5.75
359.865	5.76
360.315	5.77
360.764	5.79
361.213	5.79
361.663	5.8
362.112	5.82
362.561	5.84
363.01	5.86
363.459	5.87
363.908	5.88
364.357	5.89
364.806	5.91
365.255	5.92
365.703	5.93
366.152	5.95
366.601	5.96
367.05	5.97
367.498	5.99
367.947	6
368.395	6.03
368.844	6.04
369.292	6.06
369.74	6.09
370.189	6.11
370.637	6.15
371.085	6.19
371.533	6.22
371.981	6.24
372.429	6.26
372.877	6.3
373.325	6.32
373.773	6.36
374.221	6.38
374.669	6.4
375.116	6.42
375.564	6.44
376.012	6.46
376.459	6.5
376.907	6.53
377.354	6.57
377.801	6.61
378.249	6.66
378.696	6.69
379.143	6.75
379.591	6.78
380.038	6.83
380.485	6.88
380.932	6.91
381.379	6.94
381.826	6.97
382.273	7
382.72	7.04
383.166	7.06
383.613	7.1
384.06	7.13
384.506	7.18
384.953	7.2
385.4	7.23
385.846	7.26
386.292	7.31
386.739	7.34
387.185	7.38
387.631	7.41
388.078	7.45
388.524	7.47
388.97	7.5
389.416	7.52
389.862	7.54
390.308	7.56
390.754	7.61
391.2	7.64
391.645	7.67
392.091	7.69
392.537	7.72
392.983	7.76
393.428	7.78
393.874	7.81
394.319	7.84
394.765	7.87
395.21	7.88
395.655	7.9
396.101	7.91
396.546	7.93
396.991	7.95
397.436	7.94
397.881	7.95
398.326	7.98
398.771	7.98
399.216	8.01
399.661	8.03
400.106	8.07
400.551	8.06
400.995	8.07
401.44	8.06
401.885	8.06
402.329	8.07
402.774	8.07
403.218	8.05
403.663	8.04
404.107	8.03
404.551	8.03
404.995	8.02
405.44	8.02
405.884	8.02
406.328	8.01
406.772	8.01
407.216	8.01
407.66	8.01
408.104	8.04
408.547	8.05
408.991	8.03
409.435	8.02
409.879	8.03
410.322	8.02
410.766	8.02
411.209	8.03
411.653	8.03
412.096	8.02
412.54	8.02
412.983	8
413.426	8
413.869	8.03
414.312	8.04
414.756	8.05
415.199	8.06
415.642	8.08
416.085	8.1
416.527	8.12
416.97	8.15
417.413	8.13
417.856	8.12
418.298	8.1
418.741	8.09
419.184	8.07
419.626	8.06
420.069	8.06
420.511	8.04
420.953	8.02
421.396	8.01
421.838	8
422.28	8.02
422.722	8.03
423.164	8.04
423.606	8.04
424.048	8.04
424.49	8.05
424.932	8.05
425.374	8.05
425.816	8.04
426.258	8.01
426.699	7.99
427.141	7.95
427.582	7.94
428.024	7.92
428.465	7.92
428.907	7.94
429.348	7.92
429.789	7.93
430.231	7.91
430.672	7.91
431.113	7.94
431.554	7.94
431.995	7.97
432.436	7.96
432.877	7.96
433.318	7.93
433.759	7.92
434.2	7.91
434.64	7.9
435.081	7.89
435.522	7.89
435.962	7.89
436.403	7.9
436.843	7.91
437.284	7.93
437.724	7.95
438.164	7.99
438.604	7.99
439.045	8
439.485	7.99
439.925	8.01
440.365	8.03
440.805	8.03
441.245	8.02
441.685	8.04
442.125	8.05
442.564	8.06
443.004	8.08
443.444	8.09
443.883	8.13
444.323	8.14
444.762	8.19
445.202	8.22
445.641	8.24
446.081	8.28
446.52	8.29
446.959	8.29
447.398	8.33
447.837	8.35
448.276	8.35
448.716	8.36
449.154	8.39
449.593	8.38
450.032	8.39
450.471	8.44
450.91	8.44
451.349	8.43
451.787	8.45
452.226	8.42
452.664	8.41
453.103	8.41
453.541	8.4
453.98	8.39
454.418	8.38
454.856	8.36
455.295	8.33
455.733	8.31
456.171	8.32
456.609	8.3
457.047	8.3
457.485	8.31
457.923	8.32
458.361	8.31
458.798	8.32
459.236	8.31
459.674	8.31
460.111	8.31
460.549	8.3
460.987	8.28
461.424	8.26
461.862	8.26
462.299	8.24
462.736	8.23
463.173	8.22
463.611	8.19
464.048	8.2
464.485	8.19
464.922	8.18
465.359	8.19
465.796	8.17
466.233	8.19
466.67	8.18
467.106	8.17
467.543	8.16
467.98	8.16
468.416	8.17
468.853	8.18
469.29	8.18
469.726	8.18
470.162	8.19
470.599	8.21
471.035	8.22
471.471	8.23
471.907	8.24
472.344	8.25
472.78	8.26
473.216	8.26
473.652	8.25
474.088	8.27
474.523	8.28
474.959	8.27
475.395	8.27
475.831	8.28
476.266	8.3
476.702	8.3
477.138	8.29
477.573	8.28
478.008	8.29
478.444	8.28
478.879	8.26
479.314	8.26
479.75	8.26
480.185	8.27
480.62	8.26
481.055	8.25
481.49	8.24
481.925	8.26
482.36	8.25
482.795	8.24
483.229	8.24
483.664	8.26
484.099	8.27
484.534	8.26
484.968	8.27
485.403	8.27
485.837	8.27
486.271	8.28
486.706	8.29
487.14	8.3
487.574	8.31
488.009	8.33
488.443	8.33
488.877	8.34
489.311	8.37
489.745	8.39
490.179	8.4
490.613	8.42
491.046	8.45
491.48	8.48
491.914	8.52
492.348	8.57
492.781	8.6
493.215	8.64
493.648	8.68
494.082	8.74
494.515	8.79
494.948	8.84
495.382	8.89
495.815	8.95
496.248	9.02
496.681	9.08
497.114	9.13
497.547	9.2
497.98	9.28
498.413	9.36
498.846	9.44
499.279	9.53
499.711	9.63
500.144	9.71
500.577	9.81
501.009	9.9
501.442	10.02
501.874	10.14
502.306	10.28
502.739	10.38
503.171	10.5
503.603	10.62
504.036	10.76
504.468	10.91
504.9	11.09
505.332	11.25
505.764	11.41
506.196	11.59
506.627	11.76
507.059	11.93
507.491	12.14
507.923	12.34
508.354	12.55
508.786	12.76
509.217	12.95
509.649	13.16
510.08	13.4
510.512	13.63
510.943	13.86
511.374	14.1
511.805	14.36
512.237	14.62
512.668	14.87
513.099	15.13
513.53	15.42
513.961	15.7
514.391	15.97
514.822	16.24
515.253	16.52
515.684	16.8
516.114	17.1
516.545	17.37
516.975	17.65
517.406	17.95
517.836	18.23
518.267	18.51
518.697	18.8
519.127	19.08
519.558	19.36
519.988	19.65
520.418	19.92
520.848	20.2
521.278	20.48
521.708	20.72
522.138	20.95
522.567	21.2
522.997	21.44
523.427	21.67
523.857	21.9
524.286	22.13
524.716	22.35
525.145	22.58
525.575	22.78
526.004	22.98
526.433	23.21
526.863	23.41
527.292	23.61
527.721	23.8
528.15	23.97
528.579	24.17
529.008	24.32
529.437	24.49
529.866	24.62
530.295	24.77
530.724	24.92
531.152	25.07
531.581	25.18
532.01	25.3
532.438	25.42
532.867	25.54
533.295	25.59
533.723	25.7
534.152	25.76
534.58	25.85
535.008	25.89
535.436	25.92
535.865	25.96
536.293	26.04
536.721	26.08
537.149	26.13
537.576	26.16
538.004	26.21
538.432	26.25
538.86	26.29
539.287	26.32
539.715	26.38
540.143	26.41
540.57	26.45
540.998	26.49
541.425	26.51
541.852	26.52
542.28	26.54
542.707	26.59
543.134	26.62
543.561	26.63
543.988	26.65
544.415	26.68
544.842	26.72
545.269	26.74
545.696	26.75
546.123	26.78
546.549	26.81
546.976	26.84
547.403	26.85
547.829	26.91
548.256	26.92
548.682	26.95
549.108	26.98
549.535	26.99
549.961	26.99
550.387	26.99
550.813	26.97
551.24	26.97
551.666	26.98
552.092	26.97
552.518	26.94
552.943	26.94
553.369	26.93
553.795	26.91
554.221	26.88
554.646	26.86
555.072	26.84
555.498	26.82
555.923	26.77
556.349	26.7
556.774	26.66
557.199	26.62
557.625	26.56
558.05	26.48
558.475	26.37
558.9	26.3
559.325	26.22
559.75	26.12
560.175	26.04
560.6	25.94
561.025	25.86
561.449	25.76
561.874	25.62
562.299	25.5
562.723	25.4
563.148	25.29
563.572	25.18
563.997	25.05
564.421	24.91
564.846	24.77
565.27	24.64
565.694	24.49
566.118	24.33
566.542	24.21
566.966	24.06
567.39	23.88
567.814	23.71
568.238	23.54
568.662	23.37
569.086	23.22
569.509	23.05
569.933	22.88
570.357	22.71
570.78	22.54
571.204	22.37
571.627	22.21
572.05	22.07
572.474	21.93
572.897	21.79
573.32	21.66
573.743	21.53
574.166	21.38
574.589	21.26
575.012	21.14
575.435	21.03
575.858	20.93
576.281	20.84
576.704	20.74
577.126	20.65
577.549	20.55
577.972	20.45
578.394	20.35
578.817	20.26
579.239	20.18
579.661	20.1
580.084	20
580.506	19.91
580.928	19.8
581.35	19.72
581.772	19.63
582.194	19.56
582.616	19.49
583.038	19.43
583.46	19.38
583.882	19.33
584.303	19.27
584.725	19.21
585.147	19.12
585.568	19.07
585.99	19.01
586.411	18.95
586.833	18.88
587.254	18.82
587.675	18.75
588.096	18.69
588.518	18.6
588.939	18.56
589.36	18.51
589.781	18.48
590.202	18.44
590.623	18.38
591.043	18.35
591.464	18.3
591.885	18.25
592.305	18.23
592.726	18.19
593.147	18.17
593.567	18.13
593.987	18.12
594.408	18.09
594.828	18.06
595.248	18.04
595.669	18.01
596.089	17.99
596.509	17.95
596.929	17.91
597.349	17.87
597.769	17.83
598.189	17.8
598.608	17.76
599.028	17.71
599.448	17.68
599.867	17.61
600.287	17.59
600.706	17.55
601.126	17.5
601.545	17.46
601.965	17.42
602.384	17.38
602.803	17.31
603.222	17.24
603.641	17.19
604.061	17.12
604.48	17.08
604.898	16.99
605.317	16.94
605.736	16.87
606.155	16.78
606.574	16.71
606.992	16.63
607.411	16.57
607.829	16.45
608.248	16.38
608.666	16.31
609.085	16.23
609.503	16.15
609.921	16.06
610.339	16
610.758	15.94
611.176	15.86
611.594	15.78
612.012	15.7
612.43	15.67
612.847	15.61
613.265	15.55
613.683	15.46
614.101	15.4
614.518	15.34
614.936	15.27
615.353	15.2
615.771	15.12
616.188	15.07
616.606	15.01
617.023	14.95
617.44	14.89
617.857	14.82
618.274	14.77
618.691	14.73
619.108	14.68
619.525	14.63
619.942	14.59
620.359	14.57
620.776	14.55
621.192	14.51
621.609	14.49
622.026	14.45
622.442	14.43
622.859	14.42
623.275	14.42
623.691	14.42
624.108	14.41
624.524	14.39
624.94	14.36
625.356	14.35
625.772	14.34
626.188	14.34
626.604	14.32
627.02	14.31
627.436	14.28
627.852	14.25
628.268	14.23
628.683	14.21
629.099	14.19
629.514	14.19
629.93	14.16
630.345	14.12
630.761	14.07
631.176	14.04
631.591	14
632.007	13.97
632.422	13.93
632.837	13.88
633.252	13.83
633.667	13.77
634.082	13.7
634.497	13.62
634.911	13.53
635.326	13.46
635.741	13.36
636.155	13.29
636.57	13.18
636.984	13.06
637.399	12.95
637.813	12.82
638.228	12.71
638.642	12.61
639.056	12.5
639.47	12.41
639.884	12.3
640.298	12.2
640.712	12.07
641.126	11.95
641.54	11.85
641.954	11.76
642.368	11.67
642.781	11.57
643.195	11.44
643.609	11.33
644.022	11.22
644.436	11.13
644.849	11.04
645.262	10.97
645.676	10.89
646.089	10.8
646.502	10.7
646.915	10.62
647.328	10.56
647.741	10.5
648.154	10.47
648.567	10.42
648.98	10.38
649.393	10.34
649.805	10.28
650.218	10.25
650.631	10.22
651.043	10.19
651.456	10.16
651.868	10.14
652.28	10.12
652.693	10.06
653.105	10.02
653.517	9.98
653.929	9.96
654.341	9.93
654.753	9.88
655.165	9.84
655.577	9.78
655.989	9.73
656.401	9.67
656.813	9.59
657.224	9.53
657.636	9.47
658.047	9.4
658.459	9.32
658.87	9.25
659.282	9.2
659.693	9.14
660.104	9.06
660.515	9
660.926	8.94
661.338	8.89
661.749	8.84
662.159	8.79
662.57	8.74
662.981	8.68
663.392	8.62
663.803	8.58
664.213	8.52
664.624	8.5
665.035	8.45
665.445	8.42
665.855	8.38
666.266	8.34
666.676	8.31
667.086	8.29
667.497	8.27
667.907	8.24
668.317	8.22
668.727	8.2
669.137	8.19
669.547	8.19
669.956	8.17
670.366	8.18
670.776	8.17
671.186	8.17
671.595	8.18
672.005	8.19
672.414	8.22
672.824	8.24
673.233	8.27
673.642	8.28
674.052	8.29
674.461	8.32
674.87	8.35
675.279	8.38
675.688	8.41
676.097	8.43
676.506	8.47
676.915	8.52
677.323	8.55
677.732	8.6
678.141	8.65
678.549	8.7
678.958	8.75
679.366	8.8
679.775	8.87
680.183	8.94
680.592	9.01
681	9.08
681.408	9.16
681.816	9.26
682.224	9.35
682.632	9.46
683.04	9.58
683.448	9.72
683.856	9.88
684.264	10.05
684.671	10.24
685.079	10.45
685.487	10.68
685.894	10.93
686.302	11.2
686.709	11.49
687.116	11.79
687.524	12.11
687.931	12.47
688.338	12.84
688.745	13.24
689.152	13.66
689.559	14.09
689.966	14.56
690.373	15.05
690.78	15.53
691.187	16.05
691.593	16.59
692	17.16
692.407	17.72
692.813	18.31
693.22	18.9
693.626	19.49
694.032	20.11
694.439	20.73
694.845	21.32
695.251	21.96
695.657	22.56
696.063	23.2
696.469	23.79
696.875	24.37
697.281	24.94
697.687	25.54
698.093	26.12
698.498	26.69
698.904	27.25
699.31	27.8
699.715	28.36
700.12	28.89
700.526	29.43
700.931	29.97
701.337	30.53
701.742	31.06
702.147	31.57
702.552	32.09
702.957	32.59
703.362	33.09
703.767	33.58
704.172	34.05
704.577	34.55
704.981	35.02
705.386	35.45
705.791	35.9
706.195	36.32
706.6	36.74
707.004	37.16
707.408	37.55
707.813	37.96
708.217	38.36
708.621	38.74
709.025	39.12
709.43	39.49
709.834	39.88
710.237	40.23
710.641	40.6
711.045	40.95
711.449	41.3
711.853	41.65
712.256	41.99
712.66	42.31
713.064	42.62
713.467	42.92
713.87	43.24
714.274	43.58
714.677	43.89
715.08	44.19
715.484	44.49
715.887	44.78
716.29	45.07
716.693	45.34
717.096	45.64
717.499	45.91
717.901	46.19
718.304	46.46
718.707	46.68
719.109	46.92
719.512	47.2
719.915	47.43
720.317	47.68
720.719	47.91
721.122	48.14
721.524	48.37
721.926	48.6
722.328	48.81
722.731	49
723.133	49.19
723.535	49.43
723.937	49.6
724.338	49.76
724.74	49.93
725.142	50.01
725.544	50.15
725.945	50.29
726.347	50.48
726.748	50.61
727.15	50.77
727.551	50.94
727.952	51.02
728.354	51.17
728.755	51.33
729.156	51.46
729.557	51.7
729.958	51.86
730.359	51.97
730.76	52.02
731.161	52.12
731.562	52.22
731.962	52.29
732.363	52.4
732.763	52.5
733.164	52.56
733.564	52.63
733.965	52.68
734.365	52.71
734.766	52.82
735.166	52.9
735.566	52.97
735.966	52.99
736.366	53.03
736.766	53.07
737.166	53.11
737.566	53.17
737.966	53.21
738.365	53.26
738.765	53.34
739.165	53.37
739.564	53.4
739.964	53.44
740.363	53.5
740.763	53.54
741.162	53.57
741.561	53.6
741.96	53.65
742.36	53.68
742.759	53.68
743.158	53.67
743.557	53.69
743.955	53.77
744.354	53.81
744.753	53.85
745.152	53.9
745.55	53.95
745.949	53.96
746.348	54.01
746.746	54.05
747.144	54.14
747.543	54.21
747.941	54.26
748.339	54.31
748.737	54.39
749.136	54.43
749.534	54.46
749.932	54.5
750.33	54.57
750.727	54.56
751.125	54.58
751.523	54.53
751.921	54.53
752.318	54.52
752.716	54.49
753.113	54.44
753.511	54.39
753.908	54.35
754.305	54.31
754.703	54.26
755.1	54.25
755.497	54.25
755.894	54.27
756.291	54.23
756.688	54.2
757.085	54.18
757.482	54.18
757.878	54.2
758.275	54.2
758.672	54.21
759.068	54.2
759.465	54.19
759.861	54.16
760.258	54.12
760.654	54.12
761.05	54.1
761.447	54.07
761.843	54.03
762.239	53.99
762.635	53.98
763.031	53.97
763.427	53.97
763.822	53.94
764.218	53.92
764.614	53.9
765.01	53.89
765.405	53.89
765.801	53.9
766.196	53.93
766.592	53.93
766.987	53.92
767.382	53.9
767.778	53.92
768.173	53.92
768.568	53.92
768.963	53.93
769.358	53.93
769.753	53.94
770.148	53.97
770.542	53.92
770.937	53.94
771.332	53.94
771.726	53.94
772.121	53.88
772.515	53.92
772.91	53.94
773.304	53.94
773.699	53.95
774.093	53.91
774.487	53.91
774.881	53.92
775.275	53.91
775.669	53.92
776.063	53.92
776.457	53.91
776.851	53.85
777.245	53.85
777.638	53.86
778.032	53.87
778.425	53.92
778.819	53.9
779.212	53.86
779.606	53.88
779.999	53.87
