Data from N_3_dec_wc_4n_Splice17_01.txt Node
Date: Sat Feb 29 14:50:33 EST 2020
User: sa697716
Spectrometer: FLMS03696
Trigger mode: 0
Integration Time (sec): 3.180400E-1
Scans to average: 20
Electric dark correction enabled: true
Nonlinearity correction enabled: true
Boxcar width: 5
XAxis mode: Wavelengths
Number of Pixels in Spectrum: 2048
>>>>>Begin Spectral Data<<<<<
187.83	88.74
188.298	79.92
188.766	67.31
189.233	65.67
189.701	73.17
190.169	77.8
190.636	85.48
191.104	102.94
191.571	361.01
192.039	251.53
192.506	50.14
192.974	5715.92
193.441	-330.63
193.908	60.45
194.375	29.93
194.842	61.34
195.31	57.64
195.777	81.59
196.244	38.71
196.711	37.96
197.177	37.11
197.644	37.72
198.111	37.37
198.578	38.16
199.045	38.69
199.511	39.54
199.978	39.49
200.445	38.72
200.911	38.87
201.378	39.28
201.844	39.81
202.31	40.62
202.777	40.78
203.243	41.26
203.709	40.92
204.176	40.41
204.642	40.32
205.108	40.27
205.574	40.86
206.04	40.87
206.506	40.08
206.972	39.84
207.438	39.14
207.903	38.87
208.369	38.11
208.835	37.71
209.301	37.48
209.766	37.05
210.232	36.73
210.697	36.34
211.163	35.46
211.628	35.11
212.094	34.43
212.559	33.54
213.024	32.87
213.49	32.22
213.955	31.58
214.42	30.67
214.885	29.35
215.35	27.91
215.815	26.32
216.28	24.59
216.745	22.98
217.21	21.25
217.675	19.63
218.14	17.95
218.604	16.59
219.069	15.51
219.534	14.54
219.998	13.64
220.463	13.05
220.927	12.45
221.392	11.94
221.856	11.5
222.32	11.08
222.785	10.73
223.249	10.45
223.713	10.15
224.177	9.83
224.642	9.61
225.106	9.38
225.57	9.11
226.034	8.91
226.497	8.72
226.961	8.49
227.425	8.29
227.889	8.12
228.353	7.94
228.816	7.8
229.28	7.64
229.744	7.52
230.207	7.41
230.671	7.31
231.134	7.18
231.597	7.06
232.061	6.97
232.524	6.9
232.987	6.81
233.45	6.72
233.914	6.62
234.377	6.58
234.84	6.48
235.303	6.41
235.766	6.33
236.229	6.27
236.691	6.22
237.154	6.17
237.617	6.09
238.08	6.03
238.542	5.97
239.005	5.92
239.468	5.82
239.93	5.77
240.393	5.71
240.855	5.65
241.317	5.58
241.78	5.52
242.242	5.47
242.704	5.42
243.166	5.36
243.629	5.3
244.091	5.26
244.553	5.24
245.015	5.19
245.477	5.15
245.939	5.1
246.4	5.05
246.862	5.01
247.324	4.98
247.786	4.93
248.247	4.9
248.709	4.87
249.17	4.82
249.632	4.78
250.093	4.73
250.555	4.69
251.016	4.68
251.477	4.65
251.939	4.63
252.4	4.6
252.861	4.57
253.322	4.53
253.783	4.52
254.244	4.5
254.705	4.48
255.166	4.47
255.627	4.44
256.088	4.4
256.549	4.38
257.009	4.35
257.47	4.33
257.931	4.3
258.391	4.27
258.852	4.24
259.312	4.21
259.773	4.19
260.233	4.15
260.694	4.13
261.154	4.1
261.614	4.08
262.074	4.05
262.534	4.03
262.994	4.01
263.455	3.99
263.915	3.96
264.374	3.94
264.834	3.91
265.294	3.89
265.754	3.87
266.214	3.85
266.673	3.83
267.133	3.81
267.593	3.8
268.052	3.78
268.512	3.77
268.971	3.76
269.431	3.76
269.89	3.75
270.349	3.74
270.809	3.73
271.268	3.73
271.727	3.72
272.186	3.71
272.645	3.7
273.104	3.69
273.563	3.68
274.022	3.68
274.481	3.67
274.94	3.67
275.399	3.66
275.857	3.65
276.316	3.64
276.775	3.62
277.233	3.6
277.692	3.6
278.15	3.58
278.609	3.57
279.067	3.55
279.525	3.54
279.984	3.53
280.442	3.53
280.9	3.52
281.358	3.51
281.816	3.52
282.274	3.52
282.732	3.51
283.19	3.51
283.648	3.51
284.106	3.5
284.564	3.51
285.021	3.5
285.479	3.49
285.937	3.48
286.394	3.47
286.852	3.46
287.309	3.45
287.767	3.44
288.224	3.43
288.682	3.42
289.139	3.41
289.596	3.4
290.053	3.39
290.511	3.37
290.968	3.37
291.425	3.37
291.882	3.35
292.339	3.34
292.796	3.33
293.252	3.32
293.709	3.31
294.166	3.3
294.623	3.3
295.079	3.29
295.536	3.28
295.992	3.27
296.449	3.26
296.905	3.25
297.362	3.24
297.818	3.23
298.274	3.22
298.731	3.22
299.187	3.21
299.643	3.2
300.099	3.2
300.555	3.18
301.011	3.17
301.467	3.16
301.923	3.16
302.379	3.15
302.835	3.15
303.291	3.14
303.746	3.13
304.202	3.13
304.658	3.12
305.113	3.12
305.569	3.13
306.024	3.12
306.479	3.13
306.935	3.12
307.39	3.12
307.845	3.11
308.301	3.11
308.756	3.11
309.211	3.12
309.666	3.12
310.121	3.1
310.576	3.11
311.031	3.11
311.486	3.11
311.94	3.11
312.395	3.11
312.85	3.11
313.305	3.12
313.759	3.12
314.214	3.11
314.668	3.11
315.123	3.11
315.577	3.11
316.032	3.1
316.486	3.1
316.94	3.1
317.394	3.1
317.849	3.1
318.303	3.09
318.757	3.07
319.211	3.06
319.665	3.05
320.119	3.04
320.572	3.04
321.026	3.03
321.48	3.02
321.934	3.02
322.387	3.01
322.841	3
323.295	2.99
323.748	3
324.202	2.99
324.655	2.99
325.108	2.98
325.562	2.97
326.015	2.97
326.468	2.96
326.921	2.94
327.374	2.94
327.827	2.94
328.28	2.94
328.733	2.93
329.186	2.93
329.639	2.93
330.092	2.92
330.545	2.93
330.997	2.93
331.45	2.93
331.903	2.93
332.355	2.92
332.808	2.92
333.26	2.92
333.713	2.93
334.165	2.94
334.617	2.94
335.069	2.94
335.522	2.94
335.974	2.94
336.426	2.95
336.878	2.95
337.33	2.96
337.782	2.96
338.234	2.95
338.686	2.94
339.137	2.95
339.589	2.95
340.041	2.95
340.493	2.94
340.944	2.93
341.396	2.92
341.847	2.91
342.299	2.89
342.75	2.87
343.201	2.86
343.653	2.85
344.104	2.84
344.555	2.82
345.006	2.81
345.457	2.81
345.908	2.8
346.359	2.8
346.81	2.8
347.261	2.8
347.712	2.81
348.163	2.81
348.613	2.8
349.064	2.79
349.515	2.79
349.965	2.79
350.416	2.79
350.866	2.79
351.317	2.78
351.767	2.77
352.217	2.76
352.668	2.76
353.118	2.76
353.568	2.77
354.018	2.78
354.468	2.78
354.918	2.78
355.368	2.78
355.818	2.78
356.268	2.79
356.718	2.79
357.168	2.78
357.617	2.78
358.067	2.79
358.517	2.77
358.966	2.77
359.416	2.77
359.865	2.77
360.315	2.78
360.764	2.78
361.213	2.77
361.663	2.77
362.112	2.79
362.561	2.79
363.01	2.79
363.459	2.79
363.908	2.79
364.357	2.8
364.806	2.8
365.255	2.81
365.703	2.8
366.152	2.81
366.601	2.82
367.05	2.82
367.498	2.83
367.947	2.84
368.395	2.86
368.844	2.86
369.292	2.87
369.74	2.88
370.189	2.88
370.637	2.9
371.085	2.92
371.533	2.92
371.981	2.93
372.429	2.93
372.877	2.94
373.325	2.94
373.773	2.96
374.221	2.97
374.669	2.97
375.116	2.98
375.564	2.98
376.012	2.99
376.459	3.01
376.907	3.03
377.354	3.04
377.801	3.05
378.249	3.08
378.696	3.09
379.143	3.11
379.591	3.14
380.038	3.19
380.485	3.21
380.932	3.23
381.379	3.23
381.826	3.26
382.273	3.28
382.72	3.32
383.166	3.33
383.613	3.36
384.06	3.38
384.506	3.41
384.953	3.43
385.4	3.45
385.846	3.48
386.292	3.54
386.739	3.57
387.185	3.62
387.631	3.67
388.078	3.72
388.524	3.75
388.97	3.78
389.416	3.82
389.862	3.87
390.308	3.93
390.754	4
391.2	4.08
391.645	4.14
392.091	4.2
392.537	4.26
392.983	4.36
393.428	4.49
393.874	4.65
394.319	4.81
394.765	4.97
395.21	5.14
395.655	5.31
396.101	5.5
396.546	5.71
396.991	5.93
397.436	6.14
397.881	6.37
398.326	6.59
398.771	6.79
399.216	7
399.661	7.19
400.106	7.38
400.551	7.51
400.995	7.63
401.44	7.71
401.885	7.81
402.329	7.92
402.774	8.01
403.218	8.12
403.663	8.26
404.107	8.41
404.551	8.57
404.995	8.7
405.44	8.84
405.884	8.97
406.328	9.16
406.772	9.36
407.216	9.57
407.66	9.77
408.104	9.94
408.547	10.08
408.991	10.2
409.435	10.34
409.879	10.49
410.322	10.68
410.766	10.89
411.209	11.07
411.653	11.24
412.096	11.37
412.54	11.5
412.983	11.64
413.426	11.78
413.869	11.94
414.312	12.1
414.756	12.25
415.199	12.39
415.642	12.5
416.085	12.6
416.527	12.69
416.97	12.77
417.413	12.79
417.856	12.76
418.298	12.76
418.741	12.75
419.184	12.76
419.626	12.78
420.069	12.84
420.511	12.88
420.953	12.92
421.396	12.98
421.838	13.09
422.28	13.23
422.722	13.4
423.164	13.53
423.606	13.66
424.048	13.74
424.49	13.79
424.932	13.71
425.374	13.57
425.816	13.34
426.258	13.1
426.699	12.91
427.141	12.87
427.582	12.92
428.024	13.08
428.465	13.22
428.907	13.39
429.348	13.54
429.789	13.75
430.231	14.06
430.672	14.54
431.113	15.09
431.554	15.63
431.995	16.04
432.436	16.31
432.877	16.5
433.318	16.66
433.759	16.81
434.2	17.06
434.64	17.36
435.081	17.67
435.522	17.94
435.962	18.15
436.403	18.32
436.843	18.45
437.284	18.67
437.724	18.87
438.164	19.12
438.604	19.44
439.045	19.71
439.485	19.94
439.925	20.13
440.365	20.28
440.805	20.4
441.245	20.46
441.685	20.59
442.125	20.72
442.564	20.91
443.004	21.1
443.444	21.29
443.883	21.49
444.323	21.7
444.762	21.95
445.202	22.21
445.641	22.54
446.081	22.93
446.52	23.3
446.959	23.63
447.398	23.91
447.837	24.09
448.276	24.15
448.716	24.23
449.154	24.32
449.593	24.39
450.032	24.43
450.471	24.39
450.91	24.34
451.349	24.27
451.787	24.24
452.226	24.22
452.664	24.23
453.103	24.28
453.541	24.29
453.98	24.24
454.418	24.15
454.856	24.06
455.295	23.98
455.733	23.91
456.171	23.83
456.609	23.77
457.047	23.68
457.485	23.64
457.923	23.65
458.361	23.68
458.798	23.78
459.236	23.86
459.674	23.93
460.111	24.01
460.549	24.06
460.987	24.14
461.424	24.19
461.862	24.29
462.299	24.37
462.736	24.44
463.173	24.51
463.611	24.61
464.048	24.76
464.485	24.96
464.922	25.18
465.359	25.41
465.796	25.6
466.233	25.82
466.67	26.03
467.106	26.3
467.543	26.61
467.98	26.93
468.416	27.21
468.853	27.43
469.29	27.67
469.726	27.89
470.162	28.14
470.599	28.4
471.035	28.63
471.471	28.79
471.907	28.9
472.344	28.97
472.78	29.03
473.216	29.13
473.652	29.22
474.088	29.3
474.523	29.35
474.959	29.38
475.395	29.41
475.831	29.43
476.266	29.48
476.702	29.54
477.138	29.54
477.573	29.51
478.008	29.46
478.444	29.36
478.879	29.23
479.314	29.08
479.75	28.91
480.185	28.71
480.62	28.44
481.055	28.05
481.49	27.53
481.925	26.97
482.36	26.47
482.795	26.05
483.229	25.72
483.664	25.48
484.099	25.28
484.534	25.11
484.968	24.97
485.403	24.96
485.837	25.04
486.271	25.25
486.706	25.48
487.14	25.65
487.574	25.73
488.009	25.79
488.443	25.84
488.877	25.88
489.311	25.93
489.745	26
490.179	26.09
490.613	26.18
491.046	26.25
491.48	26.37
491.914	26.55
492.348	26.78
492.781	26.99
493.215	27.17
493.648	27.33
494.082	27.49
494.515	27.64
494.948	27.76
495.382	27.89
495.815	28.03
496.248	28.14
496.681	28.22
497.114	28.3
497.547	28.4
497.98	28.57
498.413	28.79
498.846	29.05
499.279	29.29
499.711	29.51
500.144	29.79
500.577	30.14
501.009	30.58
501.442	31.08
501.874	31.6
502.306	32.14
502.739	32.59
503.171	33.04
503.603	33.51
504.036	34.01
504.468	34.58
504.9	35.16
505.332	35.68
505.764	36.19
506.196	36.71
506.627	37.28
507.059	37.86
507.491	38.5
507.923	39.14
508.354	39.77
508.786	40.37
509.217	40.94
509.649	41.49
510.08	42.09
510.512	42.7
510.943	43.34
511.374	43.94
511.805	44.42
512.237	44.78
512.668	45.1
513.099	45.47
513.53	45.89
513.961	46.36
514.391	46.91
514.822	47.54
515.253	48.25
515.684	48.97
516.114	49.77
516.545	50.69
516.975	51.81
517.406	53.01
517.836	54.18
518.267	55.31
518.697	56.38
519.127	57.48
519.558	58.54
519.988	59.51
520.418	60.46
520.848	61.35
521.278	62.14
521.708	62.61
522.138	63.05
522.567	63.51
522.997	63.98
523.427	64.54
523.857	65.05
524.286	65.61
524.716	66.17
525.145	66.67
525.575	67.17
526.004	67.77
526.433	68.63
526.863	69.48
527.292	70.24
527.721	70.91
528.15	71.36
528.579	71.72
529.008	71.96
529.437	72.18
529.866	72.39
530.295	72.62
530.724	72.84
531.152	73.03
531.581	73.23
532.01	73.37
532.438	73.53
532.867	73.79
533.295	74.05
533.723	74.33
534.152	74.5
534.58	74.66
535.008	74.71
535.436	74.66
535.865	74.55
536.293	74.42
536.721	74.41
537.149	74.47
537.576	74.55
538.004	74.62
538.432	74.67
538.86	74.76
539.287	74.91
539.715	75.15
540.143	75.44
540.57	75.78
540.998	76.15
541.425	76.48
541.852	76.8
542.28	77.07
542.707	77.37
543.134	77.62
543.561	77.84
543.988	78.06
544.415	78.29
544.842	78.52
545.269	78.77
545.696	78.99
546.123	79.22
546.549	79.44
546.976	79.67
547.403	79.88
547.829	80.15
548.256	80.39
548.682	80.57
549.108	80.74
549.535	80.91
549.961	81.04
550.387	81.19
550.813	81.32
551.24	81.44
551.666	81.52
552.092	81.52
552.518	81.46
552.943	81.43
553.369	81.39
553.795	81.26
554.221	81.07
554.646	80.78
555.072	80.47
555.498	80.14
555.923	79.82
556.349	79.52
556.774	79.29
557.199	79.08
557.625	78.8
558.05	78.51
558.475	78.25
558.9	78.02
559.325	77.8
559.75	77.55
560.175	77.29
560.6	76.94
561.025	76.51
561.449	75.99
561.874	75.49
562.299	75.04
562.723	74.57
563.148	74.09
563.572	73.61
563.997	73.08
564.421	72.49
564.846	71.91
565.27	71.38
565.694	70.81
566.118	70.24
566.542	69.63
566.966	69.01
567.39	68.4
567.814	67.83
568.238	67.28
568.662	66.84
569.086	66.45
569.509	66.06
569.933	65.64
570.357	65.25
570.78	64.9
571.204	64.53
571.627	64.2
572.05	63.9
572.474	63.57
572.897	63.21
573.32	62.83
573.743	62.43
574.166	62.01
574.589	61.62
575.012	61.34
575.435	61.08
575.858	60.9
576.281	60.71
576.704	60.53
577.126	60.35
577.549	60.23
577.972	60.14
578.394	60.06
578.817	60.03
579.239	60.03
579.661	59.96
580.084	59.88
580.506	59.74
580.928	59.55
581.35	59.33
581.772	59.1
582.194	58.83
582.616	58.56
583.038	58.33
583.46	58.06
583.882	57.72
584.303	57.27
584.725	56.7
585.147	56.11
585.568	55.62
585.99	55.21
586.411	54.88
586.833	54.56
587.254	54.26
587.675	53.95
588.096	53.66
588.518	53.45
588.939	53.33
589.36	53.35
589.781	53.41
590.202	53.39
590.623	53.31
591.043	53.15
591.464	53
591.885	52.83
592.305	52.65
592.726	52.46
593.147	52.28
593.567	52.07
593.987	51.87
594.408	51.67
594.828	51.48
595.248	51.31
595.669	51.1
596.089	50.88
596.509	50.61
596.929	50.34
597.349	50.04
597.769	49.73
598.189	49.48
598.608	49.22
599.028	49
599.448	48.81
599.867	48.62
600.287	48.46
600.706	48.26
601.126	48.09
601.545	47.89
601.965	47.75
602.384	47.61
602.803	47.44
603.222	47.25
603.641	47.01
604.061	46.72
604.48	46.4
604.898	46.09
605.317	45.78
605.736	45.45
606.155	45.15
606.574	44.83
606.992	44.5
607.411	44.18
607.829	43.83
608.248	43.54
608.666	43.25
609.085	42.94
609.503	42.61
609.921	42.33
610.339	42.06
610.758	41.78
611.176	41.47
611.594	41.14
612.012	40.78
612.43	40.5
612.847	40.17
613.265	39.91
613.683	39.69
614.101	39.47
614.518	39.26
614.936	39.03
615.353	38.83
615.771	38.67
616.188	38.56
616.606	38.44
617.023	38.3
617.44	38.15
617.857	37.98
618.274	37.79
618.691	37.59
619.108	37.39
619.525	37.19
619.942	36.99
620.359	36.75
620.776	36.49
621.192	36.25
621.609	36.02
622.026	35.83
622.442	35.66
622.859	35.46
623.275	35.31
623.691	35.1
624.108	34.92
624.524	34.73
624.94	34.58
625.356	34.43
625.772	34.32
626.188	34.22
626.604	34.1
627.02	33.95
627.436	33.86
627.852	33.75
628.268	33.68
628.683	33.63
629.099	33.59
629.514	33.52
629.93	33.46
630.345	33.39
630.761	33.35
631.176	33.29
631.591	33.23
632.007	33.12
632.422	33.04
632.837	32.93
633.252	32.81
633.667	32.69
634.082	32.58
634.497	32.43
634.911	32.26
635.326	32.01
635.741	31.77
636.155	31.54
636.57	31.3
636.984	31.01
637.399	30.7
637.813	30.39
638.228	30.08
638.642	29.78
639.056	29.46
639.47	29.14
639.884	28.86
640.298	28.56
640.712	28.25
641.126	27.95
641.54	27.67
641.954	27.41
642.368	27.13
642.781	26.81
643.195	26.48
643.609	26.2
644.022	25.91
644.436	25.61
644.849	25.33
645.262	25.07
645.676	24.8
646.089	24.56
646.502	24.35
646.915	24.17
647.328	23.99
647.741	23.85
648.154	23.72
648.567	23.59
648.98	23.48
649.393	23.37
649.805	23.28
650.218	23.19
650.631	23.07
651.043	22.89
651.456	22.63
651.868	22.35
652.28	22.02
652.693	21.71
653.105	21.45
653.517	21.25
653.929	21.08
654.341	20.93
654.753	20.78
655.165	20.68
655.577	20.58
655.989	20.58
656.401	20.61
656.813	20.67
657.224	20.71
657.636	20.69
658.047	20.62
658.459	20.52
658.87	20.36
659.282	20.22
659.693	20.04
660.104	19.89
660.515	19.71
660.926	19.54
661.338	19.37
661.749	19.18
662.159	19.01
662.57	18.81
662.981	18.64
663.392	18.48
663.803	18.33
664.213	18.18
664.624	18.02
665.035	17.89
665.445	17.77
665.855	17.61
666.266	17.48
666.676	17.34
667.086	17.23
667.497	17.1
667.907	16.98
668.317	16.86
668.727	16.75
669.137	16.66
669.547	16.56
669.956	16.45
670.366	16.37
670.776	16.31
671.186	16.26
671.595	16.2
672.005	16.17
672.414	16.13
672.824	16.12
673.233	16.11
673.642	16.08
674.052	16.06
674.461	16.07
674.87	16.07
675.279	16.08
675.688	16.07
676.097	16.09
676.506	16.11
676.915	16.15
677.323	16.18
677.732	16.23
678.141	16.31
678.549	16.39
678.958	16.46
679.366	16.55
679.775	16.64
680.183	16.75
680.592	16.87
681	16.99
681.408	17.15
681.816	17.27
682.224	17.35
682.632	17.33
683.04	17.29
683.448	17.28
683.856	17.32
684.264	17.41
684.671	17.54
685.079	17.72
685.487	17.94
685.894	18.21
686.302	18.56
686.709	19.02
687.116	19.65
687.524	20.37
687.931	21.16
688.338	21.98
688.745	22.81
689.152	23.66
689.559	24.51
689.966	25.39
690.373	26.28
690.78	27.2
691.187	28.1
691.593	29
692	29.95
692.407	30.87
692.813	31.79
693.22	32.71
693.626	33.64
694.032	34.58
694.439	35.51
694.845	36.43
695.251	37.32
695.657	38.19
696.063	39.04
696.469	39.87
696.875	40.62
697.281	41.35
697.687	42.12
698.093	42.84
698.498	43.59
698.904	44.34
699.31	45.06
699.715	45.8
700.12	46.55
700.526	47.31
700.931	48.02
701.337	48.8
701.742	49.55
702.147	50.26
702.552	50.99
702.957	51.69
703.362	52.37
703.767	53.02
704.172	53.69
704.577	54.32
704.981	54.9
705.386	55.48
705.791	56.05
706.195	56.59
706.6	57.15
707.004	57.7
707.408	58.2
707.813	58.67
708.217	59.15
708.621	59.56
709.025	60.01
709.43	60.42
709.834	60.89
710.237	61.26
710.641	61.69
711.045	62.05
711.449	62.39
711.853	62.72
712.256	62.98
712.66	63.13
713.064	63.26
713.467	63.24
713.87	63.18
714.274	63.01
714.677	62.86
715.08	62.62
715.484	62.45
715.887	62.29
716.29	62.19
716.693	62.21
717.096	62.48
717.499	62.82
717.901	63.29
718.304	63.84
718.707	64.41
719.109	64.98
719.512	65.52
719.915	65.99
720.317	66.41
720.719	66.79
721.122	67.07
721.524	67.23
721.926	67.38
722.328	67.49
722.731	67.59
723.133	67.68
723.535	67.78
723.937	67.93
724.338	68.05
724.74	68.18
725.142	68.25
725.544	68.42
725.945	68.56
726.347	68.71
726.748	68.77
727.15	68.88
727.551	69.08
727.952	69.3
728.354	69.58
728.755	69.87
729.156	70.24
729.557	70.63
729.958	71
730.359	71.33
730.76	71.57
731.161	71.87
731.562	72.16
731.962	72.37
732.363	72.52
732.763	72.67
733.164	72.76
733.564	72.82
733.965	72.84
734.365	72.77
734.766	72.71
735.166	72.65
735.566	72.57
735.966	72.51
736.366	72.43
736.766	72.38
737.166	72.28
737.566	72.24
737.966	72.2
738.365	72.17
738.765	72.17
739.165	72.19
739.564	72.26
739.964	72.32
740.363	72.34
740.763	72.35
741.162	72.34
741.561	72.35
741.96	72.38
742.36	72.41
742.759	72.4
743.158	72.41
743.557	72.42
743.955	72.42
744.354	72.41
744.753	72.41
745.152	72.36
745.55	72.36
745.949	72.31
746.348	72.21
746.746	72.1
747.144	72.04
747.543	71.93
747.941	71.87
748.339	71.77
748.737	71.68
749.136	71.57
749.534	71.53
749.932	71.47
750.33	71.42
750.727	71.36
751.125	71.31
751.523	71.23
751.921	71.2
752.318	71.06
752.716	70.93
753.113	70.81
753.511	70.66
753.908	70.48
754.305	70.24
754.703	69.78
755.1	68.95
755.497	67.54
755.894	65.64
756.291	63.38
756.688	61.05
757.085	58.85
757.482	56.78
757.878	54.91
758.275	53
758.672	51.1
759.068	49.38
759.465	48.11
759.861	47.54
760.258	47.56
760.654	48.09
761.05	48.86
761.447	49.68
761.843	50.46
762.239	51.28
762.635	52.28
763.031	53.49
763.427	54.87
763.822	56.27
764.218	57.64
764.614	58.96
765.01	60.16
765.405	61.26
765.801	62.23
766.196	63.13
766.592	63.87
766.987	64.51
767.382	64.92
767.778	65.24
768.173	65.48
768.568	65.62
768.963	65.75
769.358	65.85
769.753	65.92
770.148	65.94
770.542	65.91
770.937	65.81
771.332	65.7
771.726	65.65
772.121	65.57
772.515	65.5
772.91	65.44
