Data from N_3_dec_wc_4n_Splice17_20.txt Node
Date: Sat Feb 29 14:51:11 EST 2020
User: sa697716
Spectrometer: FLMS03696
Trigger mode: 0
Integration Time (sec): 3.180400E-1
Scans to average: 20
Electric dark correction enabled: true
Nonlinearity correction enabled: true
Boxcar width: 5
XAxis mode: Wavelengths
Number of Pixels in Spectrum: 2048
>>>>>Begin Spectral Data<<<<<
187.83	99.05
188.298	88.23
188.766	74.16
189.233	75.04
189.701	80.66
190.169	84.94
190.636	72.48
191.104	66.94
191.571	113.18
192.039	167.68
192.506	237.19
192.974	4593.18
193.441	-42.73
193.908	36.79
194.375	17.78
194.842	70.75
195.31	50.27
195.777	-20.82
196.244	32.22
196.711	42.23
197.177	41.77
197.644	43.33
198.111	44.35
198.578	44.75
199.045	45.85
199.511	46.43
199.978	46.76
200.445	46.77
200.911	46.99
201.378	46.74
201.844	47.44
202.31	48.48
202.777	48.63
203.243	49.46
203.709	49.77
204.176	48.91
204.642	48.77
205.108	48.88
205.574	49.42
206.04	49.05
206.506	49.1
206.972	48.53
207.438	47.72
207.903	47.51
208.369	46.35
208.835	45.59
209.301	45.79
209.766	45
210.232	44.09
210.697	43.04
211.163	43
211.628	42.08
212.094	41.45
212.559	40.78
213.024	39.99
213.49	39.25
213.955	38.56
214.42	37.45
214.885	36.51
215.35	35.34
215.815	33.54
216.28	31.44
216.745	29.62
217.21	27.45
217.675	25.44
218.14	23.54
218.604	21.89
219.069	20.45
219.534	19.11
219.998	18.03
220.463	17.09
220.927	16.37
221.392	15.76
221.856	15.17
222.32	14.74
222.785	14.31
223.249	13.92
223.713	13.56
224.177	13.24
224.642	13.01
225.106	12.73
225.57	12.47
226.034	12.24
226.497	11.98
226.961	11.75
227.425	11.47
227.889	11.26
228.353	11.03
228.816	10.86
229.28	10.63
229.744	10.42
230.207	10.24
230.671	10.08
231.134	9.89
231.597	9.72
232.061	9.58
232.524	9.46
232.987	9.29
233.45	9.17
233.914	9.02
234.377	8.92
234.84	8.81
235.303	8.71
235.766	8.6
236.229	8.52
236.691	8.44
237.154	8.36
237.617	8.27
238.08	8.21
238.542	8.13
239.005	8.05
239.468	7.98
239.93	7.93
240.393	7.85
240.855	7.76
241.317	7.7
241.78	7.63
242.242	7.53
242.704	7.45
243.166	7.37
243.629	7.3
244.091	7.23
244.553	7.15
245.015	7.07
245.477	7
245.939	6.94
246.4	6.87
246.862	6.8
247.324	6.76
247.786	6.71
248.247	6.66
248.709	6.61
249.17	6.56
249.632	6.5
250.093	6.43
250.555	6.38
251.016	6.33
251.477	6.27
251.939	6.23
252.4	6.18
252.861	6.13
253.322	6.09
253.783	6.06
254.244	6.01
254.705	5.96
255.166	5.94
255.627	5.91
256.088	5.86
256.549	5.82
257.009	5.77
257.47	5.73
257.931	5.69
258.391	5.64
258.852	5.59
259.312	5.55
259.773	5.52
260.233	5.48
260.694	5.44
261.154	5.4
261.614	5.38
262.074	5.35
262.534	5.3
262.994	5.27
263.455	5.24
263.915	5.21
264.374	5.17
264.834	5.14
265.294	5.1
265.754	5.07
266.214	5.04
266.673	5.01
267.133	4.98
267.593	4.96
268.052	4.93
268.512	4.91
268.971	4.89
269.431	4.87
269.89	4.85
270.349	4.84
270.809	4.82
271.268	4.81
271.727	4.79
272.186	4.78
272.645	4.76
273.104	4.75
273.563	4.73
274.022	4.72
274.481	4.71
274.94	4.7
275.399	4.68
275.857	4.67
276.316	4.64
276.775	4.62
277.233	4.61
277.692	4.6
278.15	4.58
278.609	4.56
279.067	4.53
279.525	4.51
279.984	4.5
280.442	4.49
280.9	4.48
281.358	4.48
281.816	4.46
282.274	4.44
282.732	4.43
283.19	4.43
283.648	4.43
284.106	4.42
284.564	4.42
285.021	4.42
285.479	4.41
285.937	4.41
286.394	4.4
286.852	4.4
287.309	4.41
287.767	4.39
288.224	4.37
288.682	4.37
289.139	4.35
289.596	4.33
290.053	4.32
290.511	4.29
290.968	4.27
291.425	4.24
291.882	4.22
292.339	4.19
292.796	4.17
293.252	4.15
293.709	4.13
294.166	4.11
294.623	4.09
295.079	4.08
295.536	4.07
295.992	4.06
296.449	4.05
296.905	4.03
297.362	4.02
297.818	4.01
298.274	4
298.731	3.99
299.187	3.98
299.643	3.98
300.099	3.98
300.555	3.96
301.011	3.95
301.467	3.94
301.923	3.93
302.379	3.92
302.835	3.92
303.291	3.91
303.746	3.9
304.202	3.88
304.658	3.87
305.113	3.85
305.569	3.86
306.024	3.85
306.479	3.84
306.935	3.84
307.39	3.84
307.845	3.84
308.301	3.84
308.756	3.85
309.211	3.86
309.666	3.86
310.121	3.86
310.576	3.86
311.031	3.86
311.486	3.87
311.94	3.86
312.395	3.87
312.85	3.87
313.305	3.86
313.759	3.86
314.214	3.85
314.668	3.85
315.123	3.85
315.577	3.85
316.032	3.83
316.486	3.82
316.94	3.82
317.394	3.81
317.849	3.8
318.303	3.79
318.757	3.77
319.211	3.76
319.665	3.74
320.119	3.73
320.572	3.72
321.026	3.71
321.48	3.7
321.934	3.68
322.387	3.68
322.841	3.67
323.295	3.66
323.748	3.66
324.202	3.65
324.655	3.66
325.108	3.65
325.562	3.64
326.015	3.63
326.468	3.62
326.921	3.6
327.374	3.6
327.827	3.59
328.28	3.58
328.733	3.57
329.186	3.57
329.639	3.55
330.092	3.55
330.545	3.55
330.997	3.56
331.45	3.56
331.903	3.56
332.355	3.55
332.808	3.56
333.26	3.56
333.713	3.57
334.165	3.59
334.617	3.59
335.069	3.6
335.522	3.6
335.974	3.6
336.426	3.61
336.878	3.6
337.33	3.61
337.782	3.61
338.234	3.61
338.686	3.61
339.137	3.6
339.589	3.6
340.041	3.59
340.493	3.58
340.944	3.58
341.396	3.57
341.847	3.56
342.299	3.53
342.75	3.51
343.201	3.5
343.653	3.48
344.104	3.46
344.555	3.44
345.006	3.42
345.457	3.41
345.908	3.41
346.359	3.4
346.81	3.4
347.261	3.4
347.712	3.4
348.163	3.4
348.613	3.39
349.064	3.39
349.515	3.39
349.965	3.38
350.416	3.38
350.866	3.37
351.317	3.37
351.767	3.36
352.217	3.36
352.668	3.35
353.118	3.35
353.568	3.36
354.018	3.36
354.468	3.36
354.918	3.37
355.368	3.38
355.818	3.37
356.268	3.38
356.718	3.38
357.168	3.37
357.617	3.37
358.067	3.37
358.517	3.36
358.966	3.36
359.416	3.37
359.865	3.36
360.315	3.36
360.764	3.36
361.213	3.36
361.663	3.36
362.112	3.38
362.561	3.39
363.01	3.39
363.459	3.39
363.908	3.4
364.357	3.4
364.806	3.42
365.255	3.43
365.703	3.43
366.152	3.43
366.601	3.43
367.05	3.44
367.498	3.44
367.947	3.45
368.395	3.46
368.844	3.48
369.292	3.48
369.74	3.49
370.189	3.5
370.637	3.51
371.085	3.54
371.533	3.56
371.981	3.58
372.429	3.58
372.877	3.61
373.325	3.62
373.773	3.63
374.221	3.64
374.669	3.66
375.116	3.67
375.564	3.7
376.012	3.72
376.459	3.74
376.907	3.76
377.354	3.79
377.801	3.82
378.249	3.85
378.696	3.88
379.143	3.92
379.591	3.95
380.038	3.99
380.485	4.02
380.932	4.04
381.379	4.05
381.826	4.1
382.273	4.13
382.72	4.16
383.166	4.19
383.613	4.23
384.06	4.26
384.506	4.29
384.953	4.31
385.4	4.34
385.846	4.37
386.292	4.43
386.739	4.46
387.185	4.49
387.631	4.52
388.078	4.55
388.524	4.57
388.97	4.6
389.416	4.63
389.862	4.66
390.308	4.69
390.754	4.72
391.2	4.75
391.645	4.78
392.091	4.81
392.537	4.84
392.983	4.87
393.428	4.9
393.874	4.93
394.319	4.95
394.765	4.97
395.21	4.99
395.655	5.02
396.101	5.03
396.546	5.04
396.991	5.06
397.436	5.06
397.881	5.07
398.326	5.11
398.771	5.13
399.216	5.15
399.661	5.17
400.106	5.2
400.551	5.19
400.995	5.19
401.44	5.18
401.885	5.17
402.329	5.19
402.774	5.17
403.218	5.15
403.663	5.13
404.107	5.12
404.551	5.12
404.995	5.11
405.44	5.1
405.884	5.1
406.328	5.1
406.772	5.1
407.216	5.1
407.66	5.11
408.104	5.11
408.547	5.11
408.991	5.12
409.435	5.09
409.879	5.1
410.322	5.11
410.766	5.09
411.209	5.09
411.653	5.08
412.096	5.06
412.54	5.06
412.983	5.06
413.426	5.07
413.869	5.07
414.312	5.1
414.756	5.11
415.199	5.12
415.642	5.15
416.085	5.16
416.527	5.18
416.97	5.2
417.413	5.2
417.856	5.19
418.298	5.17
418.741	5.16
419.184	5.15
419.626	5.14
420.069	5.12
420.511	5.11
420.953	5.1
421.396	5.1
421.838	5.12
422.28	5.14
422.722	5.15
423.164	5.17
423.606	5.17
424.048	5.17
424.49	5.17
424.932	5.17
425.374	5.19
425.816	5.17
426.258	5.13
426.699	5.08
427.141	5.05
427.582	5.03
428.024	5.01
428.465	5.01
428.907	5.01
429.348	5
429.789	5
430.231	4.98
430.672	5.01
431.113	5.03
431.554	5.07
431.995	5.09
432.436	5.09
432.877	5.1
433.318	5.09
433.759	5.1
434.2	5.11
434.64	5.12
435.081	5.13
435.522	5.14
435.962	5.16
436.403	5.18
436.843	5.21
437.284	5.23
437.724	5.27
438.164	5.3
438.604	5.32
439.045	5.34
439.485	5.34
439.925	5.36
440.365	5.38
440.805	5.39
441.245	5.39
441.685	5.39
442.125	5.41
442.564	5.43
443.004	5.45
443.444	5.47
443.883	5.51
444.323	5.55
444.762	5.59
445.202	5.63
445.641	5.68
446.081	5.75
446.52	5.78
446.959	5.83
447.398	5.9
447.837	5.95
448.276	6
448.716	6.03
449.154	6.08
449.593	6.13
450.032	6.16
450.471	6.18
450.91	6.17
451.349	6.2
451.787	6.21
452.226	6.19
452.664	6.19
453.103	6.19
453.541	6.19
453.98	6.16
454.418	6.14
454.856	6.1
455.295	6.08
455.733	6.08
456.171	6.06
456.609	6.06
457.047	6.05
457.485	6.04
457.923	6.03
458.361	6.01
458.798	6.02
459.236	6.02
459.674	6.05
460.111	6.04
460.549	6.04
460.987	6.03
461.424	6.03
461.862	6.02
462.299	6.02
462.736	6.01
463.173	6.03
463.611	6.03
464.048	6.03
464.485	6.01
464.922	6.01
465.359	6.03
465.796	6.01
466.233	6.01
466.67	6.02
467.106	6
467.543	6
467.98	6.01
468.416	6
468.853	6
469.29	6.02
469.726	6.03
470.162	6.02
470.599	6.05
471.035	6.05
471.471	6.03
471.907	6.05
472.344	6.06
472.78	6.06
473.216	6.07
473.652	6.07
474.088	6.08
474.523	6.07
474.959	6.06
475.395	6.05
475.831	6.05
476.266	6.07
476.702	6.07
477.138	6.06
477.573	6.06
478.008	6.06
478.444	6.07
478.879	6.05
479.314	6.05
479.75	6.06
480.185	6.06
480.62	6.06
481.055	6.06
481.49	6.05
481.925	6.05
482.36	6.04
482.795	6.04
483.229	6.04
483.664	6.04
484.099	6.05
484.534	6.07
484.968	6.09
485.403	6.09
485.837	6.11
486.271	6.12
486.706	6.14
487.14	6.18
487.574	6.2
488.009	6.24
488.443	6.26
488.877	6.3
489.311	6.33
489.745	6.37
490.179	6.42
490.613	6.47
491.046	6.53
491.48	6.59
491.914	6.65
492.348	6.71
492.781	6.77
493.215	6.84
493.648	6.91
494.082	7.01
494.515	7.08
494.948	7.17
495.382	7.25
495.815	7.35
496.248	7.44
496.681	7.54
497.114	7.65
497.547	7.76
497.98	7.89
498.413	8.01
498.846	8.12
499.279	8.26
499.711	8.39
500.144	8.54
500.577	8.68
501.009	8.85
501.442	9.02
501.874	9.19
502.306	9.37
502.739	9.54
503.171	9.75
503.603	9.96
504.036	10.17
504.468	10.4
504.9	10.63
505.332	10.88
505.764	11.12
506.196	11.38
506.627	11.66
507.059	11.93
507.491	12.22
507.923	12.5
508.354	12.8
508.786	13.12
509.217	13.41
509.649	13.73
510.08	14.06
510.512	14.39
510.943	14.75
511.374	15.1
511.805	15.46
512.237	15.83
512.668	16.19
513.099	16.58
513.53	16.95
513.961	17.36
514.391	17.73
514.822	18.1
515.253	18.51
515.684	18.89
516.114	19.28
516.545	19.68
516.975	20.08
517.406	20.48
517.836	20.86
518.267	21.27
518.697	21.66
519.127	22.06
519.558	22.48
519.988	22.86
520.418	23.24
520.848	23.63
521.278	23.99
521.708	24.19
522.138	24.54
522.567	24.89
522.997	25.22
523.427	25.55
523.857	25.86
524.286	26.16
524.716	26.48
525.145	26.78
525.575	27.05
526.004	27.33
526.433	27.76
526.863	28.04
527.292	28.29
527.721	28.55
528.15	28.77
528.579	28.99
529.008	29.21
529.437	29.4
529.866	29.59
530.295	29.79
530.724	29.98
531.152	30.17
531.581	30.32
532.01	30.47
532.438	30.6
532.867	30.75
533.295	30.88
533.723	31.03
534.152	31.13
534.58	31.22
535.008	31.3
535.436	31.38
535.865	31.43
536.293	31.5
536.721	31.57
537.149	31.65
537.576	31.71
538.004	31.78
538.432	31.81
538.86	31.87
539.287	31.94
539.715	31.99
540.143	32.03
540.57	32.08
540.998	32.13
541.425	32.17
541.852	32.2
542.28	32.23
542.707	32.26
543.134	32.3
543.561	32.32
543.988	32.36
544.415	32.39
544.842	32.42
545.269	32.45
545.696	32.49
546.123	32.52
546.549	32.56
546.976	32.61
547.403	32.64
547.829	32.66
548.256	32.69
548.682	32.69
549.108	32.72
549.535	32.74
549.961	32.76
550.387	32.76
550.813	32.77
551.24	32.77
551.666	32.76
552.092	32.78
552.518	32.78
552.943	32.8
553.369	32.81
553.795	32.81
554.221	32.79
554.646	32.77
555.072	32.75
555.498	32.72
555.923	32.69
556.349	32.62
556.774	32.56
557.199	32.49
557.625	32.4
558.05	32.29
558.475	32.19
558.9	32.14
559.325	32.03
559.75	31.9
560.175	31.78
560.6	31.66
561.025	31.54
561.449	31.38
561.874	31.25
562.299	31.11
562.723	30.96
563.148	30.79
563.572	30.62
563.997	30.45
564.421	30.3
564.846	30.12
565.27	29.93
565.694	29.75
566.118	29.57
566.542	29.38
566.966	29.18
567.39	28.98
567.814	28.78
568.238	28.54
568.662	28.34
569.086	28.11
569.509	27.92
569.933	27.71
570.357	27.49
570.78	27.3
571.204	27.08
571.627	26.87
572.05	26.69
572.474	26.52
572.897	26.34
573.32	26.17
573.743	26.02
574.166	25.83
574.589	25.68
575.012	25.54
575.435	25.38
575.858	25.24
576.281	25.1
576.704	24.95
577.126	24.78
577.549	24.68
577.972	24.56
578.394	24.42
578.817	24.29
579.239	24.18
579.661	24.04
580.084	23.92
580.506	23.82
580.928	23.71
581.35	23.62
581.772	23.54
582.194	23.41
582.616	23.29
583.038	23.2
583.46	23.11
583.882	23.01
584.303	22.94
584.725	22.86
585.147	22.75
585.568	22.67
585.99	22.58
586.411	22.49
586.833	22.43
587.254	22.37
587.675	22.28
588.096	22.22
588.518	22.15
588.939	22.07
589.36	21.99
589.781	21.92
590.202	21.85
590.623	21.79
591.043	21.74
591.464	21.68
591.885	21.61
592.305	21.57
592.726	21.5
593.147	21.46
593.567	21.39
593.987	21.36
594.408	21.32
594.828	21.26
595.248	21.23
595.669	21.17
596.089	21.12
596.509	21.06
596.929	20.99
597.349	20.94
597.769	20.88
598.189	20.84
598.608	20.76
599.028	20.71
599.448	20.66
599.867	20.59
600.287	20.54
600.706	20.48
601.126	20.42
601.545	20.37
601.965	20.31
602.384	20.27
602.803	20.2
603.222	20.13
603.641	20.05
604.061	19.98
604.48	19.9
604.898	19.8
605.317	19.71
605.736	19.63
606.155	19.53
606.574	19.44
606.992	19.32
607.411	19.23
607.829	19.11
608.248	19.01
608.666	18.91
609.085	18.81
609.503	18.71
609.921	18.62
610.339	18.52
610.758	18.44
611.176	18.34
611.594	18.24
612.012	18.15
612.43	18.1
612.847	18.01
613.265	17.93
613.683	17.84
614.101	17.76
614.518	17.66
614.936	17.56
615.353	17.46
615.771	17.37
616.188	17.3
616.606	17.21
617.023	17.13
617.44	17.04
617.857	16.96
618.274	16.89
618.691	16.82
619.108	16.77
619.525	16.73
619.942	16.69
620.359	16.65
620.776	16.6
621.192	16.57
621.609	16.52
622.026	16.48
622.442	16.45
622.859	16.41
623.275	16.4
623.691	16.38
624.108	16.34
624.524	16.33
624.94	16.3
625.356	16.28
625.772	16.25
626.188	16.25
626.604	16.22
627.02	16.2
627.436	16.19
627.852	16.15
628.268	16.12
628.683	16.08
629.099	16.03
629.514	16
629.93	15.96
630.345	15.92
630.761	15.85
631.176	15.81
631.591	15.75
632.007	15.67
632.422	15.61
632.837	15.53
633.252	15.44
633.667	15.33
634.082	15.21
634.497	15.09
634.911	14.96
635.326	14.82
635.741	14.66
636.155	14.51
636.57	14.35
636.984	14.17
637.399	13.98
637.813	13.79
638.228	13.61
638.642	13.43
639.056	13.24
639.47	13.06
639.884	12.88
640.298	12.7
640.712	12.5
641.126	12.3
641.54	12.11
641.954	11.95
642.368	11.78
642.781	11.6
643.195	11.42
643.609	11.26
644.022	11.1
644.436	10.95
644.849	10.8
645.262	10.67
645.676	10.55
646.089	10.42
646.502	10.3
646.915	10.2
647.328	10.1
647.741	10
648.154	9.92
648.567	9.84
648.98	9.77
649.393	9.69
649.805	9.62
650.218	9.56
650.631	9.51
651.043	9.46
651.456	9.41
651.868	9.36
652.28	9.33
652.693	9.27
653.105	9.21
653.517	9.15
653.929	9.1
654.341	9.06
654.753	8.99
655.165	8.92
655.577	8.83
655.989	8.74
656.401	8.65
656.813	8.55
657.224	8.46
657.636	8.37
658.047	8.27
658.459	8.14
658.87	8.02
659.282	7.92
659.693	7.8
660.104	7.69
660.515	7.58
660.926	7.48
661.338	7.38
661.749	7.27
662.159	7.15
662.57	7.07
662.981	6.98
663.392	6.89
663.803	6.8
664.213	6.72
664.624	6.66
665.035	6.59
665.445	6.54
665.855	6.49
666.266	6.42
666.676	6.39
667.086	6.33
667.497	6.29
667.907	6.24
668.317	6.21
668.727	6.18
669.137	6.15
669.547	6.13
669.956	6.09
670.366	6.09
670.776	6.08
671.186	6.07
671.595	6.09
672.005	6.1
672.414	6.12
672.824	6.13
673.233	6.16
673.642	6.16
674.052	6.17
674.461	6.21
674.87	6.22
675.279	6.25
675.688	6.28
676.097	6.31
676.506	6.35
676.915	6.4
677.323	6.44
677.732	6.5
678.141	6.58
678.549	6.67
678.958	6.74
679.366	6.83
679.775	6.94
680.183	7.05
680.592	7.18
681	7.3
681.408	7.44
681.816	7.61
682.224	7.8
682.632	8
683.04	8.22
683.448	8.47
683.856	8.74
684.264	9.04
684.671	9.36
685.079	9.71
685.487	10.1
685.894	10.54
686.302	11
686.709	11.47
687.116	11.99
687.524	12.53
687.931	13.1
688.338	13.72
688.745	14.38
689.152	15.06
689.559	15.76
689.966	16.49
690.373	17.21
690.78	17.97
691.187	18.76
691.593	19.54
692	20.34
692.407	21.16
692.813	21.99
693.22	22.81
693.626	23.63
694.032	24.46
694.439	25.31
694.845	26.14
695.251	26.94
695.657	27.72
696.063	28.56
696.469	29.38
696.875	30.15
697.281	30.9
697.687	31.65
698.093	32.4
698.498	33.11
698.904	33.81
699.31	34.53
699.715	35.24
700.12	35.93
700.526	36.58
700.931	37.21
701.337	37.85
701.742	38.44
702.147	39.05
702.552	39.65
702.957	40.22
703.362	40.8
703.767	41.35
704.172	41.9
704.577	42.44
704.981	42.99
705.386	43.52
705.791	44.06
706.195	44.59
706.6	45.08
707.004	45.56
707.408	46.04
707.813	46.46
708.217	46.91
708.621	47.35
709.025	47.79
709.43	48.18
709.834	48.61
710.237	49
710.641	49.39
711.045	49.79
711.449	50.14
711.853	50.54
712.256	50.95
712.66	51.31
713.064	51.66
713.467	52
713.87	52.33
714.274	52.66
714.677	53
715.08	53.29
715.484	53.59
715.887	53.92
716.29	54.22
716.693	54.5
717.096	54.77
717.499	55.03
717.901	55.31
718.304	55.59
718.707	55.83
719.109	56.09
719.512	56.36
719.915	56.61
720.317	56.87
720.719	57.07
721.122	57.3
721.524	57.53
721.926	57.75
722.328	57.97
722.731	58.18
723.133	58.42
723.535	58.6
723.937	58.8
724.338	58.97
724.74	59.12
725.142	59.25
725.544	59.41
725.945	59.57
726.347	59.72
726.748	59.82
727.15	59.96
727.551	60.08
727.952	60.21
728.354	60.34
728.755	60.46
729.156	60.59
729.557	60.78
729.958	60.91
730.359	61.06
730.76	61.17
731.161	61.29
731.562	61.39
731.962	61.5
732.363	61.58
732.763	61.69
733.164	61.76
733.564	61.85
733.965	61.89
734.365	61.94
734.766	61.96
735.166	61.98
735.566	62.03
735.966	62.06
736.366	62.08
736.766	62.14
737.166	62.16
737.566	62.21
737.966	62.23
738.365	62.28
738.765	62.31
739.165	62.32
739.564	62.37
739.964	62.38
740.363	62.42
740.763	62.46
741.162	62.45
741.561	62.48
741.96	62.55
742.36	62.58
742.759	62.57
743.158	62.61
743.557	62.71
743.955	62.78
744.354	62.86
744.753	62.92
745.152	62.94
745.55	62.99
745.949	63.04
746.348	63.04
746.746	63.08
747.144	63.17
747.543	63.21
747.941	63.24
748.339	63.29
748.737	63.34
749.136	63.35
749.534	63.41
749.932	63.44
750.33	63.43
750.727	63.45
751.125	63.43
751.523	63.39
751.921	63.41
752.318	63.37
752.716	63.31
753.113	63.28
753.511	63.24
753.908	63.19
754.305	63.14
754.703	63.12
755.1	63.12
755.497	63.13
755.894	63.14
756.291	63.11
756.688	63.12
757.085	63.13
757.482	63.09
757.878	63.09
758.275	63.09
758.672	63.14
759.068	63.15
759.465	63.15
759.861	63.13
760.258	63.07
760.654	63.04
761.05	63.03
761.447	63
761.843	62.98
762.239	62.94
762.635	62.92
763.031	62.91
763.427	62.9
763.822	62.86
764.218	62.86
764.614	62.89
765.01	62.89
765.405	62.89
765.801	62.83
766.196	62.86
766.592	62.92
766.987	62.92
767.382	62.9
767.778	62.87
768.173	62.89
768.568	62.87
768.963	62.87
769.358	62.88
769.753	62.88
770.148	62.92
770.542	62.89
770.937	62.9
771.332	62.91
771.726	62.92
772.121	62.89
772.515	62.9
772.91	62.92
773.304	62.9
773.699	62.88
774.093	62.86
774.487	62.86
774.881	62.87
775.275	62.85
775.669	62.85
776.063	62.81
776.457	62.81
776.851	62.77
777.245	62.79
777.638	62.84
778.032	62.85
778.425	62.88
778.819	62.84
779.212	62.8
779.606	62.8
779.999	62.79
780.392	62.8
780.786	62.86
781.179	62.89
781.572	62.86
781.965	62.82
