Data from N_3_hir_wi_4n_Splice17_17.txt Node
Date: Sat Feb 29 14:54:34 EST 2020
User: sa697716
Spectrometer: FLMS03696
Trigger mode: 0
Integration Time (sec): 3.180400E-1
Scans to average: 20
Electric dark correction enabled: true
Nonlinearity correction enabled: true
Boxcar width: 5
XAxis mode: Wavelengths
Number of Pixels in Spectrum: 2048
>>>>>Begin Spectral Data<<<<<
187.83	29.16
188.298	26.18
188.766	39.13
189.233	42.8
189.701	43.34
190.169	47.54
190.636	61.79
191.104	52.03
191.571	262.15
192.039	213.68
192.506	-140.39
192.974	1954.64
193.441	27.73
193.908	104.8
194.375	237.29
194.842	211.05
195.31	125.05
195.777	175.11
196.244	65.76
196.711	53.37
197.177	49.4
197.644	48.69
198.111	49.03
198.578	49.51
199.045	49.53
199.511	48.99
199.978	49.51
200.445	49.47
200.911	49.55
201.378	49.75
201.844	50.57
202.31	51.06
202.777	51.19
203.243	51.52
203.709	51.81
204.176	51.22
204.642	51.22
205.108	50.66
205.574	51.37
206.04	51.05
206.506	50.96
206.972	50.12
207.438	49.92
207.903	49.88
208.369	48.68
208.835	48.01
209.301	47.98
209.766	47.18
210.232	46.93
210.697	45.38
211.163	44.46
211.628	43.29
212.094	42.87
212.559	41.62
213.024	40.66
213.49	40.26
213.955	39.28
214.42	38.03
214.885	37.18
215.35	35.78
215.815	34.34
216.28	32.45
216.745	30.53
217.21	28.32
217.675	26.54
218.14	24.48
218.604	22.74
219.069	21.42
219.534	20.24
219.998	19.18
220.463	18.33
220.927	17.56
221.392	16.91
221.856	16.33
222.32	15.84
222.785	15.39
223.249	15.03
223.713	14.67
224.177	14.35
224.642	14.04
225.106	13.73
225.57	13.42
226.034	13.17
226.497	12.92
226.961	12.69
227.425	12.46
227.889	12.27
228.353	12.08
228.816	11.87
229.28	11.63
229.744	11.45
230.207	11.28
230.671	11.12
231.134	10.94
231.597	10.8
232.061	10.64
232.524	10.49
232.987	10.33
233.45	10.18
233.914	10.07
234.377	9.95
234.84	9.83
235.303	9.74
235.766	9.62
236.229	9.53
236.691	9.44
237.154	9.35
237.617	9.27
238.08	9.17
238.542	9.07
239.005	8.98
239.468	8.87
239.93	8.8
240.393	8.71
240.855	8.62
241.317	8.54
241.78	8.46
242.242	8.36
242.704	8.28
243.166	8.21
243.629	8.15
244.091	8.08
244.553	8.03
245.015	7.96
245.477	7.88
245.939	7.81
246.4	7.73
246.862	7.66
247.324	7.61
247.786	7.53
248.247	7.46
248.709	7.39
249.17	7.34
249.632	7.28
250.093	7.2
250.555	7.15
251.016	7.11
251.477	7.06
251.939	7
252.4	6.95
252.861	6.91
253.322	6.86
253.783	6.82
254.244	6.76
254.705	6.71
255.166	6.69
255.627	6.65
256.088	6.59
256.549	6.56
257.009	6.53
257.47	6.49
257.931	6.45
258.391	6.41
258.852	6.36
259.312	6.33
259.773	6.29
260.233	6.24
260.694	6.2
261.154	6.16
261.614	6.12
262.074	6.08
262.534	6.03
262.994	5.99
263.455	5.96
263.915	5.94
264.374	5.9
264.834	5.86
265.294	5.83
265.754	5.8
266.214	5.78
266.673	5.74
267.133	5.71
267.593	5.69
268.052	5.67
268.512	5.64
268.971	5.62
269.431	5.6
269.89	5.58
270.349	5.56
270.809	5.54
271.268	5.53
271.727	5.52
272.186	5.51
272.645	5.49
273.104	5.47
273.563	5.46
274.022	5.44
274.481	5.42
274.94	5.4
275.399	5.39
275.857	5.37
276.316	5.35
276.775	5.33
277.233	5.31
277.692	5.3
278.15	5.28
278.609	5.27
279.067	5.25
279.525	5.23
279.984	5.22
280.442	5.2
280.9	5.18
281.358	5.16
281.816	5.14
282.274	5.11
282.732	5.1
283.19	5.09
283.648	5.08
284.106	5.06
284.564	5.07
285.021	5.06
285.479	5.06
285.937	5.05
286.394	5.04
286.852	5.04
287.309	5.04
287.767	5.03
288.224	5.01
288.682	4.99
289.139	4.98
289.596	4.95
290.053	4.92
290.511	4.89
290.968	4.87
291.425	4.85
291.882	4.83
292.339	4.81
292.796	4.79
293.252	4.77
293.709	4.75
294.166	4.73
294.623	4.71
295.079	4.7
295.536	4.69
295.992	4.68
296.449	4.66
296.905	4.64
297.362	4.62
297.818	4.61
298.274	4.6
298.731	4.58
299.187	4.58
299.643	4.56
300.099	4.56
300.555	4.54
301.011	4.53
301.467	4.52
301.923	4.51
302.379	4.5
302.835	4.5
303.291	4.49
303.746	4.49
304.202	4.47
304.658	4.46
305.113	4.46
305.569	4.45
306.024	4.45
306.479	4.45
306.935	4.44
307.39	4.44
307.845	4.43
308.301	4.44
308.756	4.43
309.211	4.44
309.666	4.43
310.121	4.43
310.576	4.43
311.031	4.42
311.486	4.42
311.94	4.42
312.395	4.41
312.85	4.41
313.305	4.4
313.759	4.4
314.214	4.4
314.668	4.39
315.123	4.39
315.577	4.38
316.032	4.39
316.486	4.38
316.94	4.37
317.394	4.36
317.849	4.35
318.303	4.34
318.757	4.33
319.211	4.31
319.665	4.3
320.119	4.29
320.572	4.29
321.026	4.26
321.48	4.25
321.934	4.26
322.387	4.25
322.841	4.23
323.295	4.23
323.748	4.23
324.202	4.22
324.655	4.21
325.108	4.2
325.562	4.18
326.015	4.18
326.468	4.16
326.921	4.15
327.374	4.14
327.827	4.13
328.28	4.12
328.733	4.1
329.186	4.1
329.639	4.09
330.092	4.09
330.545	4.09
330.997	4.1
331.45	4.09
331.903	4.08
332.355	4.08
332.808	4.09
333.26	4.1
333.713	4.11
334.165	4.11
334.617	4.12
335.069	4.12
335.522	4.12
335.974	4.12
336.426	4.13
336.878	4.14
337.33	4.14
337.782	4.14
338.234	4.13
338.686	4.12
339.137	4.13
339.589	4.12
340.041	4.12
340.493	4.1
340.944	4.08
341.396	4.07
341.847	4.06
342.299	4.04
342.75	4.02
343.201	4
343.653	3.99
344.104	3.97
344.555	3.95
345.006	3.93
345.457	3.91
345.908	3.91
346.359	3.91
346.81	3.91
347.261	3.91
347.712	3.91
348.163	3.91
348.613	3.9
349.064	3.89
349.515	3.89
349.965	3.89
350.416	3.89
350.866	3.88
351.317	3.87
351.767	3.86
352.217	3.86
352.668	3.85
353.118	3.85
353.568	3.86
354.018	3.88
354.468	3.88
354.918	3.88
355.368	3.89
355.818	3.9
356.268	3.9
356.718	3.92
357.168	3.91
357.617	3.93
358.067	3.94
358.517	3.94
358.966	3.94
359.416	3.96
359.865	3.96
360.315	3.96
360.764	3.98
361.213	3.99
361.663	3.99
362.112	4.01
362.561	4.03
363.01	4.03
363.459	4.04
363.908	4.05
364.357	4.06
364.806	4.07
365.255	4.1
365.703	4.11
366.152	4.13
366.601	4.15
367.05	4.18
367.498	4.2
367.947	4.21
368.395	4.23
368.844	4.26
369.292	4.29
369.74	4.32
370.189	4.34
370.637	4.37
371.085	4.4
371.533	4.42
371.981	4.45
372.429	4.46
372.877	4.5
373.325	4.53
373.773	4.56
374.221	4.6
374.669	4.62
375.116	4.65
375.564	4.69
376.012	4.72
376.459	4.76
376.907	4.81
377.354	4.84
377.801	4.88
378.249	4.93
378.696	4.97
379.143	5.01
379.591	5.05
380.038	5.1
380.485	5.14
380.932	5.17
381.379	5.2
381.826	5.24
382.273	5.28
382.72	5.32
383.166	5.35
383.613	5.38
384.06	5.42
384.506	5.45
384.953	5.48
385.4	5.51
385.846	5.54
386.292	5.57
386.739	5.61
387.185	5.65
387.631	5.68
388.078	5.72
388.524	5.73
388.97	5.75
389.416	5.77
389.862	5.79
390.308	5.81
390.754	5.83
391.2	5.86
391.645	5.88
392.091	5.9
392.537	5.92
392.983	5.94
393.428	5.96
393.874	5.99
394.319	6.02
394.765	6.04
395.21	6.06
395.655	6.08
396.101	6.08
396.546	6.09
396.991	6.1
397.436	6.09
397.881	6.11
398.326	6.13
398.771	6.15
399.216	6.16
399.661	6.19
400.106	6.22
400.551	6.22
400.995	6.22
401.44	6.2
401.885	6.2
402.329	6.21
402.774	6.2
403.218	6.2
403.663	6.19
404.107	6.2
404.551	6.2
404.995	6.18
405.44	6.18
405.884	6.19
406.328	6.21
406.772	6.23
407.216	6.25
407.66	6.26
408.104	6.27
408.547	6.27
408.991	6.25
409.435	6.24
409.879	6.24
410.322	6.24
410.766	6.25
411.209	6.25
411.653	6.24
412.096	6.23
412.54	6.23
412.983	6.23
413.426	6.23
413.869	6.25
414.312	6.29
414.756	6.29
415.199	6.32
415.642	6.33
416.085	6.37
416.527	6.38
416.97	6.39
417.413	6.38
417.856	6.38
418.298	6.36
418.741	6.35
419.184	6.33
419.626	6.34
420.069	6.34
420.511	6.33
420.953	6.32
421.396	6.31
421.838	6.32
422.28	6.35
422.722	6.38
423.164	6.4
423.606	6.42
424.048	6.42
424.49	6.42
424.932	6.43
425.374	6.44
425.816	6.42
426.258	6.41
426.699	6.38
427.141	6.35
427.582	6.34
428.024	6.34
428.465	6.35
428.907	6.38
429.348	6.37
429.789	6.37
430.231	6.36
430.672	6.37
431.113	6.4
431.554	6.44
431.995	6.47
432.436	6.47
432.877	6.47
433.318	6.47
433.759	6.46
434.2	6.48
434.64	6.48
435.081	6.48
435.522	6.5
435.962	6.52
436.403	6.55
436.843	6.58
437.284	6.61
437.724	6.64
438.164	6.67
438.604	6.69
439.045	6.69
439.485	6.71
439.925	6.72
440.365	6.73
440.805	6.75
441.245	6.74
441.685	6.74
442.125	6.75
442.564	6.77
443.004	6.8
443.444	6.81
443.883	6.83
444.323	6.85
444.762	6.89
445.202	6.95
445.641	6.97
446.081	7
446.52	7.01
446.959	7.05
447.398	7.11
447.837	7.13
448.276	7.15
448.716	7.18
449.154	7.23
449.593	7.25
450.032	7.27
450.471	7.29
450.91	7.3
451.349	7.32
451.787	7.31
452.226	7.28
452.664	7.25
453.103	7.25
453.541	7.26
453.98	7.24
454.418	7.22
454.856	7.17
455.295	7.15
455.733	7.15
456.171	7.15
456.609	7.15
457.047	7.14
457.485	7.15
457.923	7.16
458.361	7.15
458.798	7.16
459.236	7.16
459.674	7.17
460.111	7.18
460.549	7.16
460.987	7.16
461.424	7.15
461.862	7.14
462.299	7.12
462.736	7.11
463.173	7.09
463.611	7.07
464.048	7.07
464.485	7.05
464.922	7.02
465.359	7.04
465.796	7.03
466.233	7.03
466.67	7.04
467.106	7.05
467.543	7.05
467.98	7.07
468.416	7.08
468.853	7.09
469.29	7.11
469.726	7.14
470.162	7.14
470.599	7.15
471.035	7.16
471.471	7.15
471.907	7.16
472.344	7.17
472.78	7.17
473.216	7.18
473.652	7.18
474.088	7.19
474.523	7.19
474.959	7.18
475.395	7.18
475.831	7.17
476.266	7.18
476.702	7.19
477.138	7.19
477.573	7.18
478.008	7.16
478.444	7.14
478.879	7.13
479.314	7.12
479.75	7.13
480.185	7.11
480.62	7.11
481.055	7.1
481.49	7.07
481.925	7.05
482.36	7.04
482.795	7.03
483.229	7.04
483.664	7.03
484.099	7.03
484.534	7.02
484.968	7.04
485.403	7.04
485.837	7.04
486.271	7.04
486.706	7.04
487.14	7.06
487.574	7.07
488.009	7.08
488.443	7.1
488.877	7.13
489.311	7.13
489.745	7.14
490.179	7.16
490.613	7.19
491.046	7.23
491.48	7.27
491.914	7.3
492.348	7.34
492.781	7.36
493.215	7.39
493.648	7.43
494.082	7.49
494.515	7.54
494.948	7.59
495.382	7.63
495.815	7.69
496.248	7.75
496.681	7.81
497.114	7.87
497.547	7.95
497.98	8.03
498.413	8.09
498.846	8.17
499.279	8.25
499.711	8.33
500.144	8.41
500.577	8.5
501.009	8.58
501.442	8.69
501.874	8.78
502.306	8.89
502.739	8.99
503.171	9.11
503.603	9.24
504.036	9.37
504.468	9.52
504.9	9.67
505.332	9.81
505.764	9.98
506.196	10.14
506.627	10.29
507.059	10.47
507.491	10.65
507.923	10.81
508.354	10.98
508.786	11.15
509.217	11.33
509.649	11.53
510.08	11.73
510.512	11.93
510.943	12.13
511.374	12.36
511.805	12.55
512.237	12.78
512.668	13.01
513.099	13.24
513.53	13.48
513.961	13.72
514.391	13.94
514.822	14.17
515.253	14.41
515.684	14.64
516.114	14.88
516.545	15.13
516.975	15.37
517.406	15.61
517.836	15.85
518.267	16.08
518.697	16.33
519.127	16.57
519.558	16.81
519.988	17.05
520.418	17.28
520.848	17.51
521.278	17.73
521.708	17.78
522.138	17.97
522.567	18.16
522.997	18.37
523.427	18.56
523.857	18.74
524.286	18.91
524.716	19.09
525.145	19.26
525.575	19.44
526.004	19.62
526.433	19.94
526.863	20.12
527.292	20.28
527.721	20.4
528.15	20.53
528.579	20.67
529.008	20.8
529.437	20.92
529.866	21.04
530.295	21.13
530.724	21.25
531.152	21.37
531.581	21.46
532.01	21.57
532.438	21.67
532.867	21.77
533.295	21.86
533.723	21.93
534.152	22
534.58	22.07
535.008	22.12
535.436	22.15
535.865	22.19
536.293	22.24
536.721	22.27
537.149	22.3
537.576	22.34
538.004	22.38
538.432	22.42
538.86	22.45
539.287	22.48
539.715	22.51
540.143	22.54
540.57	22.58
540.998	22.61
541.425	22.65
541.852	22.67
542.28	22.69
542.707	22.7
543.134	22.71
543.561	22.73
543.988	22.77
544.415	22.8
544.842	22.83
545.269	22.84
545.696	22.85
546.123	22.88
546.549	22.92
546.976	22.96
547.403	23
547.829	23.01
548.256	23.03
548.682	23.02
549.108	23.04
549.535	23.05
549.961	23.06
550.387	23.08
550.813	23.07
551.24	23.06
551.666	23.06
552.092	23.06
552.518	23.08
552.943	23.09
553.369	23.11
553.795	23.1
554.221	23.08
554.646	23.09
555.072	23.06
555.498	23.05
555.923	23.03
556.349	22.98
556.774	22.95
557.199	22.91
557.625	22.85
558.05	22.79
558.475	22.75
558.9	22.69
559.325	22.62
559.75	22.55
560.175	22.48
560.6	22.39
561.025	22.32
561.449	22.25
561.874	22.17
562.299	22.09
562.723	22.01
563.148	21.92
563.572	21.83
563.997	21.75
564.421	21.66
564.846	21.55
565.27	21.45
565.694	21.34
566.118	21.2
566.542	21.08
566.966	20.96
567.39	20.82
567.814	20.67
568.238	20.52
568.662	20.37
569.086	20.23
569.509	20.09
569.933	19.96
570.357	19.81
570.78	19.69
571.204	19.54
571.627	19.41
572.05	19.29
572.474	19.17
572.897	19.08
573.32	18.96
573.743	18.85
574.166	18.73
574.589	18.62
575.012	18.55
575.435	18.43
575.858	18.35
576.281	18.27
576.704	18.2
577.126	18.11
577.549	18.04
577.972	17.96
578.394	17.89
578.817	17.83
579.239	17.76
579.661	17.68
580.084	17.63
580.506	17.57
580.928	17.52
581.35	17.45
581.772	17.41
582.194	17.34
582.616	17.29
583.038	17.24
583.46	17.17
583.882	17.12
584.303	17.07
584.725	17.03
585.147	16.96
585.568	16.89
585.99	16.82
586.411	16.75
586.833	16.69
587.254	16.63
587.675	16.58
588.096	16.54
588.518	16.49
588.939	16.46
589.36	16.39
589.781	16.35
590.202	16.32
590.623	16.3
591.043	16.27
591.464	16.25
591.885	16.23
592.305	16.21
592.726	16.18
593.147	16.14
593.567	16.1
593.987	16.09
594.408	16.08
594.828	16.06
595.248	16.03
595.669	16.01
596.089	15.99
596.509	15.96
596.929	15.91
597.349	15.89
597.769	15.86
598.189	15.84
598.608	15.79
599.028	15.74
599.448	15.71
599.867	15.66
600.287	15.62
600.706	15.56
601.126	15.53
601.545	15.49
601.965	15.45
602.384	15.41
602.803	15.37
603.222	15.32
603.641	15.27
604.061	15.21
604.48	15.17
604.898	15.11
605.317	15.04
605.736	14.98
606.155	14.9
606.574	14.84
606.992	14.79
607.411	14.72
607.829	14.61
608.248	14.55
608.666	14.47
609.085	14.4
609.503	14.33
609.921	14.26
610.339	14.2
610.758	14.14
611.176	14.07
611.594	14
612.012	13.91
612.43	13.89
612.847	13.84
613.265	13.78
613.683	13.72
614.101	13.67
614.518	13.61
614.936	13.54
615.353	13.49
615.771	13.43
616.188	13.38
616.606	13.34
617.023	13.28
617.44	13.22
617.857	13.17
618.274	13.12
618.691	13.08
619.108	13.04
619.525	13.01
619.942	12.98
620.359	12.94
620.776	12.9
621.192	12.87
621.609	12.85
622.026	12.84
622.442	12.81
622.859	12.78
623.275	12.79
623.691	12.78
624.108	12.77
624.524	12.74
624.94	12.73
625.356	12.72
625.772	12.71
626.188	12.7
626.604	12.68
627.02	12.69
627.436	12.69
627.852	12.66
628.268	12.64
628.683	12.62
629.099	12.62
629.514	12.6
629.93	12.58
630.345	12.55
630.761	12.51
631.176	12.5
631.591	12.44
632.007	12.39
632.422	12.35
632.837	12.31
633.252	12.26
633.667	12.18
634.082	12.13
634.497	12.07
634.911	12
635.326	11.94
635.741	11.85
636.155	11.78
636.57	11.7
636.984	11.6
637.399	11.49
637.813	11.4
638.228	11.3
638.642	11.2
639.056	11.09
639.47	10.99
639.884	10.88
640.298	10.78
640.712	10.67
641.126	10.55
641.54	10.44
641.954	10.37
642.368	10.25
642.781	10.16
643.195	10.05
643.609	9.95
644.022	9.86
644.436	9.78
644.849	9.69
645.262	9.6
645.676	9.52
646.089	9.45
646.502	9.36
646.915	9.3
647.328	9.25
647.741	9.18
648.154	9.14
648.567	9.09
648.98	9.04
649.393	9
649.805	8.95
650.218	8.93
650.631	8.89
651.043	8.86
651.456	8.82
651.868	8.79
652.28	8.76
652.693	8.71
653.105	8.66
653.517	8.62
653.929	8.57
654.341	8.55
654.753	8.5
655.165	8.45
655.577	8.39
655.989	8.33
656.401	8.26
656.813	8.19
657.224	8.14
657.636	8.1
658.047	8.03
658.459	7.95
658.87	7.86
659.282	7.79
659.693	7.71
660.104	7.64
660.515	7.57
660.926	7.51
661.338	7.44
661.749	7.36
662.159	7.27
662.57	7.21
662.981	7.16
663.392	7.1
663.803	7.03
664.213	6.97
664.624	6.93
665.035	6.87
665.445	6.82
665.855	6.79
666.266	6.75
666.676	6.72
667.086	6.68
667.497	6.64
667.907	6.6
668.317	6.57
668.727	6.55
669.137	6.52
669.547	6.51
669.956	6.48
670.366	6.48
670.776	6.47
671.186	6.48
671.595	6.49
672.005	6.5
672.414	6.52
672.824	6.55
673.233	6.57
673.642	6.57
674.052	6.58
674.461	6.61
674.87	6.62
675.279	6.64
675.688	6.64
676.097	6.66
676.506	6.67
676.915	6.69
677.323	6.71
677.732	6.74
678.141	6.79
678.549	6.85
678.958	6.91
679.366	6.96
679.775	7.02
680.183	7.09
680.592	7.17
681	7.25
681.408	7.34
681.816	7.43
682.224	7.54
682.632	7.67
683.04	7.78
683.448	7.9
683.856	8.04
684.264	8.22
684.671	8.43
685.079	8.63
685.487	8.87
685.894	9.13
686.302	9.39
686.709	9.67
687.116	9.97
687.524	10.3
687.931	10.65
688.338	11.02
688.745	11.4
689.152	11.78
689.559	12.18
689.966	12.6
690.373	13.05
690.78	13.52
691.187	13.99
691.593	14.46
692	14.94
692.407	15.44
692.813	15.93
693.22	16.44
693.626	16.96
694.032	17.48
694.439	18.01
694.845	18.51
695.251	18.99
695.657	19.48
696.063	19.98
696.469	20.47
696.875	20.95
697.281	21.42
697.687	21.89
698.093	22.32
698.498	22.76
698.904	23.21
699.31	23.63
699.715	24.07
700.12	24.49
700.526	24.92
700.931	25.32
701.337	25.73
701.742	26.12
702.147	26.5
702.552	26.9
702.957	27.27
703.362	27.61
703.767	27.96
704.172	28.31
704.577	28.64
704.981	28.97
705.386	29.31
705.791	29.61
706.195	29.93
706.6	30.22
707.004	30.51
707.408	30.79
707.813	31.09
708.217	31.36
708.621	31.63
709.025	31.91
709.43	32.13
709.834	32.39
710.237	32.63
710.641	32.86
711.045	33.09
711.449	33.31
711.853	33.55
712.256	33.79
712.66	34.02
713.064	34.22
713.467	34.41
713.87	34.66
714.274	34.88
714.677	35.09
715.08	35.27
715.484	35.5
715.887	35.7
716.29	35.9
716.693	36.06
717.096	36.23
717.499	36.43
717.901	36.6
718.304	36.73
718.707	36.89
719.109	37.06
719.512	37.23
719.915	37.36
720.317	37.52
720.719	37.66
721.122	37.8
721.524	37.97
721.926	38.1
722.328	38.24
722.731	38.38
723.133	38.49
723.535	38.63
723.937	38.74
724.338	38.88
724.74	38.98
725.142	39
725.544	39.1
725.945	39.17
726.347	39.27
726.748	39.35
727.15	39.46
727.551	39.57
727.952	39.65
728.354	39.76
728.755	39.81
729.156	39.9
729.557	40.09
729.958	40.2
730.359	40.3
730.76	40.34
731.161	40.42
731.562	40.47
731.962	40.51
732.363	40.55
732.763	40.6
733.164	40.68
733.564	40.74
733.965	40.73
734.365	40.73
734.766	40.77
735.166	40.8
735.566	40.85
735.966	40.87
736.366	40.9
736.766	40.91
737.166	40.91
737.566	40.9
737.966	40.92
738.365	41
738.765	41.05
739.165	41.05
739.564	41.08
739.964	41.08
740.363	41.12
740.763	41.16
741.162	41.21
741.561	41.25
741.96	41.31
742.36	41.34
742.759	41.29
743.158	41.3
743.557	41.34
743.955	41.4
744.354	41.45
744.753	41.48
745.152	41.47
745.55	41.5
745.949	41.51
746.348	41.51
746.746	41.52
747.144	41.61
747.543	41.64
747.941	41.66
748.339	41.66
748.737	41.68
749.136	41.68
749.534	41.74
749.932	41.74
750.33	41.76
750.727	41.8
751.125	41.8
751.523	41.75
751.921	41.75
752.318	41.71
752.716	41.7
753.113	41.7
753.511	41.66
753.908	41.63
754.305	41.6
754.703	41.58
755.1	41.52
755.497	41.51
755.894	41.49
756.291	41.47
756.688	41.47
757.085	41.42
757.482	41.4
757.878	41.4
758.275	41.39
758.672	41.37
759.068	41.34
759.465	41.36
759.861	41.36
760.258	41.35
760.654	41.34
761.05	41.35
761.447	41.36
761.843	41.35
762.239	41.34
762.635	41.33
763.031	41.34
763.427	41.36
763.822	41.34
764.218	41.34
764.614	41.37
765.01	41.37
765.405	41.35
765.801	41.37
766.196	41.39
766.592	41.4
766.987	41.4
767.382	41.4
767.778	41.41
768.173	41.41
768.568	41.37
768.963	41.35
769.358	41.39
769.753	41.4
770.148	41.38
770.542	41.34
770.937	41.36
771.332	41.37
771.726	41.37
772.121	41.36
772.515	41.37
772.91	41.37
773.304	41.37
773.699	41.34
774.093	41.33
774.487	41.34
774.881	41.37
775.275	41.32
775.669	41.33
776.063	41.3
776.457	41.29
776.851	41.31
777.245	41.33
777.638	41.33
778.032	41.35
778.425	41.35
778.819	41.36
779.212	41.35
779.606	41.36
779.999	41.36
780.392	41.39
780.786	41.44
781.179	41.44
781.572	41.44
