Data from N_3_div_wi_4n_Splice17_02.txt Node
Date: Sat Feb 29 14:43:50 EST 2020
User: sa697716
Spectrometer: FLMS03696
Trigger mode: 0
Integration Time (sec): 3.180400E-1
Scans to average: 20
Electric dark correction enabled: true
Nonlinearity correction enabled: true
Boxcar width: 5
XAxis mode: Wavelengths
Number of Pixels in Spectrum: 2048
>>>>>Begin Spectral Data<<<<<
187.83	74.53
188.298	77.63
188.766	81.91
189.233	77.58
189.701	83.09
190.169	84.94
190.636	97.99
191.104	88.12
191.571	424.91
192.039	255.44
192.506	-330.91
192.974	2365.14
193.441	-60.85
193.908	103.11
194.375	122.08
194.842	213.94
195.31	107.49
195.777	111.6
196.244	22.99
196.711	18.99
197.177	12.12
197.644	11.47
198.111	9.22
198.578	9.91
199.045	10.33
199.511	10.44
199.978	10.8
200.445	10.61
200.911	11.07
201.378	11.06
201.844	11.19
202.31	11.93
202.777	12.23
203.243	13.46
203.709	14.07
204.176	13.48
204.642	13.85
205.108	13.74
205.574	14.61
206.04	14.66
206.506	14.94
206.972	14.85
207.438	14.87
207.903	15.49
208.369	14.94
208.835	14.62
209.301	15.59
209.766	15.67
210.232	16.06
210.697	16.06
211.163	16.23
211.628	16.16
212.094	16.32
212.559	16.03
213.024	15.71
213.49	15.97
213.955	16.1
214.42	15.85
214.885	15.88
215.35	15.96
215.815	16
216.28	16.23
216.745	16.4
217.21	16.48
217.675	16.52
218.14	16.42
218.604	16.22
219.069	16.22
219.534	16.05
219.998	15.9
220.463	15.68
220.927	15.58
221.392	15.37
221.856	15.25
222.32	15.08
222.785	14.94
223.249	14.76
223.713	14.65
224.177	14.43
224.642	14.31
225.106	14.15
225.57	13.98
226.034	13.8
226.497	13.63
226.961	13.45
227.425	13.25
227.889	13.08
228.353	12.94
228.816	12.79
229.28	12.63
229.744	12.47
230.207	12.33
230.671	12.19
231.134	12.03
231.597	11.88
232.061	11.73
232.524	11.61
232.987	11.47
233.45	11.32
233.914	11.18
234.377	11.05
234.84	10.91
235.303	10.76
235.766	10.63
236.229	10.48
236.691	10.36
237.154	10.25
237.617	10.13
238.08	10.01
238.542	9.89
239.005	9.77
239.468	9.65
239.93	9.55
240.393	9.46
240.855	9.34
241.317	9.27
241.78	9.17
242.242	9.07
242.704	8.98
243.166	8.88
243.629	8.79
244.091	8.71
244.553	8.64
245.015	8.56
245.477	8.46
245.939	8.39
246.4	8.29
246.862	8.22
247.324	8.16
247.786	8.08
248.247	8.03
248.709	7.95
249.17	7.89
249.632	7.81
250.093	7.73
250.555	7.68
251.016	7.63
251.477	7.57
251.939	7.52
252.4	7.46
252.861	7.41
253.322	7.36
253.783	7.34
254.244	7.28
254.705	7.25
255.166	7.23
255.627	7.2
256.088	7.16
256.549	7.14
257.009	7.1
257.47	7.07
257.931	7.03
258.391	6.99
258.852	6.95
259.312	6.93
259.773	6.89
260.233	6.85
260.694	6.81
261.154	6.78
261.614	6.75
262.074	6.71
262.534	6.68
262.994	6.66
263.455	6.64
263.915	6.6
264.374	6.57
264.834	6.54
265.294	6.51
265.754	6.48
266.214	6.46
266.673	6.43
267.133	6.41
267.593	6.38
268.052	6.35
268.512	6.32
268.971	6.29
269.431	6.27
269.89	6.25
270.349	6.23
270.809	6.22
271.268	6.2
271.727	6.17
272.186	6.15
272.645	6.13
273.104	6.11
273.563	6.09
274.022	6.07
274.481	6.05
274.94	6.01
275.399	6
275.857	5.96
276.316	5.93
276.775	5.91
277.233	5.88
277.692	5.85
278.15	5.82
278.609	5.79
279.067	5.77
279.525	5.73
279.984	5.71
280.442	5.68
280.9	5.66
281.358	5.64
281.816	5.61
282.274	5.58
282.732	5.56
283.19	5.54
283.648	5.53
284.106	5.5
284.564	5.49
285.021	5.48
285.479	5.46
285.937	5.43
286.394	5.41
286.852	5.4
287.309	5.39
287.767	5.37
288.224	5.35
288.682	5.33
289.139	5.32
289.596	5.29
290.053	5.26
290.511	5.24
290.968	5.22
291.425	5.2
291.882	5.17
292.339	5.13
292.796	5.11
293.252	5.09
293.709	5.06
294.166	5.03
294.623	5.02
295.079	5
295.536	4.98
295.992	4.96
296.449	4.94
296.905	4.91
297.362	4.9
297.818	4.89
298.274	4.87
298.731	4.86
299.187	4.85
299.643	4.83
300.099	4.82
300.555	4.8
301.011	4.78
301.467	4.77
301.923	4.77
302.379	4.75
302.835	4.73
303.291	4.71
303.746	4.69
304.202	4.67
304.658	4.66
305.113	4.64
305.569	4.64
306.024	4.62
306.479	4.6
306.935	4.58
307.39	4.57
307.845	4.56
308.301	4.55
308.756	4.54
309.211	4.53
309.666	4.52
310.121	4.51
310.576	4.51
311.031	4.5
311.486	4.49
311.94	4.49
312.395	4.49
312.85	4.47
313.305	4.48
313.759	4.46
314.214	4.45
314.668	4.44
315.123	4.44
315.577	4.42
316.032	4.4
316.486	4.39
316.94	4.38
317.394	4.37
317.849	4.35
318.303	4.33
318.757	4.32
319.211	4.3
319.665	4.29
320.119	4.27
320.572	4.27
321.026	4.26
321.48	4.24
321.934	4.23
322.387	4.22
322.841	4.21
323.295	4.21
323.748	4.2
324.202	4.19
324.655	4.18
325.108	4.16
325.562	4.14
326.015	4.12
326.468	4.11
326.921	4.09
327.374	4.08
327.827	4.07
328.28	4.05
328.733	4.03
329.186	4.02
329.639	4
330.092	3.99
330.545	3.99
330.997	3.99
331.45	3.97
331.903	3.97
332.355	3.96
332.808	3.96
333.26	3.95
333.713	3.95
334.165	3.94
334.617	3.96
335.069	3.95
335.522	3.95
335.974	3.94
336.426	3.94
336.878	3.93
337.33	3.93
337.782	3.93
338.234	3.93
338.686	3.92
339.137	3.92
339.589	3.91
340.041	3.91
340.493	3.88
340.944	3.88
341.396	3.88
341.847	3.88
342.299	3.86
342.75	3.84
343.201	3.82
343.653	3.81
344.104	3.79
344.555	3.77
345.006	3.75
345.457	3.75
345.908	3.73
346.359	3.72
346.81	3.7
347.261	3.69
347.712	3.69
348.163	3.69
348.613	3.67
349.064	3.66
349.515	3.65
349.965	3.64
350.416	3.63
350.866	3.63
351.317	3.62
351.767	3.63
352.217	3.62
352.668	3.62
353.118	3.62
353.568	3.62
354.018	3.63
354.468	3.63
354.918	3.63
355.368	3.63
355.818	3.62
356.268	3.62
356.718	3.62
357.168	3.61
357.617	3.6
358.067	3.6
358.517	3.59
358.966	3.59
359.416	3.59
359.865	3.6
360.315	3.6
360.764	3.61
361.213	3.6
361.663	3.6
362.112	3.61
362.561	3.62
363.01	3.63
363.459	3.63
363.908	3.64
364.357	3.63
364.806	3.62
365.255	3.63
365.703	3.63
366.152	3.64
366.601	3.65
367.05	3.66
367.498	3.66
367.947	3.66
368.395	3.67
368.844	3.67
369.292	3.68
369.74	3.69
370.189	3.7
370.637	3.71
371.085	3.72
371.533	3.73
371.981	3.73
372.429	3.73
372.877	3.75
373.325	3.76
373.773	3.78
374.221	3.81
374.669	3.82
375.116	3.82
375.564	3.83
376.012	3.85
376.459	3.86
376.907	3.87
377.354	3.89
377.801	3.91
378.249	3.93
378.696	3.94
379.143	3.97
379.591	3.99
380.038	4.02
380.485	4.05
380.932	4.06
381.379	4.08
381.826	4.1
382.273	4.12
382.72	4.14
383.166	4.17
383.613	4.2
384.06	4.22
384.506	4.25
384.953	4.27
385.4	4.31
385.846	4.36
386.292	4.44
386.739	4.5
387.185	4.58
387.631	4.66
388.078	4.73
388.524	4.78
388.97	4.84
389.416	4.93
389.862	5.05
390.308	5.18
390.754	5.32
391.2	5.47
391.645	5.61
392.091	5.73
392.537	5.85
392.983	6.04
393.428	6.33
393.874	6.66
394.319	7.02
394.765	7.39
395.21	7.76
395.655	8.19
396.101	8.63
396.546	9.12
396.991	9.67
397.436	10.25
397.881	10.82
398.326	11.37
398.771	11.88
399.216	12.38
399.661	12.83
400.106	13.25
400.551	13.6
400.995	13.9
401.44	14.15
401.885	14.4
402.329	14.65
402.774	14.92
403.218	15.21
403.663	15.55
404.107	15.92
404.551	16.28
404.995	16.61
405.44	16.92
405.884	17.25
406.328	17.67
406.772	18.15
407.216	18.65
407.66	19.1
408.104	19.49
408.547	19.82
408.991	20.09
409.435	20.42
409.879	20.8
410.322	21.25
410.766	21.72
411.209	22.15
411.653	22.5
412.096	22.81
412.54	23.08
412.983	23.39
413.426	23.73
413.869	24.1
414.312	24.47
414.756	24.79
415.199	25.07
415.642	25.33
416.085	25.55
416.527	25.72
416.97	25.82
417.413	25.84
417.856	25.79
418.298	25.73
418.741	25.7
419.184	25.68
419.626	25.74
420.069	25.84
420.511	25.9
420.953	25.99
421.396	26.13
421.838	26.33
422.28	26.66
422.722	27.02
423.164	27.34
423.606	27.6
424.048	27.8
424.49	27.88
424.932	27.73
425.374	27.38
425.816	26.85
426.258	26.29
426.699	25.9
427.141	25.79
427.582	25.94
428.024	26.29
428.465	26.67
428.907	27.05
429.348	27.36
429.789	27.84
430.231	28.6
430.672	29.69
431.113	30.94
431.554	32.14
431.995	33.06
432.436	33.74
432.877	34.22
433.318	34.58
433.759	34.98
434.2	35.52
434.64	36.15
435.081	36.8
435.522	37.34
435.962	37.8
436.403	38.17
436.843	38.49
437.284	38.83
437.724	39.23
438.164	39.69
438.604	40.27
439.045	40.84
439.485	41.38
439.925	41.79
440.365	42.13
440.805	42.34
441.245	42.47
441.685	42.65
442.125	42.9
442.564	43.18
443.004	43.54
443.444	43.93
443.883	44.33
444.323	44.76
444.762	45.16
445.202	45.67
445.641	46.25
446.081	47.02
446.52	47.74
446.959	48.39
447.398	48.88
447.837	49.2
448.276	49.26
448.716	49.33
449.154	49.37
449.593	49.47
450.032	49.45
450.471	49.35
450.91	49.11
451.349	48.88
451.787	48.68
452.226	48.58
452.664	48.49
453.103	48.48
453.541	48.46
453.98	48.33
454.418	48.12
454.856	47.86
455.295	47.62
455.733	47.42
456.171	47.22
456.609	47.06
457.047	46.9
457.485	46.84
457.923	46.82
458.361	46.84
458.798	46.94
459.236	47.05
459.674	47.17
460.111	47.31
460.549	47.42
460.987	47.58
461.424	47.72
461.862	47.84
462.299	47.94
462.736	48.07
463.173	48.24
463.611	48.45
464.048	48.78
464.485	49.17
464.922	49.6
465.359	50.02
465.796	50.36
466.233	50.71
466.67	51.14
467.106	51.69
467.543	52.29
467.98	52.87
468.416	53.42
468.853	53.85
469.29	54.27
469.726	54.71
470.162	55.18
470.599	55.7
471.035	56.17
471.471	56.5
471.907	56.62
472.344	56.73
472.78	56.8
473.216	56.91
473.652	57.04
474.088	57.13
474.523	57.16
474.959	57.14
475.395	57.14
475.831	57.09
476.266	57.1
476.702	57.16
477.138	57.13
477.573	57.08
478.008	56.93
478.444	56.72
478.879	56.46
479.314	56.14
479.75	55.79
480.185	55.32
480.62	54.75
481.055	53.96
481.49	52.87
481.925	51.72
482.36	50.63
482.795	49.7
483.229	48.98
483.664	48.4
484.099	47.88
484.534	47.44
484.968	47.12
485.403	47.01
485.837	47.11
486.271	47.43
486.706	47.78
487.14	48.04
487.574	48.13
488.009	48.13
488.443	48.09
488.877	48.08
489.311	48.05
489.745	48.05
490.179	48.03
490.613	48.02
491.046	48.04
491.48	48.11
491.914	48.28
492.348	48.51
492.781	48.71
493.215	48.89
493.648	48.99
494.082	49.04
494.515	49.09
494.948	49.12
495.382	49.14
495.815	49.1
496.248	49.04
496.681	48.91
497.114	48.76
497.547	48.66
497.98	48.63
498.413	48.75
498.846	48.88
499.279	49
499.711	49.06
500.144	49.16
500.577	49.4
501.009	49.75
501.442	50.24
501.874	50.72
502.306	51.2
502.739	51.58
503.171	51.87
503.603	52.18
504.036	52.49
504.468	52.91
504.9	53.35
505.332	53.69
505.764	54
506.196	54.23
506.627	54.54
507.059	54.89
507.491	55.27
507.923	55.68
508.354	56.05
508.786	56.39
509.217	56.62
509.649	56.84
510.08	57.1
510.512	57.35
510.943	57.66
511.374	57.89
511.805	57.96
512.237	57.89
512.668	57.7
513.099	57.62
513.53	57.59
513.961	57.62
514.391	57.72
514.822	57.91
515.253	58.18
515.684	58.45
516.114	58.8
516.545	59.31
516.975	60.05
517.406	60.93
517.836	61.74
518.267	62.51
518.697	63.24
519.127	63.97
519.558	64.64
519.988	65.26
520.418	65.82
520.848	66.34
521.278	66.76
521.708	66.96
522.138	67
522.567	67.04
522.997	67.13
523.427	67.32
523.857	67.53
524.286	67.76
524.716	68.03
525.145	68.28
525.575	68.53
526.004	68.86
526.433	69.38
526.863	70.02
527.292	70.63
527.721	71.09
528.15	71.36
528.579	71.48
529.008	71.56
529.437	71.57
529.866	71.57
530.295	71.63
530.724	71.72
531.152	71.78
531.581	71.85
532.01	71.87
532.438	71.92
532.867	72.08
533.295	72.26
533.723	72.45
534.152	72.56
534.58	72.66
535.008	72.61
535.436	72.47
535.865	72.23
536.293	72
536.721	71.9
537.149	71.88
537.576	71.9
538.004	71.93
538.432	71.91
538.86	71.96
539.287	72.07
539.715	72.29
540.143	72.55
540.57	72.9
540.998	73.28
541.425	73.6
541.852	73.92
542.28	74.18
542.707	74.46
543.134	74.7
543.561	74.89
543.988	75.11
544.415	75.33
544.842	75.56
545.269	75.79
545.696	75.96
546.123	76.21
546.549	76.42
546.976	76.64
547.403	76.83
547.829	77.09
548.256	77.31
548.682	77.47
549.108	77.64
549.535	77.84
549.961	78
550.387	78.2
550.813	78.31
551.24	78.44
551.666	78.52
552.092	78.57
552.518	78.53
552.943	78.56
553.369	78.55
553.795	78.48
554.221	78.29
554.646	78.03
555.072	77.74
555.498	77.48
555.923	77.23
556.349	77.03
556.774	76.9
557.199	76.78
557.625	76.6
558.05	76.43
558.475	76.26
558.9	76.17
559.325	76.08
559.75	75.96
560.175	75.85
560.6	75.65
561.025	75.35
561.449	74.98
561.874	74.59
562.299	74.28
562.723	73.97
563.148	73.65
563.572	73.27
563.997	72.89
564.421	72.48
564.846	72.05
565.27	71.68
565.694	71.26
566.118	70.84
566.542	70.43
566.966	69.97
567.39	69.51
567.814	69.11
568.238	68.75
568.662	68.5
569.086	68.25
569.509	68.03
569.933	67.78
570.357	67.6
570.78	67.44
571.204	67.28
571.627	67.15
572.05	67.04
572.474	66.89
572.897	66.78
573.32	66.59
573.743	66.42
574.166	66.21
574.589	66.05
575.012	65.96
575.435	65.91
575.858	65.92
576.281	65.95
576.704	65.98
577.126	66.02
577.549	66.06
577.972	66.19
578.394	66.29
578.817	66.44
579.239	66.63
579.661	66.74
580.084	66.86
580.506	66.91
580.928	66.9
581.35	66.87
581.772	66.81
582.194	66.73
582.616	66.62
583.038	66.54
583.46	66.45
583.882	66.21
584.303	65.9
584.725	65.43
585.147	64.95
585.568	64.55
585.99	64.24
586.411	64.02
586.833	63.78
587.254	63.56
587.675	63.35
588.096	63.16
588.518	63.02
588.939	63.02
589.36	63.15
589.781	63.3
590.202	63.38
590.623	63.38
591.043	63.26
591.464	63.17
591.885	63.06
592.305	62.91
592.726	62.74
593.147	62.58
593.567	62.36
593.987	62.12
594.408	61.9
594.828	61.67
595.248	61.46
595.669	61.24
596.089	60.97
596.509	60.63
596.929	60.32
597.349	59.97
597.769	59.62
598.189	59.31
598.608	59.03
599.028	58.76
599.448	58.55
599.867	58.32
600.287	58.14
600.706	57.91
601.126	57.74
601.545	57.56
601.965	57.42
602.384	57.29
602.803	57.14
603.222	56.97
603.641	56.77
604.061	56.56
604.48	56.31
604.898	56.06
605.317	55.83
605.736	55.56
606.155	55.3
606.574	55.06
606.992	54.8
607.411	54.59
607.829	54.32
608.248	54.11
608.666	53.87
609.085	53.63
609.503	53.37
609.921	53.17
610.339	53
610.758	52.83
611.176	52.62
611.594	52.37
612.012	52.07
612.43	51.85
612.847	51.6
613.265	51.39
613.683	51.23
614.101	51.08
614.518	50.93
614.936	50.79
615.353	50.65
615.771	50.56
616.188	50.52
616.606	50.5
617.023	50.46
617.44	50.39
617.857	50.28
618.274	50.15
618.691	49.99
619.108	49.81
619.525	49.6
619.942	49.37
620.359	49.11
620.776	48.82
621.192	48.54
621.609	48.3
622.026	48.07
622.442	47.89
622.859	47.67
623.275	47.47
623.691	47.22
624.108	47.02
624.524	46.83
624.94	46.66
625.356	46.5
625.772	46.36
626.188	46.19
626.604	46.03
627.02	45.83
627.436	45.68
627.852	45.55
628.268	45.49
628.683	45.44
629.099	45.39
629.514	45.34
629.93	45.32
630.345	45.3
630.761	45.28
631.176	45.28
631.591	45.27
632.007	45.28
632.422	45.27
632.837	45.26
633.252	45.21
633.667	45.16
634.082	45.13
634.497	45.07
634.911	44.96
635.326	44.86
635.741	44.72
636.155	44.57
636.57	44.42
636.984	44.22
637.399	44.02
637.813	43.83
638.228	43.65
638.642	43.46
639.056	43.24
639.47	43.07
639.884	42.9
640.298	42.73
640.712	42.56
641.126	42.38
641.54	42.22
641.954	42.04
642.368	41.83
642.781	41.61
643.195	41.38
643.609	41.16
644.022	40.95
644.436	40.71
644.849	40.44
645.262	40.17
645.676	39.92
646.089	39.73
646.502	39.57
646.915	39.45
647.328	39.31
647.741	39.18
648.154	39.08
648.567	38.97
648.98	38.92
649.393	38.89
649.805	38.86
650.218	38.81
650.631	38.67
651.043	38.44
651.456	38.04
651.868	37.55
652.28	37.04
652.693	36.57
653.105	36.2
653.517	35.89
653.929	35.66
654.341	35.47
654.753	35.31
655.165	35.21
655.577	35.19
655.989	35.33
656.401	35.58
656.813	35.88
657.224	36.13
657.636	36.28
658.047	36.35
658.459	36.36
658.87	36.29
659.282	36.2
659.693	36.07
660.104	35.94
660.515	35.78
660.926	35.67
661.338	35.5
661.749	35.32
662.159	35.11
662.57	34.9
662.981	34.7
663.392	34.53
663.803	34.36
664.213	34.22
664.624	34.07
665.035	33.91
665.445	33.73
665.855	33.55
666.266	33.38
666.676	33.19
667.086	33.02
667.497	32.82
667.907	32.61
668.317	32.43
668.727	32.23
669.137	32.05
669.547	31.9
669.956	31.75
670.366	31.63
670.776	31.47
671.186	31.36
671.595	31.26
672.005	31.18
672.414	31.11
672.824	31.05
673.233	31
673.642	30.91
674.052	30.84
674.461	30.76
674.87	30.68
675.279	30.64
675.688	30.58
676.097	30.53
676.506	30.49
676.915	30.46
677.323	30.43
677.732	30.42
678.141	30.42
678.549	30.42
678.958	30.43
679.366	30.44
679.775	30.47
680.183	30.48
680.592	30.5
681	30.53
681.408	30.56
681.816	30.51
682.224	30.35
682.632	30.05
683.04	29.62
683.448	29.19
683.856	28.88
684.264	28.6
684.671	28.35
685.079	28.12
685.487	27.96
685.894	27.86
686.302	27.87
686.709	28.07
687.116	28.49
687.524	29.11
687.931	29.78
688.338	30.41
688.745	31.04
689.152	31.73
689.559	32.39
689.966	33.02
690.373	33.65
690.78	34.25
691.187	34.82
691.593	35.37
692	35.93
692.407	36.47
692.813	37.01
693.22	37.51
693.626	37.98
694.032	38.48
694.439	38.96
694.845	39.41
695.251	39.86
695.657	40.29
696.063	40.71
696.469	41.07
696.875	41.37
697.281	41.67
697.687	41.98
698.093	42.3
698.498	42.62
698.904	42.96
699.31	43.28
699.715	43.65
700.12	44
700.526	44.37
700.931	44.74
701.337	45.13
701.742	45.52
702.147	45.89
702.552	46.26
702.957	46.61
703.362	46.94
703.767	47.24
704.172	47.52
704.577	47.81
704.981	48.08
705.386	48.34
705.791	48.62
706.195	48.87
706.6	49.11
707.004	49.34
707.408	49.54
707.813	49.77
708.217	49.97
708.621	50.17
709.025	50.34
709.43	50.53
709.834	50.72
710.237	50.87
710.641	51.04
711.045	51.18
711.449	51.3
711.853	51.43
712.256	51.5
712.66	51.5
713.064	51.45
713.467	51.34
713.87	51.13
714.274	50.88
714.677	50.61
715.08	50.3
715.484	50.03
715.887	49.8
716.29	49.59
716.693	49.49
717.096	49.6
717.499	49.76
717.901	50.06
718.304	50.39
718.707	50.71
719.109	51.1
719.512	51.46
719.915	51.78
720.317	52.03
720.719	52.25
721.122	52.4
721.524	52.43
721.926	52.46
722.328	52.45
722.731	52.43
723.133	52.44
723.535	52.46
723.937	52.54
724.338	52.57
724.74	52.62
725.142	52.64
725.544	52.75
725.945	52.85
726.347	52.92
726.748	52.95
727.15	53.02
727.551	53.14
727.952	53.25
728.354	53.39
728.755	53.6
729.156	53.83
729.557	54.15
729.958	54.37
730.359	54.58
730.76	54.76
731.161	54.97
731.562	55.18
731.962	55.3
732.363	55.41
732.763	55.5
733.164	55.54
733.564	55.59
733.965	55.56
734.365	55.52
734.766	55.47
735.166	55.41
735.566	55.4
735.966	55.35
736.366	55.32
736.766	55.27
737.166	55.22
737.566	55.16
737.966	55.12
738.365	55.12
738.765	55.1
739.165	55.07
739.564	55.09
739.964	55.05
740.363	55.04
740.763	55.05
741.162	55.07
741.561	55.12
741.96	55.17
742.36	55.19
742.759	55.15
743.158	55.15
743.557	55.19
743.955	55.25
744.354	55.28
744.753	55.3
745.152	55.29
745.55	55.23
745.949	55.17
746.348	55.12
746.746	55.07
747.144	55.12
747.543	55.12
747.941	55.09
748.339	55.04
748.737	55
749.136	54.97
749.534	54.95
749.932	54.94
750.33	54.95
750.727	54.95
751.125	54.95
751.523	54.88
751.921	54.82
752.318	54.8
752.716	54.74
753.113	54.69
753.511	54.61
753.908	54.51
754.305	54.41
754.703	54.12
755.1	53.51
755.497	52.52
755.894	51.15
756.291	49.51
756.688	47.77
757.085	46.11
757.482	44.6
757.878	43.21
758.275	41.83
758.672	40.42
759.068	39.12
759.465	38.2
759.861	37.73
760.258	37.72
760.654	38.12
761.05	38.73
761.447	39.39
761.843	40.02
762.239	40.65
762.635	41.4
763.031	42.32
763.427	43.37
763.822	44.46
764.218	45.59
764.614	46.69
765.01	47.68
765.405	48.56
765.801	49.37
766.196	50.11
766.592	50.75
766.987	51.29
767.382	51.71
767.778	52
768.173	52.22
768.568	52.35
768.963	52.45
769.358	52.55
769.753	52.65
770.148	52.68
770.542	52.67
770.937	52.65
771.332	52.61
771.726	52.56
772.121	52.56
