Data from N_3_hir_il_4n_Splice17_03.txt Node
Date: Sat Feb 29 15:12:52 EST 2020
User: sa697716
Spectrometer: FLMS03696
Trigger mode: 0
Integration Time (sec): 3.180400E-1
Scans to average: 20
Electric dark correction enabled: true
Nonlinearity correction enabled: true
Boxcar width: 5
XAxis mode: Wavelengths
Number of Pixels in Spectrum: 2048
>>>>>Begin Spectral Data<<<<<
187.83	83.31
188.298	87.47
188.766	75.67
189.233	67.99
189.701	78.16
190.169	76.46
190.636	67.35
191.104	59.18
191.571	-98.93
192.039	182.92
192.506	54.94
192.974	3030.37
193.441	67.58
193.908	6.28
194.375	27.9
194.842	105.68
195.31	69.96
195.777	106.59
196.244	76.37
196.711	70.45
197.177	71.47
197.644	70.83
198.111	70.46
198.578	71.09
199.045	72.1
199.511	71.47
199.978	71.66
200.445	71.31
200.911	70.97
201.378	70.99
201.844	71.61
202.31	71.74
202.777	71.75
203.243	72.13
203.709	72.46
204.176	72.08
204.642	71.6
205.108	71.32
205.574	71.72
206.04	71.42
206.506	71.11
206.972	69.97
207.438	69.37
207.903	68.78
208.369	67.15
208.835	65.93
209.301	65.01
209.766	63.77
210.232	62.5
210.697	61.18
211.163	59.8
211.628	58.47
212.094	57.4
212.559	56.03
213.024	54.7
213.49	53.89
213.955	52.5
214.42	50.92
214.885	49.46
215.35	47.56
215.815	44.7
216.28	42.05
216.745	39.19
217.21	36.18
217.675	33.19
218.14	30.35
218.604	27.81
219.069	25.68
219.534	23.86
219.998	22.34
220.463	21.06
220.927	19.99
221.392	19.01
221.856	18.2
222.32	17.49
222.785	16.85
223.249	16.34
223.713	15.93
224.177	15.5
224.642	15.13
225.106	14.77
225.57	14.41
226.034	14.11
226.497	13.8
226.961	13.48
227.425	13.18
227.889	12.93
228.353	12.66
228.816	12.38
229.28	12.13
229.744	11.89
230.207	11.68
230.671	11.48
231.134	11.27
231.597	11.09
232.061	10.92
232.524	10.76
232.987	10.59
233.45	10.43
233.914	10.27
234.377	10.14
234.84	10
235.303	9.87
235.766	9.73
236.229	9.62
236.691	9.51
237.154	9.41
237.617	9.3
238.08	9.22
238.542	9.12
239.005	9.04
239.468	8.93
239.93	8.85
240.393	8.74
240.855	8.66
241.317	8.57
241.78	8.5
242.242	8.42
242.704	8.33
243.166	8.25
243.629	8.18
244.091	8.11
244.553	8.05
245.015	7.98
245.477	7.92
245.939	7.85
246.4	7.79
246.862	7.71
247.324	7.65
247.786	7.58
248.247	7.51
248.709	7.44
249.17	7.38
249.632	7.31
250.093	7.24
250.555	7.18
251.016	7.13
251.477	7.07
251.939	7.02
252.4	6.96
252.861	6.91
253.322	6.86
253.783	6.82
254.244	6.77
254.705	6.72
255.166	6.68
255.627	6.63
256.088	6.57
256.549	6.52
257.009	6.47
257.47	6.43
257.931	6.38
258.391	6.32
258.852	6.26
259.312	6.2
259.773	6.15
260.233	6.1
260.694	6.05
261.154	6
261.614	5.95
262.074	5.9
262.534	5.85
262.994	5.81
263.455	5.77
263.915	5.73
264.374	5.69
264.834	5.65
265.294	5.61
265.754	5.57
266.214	5.54
266.673	5.51
267.133	5.47
267.593	5.45
268.052	5.42
268.512	5.39
268.971	5.36
269.431	5.34
269.89	5.31
270.349	5.29
270.809	5.28
271.268	5.26
271.727	5.24
272.186	5.21
272.645	5.19
273.104	5.17
273.563	5.16
274.022	5.13
274.481	5.12
274.94	5.09
275.399	5.08
275.857	5.05
276.316	5.03
276.775	5
277.233	4.98
277.692	4.96
278.15	4.95
278.609	4.93
279.067	4.91
279.525	4.89
279.984	4.87
280.442	4.86
280.9	4.85
281.358	4.84
281.816	4.83
282.274	4.82
282.732	4.81
283.19	4.8
283.648	4.79
284.106	4.77
284.564	4.77
285.021	4.76
285.479	4.75
285.937	4.74
286.394	4.73
286.852	4.73
287.309	4.71
287.767	4.7
288.224	4.68
288.682	4.66
289.139	4.65
289.596	4.63
290.053	4.61
290.511	4.58
290.968	4.56
291.425	4.54
291.882	4.51
292.339	4.48
292.796	4.46
293.252	4.44
293.709	4.42
294.166	4.39
294.623	4.37
295.079	4.34
295.536	4.33
295.992	4.31
296.449	4.3
296.905	4.27
297.362	4.26
297.818	4.24
298.274	4.23
298.731	4.22
299.187	4.21
299.643	4.2
300.099	4.2
300.555	4.18
301.011	4.17
301.467	4.16
301.923	4.15
302.379	4.14
302.835	4.14
303.291	4.13
303.746	4.11
304.202	4.1
304.658	4.09
305.113	4.08
305.569	4.07
306.024	4.06
306.479	4.06
306.935	4.06
307.39	4.06
307.845	4.05
308.301	4.05
308.756	4.05
309.211	4.06
309.666	4.05
310.121	4.05
310.576	4.05
311.031	4.05
311.486	4.05
311.94	4.04
312.395	4.04
312.85	4.03
313.305	4.02
313.759	4.02
314.214	4
314.668	4.01
315.123	4.01
315.577	4
316.032	3.98
316.486	3.98
316.94	3.97
317.394	3.96
317.849	3.96
318.303	3.96
318.757	3.94
319.211	3.93
319.665	3.91
320.119	3.89
320.572	3.89
321.026	3.88
321.48	3.86
321.934	3.86
322.387	3.85
322.841	3.84
323.295	3.83
323.748	3.82
324.202	3.81
324.655	3.81
325.108	3.8
325.562	3.79
326.015	3.79
326.468	3.78
326.921	3.77
327.374	3.76
327.827	3.76
328.28	3.74
328.733	3.74
329.186	3.74
329.639	3.73
330.092	3.72
330.545	3.72
330.997	3.72
331.45	3.72
331.903	3.71
332.355	3.71
332.808	3.71
333.26	3.71
333.713	3.72
334.165	3.71
334.617	3.72
335.069	3.72
335.522	3.73
335.974	3.72
336.426	3.73
336.878	3.72
337.33	3.73
337.782	3.73
338.234	3.74
338.686	3.73
339.137	3.73
339.589	3.72
340.041	3.71
340.493	3.69
340.944	3.68
341.396	3.68
341.847	3.66
342.299	3.63
342.75	3.62
343.201	3.59
343.653	3.58
344.104	3.56
344.555	3.55
345.006	3.53
345.457	3.52
345.908	3.51
346.359	3.5
346.81	3.5
347.261	3.49
347.712	3.48
348.163	3.48
348.613	3.47
349.064	3.46
349.515	3.45
349.965	3.45
350.416	3.44
350.866	3.44
351.317	3.43
351.767	3.42
352.217	3.41
352.668	3.4
353.118	3.4
353.568	3.4
354.018	3.4
354.468	3.4
354.918	3.41
355.368	3.41
355.818	3.4
356.268	3.4
356.718	3.41
357.168	3.41
357.617	3.42
358.067	3.41
358.517	3.41
358.966	3.42
359.416	3.42
359.865	3.42
360.315	3.41
360.764	3.42
361.213	3.4
361.663	3.4
362.112	3.4
362.561	3.41
363.01	3.42
363.459	3.41
363.908	3.4
364.357	3.39
364.806	3.39
365.255	3.4
365.703	3.39
366.152	3.39
366.601	3.39
367.05	3.39
367.498	3.38
367.947	3.37
368.395	3.37
368.844	3.37
369.292	3.37
369.74	3.36
370.189	3.36
370.637	3.37
371.085	3.37
371.533	3.38
371.981	3.38
372.429	3.38
372.877	3.37
373.325	3.36
373.773	3.36
374.221	3.36
374.669	3.36
375.116	3.34
375.564	3.33
376.012	3.34
376.459	3.34
376.907	3.33
377.354	3.34
377.801	3.35
378.249	3.36
378.696	3.37
379.143	3.39
379.591	3.4
380.038	3.43
380.485	3.44
380.932	3.44
381.379	3.44
381.826	3.46
382.273	3.48
382.72	3.49
383.166	3.5
383.613	3.52
384.06	3.52
384.506	3.52
384.953	3.53
385.4	3.54
385.846	3.55
386.292	3.58
386.739	3.58
387.185	3.6
387.631	3.62
388.078	3.64
388.524	3.64
388.97	3.66
389.416	3.67
389.862	3.7
390.308	3.73
390.754	3.76
391.2	3.79
391.645	3.82
392.091	3.85
392.537	3.87
392.983	3.9
393.428	3.95
393.874	4.01
394.319	4.04
394.765	4.08
395.21	4.09
395.655	4.12
396.101	4.16
396.546	4.19
396.991	4.22
397.436	4.25
397.881	4.29
398.326	4.33
398.771	4.36
399.216	4.41
399.661	4.46
400.106	4.51
400.551	4.54
400.995	4.57
401.44	4.58
401.885	4.61
402.329	4.65
402.774	4.68
403.218	4.71
403.663	4.73
404.107	4.76
404.551	4.8
404.995	4.82
405.44	4.85
405.884	4.89
406.328	4.93
406.772	4.96
407.216	5
407.66	5.03
408.104	5.05
408.547	5.08
408.991	5.1
409.435	5.12
409.879	5.15
410.322	5.19
410.766	5.22
411.209	5.27
411.653	5.31
412.096	5.33
412.54	5.35
412.983	5.39
413.426	5.43
413.869	5.48
414.312	5.54
414.756	5.57
415.199	5.61
415.642	5.66
416.085	5.67
416.527	5.72
416.97	5.75
417.413	5.76
417.856	5.76
418.298	5.76
418.741	5.77
419.184	5.78
419.626	5.79
420.069	5.79
420.511	5.8
420.953	5.79
421.396	5.79
421.838	5.82
422.28	5.85
422.722	5.89
423.164	5.91
423.606	5.93
424.048	5.93
424.49	5.96
424.932	5.96
425.374	5.98
425.816	5.99
426.258	5.98
426.699	5.94
427.141	5.92
427.582	5.92
428.024	5.92
428.465	5.92
428.907	5.94
429.348	5.94
429.789	5.93
430.231	5.93
430.672	5.94
431.113	5.96
431.554	6
431.995	6.03
432.436	6.04
432.877	6.04
433.318	6.04
433.759	6.05
434.2	6.06
434.64	6.08
435.081	6.09
435.522	6.09
435.962	6.13
436.403	6.15
436.843	6.18
437.284	6.22
437.724	6.25
438.164	6.27
438.604	6.28
439.045	6.3
439.485	6.32
439.925	6.34
440.365	6.36
440.805	6.35
441.245	6.34
441.685	6.35
442.125	6.34
442.564	6.35
443.004	6.39
443.444	6.41
443.883	6.44
444.323	6.46
444.762	6.49
445.202	6.54
445.641	6.57
446.081	6.62
446.52	6.63
446.959	6.66
447.398	6.71
447.837	6.74
448.276	6.76
448.716	6.8
449.154	6.84
449.593	6.88
450.032	6.87
450.471	6.9
450.91	6.91
451.349	6.95
451.787	6.96
452.226	6.94
452.664	6.93
453.103	6.9
453.541	6.9
453.98	6.86
454.418	6.82
454.856	6.79
455.295	6.77
455.733	6.75
456.171	6.72
456.609	6.7
457.047	6.67
457.485	6.66
457.923	6.66
458.361	6.64
458.798	6.64
459.236	6.64
459.674	6.63
460.111	6.64
460.549	6.61
460.987	6.62
461.424	6.61
461.862	6.61
462.299	6.6
462.736	6.6
463.173	6.6
463.611	6.59
464.048	6.61
464.485	6.61
464.922	6.6
465.359	6.62
465.796	6.61
466.233	6.63
466.67	6.64
467.106	6.65
467.543	6.65
467.98	6.66
468.416	6.68
468.853	6.68
469.29	6.69
469.726	6.69
470.162	6.69
470.599	6.69
471.035	6.69
471.471	6.68
471.907	6.68
472.344	6.68
472.78	6.69
473.216	6.68
473.652	6.67
474.088	6.68
474.523	6.68
474.959	6.67
475.395	6.67
475.831	6.69
476.266	6.69
476.702	6.68
477.138	6.67
477.573	6.64
478.008	6.64
478.444	6.63
478.879	6.62
479.314	6.61
479.75	6.61
480.185	6.6
480.62	6.59
481.055	6.59
481.49	6.58
481.925	6.55
482.36	6.54
482.795	6.53
483.229	6.53
483.664	6.52
484.099	6.51
484.534	6.51
484.968	6.51
485.403	6.5
485.837	6.49
486.271	6.49
486.706	6.49
487.14	6.5
487.574	6.52
488.009	6.54
488.443	6.55
488.877	6.57
489.311	6.6
489.745	6.62
490.179	6.64
490.613	6.67
491.046	6.71
491.48	6.75
491.914	6.79
492.348	6.83
492.781	6.86
493.215	6.89
493.648	6.93
494.082	6.98
494.515	7.03
494.948	7.08
495.382	7.13
495.815	7.2
496.248	7.27
496.681	7.33
497.114	7.4
497.547	7.46
497.98	7.55
498.413	7.62
498.846	7.7
499.279	7.79
499.711	7.87
500.144	7.97
500.577	8.07
501.009	8.17
501.442	8.29
501.874	8.41
502.306	8.55
502.739	8.67
503.171	8.81
503.603	8.96
504.036	9.1
504.468	9.27
504.9	9.44
505.332	9.61
505.764	9.78
506.196	9.96
506.627	10.15
507.059	10.32
507.491	10.53
507.923	10.74
508.354	10.94
508.786	11.15
509.217	11.36
509.649	11.59
510.08	11.83
510.512	12.07
510.943	12.31
511.374	12.55
511.805	12.8
512.237	13.03
512.668	13.27
513.099	13.53
513.53	13.8
513.961	14.09
514.391	14.34
514.822	14.6
515.253	14.88
515.684	15.15
516.114	15.44
516.545	15.72
516.975	16.02
517.406	16.35
517.836	16.64
518.267	16.93
518.697	17.23
519.127	17.53
519.558	17.81
519.988	18.1
520.418	18.39
520.848	18.65
521.278	18.94
521.708	19.07
522.138	19.31
522.567	19.58
522.997	19.82
523.427	20.06
523.857	20.29
524.286	20.54
524.716	20.77
525.145	21.01
525.575	21.24
526.004	21.47
526.433	21.83
526.863	22.05
527.292	22.25
527.721	22.46
528.15	22.61
528.579	22.8
529.008	22.96
529.437	23.1
529.866	23.23
530.295	23.37
530.724	23.52
531.152	23.67
531.581	23.78
532.01	23.89
532.438	23.99
532.867	24.11
533.295	24.22
533.723	24.33
534.152	24.41
534.58	24.5
535.008	24.57
535.436	24.63
535.865	24.67
536.293	24.73
536.721	24.79
537.149	24.85
537.576	24.9
538.004	24.93
538.432	24.96
538.86	25.01
539.287	25.04
539.715	25.08
540.143	25.12
540.57	25.16
540.998	25.19
541.425	25.22
541.852	25.24
542.28	25.27
542.707	25.31
543.134	25.34
543.561	25.36
543.988	25.39
544.415	25.42
544.842	25.45
545.269	25.49
545.696	25.53
546.123	25.57
546.549	25.6
546.976	25.64
547.403	25.67
547.829	25.72
548.256	25.74
548.682	25.76
549.108	25.79
549.535	25.81
549.961	25.81
550.387	25.8
550.813	25.81
551.24	25.82
551.666	25.85
552.092	25.85
552.518	25.83
552.943	25.86
553.369	25.85
553.795	25.84
554.221	25.8
554.646	25.78
555.072	25.77
555.498	25.75
555.923	25.72
556.349	25.65
556.774	25.6
557.199	25.56
557.625	25.49
558.05	25.44
558.475	25.36
558.9	25.31
559.325	25.24
559.75	25.15
560.175	25.05
560.6	24.95
561.025	24.87
561.449	24.77
561.874	24.67
562.299	24.57
562.723	24.47
563.148	24.34
563.572	24.23
563.997	24.1
564.421	23.97
564.846	23.86
565.27	23.72
565.694	23.56
566.118	23.41
566.542	23.24
566.966	23.08
567.39	22.91
567.814	22.75
568.238	22.57
568.662	22.41
569.086	22.24
569.509	22.08
569.933	21.91
570.357	21.73
570.78	21.57
571.204	21.42
571.627	21.26
572.05	21.12
572.474	20.96
572.897	20.8
573.32	20.67
573.743	20.52
574.166	20.37
574.589	20.26
575.012	20.15
575.435	20.02
575.858	19.92
576.281	19.81
576.704	19.69
577.126	19.58
577.549	19.52
577.972	19.41
578.394	19.3
578.817	19.22
579.239	19.12
579.661	19.04
580.084	18.96
580.506	18.87
580.928	18.8
581.35	18.72
581.772	18.66
582.194	18.58
582.616	18.52
583.038	18.46
583.46	18.4
583.882	18.34
584.303	18.29
584.725	18.22
585.147	18.13
585.568	18.06
585.99	17.99
586.411	17.92
586.833	17.86
587.254	17.8
587.675	17.75
588.096	17.7
588.518	17.64
588.939	17.59
589.36	17.55
589.781	17.51
590.202	17.48
590.623	17.45
591.043	17.4
591.464	17.36
591.885	17.33
592.305	17.3
592.726	17.24
593.147	17.23
593.567	17.21
593.987	17.19
594.408	17.16
594.828	17.13
595.248	17.1
595.669	17.07
596.089	17.04
596.509	17
596.929	16.96
597.349	16.92
597.769	16.86
598.189	16.83
598.608	16.77
599.028	16.74
599.448	16.7
599.867	16.66
600.287	16.62
600.706	16.58
601.126	16.52
601.545	16.47
601.965	16.43
602.384	16.38
602.803	16.31
603.222	16.24
603.641	16.17
604.061	16.1
604.48	16.02
604.898	15.95
605.317	15.88
605.736	15.82
606.155	15.74
606.574	15.65
606.992	15.55
607.411	15.48
607.829	15.37
608.248	15.31
608.666	15.23
609.085	15.14
609.503	15.05
609.921	14.97
610.339	14.89
610.758	14.81
611.176	14.72
611.594	14.65
612.012	14.56
612.43	14.52
612.847	14.44
613.265	14.36
613.683	14.28
614.101	14.21
614.518	14.13
614.936	14.04
615.353	13.98
615.771	13.91
616.188	13.85
616.606	13.79
617.023	13.72
617.44	13.65
617.857	13.56
618.274	13.51
618.691	13.46
619.108	13.41
619.525	13.38
619.942	13.32
620.359	13.3
620.776	13.26
621.192	13.22
621.609	13.18
622.026	13.15
622.442	13.13
622.859	13.11
623.275	13.1
623.691	13.08
624.108	13.06
624.524	13.04
624.94	13.02
625.356	12.99
625.772	12.98
626.188	12.98
626.604	12.97
627.02	12.97
627.436	12.96
627.852	12.93
628.268	12.9
628.683	12.87
629.099	12.86
629.514	12.84
629.93	12.81
630.345	12.78
630.761	12.75
631.176	12.72
631.591	12.68
632.007	12.64
632.422	12.6
632.837	12.56
633.252	12.51
633.667	12.45
634.082	12.39
634.497	12.32
634.911	12.23
635.326	12.14
635.741	12.05
636.155	11.98
636.57	11.89
636.984	11.79
637.399	11.69
637.813	11.57
638.228	11.49
638.642	11.39
639.056	11.29
639.47	11.2
639.884	11.1
640.298	11.01
640.712	10.89
641.126	10.78
641.54	10.68
641.954	10.59
642.368	10.49
642.781	10.38
643.195	10.27
643.609	10.16
644.022	10.06
644.436	9.98
644.849	9.87
645.262	9.78
645.676	9.69
646.089	9.6
646.502	9.5
646.915	9.43
647.328	9.37
647.741	9.3
648.154	9.25
648.567	9.19
648.98	9.14
649.393	9.09
649.805	9.03
650.218	9
650.631	8.96
651.043	8.92
651.456	8.88
651.868	8.83
652.28	8.79
652.693	8.73
653.105	8.69
653.517	8.63
653.929	8.57
654.341	8.53
654.753	8.45
655.165	8.39
655.577	8.3
655.989	8.22
656.401	8.13
656.813	8.05
657.224	7.97
657.636	7.88
658.047	7.79
658.459	7.69
658.87	7.58
659.282	7.51
659.693	7.43
660.104	7.34
660.515	7.26
660.926	7.19
661.338	7.12
661.749	7.03
662.159	6.95
662.57	6.88
662.981	6.82
663.392	6.74
663.803	6.66
664.213	6.59
664.624	6.54
665.035	6.48
665.445	6.43
665.855	6.37
666.266	6.33
666.676	6.29
667.086	6.26
667.497	6.22
667.907	6.19
668.317	6.16
668.727	6.14
669.137	6.11
669.547	6.1
669.956	6.08
670.366	6.07
670.776	6.06
671.186	6.06
671.595	6.06
672.005	6.07
672.414	6.08
672.824	6.09
673.233	6.1
673.642	6.1
674.052	6.1
674.461	6.13
674.87	6.13
675.279	6.15
675.688	6.16
676.097	6.18
676.506	6.2
676.915	6.24
677.323	6.26
677.732	6.29
678.141	6.34
678.549	6.39
678.958	6.44
679.366	6.5
679.775	6.56
680.183	6.65
680.592	6.72
681	6.79
681.408	6.88
681.816	6.97
682.224	7.09
682.632	7.21
683.04	7.34
683.448	7.48
683.856	7.65
684.264	7.84
684.671	8.03
685.079	8.24
685.487	8.47
685.894	8.73
686.302	9.01
686.709	9.31
687.116	9.63
687.524	9.97
687.931	10.32
688.338	10.7
688.745	11.09
689.152	11.53
689.559	11.96
689.966	12.42
690.373	12.92
690.78	13.42
691.187	13.94
691.593	14.44
692	14.99
692.407	15.56
692.813	16.13
693.22	16.71
693.626	17.26
694.032	17.85
694.439	18.44
694.845	19.04
695.251	19.59
695.657	20.16
696.063	20.75
696.469	21.31
696.875	21.85
697.281	22.42
697.687	22.97
698.093	23.54
698.498	24.08
698.904	24.62
699.31	25.11
699.715	25.66
700.12	26.17
700.526	26.67
700.931	27.16
701.337	27.66
701.742	28.13
702.147	28.61
702.552	29.08
702.957	29.52
703.362	29.99
703.767	30.44
704.172	30.86
704.577	31.3
704.981	31.73
705.386	32.15
705.791	32.57
706.195	32.97
706.6	33.34
707.004	33.71
707.408	34.1
707.813	34.48
708.217	34.84
708.621	35.2
709.025	35.55
709.43	35.89
709.834	36.25
710.237	36.58
710.641	36.94
711.045	37.27
711.449	37.58
711.853	37.91
712.256	38.22
712.66	38.53
713.064	38.82
713.467	39.13
713.87	39.44
714.274	39.73
714.677	40
715.08	40.24
715.484	40.52
715.887	40.79
716.29	41.02
716.693	41.26
717.096	41.5
717.499	41.76
717.901	42
718.304	42.22
718.707	42.42
719.109	42.68
719.512	42.94
719.915	43.17
720.317	43.41
720.719	43.63
721.122	43.85
721.524	44.07
721.926	44.27
722.328	44.48
722.731	44.69
723.133	44.88
723.535	45.04
723.937	45.2
724.338	45.35
724.74	45.5
725.142	45.6
725.544	45.76
725.945	45.88
726.347	46.05
726.748	46.15
727.15	46.24
727.551	46.37
727.952	46.5
728.354	46.63
728.755	46.77
729.156	46.88
729.557	47.07
729.958	47.19
730.359	47.3
730.76	47.36
731.161	47.47
731.562	47.61
731.962	47.7
732.363	47.79
732.763	47.88
733.164	47.98
733.564	48.04
733.965	48.09
734.365	48.14
734.766	48.21
735.166	48.27
735.566	48.32
735.966	48.33
736.366	48.37
736.766	48.4
737.166	48.44
737.566	48.45
737.966	48.51
738.365	48.55
738.765	48.6
739.165	48.62
739.564	48.66
739.964	48.71
740.363	48.74
740.763	48.8
741.162	48.86
741.561	48.9
741.96	48.97
742.36	48.99
742.759	49
743.158	49.04
743.557	49.08
743.955	49.16
744.354	49.21
744.753	49.28
745.152	49.3
745.55	49.29
745.949	49.31
746.348	49.34
746.746	49.36
747.144	49.42
747.543	49.46
747.941	49.51
748.339	49.53
748.737	49.58
749.136	49.6
749.534	49.62
749.932	49.65
750.33	49.65
750.727	49.64
751.125	49.66
751.523	49.65
751.921	49.66
752.318	49.64
752.716	49.59
753.113	49.55
753.511	49.51
753.908	49.49
754.305	49.47
754.703	49.44
755.1	49.42
755.497	49.41
755.894	49.4
756.291	49.37
756.688	49.33
757.085	49.33
757.482	49.33
757.878	49.32
758.275	49.33
758.672	49.31
759.068	49.31
759.465	49.33
759.861	49.33
760.258	49.27
760.654	49.27
761.05	49.28
761.447	49.28
761.843	49.24
762.239	49.24
762.635	49.25
763.031	49.28
763.427	49.28
763.822	49.23
764.218	49.22
764.614	49.27
765.01	49.27
765.405	49.27
765.801	49.25
766.196	49.28
766.592	49.31
766.987	49.29
767.382	49.28
767.778	49.29
768.173	49.3
768.568	49.28
768.963	49.29
769.358	49.28
769.753	49.31
770.148	49.33
770.542	49.33
770.937	49.32
771.332	49.35
771.726	49.36
772.121	49.34
772.515	49.35
772.91	49.39
773.304	49.36
773.699	49.36
774.093	49.34
774.487	49.34
774.881	49.39
775.275	49.4
775.669	49.4
776.063	49.37
776.457	49.37
776.851	49.39
777.245	49.39
777.638	49.41
778.032	49.42
778.425	49.41
778.819	49.43
779.212	49.36
779.606	49.36
779.999	49.33
780.392	49.38
780.786	49.41
781.179	49.41
781.572	49.42
781.965	49.45
