Data from N_3_hir_il_4n_Splice17_08.txt Node
Date: Sat Feb 29 15:13:02 EST 2020
User: sa697716
Spectrometer: FLMS03696
Trigger mode: 0
Integration Time (sec): 3.180400E-1
Scans to average: 20
Electric dark correction enabled: true
Nonlinearity correction enabled: true
Boxcar width: 5
XAxis mode: Wavelengths
Number of Pixels in Spectrum: 2048
>>>>>Begin Spectral Data<<<<<
187.83	106.42
188.298	107.14
188.766	104.31
189.233	102.24
189.701	109.9
190.169	108.74
190.636	109.51
191.104	102.52
191.571	309.34
192.039	191.34
192.506	344.75
192.974	3818.29
193.441	-47.77
193.908	133.07
194.375	111.43
194.842	175.83
195.31	109.39
195.777	88.05
196.244	22.83
196.711	14.83
197.177	8.27
197.644	6.45
198.111	7.33
198.578	7.41
199.045	7.59
199.511	8.53
199.978	9.19
200.445	9.34
200.911	9.63
201.378	9.75
201.844	10.04
202.31	10.93
202.777	11.28
203.243	11.53
203.709	12.08
204.176	11.78
204.642	11.89
205.108	11.88
205.574	12.12
206.04	12
206.506	11.9
206.972	11.78
207.438	11.83
207.903	12.27
208.369	12.28
208.835	12.23
209.301	12.57
209.766	12.8
210.232	12.98
210.697	13.03
211.163	13.79
211.628	13.64
212.094	13.67
212.559	13.17
213.024	12.95
213.49	12.91
213.955	13.03
214.42	12.84
214.885	12.6
215.35	12.61
215.815	12.51
216.28	12.27
216.745	12.47
217.21	12.44
217.675	12.66
218.14	12.49
218.604	12.37
219.069	12.26
219.534	12.14
219.998	11.98
220.463	11.83
220.927	11.74
221.392	11.53
221.856	11.33
222.32	11.16
222.785	11.06
223.249	11
223.713	10.89
224.177	10.76
224.642	10.69
225.106	10.64
225.57	10.51
226.034	10.39
226.497	10.27
226.961	10.15
227.425	10.05
227.889	9.94
228.353	9.8
228.816	9.69
229.28	9.57
229.744	9.45
230.207	9.32
230.671	9.21
231.134	9.08
231.597	8.96
232.061	8.86
232.524	8.77
232.987	8.67
233.45	8.58
233.914	8.49
234.377	8.38
234.84	8.3
235.303	8.21
235.766	8.12
236.229	8.05
236.691	7.98
237.154	7.91
237.617	7.82
238.08	7.74
238.542	7.66
239.005	7.58
239.468	7.5
239.93	7.42
240.393	7.35
240.855	7.28
241.317	7.21
241.78	7.16
242.242	7.11
242.704	7.03
243.166	6.97
243.629	6.9
244.091	6.84
244.553	6.79
245.015	6.74
245.477	6.69
245.939	6.64
246.4	6.57
246.862	6.51
247.324	6.47
247.786	6.42
248.247	6.37
248.709	6.33
249.17	6.3
249.632	6.24
250.093	6.19
250.555	6.14
251.016	6.11
251.477	6.07
251.939	6.03
252.4	5.99
252.861	5.96
253.322	5.93
253.783	5.91
254.244	5.86
254.705	5.83
255.166	5.8
255.627	5.77
256.088	5.72
256.549	5.69
257.009	5.65
257.47	5.63
257.931	5.59
258.391	5.54
258.852	5.5
259.312	5.48
259.773	5.44
260.233	5.4
260.694	5.38
261.154	5.35
261.614	5.32
262.074	5.3
262.534	5.25
262.994	5.22
263.455	5.2
263.915	5.18
264.374	5.14
264.834	5.12
265.294	5.09
265.754	5.06
266.214	5.03
266.673	5
267.133	4.97
267.593	4.95
268.052	4.92
268.512	4.89
268.971	4.87
269.431	4.85
269.89	4.83
270.349	4.82
270.809	4.8
271.268	4.79
271.727	4.77
272.186	4.75
272.645	4.73
273.104	4.72
273.563	4.7
274.022	4.68
274.481	4.66
274.94	4.64
275.399	4.61
275.857	4.59
276.316	4.57
276.775	4.55
277.233	4.53
277.692	4.51
278.15	4.48
278.609	4.46
279.067	4.43
279.525	4.41
279.984	4.39
280.442	4.37
280.9	4.36
281.358	4.33
281.816	4.31
282.274	4.29
282.732	4.27
283.19	4.26
283.648	4.24
284.106	4.22
284.564	4.21
285.021	4.2
285.479	4.19
285.937	4.17
286.394	4.15
286.852	4.14
287.309	4.13
287.767	4.1
288.224	4.09
288.682	4.08
289.139	4.08
289.596	4.06
290.053	4.04
290.511	4.01
290.968	4
291.425	3.98
291.882	3.97
292.339	3.95
292.796	3.94
293.252	3.92
293.709	3.89
294.166	3.87
294.623	3.86
295.079	3.85
295.536	3.84
295.992	3.83
296.449	3.82
296.905	3.8
297.362	3.78
297.818	3.77
298.274	3.76
298.731	3.75
299.187	3.74
299.643	3.72
300.099	3.71
300.555	3.69
301.011	3.68
301.467	3.67
301.923	3.66
302.379	3.65
302.835	3.64
303.291	3.63
303.746	3.62
304.202	3.61
304.658	3.6
305.113	3.59
305.569	3.58
306.024	3.57
306.479	3.55
306.935	3.54
307.39	3.54
307.845	3.54
308.301	3.53
308.756	3.52
309.211	3.51
309.666	3.5
310.121	3.49
310.576	3.48
311.031	3.47
311.486	3.47
311.94	3.46
312.395	3.46
312.85	3.45
313.305	3.44
313.759	3.43
314.214	3.43
314.668	3.42
315.123	3.42
315.577	3.42
316.032	3.41
316.486	3.4
316.94	3.39
317.394	3.37
317.849	3.36
318.303	3.36
318.757	3.35
319.211	3.34
319.665	3.33
320.119	3.32
320.572	3.31
321.026	3.3
321.48	3.29
321.934	3.3
322.387	3.3
322.841	3.28
323.295	3.27
323.748	3.26
324.202	3.25
324.655	3.24
325.108	3.23
325.562	3.22
326.015	3.21
326.468	3.2
326.921	3.18
327.374	3.17
327.827	3.17
328.28	3.16
328.733	3.15
329.186	3.14
329.639	3.13
330.092	3.13
330.545	3.13
330.997	3.13
331.45	3.12
331.903	3.11
332.355	3.11
332.808	3.11
333.26	3.1
333.713	3.11
334.165	3.1
334.617	3.1
335.069	3.09
335.522	3.09
335.974	3.09
336.426	3.09
336.878	3.09
337.33	3.08
337.782	3.08
338.234	3.08
338.686	3.07
339.137	3.08
339.589	3.08
340.041	3.07
340.493	3.05
340.944	3.05
341.396	3.05
341.847	3.05
342.299	3.05
342.75	3.03
343.201	3.01
343.653	3
344.104	2.99
344.555	2.98
345.006	2.97
345.457	2.97
345.908	2.95
346.359	2.94
346.81	2.93
347.261	2.92
347.712	2.92
348.163	2.92
348.613	2.91
349.064	2.89
349.515	2.88
349.965	2.88
350.416	2.87
350.866	2.87
351.317	2.87
351.767	2.85
352.217	2.85
352.668	2.84
353.118	2.83
353.568	2.84
354.018	2.84
354.468	2.84
354.918	2.85
355.368	2.86
355.818	2.85
356.268	2.85
356.718	2.85
357.168	2.83
357.617	2.83
358.067	2.82
358.517	2.81
358.966	2.82
359.416	2.82
359.865	2.8
360.315	2.79
360.764	2.78
361.213	2.77
361.663	2.76
362.112	2.78
362.561	2.78
363.01	2.79
363.459	2.79
363.908	2.77
364.357	2.77
364.806	2.78
365.255	2.79
365.703	2.79
366.152	2.79
366.601	2.8
367.05	2.8
367.498	2.79
367.947	2.78
368.395	2.78
368.844	2.79
369.292	2.78
369.74	2.77
370.189	2.75
370.637	2.76
371.085	2.77
371.533	2.76
371.981	2.76
372.429	2.74
372.877	2.74
373.325	2.74
373.773	2.74
374.221	2.74
374.669	2.74
375.116	2.73
375.564	2.73
376.012	2.73
376.459	2.73
376.907	2.74
377.354	2.75
377.801	2.76
378.249	2.76
378.696	2.77
379.143	2.78
379.591	2.79
380.038	2.81
380.485	2.81
380.932	2.82
381.379	2.82
381.826	2.82
382.273	2.83
382.72	2.84
383.166	2.85
383.613	2.86
384.06	2.88
384.506	2.89
384.953	2.89
385.4	2.91
385.846	2.92
386.292	2.95
386.739	2.96
387.185	2.98
387.631	3.01
388.078	3.03
388.524	3.05
388.97	3.07
389.416	3.09
389.862	3.11
390.308	3.12
390.754	3.15
391.2	3.18
391.645	3.21
392.091	3.23
392.537	3.25
392.983	3.28
393.428	3.31
393.874	3.34
394.319	3.37
394.765	3.4
395.21	3.43
395.655	3.47
396.101	3.49
396.546	3.52
396.991	3.55
397.436	3.56
397.881	3.59
398.326	3.63
398.771	3.66
399.216	3.7
399.661	3.75
400.106	3.8
400.551	3.82
400.995	3.86
401.44	3.88
401.885	3.91
402.329	3.95
402.774	3.97
403.218	4
403.663	4.02
404.107	4.05
404.551	4.08
404.995	4.09
405.44	4.12
405.884	4.15
406.328	4.18
406.772	4.21
407.216	4.26
407.66	4.29
408.104	4.32
408.547	4.35
408.991	4.36
409.435	4.37
409.879	4.41
410.322	4.45
410.766	4.49
411.209	4.52
411.653	4.54
412.096	4.55
412.54	4.57
412.983	4.6
413.426	4.64
413.869	4.66
414.312	4.7
414.756	4.73
415.199	4.75
415.642	4.79
416.085	4.82
416.527	4.86
416.97	4.9
417.413	4.91
417.856	4.93
418.298	4.93
418.741	4.95
419.184	4.95
419.626	4.95
420.069	4.96
420.511	4.97
420.953	4.98
421.396	4.98
421.838	5
422.28	5.03
422.722	5.05
423.164	5.06
423.606	5.08
424.048	5.09
424.49	5.12
424.932	5.14
425.374	5.14
425.816	5.13
426.258	5.13
426.699	5.09
427.141	5.07
427.582	5.05
428.024	5.05
428.465	5.05
428.907	5.05
429.348	5.06
429.789	5.05
430.231	5.04
430.672	5.06
431.113	5.07
431.554	5.12
431.995	5.14
432.436	5.16
432.877	5.15
433.318	5.15
433.759	5.13
434.2	5.12
434.64	5.14
435.081	5.14
435.522	5.15
435.962	5.15
436.403	5.16
436.843	5.17
437.284	5.17
437.724	5.2
438.164	5.21
438.604	5.26
439.045	5.27
439.485	5.28
439.925	5.3
440.365	5.31
440.805	5.32
441.245	5.31
441.685	5.32
442.125	5.33
442.564	5.36
443.004	5.38
443.444	5.39
443.883	5.4
444.323	5.43
444.762	5.45
445.202	5.5
445.641	5.51
446.081	5.56
446.52	5.59
446.959	5.61
447.398	5.65
447.837	5.69
448.276	5.71
448.716	5.74
449.154	5.78
449.593	5.82
450.032	5.85
450.471	5.89
450.91	5.9
451.349	5.92
451.787	5.96
452.226	5.94
452.664	5.91
453.103	5.94
453.541	5.95
453.98	5.94
454.418	5.92
454.856	5.89
455.295	5.87
455.733	5.85
456.171	5.84
456.609	5.82
457.047	5.83
457.485	5.84
457.923	5.83
458.361	5.81
458.798	5.8
459.236	5.8
459.674	5.82
460.111	5.82
460.549	5.82
460.987	5.83
461.424	5.81
461.862	5.8
462.299	5.78
462.736	5.78
463.173	5.78
463.611	5.77
464.048	5.77
464.485	5.75
464.922	5.73
465.359	5.74
465.796	5.71
466.233	5.73
466.67	5.74
467.106	5.75
467.543	5.75
467.98	5.74
468.416	5.75
468.853	5.75
469.29	5.76
469.726	5.79
470.162	5.79
470.599	5.81
471.035	5.83
471.471	5.84
471.907	5.85
472.344	5.86
472.78	5.88
473.216	5.88
473.652	5.89
474.088	5.9
474.523	5.9
474.959	5.91
475.395	5.92
475.831	5.91
476.266	5.91
476.702	5.92
477.138	5.93
477.573	5.92
478.008	5.95
478.444	5.96
478.879	5.97
479.314	5.97
479.75	5.98
480.185	5.97
480.62	5.97
481.055	5.99
481.49	5.98
481.925	5.98
482.36	5.97
482.795	5.96
483.229	5.95
483.664	5.94
484.099	5.94
484.534	5.95
484.968	5.96
485.403	5.96
485.837	5.96
486.271	5.97
486.706	5.98
487.14	6
487.574	6.02
488.009	6.05
488.443	6.06
488.877	6.08
489.311	6.1
489.745	6.13
490.179	6.16
490.613	6.19
491.046	6.22
491.48	6.26
491.914	6.3
492.348	6.33
492.781	6.36
493.215	6.4
493.648	6.45
494.082	6.51
494.515	6.56
494.948	6.62
495.382	6.68
495.815	6.74
496.248	6.81
496.681	6.87
497.114	6.94
497.547	7.02
497.98	7.1
498.413	7.18
498.846	7.26
499.279	7.34
499.711	7.43
500.144	7.52
500.577	7.63
501.009	7.74
501.442	7.86
501.874	7.98
502.306	8.11
502.739	8.24
503.171	8.37
503.603	8.52
504.036	8.67
504.468	8.84
504.9	9
505.332	9.16
505.764	9.33
506.196	9.51
506.627	9.69
507.059	9.88
507.491	10.08
507.923	10.27
508.354	10.49
508.786	10.69
509.217	10.9
509.649	11.14
510.08	11.37
510.512	11.59
510.943	11.85
511.374	12.1
511.805	12.36
512.237	12.62
512.668	12.88
513.099	13.14
513.53	13.41
513.961	13.69
514.391	13.97
514.822	14.25
515.253	14.55
515.684	14.82
516.114	15.1
516.545	15.38
516.975	15.68
517.406	15.98
517.836	16.26
518.267	16.57
518.697	16.85
519.127	17.13
519.558	17.42
519.988	17.69
520.418	17.98
520.848	18.27
521.278	18.56
521.708	18.69
522.138	18.95
522.567	19.24
522.997	19.48
523.427	19.75
523.857	20
524.286	20.23
524.716	20.46
525.145	20.69
525.575	20.9
526.004	21.09
526.433	21.44
526.863	21.65
527.292	21.84
527.721	22.03
528.15	22.2
528.579	22.38
529.008	22.54
529.437	22.71
529.866	22.86
530.295	23.03
530.724	23.18
531.152	23.33
531.581	23.45
532.01	23.56
532.438	23.68
532.867	23.79
533.295	23.89
533.723	23.99
534.152	24.08
534.58	24.15
535.008	24.2
535.436	24.24
535.865	24.3
536.293	24.38
536.721	24.43
537.149	24.47
537.576	24.52
538.004	24.55
538.432	24.58
538.86	24.62
539.287	24.67
539.715	24.72
540.143	24.76
540.57	24.78
540.998	24.8
541.425	24.85
541.852	24.88
542.28	24.89
542.707	24.93
543.134	24.97
543.561	24.98
543.988	25.01
544.415	25.05
544.842	25.08
545.269	25.12
545.696	25.15
546.123	25.16
546.549	25.2
546.976	25.24
547.403	25.25
547.829	25.29
548.256	25.33
548.682	25.36
549.108	25.38
549.535	25.42
549.961	25.43
550.387	25.43
550.813	25.44
551.24	25.45
551.666	25.47
552.092	25.49
552.518	25.45
552.943	25.45
553.369	25.43
553.795	25.42
554.221	25.4
554.646	25.38
555.072	25.37
555.498	25.33
555.923	25.3
556.349	25.26
556.774	25.21
557.199	25.18
557.625	25.13
558.05	25.05
558.475	24.95
558.9	24.88
559.325	24.81
559.75	24.71
560.175	24.64
560.6	24.53
561.025	24.43
561.449	24.31
561.874	24.21
562.299	24.11
562.723	24.01
563.148	23.9
563.572	23.78
563.997	23.65
564.421	23.51
564.846	23.37
565.27	23.25
565.694	23.12
566.118	22.98
566.542	22.84
566.966	22.68
567.39	22.53
567.814	22.36
568.238	22.18
568.662	22
569.086	21.84
569.509	21.68
569.933	21.5
570.357	21.32
570.78	21.16
571.204	21
571.627	20.83
572.05	20.68
572.474	20.55
572.897	20.43
573.32	20.3
573.743	20.16
574.166	20.01
574.589	19.87
575.012	19.76
575.435	19.64
575.858	19.53
576.281	19.43
576.704	19.32
577.126	19.21
577.549	19.11
577.972	19.01
578.394	18.91
578.817	18.82
579.239	18.74
579.661	18.66
580.084	18.58
580.506	18.49
580.928	18.39
581.35	18.31
581.772	18.22
582.194	18.15
582.616	18.08
583.038	18.02
583.46	17.96
583.882	17.89
584.303	17.81
584.725	17.74
585.147	17.67
585.568	17.59
585.99	17.54
586.411	17.48
586.833	17.41
587.254	17.36
587.675	17.29
588.096	17.23
588.518	17.17
588.939	17.12
589.36	17.07
589.781	17.02
590.202	17.01
590.623	16.95
591.043	16.92
591.464	16.86
591.885	16.82
592.305	16.79
592.726	16.77
593.147	16.75
593.567	16.71
593.987	16.7
594.408	16.67
594.828	16.62
595.248	16.61
595.669	16.6
596.089	16.58
596.509	16.55
596.929	16.52
597.349	16.46
597.769	16.43
598.189	16.41
598.608	16.35
599.028	16.32
599.448	16.28
599.867	16.22
600.287	16.17
600.706	16.13
601.126	16.08
601.545	16.03
601.965	15.99
602.384	15.94
602.803	15.87
603.222	15.81
603.641	15.75
604.061	15.68
604.48	15.61
604.898	15.55
605.317	15.46
605.736	15.37
606.155	15.3
606.574	15.23
606.992	15.13
607.411	15.06
607.829	14.93
608.248	14.84
608.666	14.77
609.085	14.69
609.503	14.59
609.921	14.5
610.339	14.43
610.758	14.34
611.176	14.25
611.594	14.18
612.012	14.09
612.43	14.05
612.847	13.97
613.265	13.88
613.683	13.8
614.101	13.73
614.518	13.64
614.936	13.56
615.353	13.48
615.771	13.41
616.188	13.36
616.606	13.3
617.023	13.23
617.44	13.17
617.857	13.11
618.274	13.06
618.691	13.01
619.108	12.97
619.525	12.93
619.942	12.9
620.359	12.88
620.776	12.83
621.192	12.79
621.609	12.76
622.026	12.74
622.442	12.7
622.859	12.68
623.275	12.66
623.691	12.64
624.108	12.62
624.524	12.6
624.94	12.57
625.356	12.54
625.772	12.53
626.188	12.53
626.604	12.5
627.02	12.5
627.436	12.48
627.852	12.45
628.268	12.42
628.683	12.4
629.099	12.39
629.514	12.36
629.93	12.35
630.345	12.31
630.761	12.27
631.176	12.25
631.591	12.22
632.007	12.17
632.422	12.15
632.837	12.1
633.252	12.04
633.667	11.97
634.082	11.92
634.497	11.84
634.911	11.78
635.326	11.7
635.741	11.61
636.155	11.52
636.57	11.42
636.984	11.32
637.399	11.22
637.813	11.12
638.228	11.01
638.642	10.91
639.056	10.8
639.47	10.69
639.884	10.57
640.298	10.46
640.712	10.34
641.126	10.23
641.54	10.13
641.954	10.03
642.368	9.92
642.781	9.82
643.195	9.7
643.609	9.6
644.022	9.5
644.436	9.41
644.849	9.31
645.262	9.22
645.676	9.12
646.089	9.04
646.502	8.94
646.915	8.87
647.328	8.8
647.741	8.71
648.154	8.66
648.567	8.59
648.98	8.53
649.393	8.49
649.805	8.44
650.218	8.4
650.631	8.37
651.043	8.32
651.456	8.27
651.868	8.23
652.28	8.19
652.693	8.14
653.105	8.08
653.517	8.02
653.929	7.96
654.341	7.9
654.753	7.83
655.165	7.77
655.577	7.69
655.989	7.6
656.401	7.51
656.813	7.43
657.224	7.35
657.636	7.27
658.047	7.19
658.459	7.09
658.87	7.01
659.282	6.92
659.693	6.82
660.104	6.73
660.515	6.67
660.926	6.6
661.338	6.52
661.749	6.42
662.159	6.34
662.57	6.27
662.981	6.19
663.392	6.11
663.803	6.03
664.213	5.97
664.624	5.91
665.035	5.85
665.445	5.8
665.855	5.75
666.266	5.71
666.676	5.67
667.086	5.62
667.497	5.59
667.907	5.55
668.317	5.53
668.727	5.5
669.137	5.48
669.547	5.48
669.956	5.45
670.366	5.44
670.776	5.43
671.186	5.42
671.595	5.41
672.005	5.41
672.414	5.42
672.824	5.44
673.233	5.46
673.642	5.46
674.052	5.46
674.461	5.48
674.87	5.49
675.279	5.51
675.688	5.53
676.097	5.54
676.506	5.57
676.915	5.59
677.323	5.61
677.732	5.63
678.141	5.66
678.549	5.7
678.958	5.75
679.366	5.79
679.775	5.84
680.183	5.92
680.592	6
681	6.08
681.408	6.16
681.816	6.24
682.224	6.35
682.632	6.48
683.04	6.61
683.448	6.74
683.856	6.91
684.264	7.09
684.671	7.28
685.079	7.49
685.487	7.73
685.894	7.99
686.302	8.26
686.709	8.56
687.116	8.86
687.524	9.19
687.931	9.54
688.338	9.93
688.745	10.33
689.152	10.76
689.559	11.2
689.966	11.66
690.373	12.14
690.78	12.64
691.187	13.15
691.593	13.68
692	14.23
692.407	14.79
692.813	15.35
693.22	15.93
693.626	16.48
694.032	17.06
694.439	17.66
694.845	18.22
695.251	18.81
695.657	19.41
696.063	19.99
696.469	20.56
696.875	21.11
697.281	21.66
697.687	22.21
698.093	22.76
698.498	23.33
698.904	23.87
699.31	24.4
699.715	24.92
700.12	25.41
700.526	25.94
700.931	26.44
701.337	26.97
701.742	27.44
702.147	27.93
702.552	28.45
702.957	28.89
703.362	29.33
703.767	29.79
704.172	30.24
704.577	30.67
704.981	31.09
705.386	31.5
705.791	31.9
706.195	32.32
706.6	32.69
707.004	33.05
707.408	33.44
707.813	33.81
708.217	34.17
708.621	34.53
709.025	34.91
709.43	35.23
709.834	35.6
710.237	35.93
710.641	36.28
711.045	36.61
711.449	36.93
711.853	37.26
712.256	37.59
712.66	37.9
713.064	38.2
713.467	38.48
713.87	38.79
714.274	39.08
714.677	39.35
715.08	39.62
715.484	39.9
715.887	40.18
716.29	40.43
716.693	40.67
717.096	40.95
717.499	41.21
717.901	41.44
718.304	41.68
718.707	41.89
719.109	42.13
719.512	42.37
719.915	42.59
720.317	42.81
720.719	43.03
721.122	43.23
721.524	43.41
721.926	43.6
722.328	43.82
722.731	44
723.133	44.19
723.535	44.4
723.937	44.55
724.338	44.7
724.74	44.88
725.142	45
725.544	45.17
725.945	45.33
726.347	45.48
726.748	45.58
727.15	45.71
727.551	45.85
727.952	45.92
728.354	46.05
728.755	46.21
729.156	46.31
729.557	46.45
729.958	46.55
730.359	46.67
730.76	46.75
731.161	46.88
731.562	46.97
731.962	47.05
732.363	47.15
732.763	47.25
733.164	47.29
733.564	47.35
733.965	47.4
734.365	47.47
734.766	47.52
735.166	47.6
735.566	47.61
735.966	47.66
736.366	47.7
736.766	47.75
737.166	47.78
737.566	47.82
737.966	47.87
738.365	47.92
738.765	47.95
739.165	47.98
739.564	48
739.964	48.04
740.363	48.06
740.763	48.09
741.162	48.12
741.561	48.15
741.96	48.18
742.36	48.22
742.759	48.21
743.158	48.23
743.557	48.24
743.955	48.27
744.354	48.33
744.753	48.38
745.152	48.4
745.55	48.41
745.949	48.45
746.348	48.48
746.746	48.5
747.144	48.58
747.543	48.62
747.941	48.68
748.339	48.76
748.737	48.79
749.136	48.85
749.534	48.91
749.932	48.94
750.33	48.91
750.727	48.93
751.125	48.91
751.523	48.91
751.921	48.91
752.318	48.9
752.716	48.84
753.113	48.83
753.511	48.78
753.908	48.73
754.305	48.72
754.703	48.72
755.1	48.7
755.497	48.69
755.894	48.66
756.291	48.61
756.688	48.61
757.085	48.61
757.482	48.6
757.878	48.61
758.275	48.63
758.672	48.63
759.068	48.65
759.465	48.64
759.861	48.62
760.258	48.63
760.654	48.65
761.05	48.64
761.447	48.64
761.843	48.63
762.239	48.63
762.635	48.61
763.031	48.62
763.427	48.59
763.822	48.58
764.218	48.58
764.614	48.59
765.01	48.58
765.405	48.55
765.801	48.51
766.196	48.5
766.592	48.5
766.987	48.49
767.382	48.47
767.778	48.48
768.173	48.48
768.568	48.47
768.963	48.43
769.358	48.43
769.753	48.45
770.148	48.48
770.542	48.46
770.937	48.44
771.332	48.44
771.726	48.43
772.121	48.41
772.515	48.41
772.91	48.44
773.304	48.47
773.699	48.47
774.093	48.43
774.487	48.43
774.881	48.47
775.275	48.45
775.669	48.42
776.063	48.42
776.457	48.4
776.851	48.38
777.245	48.36
777.638	48.38
778.032	48.39
778.425	48.41
778.819	48.42
779.212	48.41
779.606	48.43
779.999	48.46
780.392	48.47
780.786	48.51
781.179	48.53
781.572	48.56
781.965	48.55
782.358	48.52
