Data from N_3_dec_va_2n_Splice17_14.txt Node
Date: Sat Feb 29 15:03:08 EST 2020
User: sa697716
Spectrometer: FLMS03696
Trigger mode: 0
Integration Time (sec): 3.180400E-1
Scans to average: 20
Electric dark correction enabled: true
Nonlinearity correction enabled: true
Boxcar width: 5
XAxis mode: Wavelengths
Number of Pixels in Spectrum: 2048
>>>>>Begin Spectral Data<<<<<
187.83	50.13
188.298	45.42
188.766	44.78
189.233	33.36
189.701	38.84
190.169	47.33
190.636	52.57
191.104	47.19
191.571	286.82
192.039	186.61
192.506	305.56
192.974	11019.93
193.441	-626.27
193.908	94.86
194.375	150.36
194.842	65.52
195.31	48.17
195.777	15.75
196.244	54.91
196.711	77.86
197.177	80.19
197.644	80.02
198.111	80.12
198.578	81.47
199.045	82.66
199.511	82
199.978	82.96
200.445	82.91
200.911	83.31
201.378	83.59
201.844	84.15
202.31	84.06
202.777	84.43
203.243	84.85
203.709	84.75
204.176	84.16
204.642	83.84
205.108	83.33
205.574	83.59
206.04	82.94
206.506	81.92
206.972	80.72
207.438	80.52
207.903	79.43
208.369	77.68
208.835	76.81
209.301	75.92
209.766	74.49
210.232	73.17
210.697	71.64
211.163	70.6
211.628	69.38
212.094	68.42
212.559	66.67
213.024	65.33
213.49	64.21
213.955	63.05
214.42	61.31
214.885	59.39
215.35	57.31
215.815	54.12
216.28	50.53
216.745	46.84
217.21	42.88
217.675	39.24
218.14	35.95
218.604	32.9
219.069	30.24
219.534	27.99
219.998	26.21
220.463	24.65
220.927	23.38
221.392	22.33
221.856	21.37
222.32	20.57
222.785	19.89
223.249	19.27
223.713	18.73
224.177	18.2
224.642	17.77
225.106	17.34
225.57	16.86
226.034	16.48
226.497	16.09
226.961	15.72
227.425	15.36
227.889	15.03
228.353	14.71
228.816	14.41
229.28	14.09
229.744	13.83
230.207	13.56
230.671	13.32
231.134	13.07
231.597	12.84
232.061	12.62
232.524	12.43
232.987	12.23
233.45	12.03
233.914	11.84
234.377	11.68
234.84	11.52
235.303	11.37
235.766	11.23
236.229	11.09
236.691	10.96
237.154	10.84
237.617	10.72
238.08	10.58
238.542	10.47
239.005	10.36
239.468	10.23
239.93	10.13
240.393	10.02
240.855	9.9
241.317	9.79
241.78	9.7
242.242	9.58
242.704	9.48
243.166	9.39
243.629	9.28
244.091	9.17
244.553	9.1
245.015	8.99
245.477	8.89
245.939	8.8
246.4	8.71
246.862	8.63
247.324	8.55
247.786	8.46
248.247	8.39
248.709	8.31
249.17	8.24
249.632	8.15
250.093	8.06
250.555	7.98
251.016	7.92
251.477	7.85
251.939	7.77
252.4	7.69
252.861	7.62
253.322	7.56
253.783	7.5
254.244	7.44
254.705	7.38
255.166	7.34
255.627	7.28
256.088	7.22
256.549	7.16
257.009	7.11
257.47	7.05
257.931	6.99
258.391	6.91
258.852	6.85
259.312	6.79
259.773	6.74
260.233	6.67
260.694	6.62
261.154	6.56
261.614	6.51
262.074	6.45
262.534	6.39
262.994	6.34
263.455	6.3
263.915	6.25
264.374	6.19
264.834	6.14
265.294	6.1
265.754	6.05
266.214	6
266.673	5.95
267.133	5.92
267.593	5.88
268.052	5.84
268.512	5.81
268.971	5.77
269.431	5.75
269.89	5.72
270.349	5.7
270.809	5.68
271.268	5.66
271.727	5.65
272.186	5.62
272.645	5.6
273.104	5.58
273.563	5.57
274.022	5.54
274.481	5.51
274.94	5.49
275.399	5.46
275.857	5.44
276.316	5.42
276.775	5.39
277.233	5.37
277.692	5.35
278.15	5.32
278.609	5.29
279.067	5.27
279.525	5.26
279.984	5.24
280.442	5.22
280.9	5.21
281.358	5.2
281.816	5.19
282.274	5.18
282.732	5.17
283.19	5.17
283.648	5.17
284.106	5.16
284.564	5.16
285.021	5.16
285.479	5.16
285.937	5.15
286.394	5.15
286.852	5.14
287.309	5.12
287.767	5.1
288.224	5.08
288.682	5.06
289.139	5.04
289.596	5.01
290.053	4.97
290.511	4.94
290.968	4.91
291.425	4.87
291.882	4.85
292.339	4.82
292.796	4.78
293.252	4.75
293.709	4.73
294.166	4.71
294.623	4.68
295.079	4.66
295.536	4.65
295.992	4.63
296.449	4.61
296.905	4.59
297.362	4.57
297.818	4.56
298.274	4.55
298.731	4.53
299.187	4.52
299.643	4.5
300.099	4.49
300.555	4.48
301.011	4.46
301.467	4.45
301.923	4.44
302.379	4.44
302.835	4.42
303.291	4.41
303.746	4.41
304.202	4.39
304.658	4.39
305.113	4.38
305.569	4.38
306.024	4.37
306.479	4.36
306.935	4.37
307.39	4.36
307.845	4.37
308.301	4.36
308.756	4.37
309.211	4.37
309.666	4.37
310.121	4.38
310.576	4.38
311.031	4.37
311.486	4.38
311.94	4.37
312.395	4.37
312.85	4.37
313.305	4.37
313.759	4.36
314.214	4.36
314.668	4.36
315.123	4.36
315.577	4.35
316.032	4.34
316.486	4.33
316.94	4.31
317.394	4.3
317.849	4.28
318.303	4.27
318.757	4.24
319.211	4.22
319.665	4.2
320.119	4.18
320.572	4.18
321.026	4.17
321.48	4.16
321.934	4.16
322.387	4.14
322.841	4.14
323.295	4.13
323.748	4.13
324.202	4.13
324.655	4.13
325.108	4.11
325.562	4.09
326.015	4.08
326.468	4.07
326.921	4.05
327.374	4.05
327.827	4.04
328.28	4.03
328.733	4.03
329.186	4.02
329.639	4.01
330.092	4.01
330.545	4.01
330.997	4.02
331.45	4.02
331.903	4.03
332.355	4.03
332.808	4.03
333.26	4.04
333.713	4.05
334.165	4.06
334.617	4.07
335.069	4.09
335.522	4.1
335.974	4.1
336.426	4.1
336.878	4.09
337.33	4.1
337.782	4.1
338.234	4.1
338.686	4.1
339.137	4.1
339.589	4.09
340.041	4.08
340.493	4.06
340.944	4.05
341.396	4.04
341.847	4.03
342.299	4
342.75	3.98
343.201	3.96
343.653	3.94
344.104	3.92
344.555	3.91
345.006	3.89
345.457	3.87
345.908	3.86
346.359	3.84
346.81	3.83
347.261	3.82
347.712	3.82
348.163	3.81
348.613	3.79
349.064	3.78
349.515	3.76
349.965	3.76
350.416	3.74
350.866	3.75
351.317	3.74
351.767	3.74
352.217	3.74
352.668	3.74
353.118	3.75
353.568	3.76
354.018	3.77
354.468	3.78
354.918	3.78
355.368	3.79
355.818	3.78
356.268	3.78
356.718	3.78
357.168	3.78
357.617	3.77
358.067	3.76
358.517	3.75
358.966	3.75
359.416	3.76
359.865	3.75
360.315	3.75
360.764	3.75
361.213	3.75
361.663	3.75
362.112	3.76
362.561	3.76
363.01	3.77
363.459	3.76
363.908	3.75
364.357	3.74
364.806	3.74
365.255	3.74
365.703	3.75
366.152	3.75
366.601	3.75
367.05	3.76
367.498	3.75
367.947	3.74
368.395	3.76
368.844	3.75
369.292	3.75
369.74	3.75
370.189	3.74
370.637	3.74
371.085	3.73
371.533	3.73
371.981	3.72
372.429	3.72
372.877	3.72
373.325	3.7
373.773	3.69
374.221	3.69
374.669	3.69
375.116	3.67
375.564	3.66
376.012	3.66
376.459	3.66
376.907	3.65
377.354	3.65
377.801	3.64
378.249	3.64
378.696	3.65
379.143	3.65
379.591	3.65
380.038	3.67
380.485	3.67
380.932	3.66
381.379	3.65
381.826	3.65
382.273	3.65
382.72	3.65
383.166	3.64
383.613	3.63
384.06	3.63
384.506	3.62
384.953	3.61
385.4	3.61
385.846	3.6
386.292	3.6
386.739	3.6
387.185	3.61
387.631	3.61
388.078	3.61
388.524	3.59
388.97	3.59
389.416	3.59
389.862	3.6
390.308	3.58
390.754	3.59
391.2	3.61
391.645	3.62
392.091	3.63
392.537	3.63
392.983	3.65
393.428	3.67
393.874	3.69
394.319	3.7
394.765	3.7
395.21	3.71
395.655	3.73
396.101	3.72
396.546	3.73
396.991	3.73
397.436	3.74
397.881	3.75
398.326	3.77
398.771	3.79
399.216	3.81
399.661	3.84
400.106	3.87
400.551	3.88
400.995	3.88
401.44	3.89
401.885	3.9
402.329	3.92
402.774	3.93
403.218	3.94
403.663	3.95
404.107	3.97
404.551	3.98
404.995	3.97
405.44	3.99
405.884	4.02
406.328	4.04
406.772	4.06
407.216	4.07
407.66	4.09
408.104	4.09
408.547	4.11
408.991	4.12
409.435	4.12
409.879	4.15
410.322	4.18
410.766	4.19
411.209	4.22
411.653	4.24
412.096	4.26
412.54	4.27
412.983	4.3
413.426	4.34
413.869	4.37
414.312	4.42
414.756	4.45
415.199	4.47
415.642	4.51
416.085	4.53
416.527	4.56
416.97	4.58
417.413	4.59
417.856	4.6
418.298	4.63
418.741	4.64
419.184	4.64
419.626	4.64
420.069	4.63
420.511	4.63
420.953	4.64
421.396	4.64
421.838	4.67
422.28	4.7
422.722	4.73
423.164	4.72
423.606	4.74
424.048	4.74
424.49	4.77
424.932	4.79
425.374	4.79
425.816	4.77
426.258	4.76
426.699	4.73
427.141	4.71
427.582	4.7
428.024	4.7
428.465	4.7
428.907	4.72
429.348	4.73
429.789	4.73
430.231	4.74
430.672	4.77
431.113	4.81
431.554	4.83
431.995	4.86
432.436	4.88
432.877	4.88
433.318	4.88
433.759	4.9
434.2	4.91
434.64	4.94
435.081	4.94
435.522	4.99
435.962	5.01
436.403	5.06
436.843	5.07
437.284	5.1
437.724	5.14
438.164	5.16
438.604	5.18
439.045	5.2
439.485	5.2
439.925	5.23
440.365	5.22
440.805	5.21
441.245	5.2
441.685	5.21
442.125	5.22
442.564	5.23
443.004	5.25
443.444	5.27
443.883	5.3
444.323	5.3
444.762	5.35
445.202	5.39
445.641	5.43
446.081	5.49
446.52	5.51
446.959	5.53
447.398	5.57
447.837	5.6
448.276	5.6
448.716	5.61
449.154	5.65
449.593	5.65
450.032	5.66
450.471	5.66
450.91	5.64
451.349	5.65
451.787	5.65
452.226	5.62
452.664	5.61
453.103	5.61
453.541	5.61
453.98	5.59
454.418	5.55
454.856	5.52
455.295	5.49
455.733	5.47
456.171	5.47
456.609	5.47
457.047	5.45
457.485	5.43
457.923	5.41
458.361	5.4
458.798	5.39
459.236	5.4
459.674	5.4
460.111	5.41
460.549	5.4
460.987	5.4
461.424	5.39
461.862	5.4
462.299	5.4
462.736	5.41
463.173	5.4
463.611	5.4
464.048	5.42
464.485	5.42
464.922	5.41
465.359	5.43
465.796	5.42
466.233	5.42
466.67	5.44
467.106	5.44
467.543	5.45
467.98	5.47
468.416	5.48
468.853	5.46
469.29	5.47
469.726	5.48
470.162	5.47
470.599	5.47
471.035	5.47
471.471	5.45
471.907	5.47
472.344	5.47
472.78	5.46
473.216	5.44
473.652	5.45
474.088	5.46
474.523	5.46
474.959	5.44
475.395	5.42
475.831	5.42
476.266	5.41
476.702	5.39
477.138	5.37
477.573	5.34
478.008	5.33
478.444	5.3
478.879	5.28
479.314	5.26
479.75	5.26
480.185	5.25
480.62	5.22
481.055	5.21
481.49	5.19
481.925	5.17
482.36	5.15
482.795	5.13
483.229	5.14
483.664	5.13
484.099	5.12
484.534	5.12
484.968	5.11
485.403	5.12
485.837	5.11
486.271	5.12
486.706	5.12
487.14	5.14
487.574	5.16
488.009	5.17
488.443	5.18
488.877	5.19
489.311	5.21
489.745	5.23
490.179	5.25
490.613	5.28
491.046	5.31
491.48	5.34
491.914	5.37
492.348	5.4
492.781	5.45
493.215	5.49
493.648	5.55
494.082	5.61
494.515	5.67
494.948	5.72
495.382	5.78
495.815	5.85
496.248	5.92
496.681	5.99
497.114	6.05
497.547	6.13
497.98	6.21
498.413	6.29
498.846	6.37
499.279	6.47
499.711	6.56
500.144	6.67
500.577	6.78
501.009	6.88
501.442	7.01
501.874	7.15
502.306	7.29
502.739	7.43
503.171	7.59
503.603	7.75
504.036	7.9
504.468	8.08
504.9	8.28
505.332	8.47
505.764	8.67
506.196	8.89
506.627	9.11
507.059	9.32
507.491	9.55
507.923	9.79
508.354	10.04
508.786	10.3
509.217	10.55
509.649	10.82
510.08	11.1
510.512	11.36
510.943	11.65
511.374	11.93
511.805	12.23
512.237	12.54
512.668	12.84
513.099	13.17
513.53	13.51
513.961	13.86
514.391	14.18
514.822	14.52
515.253	14.89
515.684	15.23
516.114	15.6
516.545	15.95
516.975	16.32
517.406	16.69
517.836	17.04
518.267	17.39
518.697	17.74
519.127	18.1
519.558	18.46
519.988	18.8
520.418	19.15
520.848	19.5
521.278	19.86
521.708	20.23
522.138	20.55
522.567	20.86
522.997	21.18
523.427	21.5
523.857	21.79
524.286	22.08
524.716	22.38
525.145	22.67
525.575	22.93
526.004	23.18
526.433	23.41
526.863	23.65
527.292	23.91
527.721	24.13
528.15	24.34
528.579	24.56
529.008	24.77
529.437	24.96
529.866	25.15
530.295	25.33
530.724	25.49
531.152	25.66
531.581	25.81
532.01	25.93
532.438	26.07
532.867	26.19
533.295	26.3
533.723	26.42
534.152	26.52
534.58	26.6
535.008	26.68
535.436	26.75
535.865	26.82
536.293	26.91
536.721	26.98
537.149	27.04
537.576	27.11
538.004	27.16
538.432	27.2
538.86	27.24
539.287	27.27
539.715	27.33
540.143	27.37
540.57	27.4
540.998	27.42
541.425	27.45
541.852	27.49
542.28	27.52
542.707	27.56
543.134	27.6
543.561	27.63
543.988	27.66
544.415	27.7
544.842	27.72
545.269	27.77
545.696	27.8
546.123	27.85
546.549	27.86
546.976	27.89
547.403	27.93
547.829	27.99
548.256	28.02
548.682	28.05
549.108	28.1
549.535	28.14
549.961	28.14
550.387	28.15
550.813	28.14
551.24	28.16
551.666	28.17
552.092	28.16
552.518	28.13
552.943	28.12
553.369	28.11
553.795	28.06
554.221	28.01
554.646	28
555.072	27.96
555.498	27.92
555.923	27.85
556.349	27.77
556.774	27.69
557.199	27.62
557.625	27.54
558.05	27.43
558.475	27.34
558.9	27.25
559.325	27.14
559.75	27.03
560.175	26.91
560.6	26.8
561.025	26.67
561.449	26.52
561.874	26.37
562.299	26.22
562.723	26.06
563.148	25.9
563.572	25.73
563.997	25.55
564.421	25.36
564.846	25.18
565.27	24.99
565.694	24.81
566.118	24.63
566.542	24.44
566.966	24.23
567.39	24.01
567.814	23.79
568.238	23.56
568.662	23.34
569.086	23.15
569.509	22.94
569.933	22.73
570.357	22.5
570.78	22.28
571.204	22.05
571.627	21.85
572.05	21.69
572.474	21.52
572.897	21.35
573.32	21.19
573.743	21
574.166	20.83
574.589	20.68
575.012	20.54
575.435	20.39
575.858	20.25
576.281	20.12
576.704	19.98
577.126	19.85
577.549	19.74
577.972	19.61
578.394	19.49
578.817	19.37
579.239	19.26
579.661	19.14
580.084	19.04
580.506	18.95
580.928	18.84
581.35	18.73
581.772	18.62
582.194	18.52
582.616	18.44
583.038	18.37
583.46	18.31
583.882	18.23
584.303	18.16
584.725	18.08
585.147	17.99
585.568	17.9
585.99	17.85
586.411	17.78
586.833	17.69
587.254	17.61
587.675	17.53
588.096	17.45
588.518	17.38
588.939	17.32
589.36	17.24
589.781	17.2
590.202	17.15
590.623	17.07
591.043	17.01
591.464	16.95
591.885	16.9
592.305	16.85
592.726	16.8
593.147	16.75
593.567	16.69
593.987	16.67
594.408	16.61
594.828	16.56
595.248	16.52
595.669	16.49
596.089	16.46
596.509	16.4
596.929	16.34
597.349	16.29
597.769	16.23
598.189	16.2
598.608	16.13
599.028	16.08
599.448	16.02
599.867	15.97
600.287	15.9
600.706	15.85
601.126	15.82
601.545	15.77
601.965	15.72
602.384	15.66
602.803	15.6
603.222	15.54
603.641	15.48
604.061	15.42
604.48	15.35
604.898	15.27
605.317	15.18
605.736	15.1
606.155	15
606.574	14.92
606.992	14.82
607.411	14.71
607.829	14.58
608.248	14.49
608.666	14.39
609.085	14.29
609.503	14.2
609.921	14.11
610.339	14
610.758	13.92
611.176	13.82
611.594	13.73
612.012	13.64
612.43	13.57
612.847	13.5
613.265	13.42
613.683	13.33
614.101	13.24
614.518	13.16
614.936	13.08
615.353	13
615.771	12.93
616.188	12.85
616.606	12.78
617.023	12.71
617.44	12.62
617.857	12.55
618.274	12.49
618.691	12.43
619.108	12.38
619.525	12.33
619.942	12.28
620.359	12.24
620.776	12.2
621.192	12.16
621.609	12.14
622.026	12.11
622.442	12.08
622.859	12.07
623.275	12.04
623.691	12.02
624.108	12.01
624.524	11.99
624.94	11.97
625.356	11.96
625.772	11.94
626.188	11.93
626.604	11.9
627.02	11.9
627.436	11.88
627.852	11.87
628.268	11.84
628.683	11.81
629.099	11.79
629.514	11.75
629.93	11.72
630.345	11.69
630.761	11.65
631.176	11.62
631.591	11.56
632.007	11.5
632.422	11.45
632.837	11.38
633.252	11.32
633.667	11.23
634.082	11.16
634.497	11.06
634.911	10.96
635.326	10.87
635.741	10.76
636.155	10.67
636.57	10.55
636.984	10.41
637.399	10.29
637.813	10.15
638.228	10.02
638.642	9.9
639.056	9.78
639.47	9.64
639.884	9.48
640.298	9.36
640.712	9.21
641.126	9.09
641.54	8.96
641.954	8.85
642.368	8.73
642.781	8.61
643.195	8.48
643.609	8.35
644.022	8.25
644.436	8.16
644.849	8.07
645.262	7.98
645.676	7.87
646.089	7.78
646.502	7.67
646.915	7.59
647.328	7.53
647.741	7.46
648.154	7.42
648.567	7.37
648.98	7.31
649.393	7.25
649.805	7.19
650.218	7.16
650.631	7.12
651.043	7.1
651.456	7.07
651.868	7.03
652.28	7.01
652.693	6.95
653.105	6.9
653.517	6.85
653.929	6.83
654.341	6.79
654.753	6.73
655.165	6.67
655.577	6.61
655.989	6.54
656.401	6.47
656.813	6.39
657.224	6.34
657.636	6.27
658.047	6.2
658.459	6.1
658.87	6.03
659.282	5.97
659.693	5.89
660.104	5.83
660.515	5.76
660.926	5.7
661.338	5.64
661.749	5.55
662.159	5.49
662.57	5.44
662.981	5.39
663.392	5.33
663.803	5.28
664.213	5.24
664.624	5.21
665.035	5.16
665.445	5.13
665.855	5.1
666.266	5.07
666.676	5.03
667.086	5
667.497	4.97
667.907	4.95
668.317	4.93
668.727	4.89
669.137	4.87
669.547	4.86
669.956	4.84
670.366	4.84
670.776	4.85
671.186	4.85
671.595	4.85
672.005	4.86
672.414	4.86
672.824	4.88
673.233	4.91
673.642	4.92
674.052	4.93
674.461	4.95
674.87	4.98
675.279	5
675.688	5.02
676.097	5.06
676.506	5.09
676.915	5.13
677.323	5.16
677.732	5.19
678.141	5.25
678.549	5.31
678.958	5.38
679.366	5.41
679.775	5.47
680.183	5.54
680.592	5.62
681	5.68
681.408	5.77
681.816	5.86
682.224	5.96
682.632	6.08
683.04	6.2
683.448	6.33
683.856	6.49
684.264	6.67
684.671	6.87
685.079	7.07
685.487	7.34
685.894	7.61
686.302	7.91
686.709	8.24
687.116	8.57
687.524	8.94
687.931	9.35
688.338	9.8
688.745	10.27
689.152	10.77
689.559	11.3
689.966	11.84
690.373	12.43
690.78	13.03
691.187	13.65
691.593	14.31
692	15
692.407	15.67
692.813	16.38
693.22	17.08
693.626	17.82
694.032	18.56
694.439	19.31
694.845	20.05
695.251	20.83
695.657	21.59
696.063	22.35
696.469	23.1
696.875	23.84
697.281	24.55
697.687	25.31
698.093	26.02
698.498	26.77
698.904	27.49
699.31	28.2
699.715	28.9
700.12	29.57
700.526	30.24
700.931	30.89
701.337	31.59
701.742	32.25
702.147	32.87
702.552	33.52
702.957	34.11
703.362	34.74
703.767	35.33
704.172	35.91
704.577	36.47
704.981	37.05
705.386	37.65
705.791	38.18
706.195	38.72
706.6	39.25
707.004	39.76
707.408	40.28
707.813	40.75
708.217	41.25
708.621	41.74
709.025	42.29
709.43	42.75
709.834	43.22
710.237	43.69
710.641	44.14
711.045	44.59
711.449	45
711.853	45.44
712.256	45.9
712.66	46.32
713.064	46.71
713.467	47.07
713.87	47.48
714.274	47.89
714.677	48.25
715.08	48.66
715.484	49.04
715.887	49.43
716.29	49.76
716.693	50.09
717.096	50.46
717.499	50.81
717.901	51.14
718.304	51.46
718.707	51.76
719.109	52.09
719.512	52.4
719.915	52.67
720.317	52.95
720.719	53.23
721.122	53.54
721.524	53.77
721.926	54.04
722.328	54.33
722.731	54.59
723.133	54.82
723.535	55.08
723.937	55.27
724.338	55.48
724.74	55.72
725.142	55.86
725.544	56.03
725.945	56.23
726.347	56.4
726.748	56.54
727.15	56.67
727.551	56.85
727.952	56.98
728.354	57.18
728.755	57.37
729.156	57.55
729.557	57.75
729.958	57.93
730.359	58.05
730.76	58.16
731.161	58.3
731.562	58.45
731.962	58.57
732.363	58.67
732.763	58.77
733.164	58.86
733.564	58.93
733.965	59.02
734.365	59.06
734.766	59.14
735.166	59.23
735.566	59.27
735.966	59.34
736.366	59.39
736.766	59.45
737.166	59.51
737.566	59.58
737.966	59.63
738.365	59.72
738.765	59.84
739.165	59.9
739.564	59.94
739.964	60.01
740.363	60.04
740.763	60.08
741.162	60.13
741.561	60.19
741.96	60.25
742.36	60.32
742.759	60.32
743.158	60.29
743.557	60.33
743.955	60.38
744.354	60.44
744.753	60.5
745.152	60.53
745.55	60.55
745.949	60.58
746.348	60.59
746.746	60.64
747.144	60.71
747.543	60.78
747.941	60.85
748.339	60.9
748.737	60.92
749.136	60.93
749.534	61
749.932	61.01
750.33	61.02
750.727	61.03
751.125	61.01
751.523	60.98
751.921	60.97
752.318	60.97
752.716	60.93
753.113	60.93
753.511	60.87
753.908	60.82
754.305	60.8
754.703	60.77
755.1	60.76
755.497	60.76
755.894	60.79
756.291	60.76
756.688	60.74
757.085	60.78
757.482	60.77
757.878	60.84
758.275	60.89
758.672	60.94
759.068	60.98
759.465	61
759.861	60.97
760.258	60.94
760.654	60.94
761.05	60.95
761.447	60.9
761.843	60.85
762.239	60.81
762.635	60.74
763.031	60.7
763.427	60.64
763.822	60.58
764.218	60.56
764.614	60.57
765.01	60.55
765.405	60.5
765.801	60.5
766.196	60.51
766.592	60.51
766.987	60.53
767.382	60.54
767.778	60.58
768.173	60.6
768.568	60.59
768.963	60.55
769.358	60.56
769.753	60.63
770.148	60.62
770.542	60.61
770.937	60.59
771.332	60.59
771.726	60.57
772.121	60.5
772.515	60.53
772.91	60.57
773.304	60.62
773.699	60.59
774.093	60.57
774.487	60.57
774.881	60.62
775.275	60.65
775.669	60.68
776.063	60.69
776.457	60.69
776.851	60.65
777.245	60.6
777.638	60.57
778.032	60.6
778.425	60.58
778.819	60.58
779.212	60.53
779.606	60.53
779.999	60.54
780.392	60.55
780.786	60.56
781.179	60.63
781.572	60.65
781.965	60.66
