Data from N_3_ofc_oh_4n_Splice17_15.txt Node
Date: Sat Feb 29 15:06:23 EST 2020
User: sa697716
Spectrometer: FLMS03696
Trigger mode: 0
Integration Time (sec): 3.180400E-1
Scans to average: 20
Electric dark correction enabled: true
Nonlinearity correction enabled: true
Boxcar width: 5
XAxis mode: Wavelengths
Number of Pixels in Spectrum: 2048
>>>>>Begin Spectral Data<<<<<
187.83	144.21
188.298	146.37
188.766	125.71
189.233	116.43
189.701	115.03
190.169	115.76
190.636	128.5
191.104	121.98
191.571	244.39
192.039	238.81
192.506	-152.26
192.974	4230.72
193.441	183.37
193.908	11.53
194.375	-74.82
194.842	-11.4
195.31	56.21
195.777	120.06
196.244	100.88
196.711	96.54
197.177	97.01
197.644	96.46
198.111	95.2
198.578	96.15
199.045	96.73
199.511	96.71
199.978	96.61
200.445	96.13
200.911	96.38
201.378	96.32
201.844	96.95
202.31	97.21
202.777	97.64
203.243	98.1
203.709	97.72
204.176	97.37
204.642	97.01
205.108	96.72
205.574	96.54
206.04	95.93
206.506	95.43
206.972	94.49
207.438	93.77
207.903	92.51
208.369	90.75
208.835	89.86
209.301	88.62
209.766	87.03
210.232	85.48
210.697	84.04
211.163	82.53
211.628	80.97
212.094	79.6
212.559	77.88
213.024	76.28
213.49	74.72
213.955	73.18
214.42	71.47
214.885	69.36
215.35	66.9
215.815	63.42
216.28	59.77
216.745	55.56
217.21	51.22
217.675	47.24
218.14	43.62
218.604	40.49
219.069	37.59
219.534	35.14
219.998	33.19
220.463	31.47
220.927	30.1
221.392	28.88
221.856	27.89
222.32	27.02
222.785	26.21
223.249	25.56
223.713	24.95
224.177	24.45
224.642	23.97
225.106	23.49
225.57	23.02
226.034	22.61
226.497	22.18
226.961	21.75
227.425	21.38
227.889	21.03
228.353	20.68
228.816	20.35
229.28	19.97
229.744	19.66
230.207	19.36
230.671	19.07
231.134	18.76
231.597	18.5
232.061	18.29
232.524	18.05
232.987	17.79
233.45	17.54
233.914	17.3
234.377	17.1
234.84	16.91
235.303	16.73
235.766	16.54
236.229	16.38
236.691	16.2
237.154	16.02
237.617	15.85
238.08	15.7
238.542	15.57
239.005	15.43
239.468	15.29
239.93	15.15
240.393	15.01
240.855	14.87
241.317	14.75
241.78	14.63
242.242	14.49
242.704	14.37
243.166	14.24
243.629	14.12
244.091	14.01
244.553	13.89
245.015	13.78
245.477	13.64
245.939	13.51
246.4	13.38
246.862	13.25
247.324	13.15
247.786	13.03
248.247	12.92
248.709	12.81
249.17	12.7
249.632	12.57
250.093	12.45
250.555	12.35
251.016	12.26
251.477	12.16
251.939	12.07
252.4	11.99
252.861	11.91
253.322	11.82
253.783	11.75
254.244	11.66
254.705	11.6
255.166	11.54
255.627	11.47
256.088	11.39
256.549	11.33
257.009	11.25
257.47	11.18
257.931	11.1
258.391	11
258.852	10.92
259.312	10.84
259.773	10.76
260.233	10.67
260.694	10.58
261.154	10.5
261.614	10.42
262.074	10.35
262.534	10.26
262.994	10.2
263.455	10.13
263.915	10.06
264.374	9.99
264.834	9.92
265.294	9.85
265.754	9.79
266.214	9.73
266.673	9.68
267.133	9.62
267.593	9.57
268.052	9.52
268.512	9.48
268.971	9.45
269.431	9.41
269.89	9.38
270.349	9.34
270.809	9.32
271.268	9.29
271.727	9.26
272.186	9.23
272.645	9.19
273.104	9.16
273.563	9.14
274.022	9.1
274.481	9.07
274.94	9.03
275.399	9
275.857	8.96
276.316	8.92
276.775	8.89
277.233	8.85
277.692	8.83
278.15	8.79
278.609	8.76
279.067	8.73
279.525	8.7
279.984	8.69
280.442	8.67
280.9	8.66
281.358	8.64
281.816	8.62
282.274	8.6
282.732	8.59
283.19	8.59
283.648	8.57
284.106	8.55
284.564	8.55
285.021	8.53
285.479	8.51
285.937	8.5
286.394	8.48
286.852	8.48
287.309	8.46
287.767	8.44
288.224	8.42
288.682	8.4
289.139	8.38
289.596	8.34
290.053	8.29
290.511	8.25
290.968	8.2
291.425	8.16
291.882	8.12
292.339	8.08
292.796	8.04
293.252	7.99
293.709	7.96
294.166	7.92
294.623	7.89
295.079	7.87
295.536	7.85
295.992	7.82
296.449	7.8
296.905	7.77
297.362	7.74
297.818	7.72
298.274	7.7
298.731	7.68
299.187	7.66
299.643	7.65
300.099	7.63
300.555	7.61
301.011	7.6
301.467	7.57
301.923	7.56
302.379	7.54
302.835	7.53
303.291	7.51
303.746	7.5
304.202	7.48
304.658	7.47
305.113	7.46
305.569	7.45
306.024	7.44
306.479	7.44
306.935	7.43
307.39	7.44
307.845	7.44
308.301	7.44
308.756	7.45
309.211	7.46
309.666	7.46
310.121	7.46
310.576	7.47
311.031	7.48
311.486	7.48
311.94	7.48
312.395	7.48
312.85	7.49
313.305	7.49
313.759	7.49
314.214	7.48
314.668	7.49
315.123	7.5
315.577	7.5
316.032	7.48
316.486	7.48
316.94	7.46
317.394	7.45
317.849	7.43
318.303	7.42
318.757	7.39
319.211	7.36
319.665	7.34
320.119	7.31
320.572	7.29
321.026	7.28
321.48	7.26
321.934	7.25
322.387	7.23
322.841	7.21
323.295	7.2
323.748	7.19
324.202	7.18
324.655	7.17
325.108	7.16
325.562	7.13
326.015	7.11
326.468	7.1
326.921	7.09
327.374	7.08
327.827	7.08
328.28	7.07
328.733	7.07
329.186	7.07
329.639	7.06
330.092	7.05
330.545	7.06
330.997	7.07
331.45	7.08
331.903	7.08
332.355	7.09
332.808	7.09
333.26	7.1
333.713	7.11
334.165	7.12
334.617	7.14
335.069	7.14
335.522	7.16
335.974	7.17
336.426	7.17
336.878	7.18
337.33	7.19
337.782	7.2
338.234	7.2
338.686	7.2
339.137	7.2
339.589	7.18
340.041	7.18
340.493	7.16
340.944	7.15
341.396	7.14
341.847	7.12
342.299	7.09
342.75	7.06
343.201	7.04
343.653	7
344.104	6.98
344.555	6.96
345.006	6.93
345.457	6.91
345.908	6.88
346.359	6.87
346.81	6.86
347.261	6.85
347.712	6.85
348.163	6.84
348.613	6.83
349.064	6.81
349.515	6.8
349.965	6.8
350.416	6.8
350.866	6.81
351.317	6.79
351.767	6.78
352.217	6.77
352.668	6.76
353.118	6.76
353.568	6.77
354.018	6.79
354.468	6.79
354.918	6.79
355.368	6.8
355.818	6.78
356.268	6.8
356.718	6.81
357.168	6.82
357.617	6.82
358.067	6.82
358.517	6.81
358.966	6.81
359.416	6.81
359.865	6.81
360.315	6.8
360.764	6.81
361.213	6.8
361.663	6.8
362.112	6.8
362.561	6.8
363.01	6.81
363.459	6.81
363.908	6.81
364.357	6.81
364.806	6.8
365.255	6.8
365.703	6.79
366.152	6.79
366.601	6.8
367.05	6.8
367.498	6.79
367.947	6.79
368.395	6.81
368.844	6.81
369.292	6.8
369.74	6.81
370.189	6.82
370.637	6.82
371.085	6.83
371.533	6.83
371.981	6.82
372.429	6.82
372.877	6.83
373.325	6.81
373.773	6.81
374.221	6.82
374.669	6.82
375.116	6.82
375.564	6.82
376.012	6.83
376.459	6.83
376.907	6.84
377.354	6.85
377.801	6.86
378.249	6.88
378.696	6.9
379.143	6.91
379.591	6.94
380.038	6.95
380.485	6.97
380.932	6.98
381.379	6.99
381.826	7.01
382.273	7.02
382.72	7.03
383.166	7.02
383.613	7.02
384.06	7.03
384.506	7.03
384.953	7.03
385.4	7.05
385.846	7.07
386.292	7.08
386.739	7.11
387.185	7.14
387.631	7.16
388.078	7.2
388.524	7.21
388.97	7.22
389.416	7.22
389.862	7.25
390.308	7.27
390.754	7.28
391.2	7.32
391.645	7.35
392.091	7.37
392.537	7.39
392.983	7.41
393.428	7.45
393.874	7.49
394.319	7.52
394.765	7.54
395.21	7.55
395.655	7.57
396.101	7.58
396.546	7.6
396.991	7.62
397.436	7.63
397.881	7.65
398.326	7.69
398.771	7.73
399.216	7.77
399.661	7.8
400.106	7.83
400.551	7.85
400.995	7.85
401.44	7.84
401.885	7.83
402.329	7.83
402.774	7.82
403.218	7.82
403.663	7.79
404.107	7.79
404.551	7.8
404.995	7.81
405.44	7.81
405.884	7.83
406.328	7.85
406.772	7.87
407.216	7.9
407.66	7.92
408.104	7.93
408.547	7.95
408.991	7.95
409.435	7.95
409.879	7.95
410.322	7.99
410.766	8.01
411.209	8.03
411.653	8.05
412.096	8.06
412.54	8.07
412.983	8.09
413.426	8.13
413.869	8.17
414.312	8.22
414.756	8.26
415.199	8.27
415.642	8.3
416.085	8.32
416.527	8.35
416.97	8.37
417.413	8.38
417.856	8.38
418.298	8.35
418.741	8.34
419.184	8.32
419.626	8.31
420.069	8.3
420.511	8.3
420.953	8.29
421.396	8.29
421.838	8.29
422.28	8.33
422.722	8.36
423.164	8.39
423.606	8.41
424.048	8.41
424.49	8.45
424.932	8.46
425.374	8.44
425.816	8.44
426.258	8.41
426.699	8.37
427.141	8.33
427.582	8.31
428.024	8.32
428.465	8.34
428.907	8.38
429.348	8.38
429.789	8.4
430.231	8.42
430.672	8.46
431.113	8.53
431.554	8.59
431.995	8.66
432.436	8.68
432.877	8.7
433.318	8.7
433.759	8.73
434.2	8.77
434.64	8.82
435.081	8.86
435.522	8.9
435.962	8.94
436.403	9.01
436.843	9.02
437.284	9.07
437.724	9.14
438.164	9.18
438.604	9.22
439.045	9.23
439.485	9.25
439.925	9.27
440.365	9.3
440.805	9.32
441.245	9.28
441.685	9.34
442.125	9.37
442.564	9.39
443.004	9.43
443.444	9.45
443.883	9.48
444.323	9.51
444.762	9.58
445.202	9.65
445.641	9.69
446.081	9.77
446.52	9.8
446.959	9.85
447.398	9.92
447.837	9.98
448.276	10.01
448.716	10.06
449.154	10.12
449.593	10.15
450.032	10.16
450.471	10.19
450.91	10.21
451.349	10.24
451.787	10.23
452.226	10.21
452.664	10.2
453.103	10.21
453.541	10.22
453.98	10.2
454.418	10.17
454.856	10.14
455.295	10.11
455.733	10.09
456.171	10.07
456.609	10.07
457.047	10.05
457.485	10.03
457.923	10.02
458.361	10
458.798	10.02
459.236	10.02
459.674	10.03
460.111	10.03
460.549	10.03
460.987	10.03
461.424	10.02
461.862	10.02
462.299	10.01
462.736	10.01
463.173	10.02
463.611	10
464.048	10
464.485	10
464.922	10
465.359	10.01
465.796	10.02
466.233	10.04
466.67	10.07
467.106	10.09
467.543	10.11
467.98	10.11
468.416	10.12
468.853	10.14
469.29	10.16
469.726	10.17
470.162	10.17
470.599	10.18
471.035	10.18
471.471	10.17
471.907	10.19
472.344	10.18
472.78	10.19
473.216	10.19
473.652	10.19
474.088	10.19
474.523	10.2
474.959	10.19
475.395	10.19
475.831	10.19
476.266	10.18
476.702	10.18
477.138	10.17
477.573	10.14
478.008	10.15
478.444	10.13
478.879	10.12
479.314	10.12
479.75	10.13
480.185	10.11
480.62	10.1
481.055	10.09
481.49	10.06
481.925	10.04
482.36	10.04
482.795	10.01
483.229	10.02
483.664	10
484.099	9.98
484.534	9.97
484.968	9.97
485.403	9.96
485.837	9.97
486.271	9.97
486.706	9.97
487.14	9.99
487.574	10
488.009	9.99
488.443	10.01
488.877	10.02
489.311	10.03
489.745	10.05
490.179	10.08
490.613	10.11
491.046	10.14
491.48	10.18
491.914	10.21
492.348	10.24
492.781	10.29
493.215	10.32
493.648	10.37
494.082	10.43
494.515	10.48
494.948	10.52
495.382	10.58
495.815	10.66
496.248	10.72
496.681	10.79
497.114	10.86
497.547	10.94
497.98	11.03
498.413	11.11
498.846	11.2
499.279	11.3
499.711	11.4
500.144	11.51
500.577	11.61
501.009	11.73
501.442	11.86
501.874	11.99
502.306	12.13
502.739	12.26
503.171	12.41
503.603	12.58
504.036	12.75
504.468	12.93
504.9	13.11
505.332	13.3
505.764	13.5
506.196	13.72
506.627	13.94
507.059	14.17
507.491	14.42
507.923	14.68
508.354	14.94
508.786	15.2
509.217	15.47
509.649	15.77
510.08	16.08
510.512	16.38
510.943	16.69
511.374	17.02
511.805	17.35
512.237	17.68
512.668	18.02
513.099	18.39
513.53	18.77
513.961	19.14
514.391	19.49
514.822	19.86
515.253	20.24
515.684	20.61
516.114	20.99
516.545	21.38
516.975	21.79
517.406	22.17
517.836	22.55
518.267	22.92
518.697	23.32
519.127	23.74
519.558	24.14
519.988	24.53
520.418	24.94
520.848	25.33
521.278	25.75
521.708	26.17
522.138	26.56
522.567	26.95
522.997	27.33
523.427	27.69
523.857	28.03
524.286	28.39
524.716	28.72
525.145	29.06
525.575	29.39
526.004	29.68
526.433	29.96
526.863	30.25
527.292	30.53
527.721	30.8
528.15	31.05
528.579	31.31
529.008	31.56
529.437	31.78
529.866	31.99
530.295	32.19
530.724	32.43
531.152	32.61
531.581	32.81
532.01	33
532.438	33.16
532.867	33.34
533.295	33.49
533.723	33.64
534.152	33.79
534.58	33.91
535.008	34.03
535.436	34.11
535.865	34.19
536.293	34.27
536.721	34.35
537.149	34.43
537.576	34.49
538.004	34.56
538.432	34.6
538.86	34.67
539.287	34.75
539.715	34.79
540.143	34.84
540.57	34.9
540.998	34.96
541.425	35.01
541.852	35.07
542.28	35.12
542.707	35.16
543.134	35.21
543.561	35.23
543.988	35.29
544.415	35.34
544.842	35.37
545.269	35.43
545.696	35.47
546.123	35.52
546.549	35.56
546.976	35.61
547.403	35.65
547.829	35.72
548.256	35.78
548.682	35.78
549.108	35.83
549.535	35.87
549.961	35.89
550.387	35.91
550.813	35.9
551.24	35.91
551.666	35.93
552.092	35.94
552.518	35.95
552.943	35.95
553.369	35.95
553.795	35.95
554.221	35.92
554.646	35.91
555.072	35.88
555.498	35.84
555.923	35.81
556.349	35.73
556.774	35.66
557.199	35.58
557.625	35.49
558.05	35.39
558.475	35.28
558.9	35.18
559.325	35.06
559.75	34.92
560.175	34.81
560.6	34.66
561.025	34.53
561.449	34.37
561.874	34.19
562.299	34.03
562.723	33.84
563.148	33.65
563.572	33.48
563.997	33.3
564.421	33.1
564.846	32.89
565.27	32.68
565.694	32.46
566.118	32.23
566.542	32.02
566.966	31.81
567.39	31.6
567.814	31.36
568.238	31.09
568.662	30.84
569.086	30.61
569.509	30.38
569.933	30.14
570.357	29.89
570.78	29.67
571.204	29.42
571.627	29.19
572.05	28.98
572.474	28.79
572.897	28.63
573.32	28.44
573.743	28.26
574.166	28.07
574.589	27.89
575.012	27.75
575.435	27.58
575.858	27.44
576.281	27.3
576.704	27.16
577.126	26.99
577.549	26.85
577.972	26.72
578.394	26.58
578.817	26.45
579.239	26.35
579.661	26.21
580.084	26.1
580.506	25.98
580.928	25.86
581.35	25.75
581.772	25.67
582.194	25.56
582.616	25.44
583.038	25.34
583.46	25.25
583.882	25.14
584.303	25.05
584.725	24.95
585.147	24.86
585.568	24.78
585.99	24.66
586.411	24.56
586.833	24.48
587.254	24.4
587.675	24.34
588.096	24.26
588.518	24.19
588.939	24.13
589.36	24.05
589.781	23.99
590.202	23.94
590.623	23.89
591.043	23.82
591.464	23.75
591.885	23.67
592.305	23.62
592.726	23.57
593.147	23.53
593.567	23.46
593.987	23.41
594.408	23.36
594.828	23.27
595.248	23.25
595.669	23.19
596.089	23.13
596.509	23.08
596.929	23.02
597.349	22.95
597.769	22.88
598.189	22.84
598.608	22.77
599.028	22.71
599.448	22.67
599.867	22.58
600.287	22.51
600.706	22.46
601.126	22.42
601.545	22.36
601.965	22.3
602.384	22.23
602.803	22.15
603.222	22.08
603.641	22.02
604.061	21.94
604.48	21.88
604.898	21.82
605.317	21.73
605.736	21.63
606.155	21.54
606.574	21.44
606.992	21.36
607.411	21.28
607.829	21.13
608.248	21.02
608.666	20.91
609.085	20.8
609.503	20.69
609.921	20.6
610.339	20.51
610.758	20.41
611.176	20.33
611.594	20.24
612.012	20.13
612.43	20.1
612.847	20.01
613.265	19.93
613.683	19.83
614.101	19.72
614.518	19.61
614.936	19.52
615.353	19.44
615.771	19.33
616.188	19.24
616.606	19.14
617.023	19.06
617.44	18.98
617.857	18.9
618.274	18.84
618.691	18.8
619.108	18.76
619.525	18.69
619.942	18.64
620.359	18.59
620.776	18.54
621.192	18.5
621.609	18.47
622.026	18.42
622.442	18.4
622.859	18.35
623.275	18.33
623.691	18.29
624.108	18.3
624.524	18.28
624.94	18.26
625.356	18.25
625.772	18.23
626.188	18.22
626.604	18.19
627.02	18.17
627.436	18.16
627.852	18.12
628.268	18.11
628.683	18.05
629.099	18.01
629.514	17.98
629.93	17.94
630.345	17.9
630.761	17.82
631.176	17.79
631.591	17.73
632.007	17.65
632.422	17.58
632.837	17.49
633.252	17.4
633.667	17.29
634.082	17.19
634.497	17.08
634.911	16.95
635.326	16.82
635.741	16.69
636.155	16.55
636.57	16.42
636.984	16.25
637.399	16.09
637.813	15.93
638.228	15.78
638.642	15.62
639.056	15.45
639.47	15.28
639.884	15.12
640.298	14.93
640.712	14.77
641.126	14.6
641.54	14.45
641.954	14.27
642.368	14.12
642.781	13.97
643.195	13.82
643.609	13.67
644.022	13.53
644.436	13.4
644.849	13.29
645.262	13.16
645.676	13.04
646.089	12.94
646.502	12.84
646.915	12.74
647.328	12.66
647.741	12.56
648.154	12.49
648.567	12.44
648.98	12.37
649.393	12.31
649.805	12.24
650.218	12.19
650.631	12.15
651.043	12.11
651.456	12.09
651.868	12.04
652.28	12.01
652.693	11.96
653.105	11.91
653.517	11.87
653.929	11.83
654.341	11.81
654.753	11.76
655.165	11.7
655.577	11.63
655.989	11.56
656.401	11.48
656.813	11.41
657.224	11.33
657.636	11.24
658.047	11.16
658.459	11.06
658.87	10.96
659.282	10.89
659.693	10.8
660.104	10.71
660.515	10.63
660.926	10.55
661.338	10.48
661.749	10.39
662.159	10.31
662.57	10.24
662.981	10.17
663.392	10.1
663.803	10.02
664.213	9.95
664.624	9.91
665.035	9.84
665.445	9.78
665.855	9.73
666.266	9.69
666.676	9.64
667.086	9.6
667.497	9.57
667.907	9.53
668.317	9.5
668.727	9.48
669.137	9.46
669.547	9.44
669.956	9.43
670.366	9.43
670.776	9.42
671.186	9.41
671.595	9.39
672.005	9.4
672.414	9.41
672.824	9.41
673.233	9.43
673.642	9.43
674.052	9.43
674.461	9.44
674.87	9.45
675.279	9.47
675.688	9.5
676.097	9.53
676.506	9.55
676.915	9.58
677.323	9.61
677.732	9.65
678.141	9.69
678.549	9.76
678.958	9.83
679.366	9.88
679.775	9.97
680.183	10.06
680.592	10.15
681	10.25
681.408	10.36
681.816	10.48
682.224	10.62
682.632	10.79
683.04	10.95
683.448	11.13
683.856	11.35
684.264	11.58
684.671	11.85
685.079	12.14
685.487	12.47
685.894	12.83
686.302	13.22
686.709	13.63
687.116	14.07
687.524	14.57
687.931	15.09
688.338	15.64
688.745	16.23
689.152	16.85
689.559	17.48
689.966	18.16
690.373	18.88
690.78	19.59
691.187	20.36
691.593	21.13
692	21.94
692.407	22.75
692.813	23.6
693.22	24.43
693.626	25.28
694.032	26.16
694.439	27.04
694.845	27.91
695.251	28.8
695.657	29.66
696.063	30.57
696.469	31.44
696.875	32.33
697.281	33.17
697.687	34.07
698.093	34.93
698.498	35.77
698.904	36.61
699.31	37.43
699.715	38.25
700.12	39.07
700.526	39.88
700.931	40.65
701.337	41.43
701.742	42.19
702.147	42.94
702.552	43.71
702.957	44.44
703.362	45.16
703.767	45.87
704.172	46.59
704.577	47.28
704.981	47.92
705.386	48.59
705.791	49.23
706.195	49.86
706.6	50.45
707.004	51.03
707.408	51.63
707.813	52.19
708.217	52.76
708.621	53.31
709.025	53.85
709.43	54.4
709.834	54.92
710.237	55.4
710.641	55.93
711.045	56.42
711.449	56.9
711.853	57.37
712.256	57.88
712.66	58.35
713.064	58.78
713.467	59.22
713.87	59.65
714.274	60.13
714.677	60.58
715.08	60.97
715.484	61.45
715.887	61.91
716.29	62.32
716.693	62.68
717.096	63.1
717.499	63.5
717.901	63.85
718.304	64.23
718.707	64.58
719.109	64.96
719.512	65.34
719.915	65.66
720.317	65.97
720.719	66.27
721.122	66.6
721.524	66.87
721.926	67.18
722.328	67.52
722.731	67.82
723.133	68.09
723.535	68.36
723.937	68.64
724.338	68.87
724.74	69.12
725.142	69.34
725.544	69.56
725.945	69.82
726.347	70.06
726.748	70.22
727.15	70.4
727.551	70.61
727.952	70.79
728.354	70.98
728.755	71.17
729.156	71.34
729.557	71.55
729.958	71.76
730.359	71.9
730.76	72
731.161	72.16
731.562	72.31
731.962	72.43
732.363	72.52
732.763	72.62
733.164	72.74
733.564	72.81
733.965	72.87
734.365	72.89
734.766	73
735.166	73.12
735.566	73.19
735.966	73.26
736.366	73.31
736.766	73.42
737.166	73.51
737.566	73.57
737.966	73.69
738.365	73.76
738.765	73.84
739.165	73.86
739.564	73.9
739.964	73.92
740.363	73.97
740.763	74.02
741.162	74.03
741.561	74.09
741.96	74.13
742.36	74.16
742.759	74.2
743.158	74.25
743.557	74.33
743.955	74.41
744.354	74.48
744.753	74.53
745.152	74.62
745.55	74.68
745.949	74.73
746.348	74.76
746.746	74.85
747.144	74.95
747.543	75
747.941	75.04
748.339	75.12
748.737	75.2
749.136	75.26
749.534	75.29
749.932	75.33
750.33	75.32
750.727	75.38
751.125	75.33
751.523	75.3
751.921	75.33
752.318	75.3
752.716	75.23
753.113	75.18
753.511	75.1
753.908	75.05
754.305	74.99
754.703	74.97
755.1	74.91
755.497	74.89
755.894	74.9
756.291	74.86
756.688	74.86
757.085	74.85
757.482	74.85
757.878	74.87
758.275	74.89
758.672	74.92
759.068	74.96
759.465	74.97
759.861	74.97
760.258	74.94
760.654	74.97
761.05	74.98
761.447	74.96
761.843	74.92
762.239	74.94
762.635	74.92
763.031	74.94
763.427	74.89
763.822	74.87
764.218	74.85
764.614	74.85
765.01	74.82
765.405	74.78
765.801	74.8
766.196	74.83
766.592	74.8
766.987	74.82
767.382	74.78
767.778	74.78
768.173	74.79
768.568	74.74
768.963	74.75
769.358	74.74
769.753	74.76
770.148	74.73
770.542	74.71
770.937	74.73
771.332	74.78
771.726	74.77
772.121	74.77
772.515	74.78
772.91	74.87
773.304	74.86
773.699	74.87
774.093	74.87
774.487	74.88
774.881	74.89
