Data from N_3_div_il_4n_Splice17_10.txt Node
Date: Sat Feb 29 14:59:46 EST 2020
User: sa697716
Spectrometer: FLMS03696
Trigger mode: 0
Integration Time (sec): 3.180400E-1
Scans to average: 20
Electric dark correction enabled: true
Nonlinearity correction enabled: true
Boxcar width: 5
XAxis mode: Wavelengths
Number of Pixels in Spectrum: 2048
>>>>>Begin Spectral Data<<<<<
187.83	80.76
188.298	84.89
188.766	90.22
189.233	84.26
189.701	86.02
190.169	82.79
190.636	85.4
191.104	70.99
191.571	310.72
192.039	304.32
192.506	-368.74
192.974	3661.13
193.441	-531.02
193.908	177.16
194.375	204.29
194.842	239.68
195.31	168.93
195.777	163.04
196.244	75.43
196.711	61.67
197.177	58.7
197.644	57.98
198.111	56.86
198.578	56.06
199.045	56.08
199.511	55.97
199.978	57.14
200.445	56.66
200.911	56.75
201.378	56.76
201.844	57.23
202.31	57.31
202.777	57.19
203.243	57.59
203.709	58.33
204.176	57.92
204.642	58.09
205.108	57.26
205.574	57.56
206.04	57.16
206.506	56.52
206.972	56.05
207.438	56
207.903	55.95
208.369	54.51
208.835	53.2
209.301	52.62
209.766	51.78
210.232	50.51
210.697	49.37
211.163	48.43
211.628	47.22
212.094	46.03
212.559	44.75
213.024	43.52
213.49	42.54
213.955	41.56
214.42	40.26
214.885	38.58
215.35	37.11
215.815	34.67
216.28	32.23
216.745	29.86
217.21	27.26
217.675	24.66
218.14	22.05
218.604	19.9
219.069	18.08
219.534	16.47
219.998	15.24
220.463	14.11
220.927	13.26
221.392	12.5
221.856	11.82
222.32	11.2
222.785	10.66
223.249	10.25
223.713	9.87
224.177	9.49
224.642	9.22
225.106	8.94
225.57	8.69
226.034	8.43
226.497	8.19
226.961	7.94
227.425	7.71
227.889	7.52
228.353	7.34
228.816	7.2
229.28	7.02
229.744	6.86
230.207	6.71
230.671	6.55
231.134	6.42
231.597	6.3
232.061	6.2
232.524	6.12
232.987	6.01
233.45	5.9
233.914	5.79
234.377	5.73
234.84	5.64
235.303	5.56
235.766	5.49
236.229	5.42
236.691	5.35
237.154	5.3
237.617	5.23
238.08	5.18
238.542	5.13
239.005	5.08
239.468	5.02
239.93	4.95
240.393	4.9
240.855	4.84
241.317	4.8
241.78	4.75
242.242	4.69
242.704	4.65
243.166	4.59
243.629	4.54
244.091	4.48
244.553	4.44
245.015	4.4
245.477	4.35
245.939	4.3
246.4	4.26
246.862	4.22
247.324	4.19
247.786	4.14
248.247	4.12
248.709	4.09
249.17	4.07
249.632	4.02
250.093	3.98
250.555	3.95
251.016	3.92
251.477	3.88
251.939	3.85
252.4	3.81
252.861	3.77
253.322	3.73
253.783	3.7
254.244	3.67
254.705	3.64
255.166	3.63
255.627	3.61
256.088	3.57
256.549	3.53
257.009	3.5
257.47	3.47
257.931	3.44
258.391	3.41
258.852	3.37
259.312	3.33
259.773	3.3
260.233	3.25
260.694	3.22
261.154	3.19
261.614	3.16
262.074	3.13
262.534	3.08
262.994	3.06
263.455	3.04
263.915	3.01
264.374	2.99
264.834	2.96
265.294	2.94
265.754	2.92
266.214	2.9
266.673	2.88
267.133	2.85
267.593	2.85
268.052	2.82
268.512	2.8
268.971	2.78
269.431	2.76
269.89	2.75
270.349	2.73
270.809	2.72
271.268	2.72
271.727	2.7
272.186	2.69
272.645	2.68
273.104	2.68
273.563	2.67
274.022	2.66
274.481	2.65
274.94	2.64
275.399	2.64
275.857	2.63
276.316	2.61
276.775	2.6
277.233	2.59
277.692	2.59
278.15	2.58
278.609	2.57
279.067	2.56
279.525	2.55
279.984	2.54
280.442	2.54
280.9	2.54
281.358	2.54
281.816	2.54
282.274	2.53
282.732	2.52
283.19	2.51
283.648	2.51
284.106	2.5
284.564	2.51
285.021	2.51
285.479	2.5
285.937	2.49
286.394	2.49
286.852	2.49
287.309	2.49
287.767	2.48
288.224	2.46
288.682	2.46
289.139	2.45
289.596	2.43
290.053	2.41
290.511	2.4
290.968	2.38
291.425	2.37
291.882	2.35
292.339	2.33
292.796	2.32
293.252	2.31
293.709	2.3
294.166	2.29
294.623	2.28
295.079	2.27
295.536	2.26
295.992	2.25
296.449	2.25
296.905	2.24
297.362	2.23
297.818	2.22
298.274	2.22
298.731	2.21
299.187	2.21
299.643	2.21
300.099	2.2
300.555	2.19
301.011	2.19
301.467	2.18
301.923	2.18
302.379	2.18
302.835	2.18
303.291	2.18
303.746	2.17
304.202	2.16
304.658	2.16
305.113	2.16
305.569	2.17
306.024	2.17
306.479	2.17
306.935	2.17
307.39	2.17
307.845	2.16
308.301	2.17
308.756	2.17
309.211	2.17
309.666	2.18
310.121	2.17
310.576	2.17
311.031	2.17
311.486	2.17
311.94	2.17
312.395	2.17
312.85	2.17
313.305	2.17
313.759	2.17
314.214	2.16
314.668	2.16
315.123	2.16
315.577	2.16
316.032	2.16
316.486	2.15
316.94	2.14
317.394	2.14
317.849	2.14
318.303	2.13
318.757	2.13
319.211	2.12
319.665	2.11
320.119	2.1
320.572	2.1
321.026	2.09
321.48	2.09
321.934	2.09
322.387	2.09
322.841	2.07
323.295	2.07
323.748	2.06
324.202	2.07
324.655	2.06
325.108	2.06
325.562	2.05
326.015	2.05
326.468	2.03
326.921	2.03
327.374	2.03
327.827	2.03
328.28	2.03
328.733	2.02
329.186	2.02
329.639	2.02
330.092	2.01
330.545	2.01
330.997	2.02
331.45	2.02
331.903	2.02
332.355	2.03
332.808	2.03
333.26	2.04
333.713	2.04
334.165	2.05
334.617	2.06
335.069	2.07
335.522	2.07
335.974	2.07
336.426	2.08
336.878	2.08
337.33	2.07
337.782	2.07
338.234	2.07
338.686	2.07
339.137	2.07
339.589	2.06
340.041	2.06
340.493	2.05
340.944	2.04
341.396	2.04
341.847	2.03
342.299	2.02
342.75	2
343.201	1.99
343.653	1.98
344.104	1.97
344.555	1.95
345.006	1.94
345.457	1.94
345.908	1.93
346.359	1.93
346.81	1.93
347.261	1.92
347.712	1.93
348.163	1.92
348.613	1.92
349.064	1.9
349.515	1.9
349.965	1.9
350.416	1.89
350.866	1.89
351.317	1.89
351.767	1.89
352.217	1.89
352.668	1.89
353.118	1.89
353.568	1.9
354.018	1.91
354.468	1.91
354.918	1.93
355.368	1.93
355.818	1.93
356.268	1.94
356.718	1.94
357.168	1.95
357.617	1.95
358.067	1.96
358.517	1.96
358.966	1.97
359.416	1.98
359.865	1.99
360.315	2.01
360.764	2.01
361.213	2.01
361.663	2.02
362.112	2.04
362.561	2.05
363.01	2.07
363.459	2.08
363.908	2.09
364.357	2.1
364.806	2.11
365.255	2.13
365.703	2.15
366.152	2.18
366.601	2.21
367.05	2.23
367.498	2.25
367.947	2.27
368.395	2.3
368.844	2.32
369.292	2.34
369.74	2.37
370.189	2.39
370.637	2.41
371.085	2.44
371.533	2.46
371.981	2.48
372.429	2.49
372.877	2.51
373.325	2.52
373.773	2.55
374.221	2.58
374.669	2.59
375.116	2.61
375.564	2.64
376.012	2.66
376.459	2.68
376.907	2.7
377.354	2.73
377.801	2.77
378.249	2.8
378.696	2.83
379.143	2.86
379.591	2.89
380.038	2.93
380.485	2.95
380.932	2.98
381.379	2.99
381.826	3.02
382.273	3.05
382.72	3.08
383.166	3.1
383.613	3.13
384.06	3.14
384.506	3.16
384.953	3.18
385.4	3.2
385.846	3.21
386.292	3.25
386.739	3.27
387.185	3.29
387.631	3.31
388.078	3.33
388.524	3.32
388.97	3.34
389.416	3.36
389.862	3.36
390.308	3.37
390.754	3.39
391.2	3.41
391.645	3.42
392.091	3.42
392.537	3.44
392.983	3.46
393.428	3.47
393.874	3.5
394.319	3.51
394.765	3.53
395.21	3.55
395.655	3.56
396.101	3.57
396.546	3.58
396.991	3.58
397.436	3.57
397.881	3.58
398.326	3.61
398.771	3.61
399.216	3.61
399.661	3.62
400.106	3.64
400.551	3.62
400.995	3.61
401.44	3.6
401.885	3.61
402.329	3.62
402.774	3.6
403.218	3.59
403.663	3.58
404.107	3.58
404.551	3.59
404.995	3.58
405.44	3.58
405.884	3.58
406.328	3.58
406.772	3.58
407.216	3.58
407.66	3.58
408.104	3.58
408.547	3.59
408.991	3.58
409.435	3.57
409.879	3.57
410.322	3.59
410.766	3.59
411.209	3.59
411.653	3.58
412.096	3.58
412.54	3.58
412.983	3.58
413.426	3.59
413.869	3.6
414.312	3.62
414.756	3.62
415.199	3.62
415.642	3.63
416.085	3.64
416.527	3.66
416.97	3.66
417.413	3.66
417.856	3.65
418.298	3.64
418.741	3.63
419.184	3.64
419.626	3.63
420.069	3.63
420.511	3.63
420.953	3.62
421.396	3.62
421.838	3.65
422.28	3.66
422.722	3.67
423.164	3.68
423.606	3.69
424.048	3.68
424.49	3.69
424.932	3.68
425.374	3.67
425.816	3.66
426.258	3.65
426.699	3.61
427.141	3.59
427.582	3.57
428.024	3.57
428.465	3.57
428.907	3.58
429.348	3.55
429.789	3.56
430.231	3.56
430.672	3.57
431.113	3.58
431.554	3.58
431.995	3.6
432.436	3.61
432.877	3.59
433.318	3.58
433.759	3.57
434.2	3.59
434.64	3.59
435.081	3.6
435.522	3.62
435.962	3.63
436.403	3.67
436.843	3.68
437.284	3.69
437.724	3.73
438.164	3.74
438.604	3.77
439.045	3.76
439.485	3.78
439.925	3.77
440.365	3.75
440.805	3.75
441.245	3.73
441.685	3.73
442.125	3.73
442.564	3.73
443.004	3.73
443.444	3.74
443.883	3.74
444.323	3.72
444.762	3.75
445.202	3.78
445.641	3.78
446.081	3.82
446.52	3.81
446.959	3.81
447.398	3.85
447.837	3.86
448.276	3.86
448.716	3.88
449.154	3.91
449.593	3.92
450.032	3.93
450.471	3.95
450.91	3.94
451.349	3.94
451.787	3.95
452.226	3.9
452.664	3.88
453.103	3.87
453.541	3.87
453.98	3.86
454.418	3.83
454.856	3.81
455.295	3.77
455.733	3.77
456.171	3.75
456.609	3.73
457.047	3.72
457.485	3.71
457.923	3.71
458.361	3.7
458.798	3.7
459.236	3.71
459.674	3.72
460.111	3.73
460.549	3.72
460.987	3.72
461.424	3.73
461.862	3.73
462.299	3.73
462.736	3.72
463.173	3.72
463.611	3.71
464.048	3.71
464.485	3.71
464.922	3.71
465.359	3.71
465.796	3.69
466.233	3.69
466.67	3.69
467.106	3.69
467.543	3.69
467.98	3.69
468.416	3.71
468.853	3.7
469.29	3.72
469.726	3.72
470.162	3.71
470.599	3.73
471.035	3.74
471.471	3.75
471.907	3.76
472.344	3.76
472.78	3.75
473.216	3.73
473.652	3.74
474.088	3.72
474.523	3.72
474.959	3.7
475.395	3.68
475.831	3.67
476.266	3.67
476.702	3.66
477.138	3.65
477.573	3.64
478.008	3.63
478.444	3.6
478.879	3.59
479.314	3.57
479.75	3.58
480.185	3.57
480.62	3.57
481.055	3.55
481.49	3.54
481.925	3.52
482.36	3.51
482.795	3.48
483.229	3.48
483.664	3.47
484.099	3.47
484.534	3.46
484.968	3.46
485.403	3.46
485.837	3.46
486.271	3.45
486.706	3.44
487.14	3.46
487.574	3.47
488.009	3.48
488.443	3.49
488.877	3.49
489.311	3.5
489.745	3.51
490.179	3.51
490.613	3.52
491.046	3.53
491.48	3.56
491.914	3.56
492.348	3.58
492.781	3.59
493.215	3.6
493.648	3.63
494.082	3.65
494.515	3.66
494.948	3.69
495.382	3.72
495.815	3.76
496.248	3.78
496.681	3.81
497.114	3.83
497.547	3.87
497.98	3.91
498.413	3.95
498.846	3.99
499.279	4.04
499.711	4.09
500.144	4.14
500.577	4.18
501.009	4.23
501.442	4.3
501.874	4.36
502.306	4.43
502.739	4.48
503.171	4.55
503.603	4.64
504.036	4.73
504.468	4.83
504.9	4.92
505.332	5.03
505.764	5.13
506.196	5.24
506.627	5.35
507.059	5.45
507.491	5.57
507.923	5.7
508.354	5.81
508.786	5.92
509.217	6.02
509.649	6.14
510.08	6.27
510.512	6.39
510.943	6.52
511.374	6.66
511.805	6.81
512.237	6.96
512.668	7.09
513.099	7.26
513.53	7.42
513.961	7.59
514.391	7.75
514.822	7.9
515.253	8.08
515.684	8.23
516.114	8.4
516.545	8.56
516.975	8.75
517.406	8.92
517.836	9.09
518.267	9.26
518.697	9.44
519.127	9.63
519.558	9.8
519.988	9.98
520.418	10.15
520.848	10.33
521.278	10.51
521.708	10.66
522.138	10.82
522.567	10.97
522.997	11.12
523.427	11.27
523.857	11.4
524.286	11.56
524.716	11.71
525.145	11.85
525.575	11.99
526.004	12.11
526.433	12.25
526.863	12.38
527.292	12.51
527.721	12.63
528.15	12.74
528.579	12.86
529.008	12.97
529.437	13.06
529.866	13.15
530.295	13.23
530.724	13.33
531.152	13.42
531.581	13.5
532.01	13.57
532.438	13.65
532.867	13.7
533.295	13.77
533.723	13.84
534.152	13.9
534.58	13.96
535.008	14
535.436	14.03
535.865	14.06
536.293	14.1
536.721	14.12
537.149	14.13
537.576	14.17
538.004	14.19
538.432	14.21
538.86	14.22
539.287	14.24
539.715	14.27
540.143	14.29
540.57	14.31
540.998	14.34
541.425	14.37
541.852	14.41
542.28	14.41
542.707	14.44
543.134	14.46
543.561	14.47
543.988	14.5
544.415	14.52
544.842	14.55
545.269	14.57
545.696	14.58
546.123	14.59
546.549	14.61
546.976	14.64
547.403	14.64
547.829	14.66
548.256	14.69
548.682	14.7
549.108	14.7
549.535	14.71
549.961	14.72
550.387	14.71
550.813	14.72
551.24	14.72
551.666	14.73
552.092	14.73
552.518	14.72
552.943	14.72
553.369	14.71
553.795	14.7
554.221	14.68
554.646	14.67
555.072	14.65
555.498	14.62
555.923	14.6
556.349	14.55
556.774	14.52
557.199	14.49
557.625	14.43
558.05	14.38
558.475	14.33
558.9	14.28
559.325	14.22
559.75	14.16
560.175	14.1
560.6	14.04
561.025	13.99
561.449	13.91
561.874	13.84
562.299	13.76
562.723	13.67
563.148	13.59
563.572	13.51
563.997	13.43
564.421	13.34
564.846	13.25
565.27	13.15
565.694	13.04
566.118	12.94
566.542	12.84
566.966	12.75
567.39	12.66
567.814	12.55
568.238	12.45
568.662	12.33
569.086	12.23
569.509	12.12
569.933	12.02
570.357	11.91
570.78	11.81
571.204	11.69
571.627	11.59
572.05	11.48
572.474	11.38
572.897	11.28
573.32	11.19
573.743	11.1
574.166	11.02
574.589	10.95
575.012	10.88
575.435	10.8
575.858	10.74
576.281	10.69
576.704	10.64
577.126	10.57
577.549	10.51
577.972	10.45
578.394	10.38
578.817	10.32
579.239	10.25
579.661	10.19
580.084	10.14
580.506	10.08
580.928	10.01
581.35	9.95
581.772	9.93
582.194	9.88
582.616	9.84
583.038	9.8
583.46	9.77
583.882	9.73
584.303	9.68
584.725	9.65
585.147	9.59
585.568	9.55
585.99	9.51
586.411	9.47
586.833	9.44
587.254	9.4
587.675	9.37
588.096	9.34
588.518	9.32
588.939	9.29
589.36	9.27
589.781	9.26
590.202	9.23
590.623	9.21
591.043	9.19
591.464	9.15
591.885	9.13
592.305	9.12
592.726	9.09
593.147	9.08
593.567	9.07
593.987	9.05
594.408	9.03
594.828	9.01
595.248	8.99
595.669	8.97
596.089	8.95
596.509	8.92
596.929	8.87
597.349	8.84
597.769	8.8
598.189	8.77
598.608	8.75
599.028	8.72
599.448	8.7
599.867	8.67
600.287	8.63
600.706	8.6
601.126	8.59
601.545	8.55
601.965	8.53
602.384	8.5
602.803	8.46
603.222	8.41
603.641	8.38
604.061	8.34
604.48	8.3
604.898	8.26
605.317	8.21
605.736	8.15
606.155	8.12
606.574	8.06
606.992	8
607.411	7.96
607.829	7.88
608.248	7.83
608.666	7.79
609.085	7.75
609.503	7.69
609.921	7.64
610.339	7.61
610.758	7.58
611.176	7.54
611.594	7.5
612.012	7.45
612.43	7.45
612.847	7.4
613.265	7.36
613.683	7.31
614.101	7.28
614.518	7.24
614.936	7.18
615.353	7.13
615.771	7.09
616.188	7.06
616.606	7.02
617.023	6.98
617.44	6.94
617.857	6.89
618.274	6.87
618.691	6.84
619.108	6.8
619.525	6.79
619.942	6.77
620.359	6.76
620.776	6.73
621.192	6.71
621.609	6.7
622.026	6.68
622.442	6.68
622.859	6.66
623.275	6.65
623.691	6.65
624.108	6.65
624.524	6.63
624.94	6.61
625.356	6.6
625.772	6.6
626.188	6.59
626.604	6.58
627.02	6.57
627.436	6.58
627.852	6.56
628.268	6.55
628.683	6.53
629.099	6.54
629.514	6.54
629.93	6.53
630.345	6.5
630.761	6.49
631.176	6.49
631.591	6.46
632.007	6.42
632.422	6.42
632.837	6.39
633.252	6.36
633.667	6.31
634.082	6.26
634.497	6.23
634.911	6.19
635.326	6.14
635.741	6.08
636.155	6.04
636.57	5.99
636.984	5.92
637.399	5.85
637.813	5.8
638.228	5.75
638.642	5.69
639.056	5.64
639.47	5.58
639.884	5.52
640.298	5.46
640.712	5.4
641.126	5.35
641.54	5.3
641.954	5.25
642.368	5.2
642.781	5.13
643.195	5.07
643.609	5.02
644.022	4.97
644.436	4.93
644.849	4.88
645.262	4.84
645.676	4.79
646.089	4.75
646.502	4.71
646.915	4.68
647.328	4.65
647.741	4.62
648.154	4.59
648.567	4.56
648.98	4.53
649.393	4.51
649.805	4.47
650.218	4.45
650.631	4.44
651.043	4.41
651.456	4.38
651.868	4.35
652.28	4.34
652.693	4.31
653.105	4.29
653.517	4.26
653.929	4.23
654.341	4.22
654.753	4.19
655.165	4.16
655.577	4.11
655.989	4.07
656.401	4.04
656.813	3.99
657.224	3.96
657.636	3.94
658.047	3.9
658.459	3.85
658.87	3.8
659.282	3.76
659.693	3.72
660.104	3.69
660.515	3.67
660.926	3.62
661.338	3.6
661.749	3.56
662.159	3.52
662.57	3.49
662.981	3.46
663.392	3.42
663.803	3.4
664.213	3.38
664.624	3.37
665.035	3.34
665.445	3.33
665.855	3.32
666.266	3.31
666.676	3.28
667.086	3.27
667.497	3.26
667.907	3.26
668.317	3.24
668.727	3.22
669.137	3.21
669.547	3.21
669.956	3.21
670.366	3.21
670.776	3.2
671.186	3.21
671.595	3.23
672.005	3.24
672.414	3.24
672.824	3.26
673.233	3.27
673.642	3.27
674.052	3.28
674.461	3.28
674.87	3.31
675.279	3.33
675.688	3.34
676.097	3.35
676.506	3.37
676.915	3.4
677.323	3.41
677.732	3.43
678.141	3.46
678.549	3.5
678.958	3.54
679.366	3.56
679.775	3.59
680.183	3.64
680.592	3.68
681	3.71
681.408	3.76
681.816	3.81
682.224	3.87
682.632	3.93
683.04	3.97
683.448	4.03
683.856	4.11
684.264	4.19
684.671	4.29
685.079	4.38
685.487	4.51
685.894	4.62
686.302	4.76
686.709	4.91
687.116	5.08
687.524	5.27
687.931	5.45
688.338	5.66
688.745	5.87
689.152	6.09
689.559	6.33
689.966	6.58
690.373	6.87
690.78	7.15
691.187	7.45
691.593	7.75
692	8.06
692.407	8.4
692.813	8.74
693.22	9.08
693.626	9.45
694.032	9.82
694.439	10.18
694.845	10.56
695.251	10.92
695.657	11.28
696.063	11.64
696.469	12.03
696.875	12.39
697.281	12.74
697.687	13.09
698.093	13.46
698.498	13.82
698.904	14.17
699.31	14.5
699.715	14.88
700.12	15.23
700.526	15.57
700.931	15.9
701.337	16.25
701.742	16.58
702.147	16.93
702.552	17.25
702.957	17.57
703.362	17.91
703.767	18.21
704.172	18.5
704.577	18.8
704.981	19.1
705.386	19.39
705.791	19.7
706.195	20.01
706.6	20.3
707.004	20.59
707.408	20.86
707.813	21.11
708.217	21.39
708.621	21.68
709.025	21.96
709.43	22.24
709.834	22.51
710.237	22.74
710.641	23.01
711.045	23.24
711.449	23.48
711.853	23.73
712.256	23.99
712.66	24.23
713.064	24.46
713.467	24.67
713.87	24.87
714.274	25.08
714.677	25.3
715.08	25.46
715.484	25.67
715.887	25.85
716.29	26.05
716.693	26.24
717.096	26.44
717.499	26.65
717.901	26.83
718.304	27.04
718.707	27.25
719.109	27.44
719.512	27.65
719.915	27.85
720.317	28.06
720.719	28.22
721.122	28.37
721.524	28.55
721.926	28.7
722.328	28.85
722.731	29
723.133	29.13
723.535	29.28
723.937	29.43
724.338	29.55
724.74	29.66
725.142	29.71
725.544	29.82
725.945	29.9
726.347	30.01
726.748	30.1
727.15	30.21
727.551	30.32
727.952	30.4
728.354	30.51
728.755	30.59
729.156	30.71
729.557	30.88
729.958	30.97
730.359	31.08
730.76	31.14
731.161	31.25
731.562	31.33
731.962	31.41
732.363	31.48
732.763	31.54
733.164	31.62
733.564	31.68
733.965	31.75
734.365	31.81
734.766	31.86
735.166	31.93
735.566	31.96
735.966	31.98
736.366	31.98
736.766	32.03
737.166	32.07
737.566	32.12
737.966	32.13
738.365	32.13
738.765	32.18
739.165	32.2
739.564	32.2
739.964	32.23
740.363	32.28
740.763	32.33
741.162	32.35
741.561	32.39
741.96	32.4
742.36	32.44
742.759	32.46
743.158	32.47
743.557	32.5
743.955	32.58
744.354	32.61
744.753	32.65
745.152	32.67
745.55	32.71
745.949	32.75
746.348	32.79
746.746	32.78
747.144	32.84
747.543	32.86
747.941	32.9
748.339	32.92
748.737	32.95
749.136	32.96
749.534	32.99
749.932	32.96
750.33	32.94
750.727	32.96
751.125	32.96
751.523	32.93
751.921	32.98
752.318	32.97
752.716	32.93
753.113	32.93
753.511	32.93
753.908	32.9
754.305	32.89
754.703	32.85
755.1	32.83
755.497	32.84
755.894	32.85
756.291	32.81
756.688	32.78
757.085	32.76
757.482	32.74
757.878	32.74
758.275	32.73
758.672	32.73
759.068	32.75
759.465	32.73
759.861	32.72
760.258	32.7
760.654	32.69
761.05	32.71
761.447	32.72
761.843	32.72
762.239	32.69
762.635	32.69
763.031	32.72
763.427	32.74
763.822	32.74
764.218	32.74
764.614	32.75
765.01	32.77
765.405	32.76
765.801	32.77
766.196	32.78
766.592	32.84
766.987	32.86
767.382	32.86
767.778	32.89
768.173	32.89
768.568	32.88
768.963	32.87
769.358	32.88
769.753	32.91
770.148	32.9
770.542	32.89
770.937	32.88
771.332	32.87
771.726	32.88
772.121	32.84
772.515	32.86
772.91	32.88
773.304	32.9
773.699	32.88
774.093	32.87
774.487	32.89
774.881	32.92
775.275	32.9
775.669	32.94
776.063	32.9
776.457	32.93
776.851	32.92
777.245	32.94
777.638	32.94
778.032	32.92
778.425	32.94
778.819	32.94
779.212	32.92
779.606	32.88
779.999	32.88
780.392	32.9
780.786	32.9
781.179	32.89
781.572	32.85
781.965	32.87
782.358	32.87
782.751	32.86
783.143	32.87
783.536	32.91
783.929	32.97
784.322	32.98
784.714	32.99
785.107	33.04
785.499	33.08
785.891	33.12
786.284	33.1
786.676	33.16
