Data from N_3_ofc_oh_4n_Splice17_19.txt Node
Date: Sat Feb 29 15:06:32 EST 2020
User: sa697716
Spectrometer: FLMS03696
Trigger mode: 0
Integration Time (sec): 3.180400E-1
Scans to average: 20
Electric dark correction enabled: true
Nonlinearity correction enabled: true
Boxcar width: 5
XAxis mode: Wavelengths
Number of Pixels in Spectrum: 2048
>>>>>Begin Spectral Data<<<<<
187.83	134.19
188.298	134.39
188.766	115.25
189.233	92.08
189.701	99.99
190.169	89.27
190.636	99.23
191.104	74.88
191.571	106.74
192.039	78.91
192.506	987.11
192.974	17885.68
193.441	-1415.9
193.908	155.56
194.375	-28.79
194.842	-7.42
195.31	-18.44
195.777	-10.83
196.244	58.38
196.711	83.31
197.177	86.78
197.644	86.9
198.111	88.2
198.578	89.44
199.045	90.81
199.511	91.94
199.978	92.94
200.445	92.52
200.911	92.99
201.378	92.97
201.844	93.73
202.31	93.55
202.777	94.03
203.243	94.21
203.709	93.76
204.176	93.35
204.642	93.1
205.108	92.23
205.574	92.73
206.04	92.45
206.506	91.77
206.972	90.86
207.438	90.61
207.903	89.23
208.369	87.66
208.835	86.62
209.301	85.68
209.766	83.79
210.232	82.83
210.697	81.25
211.163	79.46
211.628	78
212.094	76.64
212.559	74.85
213.024	73.64
213.49	72.11
213.955	70.71
214.42	68.73
214.885	66.98
215.35	64.42
215.815	61.07
216.28	57.89
216.745	54.15
217.21	50.08
217.675	46.36
218.14	42.75
218.604	39.66
219.069	36.96
219.534	34.74
219.998	32.89
220.463	31.29
220.927	29.98
221.392	28.75
221.856	27.72
222.32	26.85
222.785	26.06
223.249	25.44
223.713	24.86
224.177	24.33
224.642	23.85
225.106	23.33
225.57	22.85
226.034	22.44
226.497	22.02
226.961	21.64
227.425	21.26
227.889	20.93
228.353	20.55
228.816	20.23
229.28	19.86
229.744	19.56
230.207	19.29
230.671	18.99
231.134	18.69
231.597	18.44
232.061	18.19
232.524	17.98
232.987	17.73
233.45	17.52
233.914	17.3
234.377	17.1
234.84	16.89
235.303	16.71
235.766	16.54
236.229	16.36
236.691	16.2
237.154	16.05
237.617	15.89
238.08	15.75
238.542	15.6
239.005	15.48
239.468	15.35
239.93	15.23
240.393	15.08
240.855	14.94
241.317	14.81
241.78	14.68
242.242	14.52
242.704	14.39
243.166	14.27
243.629	14.15
244.091	14.01
244.553	13.89
245.015	13.78
245.477	13.65
245.939	13.56
246.4	13.44
246.862	13.33
247.324	13.24
247.786	13.14
248.247	13.03
248.709	12.92
249.17	12.84
249.632	12.73
250.093	12.6
250.555	12.51
251.016	12.41
251.477	12.32
251.939	12.22
252.4	12.13
252.861	12.03
253.322	11.95
253.783	11.88
254.244	11.78
254.705	11.7
255.166	11.65
255.627	11.58
256.088	11.51
256.549	11.44
257.009	11.36
257.47	11.3
257.931	11.23
258.391	11.13
258.852	11.05
259.312	10.98
259.773	10.9
260.233	10.81
260.694	10.72
261.154	10.63
261.614	10.55
262.074	10.48
262.534	10.39
262.994	10.32
263.455	10.25
263.915	10.17
264.374	10.09
264.834	10.04
265.294	9.98
265.754	9.91
266.214	9.85
266.673	9.8
267.133	9.74
267.593	9.69
268.052	9.63
268.512	9.59
268.971	9.55
269.431	9.51
269.89	9.46
270.349	9.43
270.809	9.39
271.268	9.36
271.727	9.33
272.186	9.29
272.645	9.27
273.104	9.24
273.563	9.21
274.022	9.17
274.481	9.14
274.94	9.1
275.399	9.06
275.857	9.02
276.316	8.98
276.775	8.95
277.233	8.91
277.692	8.87
278.15	8.84
278.609	8.8
279.067	8.76
279.525	8.74
279.984	8.72
280.442	8.71
280.9	8.69
281.358	8.68
281.816	8.66
282.274	8.65
282.732	8.64
283.19	8.62
283.648	8.61
284.106	8.59
284.564	8.6
285.021	8.59
285.479	8.58
285.937	8.57
286.394	8.56
286.852	8.55
287.309	8.53
287.767	8.52
288.224	8.49
288.682	8.46
289.139	8.44
289.596	8.38
290.053	8.33
290.511	8.28
290.968	8.24
291.425	8.19
291.882	8.14
292.339	8.09
292.796	8.05
293.252	8.02
293.709	7.99
294.166	7.95
294.623	7.92
295.079	7.9
295.536	7.87
295.992	7.84
296.449	7.82
296.905	7.8
297.362	7.78
297.818	7.77
298.274	7.74
298.731	7.72
299.187	7.7
299.643	7.68
300.099	7.67
300.555	7.65
301.011	7.63
301.467	7.61
301.923	7.59
302.379	7.57
302.835	7.55
303.291	7.54
303.746	7.53
304.202	7.51
304.658	7.5
305.113	7.49
305.569	7.49
306.024	7.49
306.479	7.48
306.935	7.47
307.39	7.47
307.845	7.47
308.301	7.47
308.756	7.49
309.211	7.49
309.666	7.49
310.121	7.49
310.576	7.49
311.031	7.5
311.486	7.51
311.94	7.52
312.395	7.53
312.85	7.53
313.305	7.54
313.759	7.54
314.214	7.54
314.668	7.55
315.123	7.56
315.577	7.56
316.032	7.55
316.486	7.54
316.94	7.53
317.394	7.51
317.849	7.49
318.303	7.47
318.757	7.44
319.211	7.42
319.665	7.4
320.119	7.37
320.572	7.36
321.026	7.35
321.48	7.33
321.934	7.31
322.387	7.3
322.841	7.29
323.295	7.29
323.748	7.27
324.202	7.27
324.655	7.25
325.108	7.24
325.562	7.21
326.015	7.2
326.468	7.18
326.921	7.17
327.374	7.16
327.827	7.15
328.28	7.13
328.733	7.13
329.186	7.12
329.639	7.12
330.092	7.12
330.545	7.12
330.997	7.12
331.45	7.13
331.903	7.13
332.355	7.14
332.808	7.14
333.26	7.15
333.713	7.16
334.165	7.16
334.617	7.17
335.069	7.18
335.522	7.2
335.974	7.2
336.426	7.21
336.878	7.22
337.33	7.22
337.782	7.24
338.234	7.25
338.686	7.24
339.137	7.24
339.589	7.24
340.041	7.23
340.493	7.21
340.944	7.21
341.396	7.2
341.847	7.18
342.299	7.14
342.75	7.12
343.201	7.08
343.653	7.06
344.104	7.03
344.555	7.01
345.006	6.98
345.457	6.96
345.908	6.92
346.359	6.9
346.81	6.89
347.261	6.88
347.712	6.87
348.163	6.86
348.613	6.85
349.064	6.83
349.515	6.82
349.965	6.82
350.416	6.82
350.866	6.83
351.317	6.82
351.767	6.83
352.217	6.82
352.668	6.81
353.118	6.82
353.568	6.82
354.018	6.85
354.468	6.85
354.918	6.85
355.368	6.86
355.818	6.86
356.268	6.87
356.718	6.87
357.168	6.88
357.617	6.89
358.067	6.88
358.517	6.88
358.966	6.88
359.416	6.89
359.865	6.89
360.315	6.88
360.764	6.88
361.213	6.87
361.663	6.86
362.112	6.86
362.561	6.87
363.01	6.88
363.459	6.88
363.908	6.88
364.357	6.87
364.806	6.87
365.255	6.88
365.703	6.88
366.152	6.88
366.601	6.89
367.05	6.88
367.498	6.88
367.947	6.88
368.395	6.88
368.844	6.87
369.292	6.86
369.74	6.87
370.189	6.87
370.637	6.87
371.085	6.88
371.533	6.89
371.981	6.89
372.429	6.88
372.877	6.88
373.325	6.88
373.773	6.88
374.221	6.89
374.669	6.88
375.116	6.88
375.564	6.86
376.012	6.86
376.459	6.87
376.907	6.9
377.354	6.91
377.801	6.93
378.249	6.94
378.696	6.95
379.143	6.96
379.591	6.99
380.038	7
380.485	7.03
380.932	7.05
381.379	7.05
381.826	7.06
382.273	7.06
382.72	7.06
383.166	7.07
383.613	7.08
384.06	7.08
384.506	7.07
384.953	7.07
385.4	7.09
385.846	7.09
386.292	7.11
386.739	7.11
387.185	7.14
387.631	7.16
388.078	7.17
388.524	7.17
388.97	7.2
389.416	7.22
389.862	7.25
390.308	7.26
390.754	7.29
391.2	7.32
391.645	7.34
392.091	7.37
392.537	7.4
392.983	7.44
393.428	7.48
393.874	7.51
394.319	7.55
394.765	7.56
395.21	7.57
395.655	7.61
396.101	7.63
396.546	7.65
396.991	7.67
397.436	7.68
397.881	7.7
398.326	7.73
398.771	7.75
399.216	7.79
399.661	7.83
400.106	7.86
400.551	7.87
400.995	7.87
401.44	7.87
401.885	7.87
402.329	7.88
402.774	7.86
403.218	7.86
403.663	7.85
404.107	7.87
404.551	7.88
404.995	7.87
405.44	7.86
405.884	7.87
406.328	7.87
406.772	7.89
407.216	7.91
407.66	7.94
408.104	7.94
408.547	7.95
408.991	7.94
409.435	7.93
409.879	7.94
410.322	7.98
410.766	8
411.209	8.04
411.653	8.03
412.096	8.04
412.54	8.05
412.983	8.07
413.426	8.1
413.869	8.13
414.312	8.17
414.756	8.21
415.199	8.24
415.642	8.27
416.085	8.29
416.527	8.32
416.97	8.35
417.413	8.35
417.856	8.35
418.298	8.33
418.741	8.31
419.184	8.31
419.626	8.28
420.069	8.26
420.511	8.27
420.953	8.26
421.396	8.25
421.838	8.25
422.28	8.28
422.722	8.31
423.164	8.33
423.606	8.37
424.048	8.36
424.49	8.39
424.932	8.4
425.374	8.39
425.816	8.37
426.258	8.36
426.699	8.33
427.141	8.3
427.582	8.29
428.024	8.31
428.465	8.33
428.907	8.36
429.348	8.37
429.789	8.39
430.231	8.41
430.672	8.46
431.113	8.51
431.554	8.58
431.995	8.63
432.436	8.67
432.877	8.69
433.318	8.7
433.759	8.72
434.2	8.74
434.64	8.8
435.081	8.82
435.522	8.84
435.962	8.88
436.403	8.92
436.843	8.95
437.284	8.99
437.724	9.05
438.164	9.08
438.604	9.13
439.045	9.16
439.485	9.17
439.925	9.18
440.365	9.22
440.805	9.23
441.245	9.24
441.685	9.3
442.125	9.31
442.564	9.36
443.004	9.39
443.444	9.42
443.883	9.48
444.323	9.52
444.762	9.59
445.202	9.66
445.641	9.72
446.081	9.79
446.52	9.8
446.959	9.85
447.398	9.91
447.837	9.98
448.276	10.03
448.716	10.06
449.154	10.12
449.593	10.17
450.032	10.19
450.471	10.22
450.91	10.23
451.349	10.29
451.787	10.3
452.226	10.27
452.664	10.25
453.103	10.25
453.541	10.26
453.98	10.24
454.418	10.23
454.856	10.21
455.295	10.18
455.733	10.17
456.171	10.15
456.609	10.15
457.047	10.14
457.485	10.14
457.923	10.14
458.361	10.12
458.798	10.13
459.236	10.13
459.674	10.13
460.111	10.13
460.549	10.12
460.987	10.11
461.424	10.1
461.862	10.09
462.299	10.09
462.736	10.08
463.173	10.09
463.611	10.09
464.048	10.1
464.485	10.09
464.922	10.1
465.359	10.12
465.796	10.13
466.233	10.15
466.67	10.18
467.106	10.2
467.543	10.21
467.98	10.21
468.416	10.21
468.853	10.19
469.29	10.21
469.726	10.23
470.162	10.25
470.599	10.26
471.035	10.27
471.471	10.27
471.907	10.26
472.344	10.27
472.78	10.29
473.216	10.29
473.652	10.32
474.088	10.33
474.523	10.32
474.959	10.28
475.395	10.28
475.831	10.27
476.266	10.26
476.702	10.26
477.138	10.25
477.573	10.22
478.008	10.21
478.444	10.18
478.879	10.17
479.314	10.17
479.75	10.18
480.185	10.17
480.62	10.17
481.055	10.17
481.49	10.15
481.925	10.13
482.36	10.13
482.795	10.11
483.229	10.12
483.664	10.1
484.099	10.08
484.534	10.07
484.968	10.06
485.403	10.05
485.837	10.03
486.271	10.03
486.706	10.03
487.14	10.04
487.574	10.06
488.009	10.06
488.443	10.08
488.877	10.1
489.311	10.11
489.745	10.14
490.179	10.16
490.613	10.19
491.046	10.23
491.48	10.28
491.914	10.31
492.348	10.36
492.781	10.39
493.215	10.44
493.648	10.48
494.082	10.55
494.515	10.6
494.948	10.67
495.382	10.74
495.815	10.8
496.248	10.87
496.681	10.93
497.114	10.99
497.547	11.08
497.98	11.16
498.413	11.24
498.846	11.32
499.279	11.42
499.711	11.52
500.144	11.62
500.577	11.72
501.009	11.84
501.442	11.97
501.874	12.1
502.306	12.23
502.739	12.36
503.171	12.53
503.603	12.69
504.036	12.85
504.468	13.03
504.9	13.22
505.332	13.41
505.764	13.6
506.196	13.82
506.627	14.04
507.059	14.27
507.491	14.51
507.923	14.76
508.354	15.02
508.786	15.28
509.217	15.53
509.649	15.83
510.08	16.13
510.512	16.44
510.943	16.76
511.374	17.08
511.805	17.41
512.237	17.77
512.668	18.1
513.099	18.45
513.53	18.81
513.961	19.2
514.391	19.54
514.822	19.92
515.253	20.3
515.684	20.68
516.114	21.07
516.545	21.47
516.975	21.87
517.406	22.28
517.836	22.69
518.267	23.1
518.697	23.51
519.127	23.91
519.558	24.3
519.988	24.7
520.418	25.08
520.848	25.47
521.278	25.86
521.708	26.3
522.138	26.67
522.567	27.03
522.997	27.38
523.427	27.76
523.857	28.11
524.286	28.45
524.716	28.78
525.145	29.12
525.575	29.45
526.004	29.75
526.433	30.01
526.863	30.3
527.292	30.6
527.721	30.89
528.15	31.13
528.579	31.39
529.008	31.65
529.437	31.88
529.866	32.09
530.295	32.31
530.724	32.55
531.152	32.76
531.581	32.93
532.01	33.1
532.438	33.27
532.867	33.44
533.295	33.59
533.723	33.75
534.152	33.87
534.58	33.99
535.008	34.08
535.436	34.18
535.865	34.24
536.293	34.34
536.721	34.44
537.149	34.51
537.576	34.58
538.004	34.64
538.432	34.7
538.86	34.78
539.287	34.84
539.715	34.93
540.143	34.97
540.57	35.04
540.998	35.1
541.425	35.12
541.852	35.16
542.28	35.18
542.707	35.25
543.134	35.29
543.561	35.3
543.988	35.35
544.415	35.39
544.842	35.42
545.269	35.45
545.696	35.48
546.123	35.55
546.549	35.59
546.976	35.65
547.403	35.69
547.829	35.75
548.256	35.81
548.682	35.82
549.108	35.86
549.535	35.9
549.961	35.93
550.387	35.94
550.813	35.97
551.24	35.97
551.666	35.99
552.092	35.99
552.518	35.98
552.943	35.98
553.369	35.98
553.795	35.97
554.221	35.94
554.646	35.92
555.072	35.9
555.498	35.82
555.923	35.78
556.349	35.72
556.774	35.65
557.199	35.57
557.625	35.49
558.05	35.42
558.475	35.28
558.9	35.19
559.325	35.06
559.75	34.94
560.175	34.83
560.6	34.69
561.025	34.55
561.449	34.41
561.874	34.26
562.299	34.11
562.723	33.93
563.148	33.79
563.572	33.62
563.997	33.45
564.421	33.24
564.846	33.02
565.27	32.82
565.694	32.62
566.118	32.39
566.542	32.18
566.966	31.95
567.39	31.71
567.814	31.47
568.238	31.22
568.662	30.98
569.086	30.75
569.509	30.52
569.933	30.28
570.357	30.04
570.78	29.82
571.204	29.59
571.627	29.37
572.05	29.18
572.474	28.96
572.897	28.76
573.32	28.57
573.743	28.39
574.166	28.2
574.589	28.02
575.012	27.86
575.435	27.67
575.858	27.5
576.281	27.35
576.704	27.19
577.126	27.06
577.549	26.94
577.972	26.8
578.394	26.65
578.817	26.53
579.239	26.43
579.661	26.32
580.084	26.23
580.506	26.12
580.928	25.99
581.35	25.88
581.772	25.78
582.194	25.66
582.616	25.57
583.038	25.49
583.46	25.41
583.882	25.3
584.303	25.2
584.725	25.1
585.147	25
585.568	24.93
585.99	24.84
586.411	24.75
586.833	24.68
587.254	24.58
587.675	24.5
588.096	24.41
588.518	24.34
588.939	24.27
589.36	24.2
589.781	24.15
590.202	24.08
590.623	24.01
591.043	23.94
591.464	23.87
591.885	23.82
592.305	23.76
592.726	23.69
593.147	23.65
593.567	23.59
593.987	23.54
594.408	23.46
594.828	23.4
595.248	23.36
595.669	23.31
596.089	23.27
596.509	23.2
596.929	23.14
597.349	23.08
597.769	23
598.189	22.97
598.608	22.91
599.028	22.85
599.448	22.8
599.867	22.72
600.287	22.66
600.706	22.6
601.126	22.55
601.545	22.49
601.965	22.44
602.384	22.39
602.803	22.29
603.222	22.22
603.641	22.14
604.061	22.06
604.48	21.98
604.898	21.9
605.317	21.82
605.736	21.72
606.155	21.63
606.574	21.53
606.992	21.43
607.411	21.36
607.829	21.24
608.248	21.15
608.666	21.05
609.085	20.95
609.503	20.86
609.921	20.75
610.339	20.67
610.758	20.57
611.176	20.47
611.594	20.38
612.012	20.26
612.43	20.2
612.847	20.1
613.265	20
613.683	19.9
614.101	19.79
614.518	19.69
614.936	19.59
615.353	19.51
615.771	19.43
616.188	19.34
616.606	19.27
617.023	19.19
617.44	19.12
617.857	19.04
618.274	19
618.691	18.95
619.108	18.9
619.525	18.86
619.942	18.81
620.359	18.76
620.776	18.73
621.192	18.68
621.609	18.65
622.026	18.61
622.442	18.59
622.859	18.54
623.275	18.52
623.691	18.5
624.108	18.47
624.524	18.46
624.94	18.43
625.356	18.41
625.772	18.41
626.188	18.4
626.604	18.36
627.02	18.34
627.436	18.32
627.852	18.27
628.268	18.24
628.683	18.21
629.099	18.18
629.514	18.14
629.93	18.08
630.345	18.02
630.761	17.95
631.176	17.93
631.591	17.85
632.007	17.79
632.422	17.74
632.837	17.65
633.252	17.58
633.667	17.47
634.082	17.38
634.497	17.27
634.911	17.14
635.326	17.02
635.741	16.89
636.155	16.77
636.57	16.62
636.984	16.46
637.399	16.29
637.813	16.13
638.228	15.96
638.642	15.79
639.056	15.62
639.47	15.46
639.884	15.28
640.298	15.1
640.712	14.92
641.126	14.75
641.54	14.57
641.954	14.43
642.368	14.26
642.781	14.1
643.195	13.94
643.609	13.8
644.022	13.67
644.436	13.52
644.849	13.41
645.262	13.3
645.676	13.18
646.089	13.08
646.502	12.96
646.915	12.86
647.328	12.79
647.741	12.71
648.154	12.64
648.567	12.58
648.98	12.54
649.393	12.47
649.805	12.4
650.218	12.36
650.631	12.31
651.043	12.27
651.456	12.23
651.868	12.18
652.28	12.15
652.693	12.11
653.105	12.06
653.517	11.99
653.929	11.95
654.341	11.92
654.753	11.87
655.165	11.83
655.577	11.77
655.989	11.7
656.401	11.61
656.813	11.52
657.224	11.44
657.636	11.36
658.047	11.29
658.459	11.21
658.87	11.13
659.282	11.06
659.693	10.95
660.104	10.85
660.515	10.77
660.926	10.7
661.338	10.64
661.749	10.55
662.159	10.47
662.57	10.39
662.981	10.31
663.392	10.23
663.803	10.13
664.213	10.07
664.624	10.01
665.035	9.94
665.445	9.89
665.855	9.83
666.266	9.79
666.676	9.75
667.086	9.71
667.497	9.66
667.907	9.63
668.317	9.59
668.727	9.56
669.137	9.56
669.547	9.55
669.956	9.52
670.366	9.52
670.776	9.51
671.186	9.51
671.595	9.5
672.005	9.5
672.414	9.51
672.824	9.53
673.233	9.53
673.642	9.51
674.052	9.52
674.461	9.54
674.87	9.55
675.279	9.57
675.688	9.59
676.097	9.61
676.506	9.63
676.915	9.66
677.323	9.68
677.732	9.74
678.141	9.81
678.549	9.87
678.958	9.92
679.366	9.97
679.775	10.05
680.183	10.15
680.592	10.26
681	10.36
681.408	10.47
681.816	10.6
682.224	10.73
682.632	10.88
683.04	11.05
683.448	11.25
683.856	11.47
684.264	11.7
684.671	11.96
685.079	12.23
685.487	12.55
685.894	12.93
686.302	13.31
686.709	13.73
687.116	14.19
687.524	14.66
687.931	15.2
688.338	15.75
688.745	16.36
689.152	16.99
689.559	17.64
689.966	18.31
690.373	19.02
690.78	19.75
691.187	20.49
691.593	21.27
692	22.09
692.407	22.92
692.813	23.78
693.22	24.61
693.626	25.46
694.032	26.34
694.439	27.24
694.845	28.12
695.251	29.01
695.657	29.87
696.063	30.78
696.469	31.65
696.875	32.5
697.281	33.33
697.687	34.18
698.093	35.02
698.498	35.88
698.904	36.7
699.31	37.51
699.715	38.34
700.12	39.15
700.526	39.93
700.931	40.7
701.337	41.48
701.742	42.24
702.147	43
702.552	43.76
702.957	44.43
703.362	45.15
703.767	45.86
704.172	46.53
704.577	47.21
704.981	47.85
705.386	48.49
705.791	49.13
706.195	49.74
706.6	50.33
707.004	50.93
707.408	51.54
707.813	52.12
708.217	52.66
708.621	53.2
709.025	53.76
709.43	54.29
709.834	54.87
710.237	55.34
710.641	55.88
711.045	56.37
711.449	56.83
711.853	57.32
712.256	57.8
712.66	58.27
713.064	58.75
713.467	59.18
713.87	59.65
714.274	60.09
714.677	60.56
715.08	60.94
715.484	61.39
715.887	61.8
716.29	62.2
716.693	62.58
717.096	62.98
717.499	63.36
717.901	63.69
718.304	64.02
718.707	64.33
719.109	64.7
719.512	65.08
719.915	65.42
720.317	65.74
720.719	66.08
721.122	66.38
721.524	66.7
721.926	67
722.328	67.34
722.731	67.66
723.133	67.96
723.535	68.23
723.937	68.47
724.338	68.7
724.74	68.95
725.142	69.16
725.544	69.37
725.945	69.58
726.347	69.81
726.748	69.99
727.15	70.17
727.551	70.33
727.952	70.48
728.354	70.69
728.755	70.9
729.156	71.05
729.557	71.27
729.958	71.46
730.359	71.59
730.76	71.72
731.161	71.86
731.562	72.04
731.962	72.2
732.363	72.31
732.763	72.44
733.164	72.51
733.564	72.64
733.965	72.67
734.365	72.76
734.766	72.87
735.166	72.98
735.566	73.04
735.966	73.06
736.366	73.09
736.766	73.18
737.166	73.23
737.566	73.32
737.966	73.37
738.365	73.47
738.765	73.55
739.165	73.56
739.564	73.59
739.964	73.65
740.363	73.71
740.763	73.75
741.162	73.79
741.561	73.86
741.96	73.92
742.36	74.02
742.759	74.03
743.158	74.04
743.557	74.15
743.955	74.23
744.354	74.31
744.753	74.41
745.152	74.48
745.55	74.56
745.949	74.59
746.348	74.63
746.746	74.62
747.144	74.72
747.543	74.79
747.941	74.81
748.339	74.87
748.737	74.92
749.136	74.96
749.534	75.01
749.932	75.02
750.33	75.06
750.727	75.06
751.125	75.06
751.523	75.01
751.921	75.03
752.318	75.04
752.716	74.99
753.113	74.95
753.511	74.89
753.908	74.84
754.305	74.78
754.703	74.74
755.1	74.7
755.497	74.71
755.894	74.74
756.291	74.71
756.688	74.68
757.085	74.67
757.482	74.69
757.878	74.74
758.275	74.8
758.672	74.85
759.068	74.86
759.465	74.87
759.861	74.86
760.258	74.82
760.654	74.8
761.05	74.82
761.447	74.83
761.843	74.76
762.239	74.7
762.635	74.64
763.031	74.62
763.427	74.6
763.822	74.6
764.218	74.58
764.614	74.57
765.01	74.58
765.405	74.56
765.801	74.55
766.196	74.56
766.592	74.57
766.987	74.58
767.382	74.61
767.778	74.6
768.173	74.61
768.568	74.56
768.963	74.58
769.358	74.58
769.753	74.6
770.148	74.56
770.542	74.51
770.937	74.47
771.332	74.49
771.726	74.42
772.121	74.43
772.515	74.42
772.91	74.5
773.304	74.49
773.699	74.51
774.093	74.49
