Data from N_3_div_wi_4n_Splice17_19.txt Node
Date: Sat Feb 29 14:44:24 EST 2020
User: sa697716
Spectrometer: FLMS03696
Trigger mode: 0
Integration Time (sec): 3.180400E-1
Scans to average: 20
Electric dark correction enabled: true
Nonlinearity correction enabled: true
Boxcar width: 5
XAxis mode: Wavelengths
Number of Pixels in Spectrum: 2048
>>>>>Begin Spectral Data<<<<<
187.83	76.11
188.298	92.98
188.766	75.79
189.233	82.67
189.701	89.66
190.169	91.18
190.636	91.89
191.104	87.34
191.571	104.11
192.039	182.3
192.506	-133.78
192.974	-1177.8
193.441	-309.86
193.908	54.19
194.375	82.5
194.842	192.52
195.31	128.23
195.777	191.51
196.244	50.19
196.711	33.68
197.177	30.69
197.644	29.91
198.111	29.43
198.578	28.97
199.045	29.76
199.511	30.35
199.978	30.43
200.445	30.21
200.911	29.86
201.378	30.61
201.844	31.44
202.31	31.91
202.777	32.53
203.243	33.31
203.709	34.08
204.176	34.03
204.642	34.48
205.108	34.39
205.574	34.93
206.04	35.54
206.506	35.39
206.972	34.89
207.438	35.01
207.903	35.22
208.369	35.57
208.835	35.74
209.301	36.04
209.766	36.38
210.232	36.87
210.697	37.21
211.163	37.29
211.628	37.79
212.094	38.3
212.559	38.62
213.024	38.72
213.49	38.56
213.955	38.73
214.42	38.77
214.885	38.36
215.35	38.67
215.815	38.87
216.28	39.39
216.745	39.66
217.21	39.7
217.675	40.02
218.14	40.16
218.604	40.21
219.069	40.33
219.534	40.26
219.998	40.21
220.463	40.15
220.927	40.09
221.392	39.76
221.856	39.49
222.32	39.23
222.785	38.87
223.249	38.54
223.713	38.19
224.177	37.82
224.642	37.44
225.106	37.08
225.57	36.62
226.034	36.19
226.497	35.81
226.961	35.4
227.425	34.97
227.889	34.58
228.353	34.17
228.816	33.78
229.28	33.33
229.744	32.92
230.207	32.53
230.671	32.12
231.134	31.68
231.597	31.25
232.061	30.83
232.524	30.48
232.987	30.09
233.45	29.67
233.914	29.28
234.377	28.89
234.84	28.56
235.303	28.18
235.766	27.83
236.229	27.51
236.691	27.2
237.154	26.89
237.617	26.55
238.08	26.25
238.542	25.96
239.005	25.67
239.468	25.37
239.93	25.07
240.393	24.81
240.855	24.54
241.317	24.27
241.78	24.03
242.242	23.77
242.704	23.53
243.166	23.28
243.629	23.06
244.091	22.82
244.553	22.62
245.015	22.4
245.477	22.18
245.939	21.97
246.4	21.76
246.862	21.54
247.324	21.36
247.786	21.17
248.247	20.99
248.709	20.8
249.17	20.64
249.632	20.45
250.093	20.26
250.555	20.08
251.016	19.95
251.477	19.79
251.939	19.64
252.4	19.49
252.861	19.34
253.322	19.21
253.783	19.1
254.244	18.97
254.705	18.88
255.166	18.8
255.627	18.72
256.088	18.61
256.549	18.53
257.009	18.45
257.47	18.38
257.931	18.3
258.391	18.21
258.852	18.12
259.312	18.05
259.773	17.95
260.233	17.85
260.694	17.76
261.154	17.66
261.614	17.57
262.074	17.48
262.534	17.38
262.994	17.3
263.455	17.21
263.915	17.12
264.374	17.03
264.834	16.95
265.294	16.87
265.754	16.79
266.214	16.72
266.673	16.65
267.133	16.57
267.593	16.51
268.052	16.43
268.512	16.35
268.971	16.29
269.431	16.23
269.89	16.16
270.349	16.1
270.809	16.05
271.268	15.99
271.727	15.93
272.186	15.87
272.645	15.8
273.104	15.73
273.563	15.68
274.022	15.61
274.481	15.55
274.94	15.47
275.399	15.4
275.857	15.33
276.316	15.25
276.775	15.17
277.233	15.1
277.692	15.04
278.15	14.96
278.609	14.89
279.067	14.81
279.525	14.73
279.984	14.67
280.442	14.62
280.9	14.55
281.358	14.48
281.816	14.41
282.274	14.34
282.732	14.29
283.19	14.24
283.648	14.19
284.106	14.14
284.564	14.11
285.021	14.06
285.479	14.02
285.937	13.97
286.394	13.94
286.852	13.92
287.309	13.89
287.767	13.86
288.224	13.81
288.682	13.77
289.139	13.72
289.596	13.65
290.053	13.59
290.511	13.51
290.968	13.44
291.425	13.38
291.882	13.3
292.339	13.22
292.796	13.13
293.252	13.08
293.709	13.01
294.166	12.95
294.623	12.91
295.079	12.86
295.536	12.81
295.992	12.76
296.449	12.7
296.905	12.65
297.362	12.61
297.818	12.57
298.274	12.52
298.731	12.48
299.187	12.43
299.643	12.38
300.099	12.34
300.555	12.3
301.011	12.25
301.467	12.2
301.923	12.16
302.379	12.12
302.835	12.06
303.291	12.02
303.746	11.98
304.202	11.93
304.658	11.89
305.113	11.84
305.569	11.8
306.024	11.77
306.479	11.73
306.935	11.71
307.39	11.68
307.845	11.65
308.301	11.63
308.756	11.61
309.211	11.59
309.666	11.58
310.121	11.56
310.576	11.54
311.031	11.52
311.486	11.5
311.94	11.46
312.395	11.46
312.85	11.44
313.305	11.42
313.759	11.39
314.214	11.37
314.668	11.35
315.123	11.33
315.577	11.31
316.032	11.29
316.486	11.26
316.94	11.23
317.394	11.18
317.849	11.15
318.303	11.12
318.757	11.09
319.211	11.04
319.665	11.01
320.119	10.97
320.572	10.92
321.026	10.88
321.48	10.83
321.934	10.81
322.387	10.78
322.841	10.74
323.295	10.7
323.748	10.66
324.202	10.63
324.655	10.59
325.108	10.56
325.562	10.53
326.015	10.5
326.468	10.47
326.921	10.43
327.374	10.39
327.827	10.35
328.28	10.32
328.733	10.28
329.186	10.25
329.639	10.22
330.092	10.2
330.545	10.17
330.997	10.15
331.45	10.13
331.903	10.11
332.355	10.1
332.808	10.09
333.26	10.07
333.713	10.07
334.165	10.06
334.617	10.05
335.069	10.02
335.522	10.01
335.974	10
336.426	9.99
336.878	9.97
337.33	9.96
337.782	9.94
338.234	9.92
338.686	9.91
339.137	9.89
339.589	9.87
340.041	9.86
340.493	9.82
340.944	9.8
341.396	9.78
341.847	9.75
342.299	9.72
342.75	9.66
343.201	9.62
343.653	9.58
344.104	9.55
344.555	9.52
345.006	9.49
345.457	9.46
345.908	9.42
346.359	9.4
346.81	9.37
347.261	9.35
347.712	9.34
348.163	9.33
348.613	9.3
349.064	9.28
349.515	9.26
349.965	9.24
350.416	9.22
350.866	9.21
351.317	9.2
351.767	9.18
352.217	9.17
352.668	9.14
353.118	9.14
353.568	9.14
354.018	9.15
354.468	9.13
354.918	9.13
355.368	9.13
355.818	9.12
356.268	9.13
356.718	9.14
357.168	9.13
357.617	9.13
358.067	9.13
358.517	9.12
358.966	9.12
359.416	9.13
359.865	9.13
360.315	9.13
360.764	9.14
361.213	9.12
361.663	9.13
362.112	9.15
362.561	9.16
363.01	9.17
363.459	9.17
363.908	9.17
364.357	9.17
364.806	9.18
365.255	9.19
365.703	9.19
366.152	9.22
366.601	9.23
367.05	9.24
367.498	9.26
367.947	9.27
368.395	9.3
368.844	9.32
369.292	9.33
369.74	9.35
370.189	9.37
370.637	9.39
371.085	9.41
371.533	9.42
371.981	9.45
372.429	9.47
372.877	9.5
373.325	9.52
373.773	9.55
374.221	9.59
374.669	9.61
375.116	9.64
375.564	9.67
376.012	9.71
376.459	9.74
376.907	9.78
377.354	9.81
377.801	9.85
378.249	9.88
378.696	9.93
379.143	9.96
379.591	10.01
380.038	10.05
380.485	10.08
380.932	10.11
381.379	10.14
381.826	10.17
382.273	10.2
382.72	10.24
383.166	10.27
383.613	10.29
384.06	10.32
384.506	10.33
384.953	10.35
385.4	10.37
385.846	10.4
386.292	10.44
386.739	10.48
387.185	10.52
387.631	10.54
388.078	10.56
388.524	10.57
388.97	10.58
389.416	10.6
389.862	10.62
390.308	10.64
390.754	10.67
391.2	10.69
391.645	10.7
392.091	10.69
392.537	10.71
392.983	10.73
393.428	10.77
393.874	10.81
394.319	10.82
394.765	10.83
395.21	10.84
395.655	10.83
396.101	10.84
396.546	10.85
396.991	10.86
397.436	10.84
397.881	10.85
398.326	10.86
398.771	10.86
399.216	10.89
399.661	10.9
400.106	10.91
400.551	10.89
400.995	10.88
401.44	10.85
401.885	10.82
402.329	10.81
402.774	10.79
403.218	10.76
403.663	10.74
404.107	10.72
404.551	10.7
404.995	10.68
405.44	10.67
405.884	10.66
406.328	10.66
406.772	10.68
407.216	10.69
407.66	10.69
408.104	10.67
408.547	10.64
408.991	10.61
409.435	10.59
409.879	10.57
410.322	10.56
410.766	10.55
411.209	10.54
411.653	10.52
412.096	10.5
412.54	10.46
412.983	10.45
413.426	10.47
413.869	10.47
414.312	10.49
414.756	10.51
415.199	10.51
415.642	10.53
416.085	10.56
416.527	10.57
416.97	10.58
417.413	10.59
417.856	10.57
418.298	10.54
418.741	10.53
419.184	10.51
419.626	10.48
420.069	10.47
420.511	10.44
420.953	10.41
421.396	10.38
421.838	10.38
422.28	10.38
422.722	10.42
423.164	10.43
423.606	10.43
424.048	10.43
424.49	10.45
424.932	10.46
425.374	10.46
425.816	10.43
426.258	10.42
426.699	10.37
427.141	10.33
427.582	10.28
428.024	10.27
428.465	10.27
428.907	10.28
429.348	10.26
429.789	10.24
430.231	10.22
430.672	10.24
431.113	10.26
431.554	10.29
431.995	10.31
432.436	10.32
432.877	10.31
433.318	10.31
433.759	10.3
434.2	10.31
434.64	10.32
435.081	10.35
435.522	10.36
435.962	10.36
436.403	10.37
436.843	10.4
437.284	10.44
437.724	10.47
438.164	10.48
438.604	10.52
439.045	10.53
439.485	10.54
439.925	10.55
440.365	10.54
440.805	10.57
441.245	10.57
441.685	10.6
442.125	10.6
442.564	10.62
443.004	10.63
443.444	10.66
443.883	10.68
444.323	10.71
444.762	10.77
445.202	10.82
445.641	10.84
446.081	10.87
446.52	10.87
446.959	10.91
447.398	10.98
447.837	11.04
448.276	11.07
448.716	11.12
449.154	11.13
449.593	11.15
450.032	11.18
450.471	11.21
450.91	11.25
451.349	11.28
451.787	11.29
452.226	11.26
452.664	11.25
453.103	11.23
453.541	11.23
453.98	11.24
454.418	11.22
454.856	11.2
455.295	11.19
455.733	11.17
456.171	11.15
456.609	11.14
457.047	11.11
457.485	11.1
457.923	11.08
458.361	11.05
458.798	11.05
459.236	11.05
459.674	11.04
460.111	11.03
460.549	11.01
460.987	11.01
461.424	10.99
461.862	10.99
462.299	10.96
462.736	10.95
463.173	10.95
463.611	10.92
464.048	10.92
464.485	10.91
464.922	10.88
465.359	10.88
465.796	10.85
466.233	10.86
466.67	10.88
467.106	10.88
467.543	10.87
467.98	10.85
468.416	10.88
468.853	10.85
469.29	10.84
469.726	10.85
470.162	10.83
470.599	10.83
471.035	10.83
471.471	10.81
471.907	10.83
472.344	10.85
472.78	10.85
473.216	10.84
473.652	10.84
474.088	10.86
474.523	10.87
474.959	10.88
475.395	10.87
475.831	10.86
476.266	10.87
476.702	10.85
477.138	10.84
477.573	10.82
478.008	10.82
478.444	10.81
478.879	10.8
479.314	10.81
479.75	10.81
480.185	10.82
480.62	10.81
481.055	10.79
481.49	10.78
481.925	10.77
482.36	10.75
482.795	10.73
483.229	10.71
483.664	10.7
484.099	10.7
484.534	10.68
484.968	10.67
485.403	10.67
485.837	10.67
486.271	10.67
486.706	10.67
487.14	10.69
487.574	10.71
488.009	10.73
488.443	10.73
488.877	10.74
489.311	10.77
489.745	10.79
490.179	10.82
490.613	10.85
491.046	10.88
491.48	10.92
491.914	10.95
492.348	10.97
492.781	11.01
493.215	11.05
493.648	11.1
494.082	11.15
494.515	11.2
494.948	11.26
495.382	11.3
495.815	11.37
496.248	11.44
496.681	11.51
497.114	11.59
497.547	11.66
497.98	11.75
498.413	11.84
498.846	11.93
499.279	12.03
499.711	12.12
500.144	12.23
500.577	12.33
501.009	12.45
501.442	12.59
501.874	12.73
502.306	12.88
502.739	13.02
503.171	13.18
503.603	13.35
504.036	13.51
504.468	13.71
504.9	13.92
505.332	14.12
505.764	14.33
506.196	14.54
506.627	14.75
507.059	14.98
507.491	15.23
507.923	15.46
508.354	15.73
508.786	15.99
509.217	16.23
509.649	16.51
510.08	16.8
510.512	17.1
510.943	17.39
511.374	17.69
511.805	18.01
512.237	18.34
512.668	18.68
513.099	19.02
513.53	19.37
513.961	19.75
514.391	20.09
514.822	20.45
515.253	20.81
515.684	21.17
516.114	21.56
516.545	21.92
516.975	22.31
517.406	22.67
517.836	23.05
518.267	23.42
518.697	23.79
519.127	24.17
519.558	24.54
519.988	24.9
520.418	25.29
520.848	25.65
521.278	26.03
521.708	26.35
522.138	26.72
522.567	27.06
522.997	27.37
523.427	27.71
523.857	28.03
524.286	28.35
524.716	28.68
525.145	28.99
525.575	29.29
526.004	29.58
526.433	29.88
526.863	30.15
527.292	30.41
527.721	30.69
528.15	30.92
528.579	31.17
529.008	31.4
529.437	31.61
529.866	31.8
530.295	32
530.724	32.22
531.152	32.42
531.581	32.61
532.01	32.77
532.438	32.94
532.867	33.1
533.295	33.23
533.723	33.39
534.152	33.5
534.58	33.62
535.008	33.73
535.436	33.83
535.865	33.91
536.293	34
536.721	34.07
537.149	34.14
537.576	34.2
538.004	34.28
538.432	34.33
538.86	34.4
539.287	34.46
539.715	34.51
540.143	34.53
540.57	34.56
540.998	34.63
541.425	34.69
541.852	34.73
542.28	34.78
542.707	34.82
543.134	34.85
543.561	34.89
543.988	34.94
544.415	34.99
544.842	35.03
545.269	35.11
545.696	35.15
546.123	35.2
546.549	35.25
546.976	35.28
547.403	35.31
547.829	35.37
548.256	35.41
548.682	35.43
549.108	35.47
549.535	35.53
549.961	35.54
550.387	35.56
550.813	35.54
551.24	35.57
551.666	35.63
552.092	35.63
552.518	35.62
552.943	35.63
553.369	35.61
553.795	35.6
554.221	35.57
554.646	35.54
555.072	35.49
555.498	35.45
555.923	35.41
556.349	35.32
556.774	35.28
557.199	35.25
557.625	35.17
558.05	35.09
558.475	34.99
558.9	34.9
559.325	34.79
559.75	34.69
560.175	34.58
560.6	34.44
561.025	34.31
561.449	34.16
561.874	33.99
562.299	33.85
562.723	33.71
563.148	33.57
563.572	33.41
563.997	33.27
564.421	33.1
564.846	32.93
565.27	32.77
565.694	32.59
566.118	32.41
566.542	32.22
566.966	32.02
567.39	31.79
567.814	31.57
568.238	31.33
568.662	31.1
569.086	30.87
569.509	30.66
569.933	30.42
570.357	30.19
570.78	29.97
571.204	29.75
571.627	29.53
572.05	29.35
572.474	29.15
572.897	28.96
573.32	28.78
573.743	28.6
574.166	28.42
574.589	28.26
575.012	28.12
575.435	27.95
575.858	27.79
576.281	27.66
576.704	27.51
577.126	27.37
577.549	27.25
577.972	27.14
578.394	27
578.817	26.86
579.239	26.73
579.661	26.62
580.084	26.52
580.506	26.44
580.928	26.33
581.35	26.22
581.772	26.13
582.194	26.02
582.616	25.92
583.038	25.85
583.46	25.78
583.882	25.7
584.303	25.6
584.725	25.51
585.147	25.39
585.568	25.29
585.99	25.21
586.411	25.13
586.833	25.04
587.254	24.95
587.675	24.84
588.096	24.75
588.518	24.67
588.939	24.59
589.36	24.52
589.781	24.46
590.202	24.4
590.623	24.32
591.043	24.24
591.464	24.17
591.885	24.11
592.305	24.07
592.726	23.99
593.147	23.94
593.567	23.88
593.987	23.84
594.408	23.78
594.828	23.71
595.248	23.66
595.669	23.64
596.089	23.58
596.509	23.5
596.929	23.45
597.349	23.39
597.769	23.33
598.189	23.29
598.608	23.23
599.028	23.17
599.448	23.11
599.867	23.05
600.287	22.98
600.706	22.92
601.126	22.88
601.545	22.79
601.965	22.75
602.384	22.67
602.803	22.59
603.222	22.51
603.641	22.44
604.061	22.39
604.48	22.3
604.898	22.21
605.317	22.13
605.736	22.06
606.155	21.98
606.574	21.89
606.992	21.81
607.411	21.74
607.829	21.61
608.248	21.52
608.666	21.42
609.085	21.33
609.503	21.23
609.921	21.14
610.339	21.05
610.758	20.97
611.176	20.87
611.594	20.76
612.012	20.67
612.43	20.63
612.847	20.54
613.265	20.47
613.683	20.39
614.101	20.3
614.518	20.21
614.936	20.12
615.353	20.03
615.771	19.94
616.188	19.87
616.606	19.77
617.023	19.68
617.44	19.59
617.857	19.48
618.274	19.41
618.691	19.35
619.108	19.3
619.525	19.24
619.942	19.19
620.359	19.15
620.776	19.1
621.192	19.07
621.609	19.04
622.026	19.01
622.442	18.99
622.859	18.96
623.275	18.95
623.691	18.91
624.108	18.9
624.524	18.86
624.94	18.83
625.356	18.81
625.772	18.8
626.188	18.78
626.604	18.76
627.02	18.73
627.436	18.71
627.852	18.67
628.268	18.63
628.683	18.58
629.099	18.56
629.514	18.51
629.93	18.47
630.345	18.41
630.761	18.35
631.176	18.28
631.591	18.22
632.007	18.16
632.422	18.08
632.837	17.99
633.252	17.91
633.667	17.78
634.082	17.68
634.497	17.55
634.911	17.41
635.326	17.26
635.741	17.11
636.155	16.95
636.57	16.78
636.984	16.6
637.399	16.4
637.813	16.2
638.228	16.02
638.642	15.83
639.056	15.66
639.47	15.46
639.884	15.27
640.298	15.07
640.712	14.86
641.126	14.65
641.54	14.47
641.954	14.31
642.368	14.13
642.781	13.96
643.195	13.77
643.609	13.6
644.022	13.43
644.436	13.27
644.849	13.13
645.262	12.99
645.676	12.87
646.089	12.76
646.502	12.64
646.915	12.55
647.328	12.46
647.741	12.38
648.154	12.31
648.567	12.26
648.98	12.21
649.393	12.16
649.805	12.11
650.218	12.07
650.631	12.02
651.043	11.98
651.456	11.95
651.868	11.9
652.28	11.87
652.693	11.81
653.105	11.78
653.517	11.73
653.929	11.69
654.341	11.65
654.753	11.59
655.165	11.53
655.577	11.46
655.989	11.38
656.401	11.31
656.813	11.23
657.224	11.15
657.636	11.08
658.047	10.99
658.459	10.91
658.87	10.83
659.282	10.74
659.693	10.65
660.104	10.57
660.515	10.48
660.926	10.4
661.338	10.32
661.749	10.24
662.159	10.14
662.57	10.06
662.981	9.98
663.392	9.88
663.803	9.81
664.213	9.74
664.624	9.67
665.035	9.6
665.445	9.54
665.855	9.47
666.266	9.44
666.676	9.39
667.086	9.35
667.497	9.31
667.907	9.27
668.317	9.24
668.727	9.22
669.137	9.21
669.547	9.21
669.956	9.19
670.366	9.2
670.776	9.18
671.186	9.19
671.595	9.19
672.005	9.19
672.414	9.21
672.824	9.23
673.233	9.26
673.642	9.27
674.052	9.28
674.461	9.3
674.87	9.32
675.279	9.35
675.688	9.38
676.097	9.42
676.506	9.47
676.915	9.5
677.323	9.55
677.732	9.6
678.141	9.67
678.549	9.73
678.958	9.82
679.366	9.9
679.775	9.99
680.183	10.09
680.592	10.21
681	10.32
681.408	10.46
681.816	10.6
682.224	10.76
682.632	10.94
683.04	11.15
683.448	11.37
683.856	11.62
684.264	11.88
684.671	12.18
685.079	12.51
685.487	12.88
685.894	13.28
686.302	13.71
686.709	14.17
687.116	14.66
687.524	15.18
687.931	15.74
688.338	16.33
688.745	16.96
689.152	17.61
689.559	18.28
689.966	18.99
690.373	19.72
690.78	20.48
691.187	21.26
691.593	22.05
692	22.86
692.407	23.67
692.813	24.49
693.22	25.31
693.626	26.16
694.032	27.02
694.439	27.88
694.845	28.73
695.251	29.58
695.657	30.41
696.063	31.26
696.469	32.1
696.875	32.93
697.281	33.74
697.687	34.59
698.093	35.39
698.498	36.19
698.904	36.97
699.31	37.75
699.715	38.51
700.12	39.24
700.526	39.97
700.931	40.7
701.337	41.4
701.742	42.09
702.147	42.77
702.552	43.46
702.957	44.13
703.362	44.8
703.767	45.42
704.172	46.03
704.577	46.66
704.981	47.25
705.386	47.84
705.791	48.44
706.195	49
706.6	49.51
707.004	50.04
707.408	50.57
707.813	51.06
708.217	51.54
708.621	52.03
709.025	52.51
709.43	52.96
709.834	53.45
710.237	53.89
710.641	54.36
711.045	54.8
711.449	55.2
711.853	55.6
712.256	56.04
712.66	56.47
713.064	56.86
713.467	57.23
713.87	57.63
714.274	57.97
714.677	58.33
715.08	58.67
715.484	59.07
715.887	59.45
716.29	59.82
716.693	60.1
717.096	60.45
717.499	60.79
717.901	61.12
718.304	61.43
718.707	61.72
719.109	62.04
719.512	62.36
719.915	62.61
720.317	62.85
720.719	63.07
721.122	63.35
721.524	63.6
721.926	63.88
722.328	64.14
722.731	64.38
723.133	64.65
723.535	64.85
723.937	65.07
724.338	65.28
724.74	65.5
725.142	65.66
725.544	65.81
725.945	65.96
726.347	66.13
726.748	66.23
727.15	66.39
727.551	66.54
727.952	66.67
728.354	66.81
728.755	66.98
729.156	67.14
729.557	67.35
729.958	67.52
730.359	67.68
730.76	67.77
731.161	67.9
731.562	68.01
731.962	68.14
732.363	68.27
732.763	68.4
733.164	68.44
733.564	68.5
733.965	68.54
734.365	68.61
734.766	68.67
735.166	68.72
735.566	68.78
735.966	68.84
736.366	68.86
736.766	68.92
737.166	68.98
737.566	69.05
737.966	69.1
738.365	69.18
738.765	69.23
739.165	69.25
739.564	69.27
739.964	69.31
740.363	69.35
740.763	69.39
741.162	69.37
741.561	69.38
741.96	69.45
742.36	69.46
742.759	69.45
743.158	69.45
743.557	69.51
743.955	69.57
744.354	69.63
744.753	69.68
745.152	69.7
745.55	69.76
745.949	69.79
746.348	69.83
746.746	69.88
747.144	69.96
747.543	69.99
747.941	70.04
748.339	70.12
748.737	70.17
749.136	70.2
749.534	70.27
749.932	70.28
750.33	70.28
750.727	70.27
751.125	70.3
751.523	70.26
751.921	70.33
752.318	70.29
752.716	70.22
753.113	70.16
753.511	70.13
753.908	70.07
754.305	70.06
754.703	70.02
755.1	69.99
755.497	69.96
755.894	69.96
756.291	69.91
756.688	69.89
757.085	69.9
757.482	69.94
757.878	69.96
758.275	69.92
758.672	69.95
759.068	69.99
759.465	70
759.861	70.01
760.258	69.98
760.654	69.96
761.05	69.94
761.447	69.92
761.843	69.86
762.239	69.81
762.635	69.81
763.031	69.77
763.427	69.7
763.822	69.65
764.218	69.62
764.614	69.6
765.01	69.58
765.405	69.55
765.801	69.53
