Data from N_3_div_pa_2n_Splice17_05.txt Node
Date: Sat Feb 29 14:55:57 EST 2020
User: sa697716
Spectrometer: FLMS03696
Trigger mode: 0
Integration Time (sec): 3.180400E-1
Scans to average: 20
Electric dark correction enabled: true
Nonlinearity correction enabled: true
Boxcar width: 5
XAxis mode: Wavelengths
Number of Pixels in Spectrum: 2048
>>>>>Begin Spectral Data<<<<<
187.83	96.27
188.298	99.57
188.766	101.45
189.233	99.07
189.701	117.88
190.169	112.3
190.636	149.76
191.104	196.24
191.571	962.5
192.039	663.38
192.506	-1108.06
192.974	-5915.77
193.441	642.64
193.908	61.75
194.375	108.88
194.842	354.24
195.31	187.49
195.777	191.71
196.244	95.05
196.711	76.57
197.177	73.27
197.644	72.44
198.111	72.56
198.578	72.45
199.045	72.39
199.511	71.79
199.978	72
200.445	71.62
200.911	72.1
201.378	72.14
201.844	73.07
202.31	73.61
202.777	73.76
203.243	73.93
203.709	74.29
204.176	73.9
204.642	73.98
205.108	73.54
205.574	73.8
206.04	73.41
206.506	72.99
206.972	71.82
207.438	71.09
207.903	70.47
208.369	68.75
208.835	67.68
209.301	66.71
209.766	65.54
210.232	64.19
210.697	62.95
211.163	61.81
211.628	60.75
212.094	59.97
212.559	58.49
213.024	57.27
213.49	56.25
213.955	55
214.42	53.59
214.885	51.8
215.35	49.86
215.815	46.9
216.28	43.92
216.745	40.46
217.21	36.73
217.675	33.53
218.14	30.41
218.604	27.66
219.069	25.42
219.534	23.55
219.998	21.94
220.463	20.59
220.927	19.48
221.392	18.52
221.856	17.73
222.32	17.07
222.785	16.46
223.249	15.99
223.713	15.61
224.177	15.13
224.642	14.73
225.106	14.35
225.57	13.99
226.034	13.67
226.497	13.34
226.961	13
227.425	12.7
227.889	12.46
228.353	12.16
228.816	11.87
229.28	11.61
229.744	11.38
230.207	11.17
230.671	10.95
231.134	10.75
231.597	10.57
232.061	10.41
232.524	10.25
232.987	10.08
233.45	9.94
233.914	9.8
234.377	9.7
234.84	9.56
235.303	9.44
235.766	9.33
236.229	9.24
236.691	9.12
237.154	9.04
237.617	8.94
238.08	8.84
238.542	8.76
239.005	8.68
239.468	8.57
239.93	8.49
240.393	8.4
240.855	8.32
241.317	8.23
241.78	8.16
242.242	8.05
242.704	7.96
243.166	7.89
243.629	7.78
244.091	7.7
244.553	7.64
245.015	7.57
245.477	7.5
245.939	7.43
246.4	7.35
246.862	7.29
247.324	7.25
247.786	7.18
248.247	7.12
248.709	7.09
249.17	7.02
249.632	6.95
250.093	6.88
250.555	6.82
251.016	6.77
251.477	6.72
251.939	6.66
252.4	6.61
252.861	6.57
253.322	6.52
253.783	6.48
254.244	6.44
254.705	6.4
255.166	6.38
255.627	6.34
256.088	6.28
256.549	6.25
257.009	6.2
257.47	6.16
257.931	6.11
258.391	6.05
258.852	5.99
259.312	5.94
259.773	5.89
260.233	5.83
260.694	5.79
261.154	5.75
261.614	5.71
262.074	5.67
262.534	5.61
262.994	5.58
263.455	5.54
263.915	5.5
264.374	5.46
264.834	5.43
265.294	5.39
265.754	5.34
266.214	5.3
266.673	5.27
267.133	5.23
267.593	5.21
268.052	5.17
268.512	5.15
268.971	5.13
269.431	5.11
269.89	5.08
270.349	5.07
270.809	5.05
271.268	5.03
271.727	5.01
272.186	4.99
272.645	4.97
273.104	4.96
273.563	4.94
274.022	4.92
274.481	4.9
274.94	4.88
275.399	4.86
275.857	4.84
276.316	4.83
276.775	4.8
277.233	4.79
277.692	4.78
278.15	4.76
278.609	4.74
279.067	4.73
279.525	4.72
279.984	4.71
280.442	4.7
280.9	4.69
281.358	4.68
281.816	4.68
282.274	4.67
282.732	4.66
283.19	4.67
283.648	4.66
284.106	4.65
284.564	4.65
285.021	4.66
285.479	4.65
285.937	4.65
286.394	4.64
286.852	4.64
287.309	4.64
287.767	4.63
288.224	4.62
288.682	4.61
289.139	4.59
289.596	4.57
290.053	4.54
290.511	4.52
290.968	4.5
291.425	4.48
291.882	4.46
292.339	4.43
292.796	4.39
293.252	4.37
293.709	4.34
294.166	4.33
294.623	4.31
295.079	4.3
295.536	4.29
295.992	4.27
296.449	4.26
296.905	4.24
297.362	4.23
297.818	4.22
298.274	4.21
298.731	4.2
299.187	4.19
299.643	4.19
300.099	4.17
300.555	4.16
301.011	4.15
301.467	4.13
301.923	4.12
302.379	4.11
302.835	4.11
303.291	4.11
303.746	4.1
304.202	4.08
304.658	4.07
305.113	4.06
305.569	4.06
306.024	4.06
306.479	4.06
306.935	4.06
307.39	4.06
307.845	4.05
308.301	4.05
308.756	4.06
309.211	4.07
309.666	4.08
310.121	4.08
310.576	4.08
311.031	4.08
311.486	4.09
311.94	4.09
312.395	4.1
312.85	4.1
313.305	4.1
313.759	4.1
314.214	4.1
314.668	4.09
315.123	4.1
315.577	4.1
316.032	4.1
316.486	4.09
316.94	4.09
317.394	4.08
317.849	4.07
318.303	4.06
318.757	4.04
319.211	4.02
319.665	4.01
320.119	4
320.572	3.99
321.026	3.97
321.48	3.96
321.934	3.95
322.387	3.95
322.841	3.94
323.295	3.93
323.748	3.93
324.202	3.94
324.655	3.92
325.108	3.91
325.562	3.89
326.015	3.89
326.468	3.88
326.921	3.87
327.374	3.86
327.827	3.86
328.28	3.85
328.733	3.83
329.186	3.83
329.639	3.83
330.092	3.83
330.545	3.84
330.997	3.84
331.45	3.85
331.903	3.85
332.355	3.86
332.808	3.86
333.26	3.87
333.713	3.88
334.165	3.89
334.617	3.89
335.069	3.9
335.522	3.9
335.974	3.9
336.426	3.9
336.878	3.91
337.33	3.91
337.782	3.92
338.234	3.92
338.686	3.92
339.137	3.92
339.589	3.91
340.041	3.89
340.493	3.88
340.944	3.87
341.396	3.87
341.847	3.85
342.299	3.83
342.75	3.8
343.201	3.78
343.653	3.78
344.104	3.76
344.555	3.74
345.006	3.73
345.457	3.71
345.908	3.7
346.359	3.69
346.81	3.69
347.261	3.68
347.712	3.68
348.163	3.69
348.613	3.68
349.064	3.67
349.515	3.66
349.965	3.65
350.416	3.65
350.866	3.66
351.317	3.65
351.767	3.65
352.217	3.64
352.668	3.65
353.118	3.64
353.568	3.64
354.018	3.66
354.468	3.67
354.918	3.67
355.368	3.68
355.818	3.67
356.268	3.68
356.718	3.69
357.168	3.7
357.617	3.7
358.067	3.7
358.517	3.7
358.966	3.7
359.416	3.72
359.865	3.73
360.315	3.74
360.764	3.75
361.213	3.76
361.663	3.77
362.112	3.78
362.561	3.79
363.01	3.81
363.459	3.82
363.908	3.82
364.357	3.83
364.806	3.83
365.255	3.85
365.703	3.85
366.152	3.87
366.601	3.89
367.05	3.9
367.498	3.92
367.947	3.94
368.395	3.97
368.844	3.98
369.292	3.99
369.74	4.02
370.189	4.04
370.637	4.06
371.085	4.08
371.533	4.1
371.981	4.12
372.429	4.13
372.877	4.16
373.325	4.17
373.773	4.2
374.221	4.23
374.669	4.26
375.116	4.29
375.564	4.3
376.012	4.33
376.459	4.37
376.907	4.41
377.354	4.44
377.801	4.47
378.249	4.51
378.696	4.57
379.143	4.61
379.591	4.64
380.038	4.69
380.485	4.75
380.932	4.8
381.379	4.83
381.826	4.88
382.273	4.92
382.72	4.98
383.166	5.03
383.613	5.07
384.06	5.13
384.506	5.17
384.953	5.21
385.4	5.25
385.846	5.3
386.292	5.37
386.739	5.42
387.185	5.5
387.631	5.56
388.078	5.62
388.524	5.66
388.97	5.72
389.416	5.78
389.862	5.84
390.308	5.9
390.754	5.97
391.2	6.04
391.645	6.11
392.091	6.16
392.537	6.23
392.983	6.31
393.428	6.39
393.874	6.48
394.319	6.56
394.765	6.63
395.21	6.69
395.655	6.75
396.101	6.81
396.546	6.87
396.991	6.93
397.436	6.96
397.881	7.03
398.326	7.11
398.771	7.17
399.216	7.25
399.661	7.34
400.106	7.41
400.551	7.46
400.995	7.51
401.44	7.54
401.885	7.59
402.329	7.64
402.774	7.67
403.218	7.68
403.663	7.71
404.107	7.73
404.551	7.77
404.995	7.79
405.44	7.82
405.884	7.86
406.328	7.9
406.772	7.93
407.216	7.97
407.66	8
408.104	8.04
408.547	8.06
408.991	8.08
409.435	8.09
409.879	8.11
410.322	8.12
410.766	8.14
411.209	8.16
411.653	8.17
412.096	8.17
412.54	8.19
412.983	8.21
413.426	8.24
413.869	8.27
414.312	8.29
414.756	8.32
415.199	8.35
415.642	8.4
416.085	8.44
416.527	8.49
416.97	8.53
417.413	8.54
417.856	8.53
418.298	8.51
418.741	8.5
419.184	8.5
419.626	8.5
420.069	8.51
420.511	8.5
420.953	8.49
421.396	8.46
421.838	8.46
422.28	8.48
422.722	8.52
423.164	8.53
423.606	8.55
424.048	8.56
424.49	8.57
424.932	8.57
425.374	8.57
425.816	8.56
426.258	8.52
426.699	8.46
427.141	8.39
427.582	8.35
428.024	8.33
428.465	8.34
428.907	8.34
429.348	8.32
429.789	8.3
430.231	8.26
430.672	8.25
431.113	8.29
431.554	8.33
431.995	8.38
432.436	8.38
432.877	8.36
433.318	8.35
433.759	8.35
434.2	8.36
434.64	8.37
435.081	8.37
435.522	8.42
435.962	8.44
436.403	8.49
436.843	8.51
437.284	8.56
437.724	8.62
438.164	8.67
438.604	8.71
439.045	8.76
439.485	8.81
439.925	8.85
440.365	8.87
440.805	8.89
441.245	8.89
441.685	8.95
442.125	9.02
442.564	9.1
443.004	9.16
443.444	9.22
443.883	9.29
444.323	9.35
444.762	9.46
445.202	9.57
445.641	9.67
446.081	9.79
446.52	9.86
446.959	9.96
447.398	10.05
447.837	10.16
448.276	10.25
448.716	10.33
449.154	10.41
449.593	10.49
450.032	10.56
450.471	10.63
450.91	10.68
451.349	10.73
451.787	10.74
452.226	10.76
452.664	10.76
453.103	10.77
453.541	10.77
453.98	10.78
454.418	10.77
454.856	10.76
455.295	10.75
455.733	10.73
456.171	10.73
456.609	10.71
457.047	10.68
457.485	10.68
457.923	10.68
458.361	10.67
458.798	10.68
459.236	10.69
459.674	10.68
460.111	10.68
460.549	10.69
460.987	10.7
461.424	10.71
461.862	10.73
462.299	10.72
462.736	10.73
463.173	10.74
463.611	10.72
464.048	10.72
464.485	10.73
464.922	10.73
465.359	10.74
465.796	10.72
466.233	10.73
466.67	10.75
467.106	10.75
467.543	10.78
467.98	10.8
468.416	10.85
468.853	10.86
469.29	10.91
469.726	10.95
470.162	10.97
470.599	11.02
471.035	11.07
471.471	11.07
471.907	11.11
472.344	11.13
472.78	11.17
473.216	11.2
473.652	11.22
474.088	11.24
474.523	11.27
474.959	11.28
475.395	11.29
475.831	11.3
476.266	11.34
476.702	11.35
477.138	11.37
477.573	11.37
478.008	11.37
478.444	11.37
478.879	11.37
479.314	11.37
479.75	11.38
480.185	11.39
480.62	11.4
481.055	11.4
481.49	11.4
481.925	11.39
482.36	11.4
482.795	11.4
483.229	11.4
483.664	11.4
484.099	11.41
484.534	11.42
484.968	11.44
485.403	11.44
485.837	11.45
486.271	11.47
486.706	11.49
487.14	11.52
487.574	11.56
488.009	11.61
488.443	11.67
488.877	11.73
489.311	11.78
489.745	11.85
490.179	11.92
490.613	12.01
491.046	12.1
491.48	12.21
491.914	12.31
492.348	12.43
492.781	12.52
493.215	12.64
493.648	12.76
494.082	12.91
494.515	13.04
494.948	13.19
495.382	13.34
495.815	13.48
496.248	13.65
496.681	13.81
497.114	13.97
497.547	14.16
497.98	14.36
498.413	14.56
498.846	14.75
499.279	14.97
499.711	15.18
500.144	15.39
500.577	15.63
501.009	15.87
501.442	16.12
501.874	16.37
502.306	16.65
502.739	16.89
503.171	17.18
503.603	17.48
504.036	17.78
504.468	18.1
504.9	18.44
505.332	18.77
505.764	19.09
506.196	19.44
506.627	19.8
507.059	20.14
507.491	20.52
507.923	20.89
508.354	21.26
508.786	21.64
509.217	22.02
509.649	22.41
510.08	22.81
510.512	23.19
510.943	23.61
511.374	24.02
511.805	24.42
512.237	24.84
512.668	25.26
513.099	25.69
513.53	26.12
513.961	26.54
514.391	26.94
514.822	27.36
515.253	27.8
515.684	28.19
516.114	28.62
516.545	29.03
516.975	29.46
517.406	29.86
517.836	30.24
518.267	30.64
518.697	31.04
519.127	31.44
519.558	31.81
519.988	32.19
520.418	32.57
520.848	32.93
521.278	33.3
521.708	33.5
522.138	33.79
522.567	34.13
522.997	34.44
523.427	34.74
523.857	35.02
524.286	35.34
524.716	35.62
525.145	35.9
525.575	36.14
526.004	36.39
526.433	36.76
526.863	37.05
527.292	37.26
527.721	37.47
528.15	37.68
528.579	37.89
529.008	38.05
529.437	38.22
529.866	38.37
530.295	38.56
530.724	38.74
531.152	38.88
531.581	39
532.01	39.15
532.438	39.29
532.867	39.42
533.295	39.55
533.723	39.67
534.152	39.79
534.58	39.9
535.008	39.97
535.436	40.05
535.865	40.11
536.293	40.2
536.721	40.27
537.149	40.32
537.576	40.35
538.004	40.38
538.432	40.42
538.86	40.47
539.287	40.49
539.715	40.54
540.143	40.54
540.57	40.59
540.998	40.64
541.425	40.67
541.852	40.73
542.28	40.78
542.707	40.85
543.134	40.9
543.561	40.92
543.988	40.96
544.415	41.02
544.842	41.09
545.269	41.14
545.696	41.18
546.123	41.23
546.549	41.27
546.976	41.31
547.403	41.31
547.829	41.38
548.256	41.43
548.682	41.46
549.108	41.48
549.535	41.5
549.961	41.52
550.387	41.54
550.813	41.54
551.24	41.55
551.666	41.57
552.092	41.59
552.518	41.58
552.943	41.58
553.369	41.62
553.795	41.62
554.221	41.63
554.646	41.63
555.072	41.63
555.498	41.6
555.923	41.59
556.349	41.54
556.774	41.51
557.199	41.48
557.625	41.43
558.05	41.37
558.475	41.31
558.9	41.26
559.325	41.19
559.75	41.11
560.175	41.04
560.6	40.95
561.025	40.9
561.449	40.83
561.874	40.73
562.299	40.66
562.723	40.55
563.148	40.47
563.572	40.39
563.997	40.26
564.421	40.15
564.846	40.04
565.27	39.93
565.694	39.77
566.118	39.62
566.542	39.51
566.966	39.34
567.39	39.17
567.814	38.99
568.238	38.77
568.662	38.62
569.086	38.44
569.509	38.27
569.933	38.07
570.357	37.89
570.78	37.68
571.204	37.46
571.627	37.26
572.05	37.12
572.474	36.93
572.897	36.78
573.32	36.59
573.743	36.45
574.166	36.27
574.589	36.13
575.012	36.01
575.435	35.87
575.858	35.76
576.281	35.64
576.704	35.51
577.126	35.38
577.549	35.27
577.972	35.18
578.394	35.06
578.817	34.97
579.239	34.87
579.661	34.74
580.084	34.67
580.506	34.56
580.928	34.49
581.35	34.4
581.772	34.35
582.194	34.27
582.616	34.17
583.038	34.11
583.46	34.04
583.882	33.98
584.303	33.92
584.725	33.86
585.147	33.78
585.568	33.68
585.99	33.63
586.411	33.55
586.833	33.48
587.254	33.41
587.675	33.35
588.096	33.3
588.518	33.22
588.939	33.18
589.36	33.12
589.781	33.1
590.202	33.06
590.623	33.02
591.043	32.99
591.464	32.94
591.885	32.91
592.305	32.88
592.726	32.85
593.147	32.86
593.567	32.82
593.987	32.8
594.408	32.77
594.828	32.76
595.248	32.73
595.669	32.7
596.089	32.67
596.509	32.65
596.929	32.61
597.349	32.57
597.769	32.53
598.189	32.5
598.608	32.45
599.028	32.39
599.448	32.34
599.867	32.27
600.287	32.21
600.706	32.15
601.126	32.08
601.545	31.99
601.965	31.89
602.384	31.8
602.803	31.7
603.222	31.6
603.641	31.51
604.061	31.41
604.48	31.29
604.898	31.18
605.317	31.06
605.736	30.94
606.155	30.82
606.574	30.71
606.992	30.58
607.411	30.47
607.829	30.3
608.248	30.17
608.666	30.04
609.085	29.92
609.503	29.79
609.921	29.67
610.339	29.55
610.758	29.43
611.176	29.31
611.594	29.19
612.012	29.05
612.43	28.97
612.847	28.85
613.265	28.73
613.683	28.61
614.101	28.49
614.518	28.36
614.936	28.25
615.353	28.13
615.771	28.03
616.188	27.94
616.606	27.84
617.023	27.74
617.44	27.65
617.857	27.56
618.274	27.48
618.691	27.41
619.108	27.36
619.525	27.28
619.942	27.21
620.359	27.15
620.776	27.09
621.192	27.04
621.609	26.98
622.026	26.94
622.442	26.91
622.859	26.87
623.275	26.87
623.691	26.82
624.108	26.8
624.524	26.79
624.94	26.76
625.356	26.73
625.772	26.73
626.188	26.73
626.604	26.69
627.02	26.68
627.436	26.65
627.852	26.6
628.268	26.57
628.683	26.55
629.099	26.54
629.514	26.52
629.93	26.5
630.345	26.45
630.761	26.42
631.176	26.4
631.591	26.35
632.007	26.32
632.422	26.28
632.837	26.23
633.252	26.18
633.667	26.09
634.082	26.01
634.497	25.92
634.911	25.83
635.326	25.72
635.741	25.6
636.155	25.49
636.57	25.38
636.984	25.25
637.399	25.1
637.813	24.95
638.228	24.83
638.642	24.68
639.056	24.52
639.47	24.36
639.884	24.21
640.298	24.05
640.712	23.88
641.126	23.7
641.54	23.51
641.954	23.35
642.368	23.16
642.781	22.96
643.195	22.76
643.609	22.59
644.022	22.38
644.436	22.19
644.849	22.01
645.262	21.83
645.676	21.65
646.089	21.5
646.502	21.3
646.915	21.15
647.328	20.99
647.741	20.84
648.154	20.72
648.567	20.61
648.98	20.46
649.393	20.33
649.805	20.21
650.218	20.08
650.631	19.94
651.043	19.85
651.456	19.73
651.868	19.6
652.28	19.48
652.693	19.32
653.105	19.15
653.517	19.01
653.929	18.87
654.341	18.71
654.753	18.53
655.165	18.36
655.577	18.17
655.989	17.94
656.401	17.71
656.813	17.49
657.224	17.26
657.636	17.04
658.047	16.79
658.459	16.52
658.87	16.25
659.282	16.01
659.693	15.74
660.104	15.47
660.515	15.21
660.926	14.98
661.338	14.72
661.749	14.47
662.159	14.23
662.57	13.98
662.981	13.74
663.392	13.51
663.803	13.28
664.213	13.09
664.624	12.89
665.035	12.69
665.445	12.5
665.855	12.32
666.266	12.17
666.676	11.99
667.086	11.85
667.497	11.72
667.907	11.58
668.317	11.45
668.727	11.32
669.137	11.21
669.547	11.14
669.956	11.05
670.366	10.97
670.776	10.88
671.186	10.81
671.595	10.75
672.005	10.7
672.414	10.65
672.824	10.62
673.233	10.6
673.642	10.57
674.052	10.54
674.461	10.54
674.87	10.53
675.279	10.55
675.688	10.57
676.097	10.6
676.506	10.62
676.915	10.66
677.323	10.74
677.732	10.8
678.141	10.9
678.549	11.01
678.958	11.13
679.366	11.26
679.775	11.42
680.183	11.62
680.592	11.84
681	12.1
681.408	12.37
681.816	12.64
682.224	13
682.632	13.37
683.04	13.78
683.448	14.22
683.856	14.73
684.264	15.27
684.671	15.84
685.079	16.44
685.487	17.07
685.894	17.76
686.302	18.48
686.709	19.2
687.116	19.96
687.524	20.74
687.931	21.54
688.338	22.34
688.745	23.16
689.152	24.01
689.559	24.85
689.966	25.7
690.373	26.57
690.78	27.41
691.187	28.26
691.593	29.08
692	29.92
692.407	30.74
692.813	31.56
693.22	32.34
693.626	33.1
694.032	33.87
694.439	34.62
694.845	35.31
695.251	36.01
695.657	36.66
696.063	37.32
696.469	37.95
696.875	38.54
697.281	39.09
697.687	39.69
698.093	40.25
698.498	40.8
698.904	41.34
699.31	41.85
699.715	42.37
700.12	42.85
700.526	43.31
700.931	43.73
701.337	44.18
701.742	44.64
702.147	45.02
702.552	45.42
702.957	45.79
703.362	46.17
703.767	46.53
704.172	46.87
704.577	47.24
704.981	47.58
705.386	47.89
705.791	48.21
706.195	48.49
706.6	48.76
707.004	49.05
707.408	49.35
707.813	49.58
708.217	49.8
708.621	50.04
709.025	50.25
709.43	50.46
709.834	50.73
710.237	50.93
710.641	51.17
711.045	51.37
711.449	51.55
711.853	51.75
712.256	51.94
712.66	52.15
713.064	52.31
713.467	52.5
713.87	52.68
714.274	52.85
714.677	53.04
715.08	53.18
715.484	53.37
715.887	53.54
716.29	53.69
716.693	53.83
717.096	53.95
717.499	54.08
717.901	54.22
718.304	54.35
718.707	54.47
719.109	54.6
719.512	54.77
719.915	54.89
720.317	55.03
720.719	55.15
721.122	55.27
721.524	55.42
721.926	55.56
722.328	55.7
722.731	55.82
723.133	55.92
723.535	56.01
723.937	56.09
724.338	56.15
724.74	56.21
725.142	56.16
725.544	56.22
725.945	56.28
726.347	56.34
726.748	56.35
727.15	56.4
727.551	56.46
727.952	56.51
728.354	56.54
728.755	56.61
729.156	56.68
729.557	56.84
729.958	56.91
730.359	56.97
730.76	57.02
731.161	57.09
731.562	57.17
731.962	57.22
732.363	57.23
732.763	57.3
733.164	57.37
733.564	57.43
733.965	57.43
734.365	57.45
734.766	57.46
735.166	57.46
735.566	57.44
735.966	57.43
736.366	57.41
736.766	57.45
737.166	57.44
737.566	57.41
737.966	57.4
738.365	57.45
738.765	57.5
739.165	57.5
739.564	57.52
739.964	57.57
740.363	57.6
740.763	57.64
741.162	57.64
741.561	57.68
741.96	57.74
742.36	57.78
742.759	57.77
743.158	57.75
743.557	57.79
743.955	57.86
744.354	57.86
744.753	57.89
745.152	57.92
745.55	57.96
745.949	57.93
746.348	57.95
746.746	57.95
747.144	58.02
747.543	58.06
747.941	58.1
748.339	58.11
748.737	58.18
749.136	58.18
749.534	58.22
749.932	58.24
750.33	58.27
750.727	58.25
751.125	58.25
751.523	58.2
751.921	58.2
752.318	58.18
752.716	58.13
753.113	58.1
753.511	58.05
753.908	58.04
754.305	58
754.703	58
755.1	57.99
755.497	57.97
755.894	57.98
756.291	57.96
756.688	57.96
757.085	57.95
757.482	57.93
757.878	57.96
758.275	57.89
758.672	57.88
759.068	57.86
759.465	57.86
759.861	57.86
760.258	57.8
760.654	57.78
761.05	57.76
761.447	57.76
761.843	57.72
762.239	57.68
762.635	57.73
763.031	57.75
763.427	57.69
763.822	57.63
764.218	57.6
764.614	57.59
765.01	57.6
765.405	57.58
765.801	57.57
766.196	57.58
766.592	57.58
766.987	57.58
767.382	57.55
767.778	57.58
768.173	57.59
768.568	57.57
768.963	57.57
769.358	57.56
769.753	57.57
770.148	57.57
770.542	57.57
770.937	57.56
771.332	57.55
771.726	57.58
772.121	57.56
772.515	57.59
772.91	57.62
773.304	57.61
773.699	57.64
774.093	57.59
774.487	57.63
774.881	57.64
775.275	57.64
