Data from N_3_ofc_ct_2n_Splice17_02.txt Node
Date: Sat Feb 29 14:47:09 EST 2020
User: sa697716
Spectrometer: FLMS03696
Trigger mode: 0
Integration Time (sec): 3.180400E-1
Scans to average: 20
Electric dark correction enabled: true
Nonlinearity correction enabled: true
Boxcar width: 5
XAxis mode: Wavelengths
Number of Pixels in Spectrum: 2048
>>>>>Begin Spectral Data<<<<<
187.83	79.82
188.298	73.82
188.766	80.27
189.233	81.41
189.701	90.84
190.169	83.98
190.636	91.11
191.104	118.24
191.571	377.54
192.039	170.27
192.506	-207.68
192.974	-2916.02
193.441	570.41
193.908	33.67
194.375	122.49
194.842	195.49
195.31	27.06
195.777	9.58
196.244	11.62
196.711	17.24
197.177	15.19
197.644	17.02
198.111	17.28
198.578	16.5
199.045	16.81
199.511	16.71
199.978	16.96
200.445	17.52
200.911	17.64
201.378	18.02
201.844	18.03
202.31	18.52
202.777	18.46
203.243	18.88
203.709	19.32
204.176	18.75
204.642	18.92
205.108	19.01
205.574	19.21
206.04	19.03
206.506	19.12
206.972	19.22
207.438	18.96
207.903	19.09
208.369	18.79
208.835	18.55
209.301	18.78
209.766	18.56
210.232	18.26
210.697	18.2
211.163	18.09
211.628	17.59
212.094	16.92
212.559	16.7
213.024	16.12
213.49	15.67
213.955	15.53
214.42	14.8
214.885	14.02
215.35	13.7
215.815	12.88
216.28	12.33
216.745	11.68
217.21	11.06
217.675	10.34
218.14	9.59
218.604	8.93
219.069	8.36
219.534	7.97
219.998	7.56
220.463	7.16
220.927	6.87
221.392	6.54
221.856	6.28
222.32	6.04
222.785	5.85
223.249	5.72
223.713	5.58
224.177	5.42
224.642	5.34
225.106	5.27
225.57	5.15
226.034	5.08
226.497	4.98
226.961	4.87
227.425	4.76
227.889	4.67
228.353	4.55
228.816	4.51
229.28	4.43
229.744	4.35
230.207	4.27
230.671	4.21
231.134	4.11
231.597	4.06
232.061	4.01
232.524	3.98
232.987	3.93
233.45	3.88
233.914	3.82
234.377	3.79
234.84	3.72
235.303	3.67
235.766	3.64
236.229	3.61
236.691	3.57
237.154	3.53
237.617	3.49
238.08	3.45
238.542	3.43
239.005	3.39
239.468	3.34
239.93	3.33
240.393	3.31
240.855	3.27
241.317	3.25
241.78	3.22
242.242	3.18
242.704	3.16
243.166	3.14
243.629	3.09
244.091	3.06
244.553	3.05
245.015	3.02
245.477	2.98
245.939	2.96
246.4	2.92
246.862	2.91
247.324	2.89
247.786	2.87
248.247	2.84
248.709	2.82
249.17	2.8
249.632	2.76
250.093	2.72
250.555	2.71
251.016	2.69
251.477	2.67
251.939	2.65
252.4	2.64
252.861	2.63
253.322	2.6
253.783	2.6
254.244	2.58
254.705	2.57
255.166	2.57
255.627	2.55
256.088	2.53
256.549	2.52
257.009	2.51
257.47	2.49
257.931	2.46
258.391	2.45
258.852	2.43
259.312	2.42
259.773	2.41
260.233	2.39
260.694	2.37
261.154	2.36
261.614	2.35
262.074	2.33
262.534	2.31
262.994	2.3
263.455	2.29
263.915	2.27
264.374	2.25
264.834	2.24
265.294	2.23
265.754	2.21
266.214	2.21
266.673	2.2
267.133	2.18
267.593	2.18
268.052	2.16
268.512	2.15
268.971	2.14
269.431	2.14
269.89	2.13
270.349	2.12
270.809	2.12
271.268	2.1
271.727	2.1
272.186	2.1
272.645	2.09
273.104	2.08
273.563	2.08
274.022	2.08
274.481	2.07
274.94	2.07
275.399	2.07
275.857	2.06
276.316	2.06
276.775	2.05
277.233	2.04
277.692	2.04
278.15	2.03
278.609	2.02
279.067	2.01
279.525	2
279.984	1.98
280.442	1.98
280.9	1.97
281.358	1.96
281.816	1.96
282.274	1.96
282.732	1.95
283.19	1.96
283.648	1.95
284.106	1.95
284.564	1.96
285.021	1.96
285.479	1.96
285.937	1.95
286.394	1.94
286.852	1.94
287.309	1.93
287.767	1.92
288.224	1.91
288.682	1.9
289.139	1.9
289.596	1.89
290.053	1.88
290.511	1.87
290.968	1.87
291.425	1.87
291.882	1.86
292.339	1.86
292.796	1.85
293.252	1.84
293.709	1.83
294.166	1.83
294.623	1.82
295.079	1.82
295.536	1.81
295.992	1.81
296.449	1.8
296.905	1.79
297.362	1.78
297.818	1.78
298.274	1.78
298.731	1.78
299.187	1.77
299.643	1.77
300.099	1.77
300.555	1.76
301.011	1.75
301.467	1.75
301.923	1.75
302.379	1.74
302.835	1.74
303.291	1.74
303.746	1.74
304.202	1.73
304.658	1.72
305.113	1.72
305.569	1.72
306.024	1.72
306.479	1.72
306.935	1.72
307.39	1.72
307.845	1.72
308.301	1.72
308.756	1.73
309.211	1.73
309.666	1.73
310.121	1.72
310.576	1.72
311.031	1.72
311.486	1.72
311.94	1.72
312.395	1.73
312.85	1.73
313.305	1.73
313.759	1.72
314.214	1.72
314.668	1.73
315.123	1.73
315.577	1.73
316.032	1.73
316.486	1.73
316.94	1.72
317.394	1.71
317.849	1.71
318.303	1.7
318.757	1.69
319.211	1.68
319.665	1.67
320.119	1.66
320.572	1.66
321.026	1.66
321.48	1.66
321.934	1.66
322.387	1.66
322.841	1.65
323.295	1.65
323.748	1.65
324.202	1.66
324.655	1.67
325.108	1.66
325.562	1.66
326.015	1.66
326.468	1.65
326.921	1.64
327.374	1.64
327.827	1.64
328.28	1.64
328.733	1.64
329.186	1.63
329.639	1.62
330.092	1.62
330.545	1.62
330.997	1.63
331.45	1.63
331.903	1.63
332.355	1.63
332.808	1.64
333.26	1.64
333.713	1.63
334.165	1.64
334.617	1.65
335.069	1.65
335.522	1.64
335.974	1.64
336.426	1.64
336.878	1.64
337.33	1.63
337.782	1.62
338.234	1.63
338.686	1.63
339.137	1.63
339.589	1.62
340.041	1.62
340.493	1.62
340.944	1.61
341.396	1.62
341.847	1.61
342.299	1.61
342.75	1.59
343.201	1.59
343.653	1.58
344.104	1.58
344.555	1.58
345.006	1.57
345.457	1.57
345.908	1.58
346.359	1.57
346.81	1.57
347.261	1.57
347.712	1.59
348.163	1.59
348.613	1.59
349.064	1.57
349.515	1.56
349.965	1.56
350.416	1.55
350.866	1.55
351.317	1.55
351.767	1.55
352.217	1.55
352.668	1.54
353.118	1.53
353.568	1.53
354.018	1.54
354.468	1.55
354.918	1.56
355.368	1.57
355.818	1.57
356.268	1.56
356.718	1.56
357.168	1.56
357.617	1.56
358.067	1.56
358.517	1.56
358.966	1.57
359.416	1.58
359.865	1.58
360.315	1.57
360.764	1.57
361.213	1.56
361.663	1.57
362.112	1.58
362.561	1.58
363.01	1.59
363.459	1.59
363.908	1.58
364.357	1.57
364.806	1.58
365.255	1.58
365.703	1.58
366.152	1.59
366.601	1.6
367.05	1.6
367.498	1.59
367.947	1.59
368.395	1.6
368.844	1.61
369.292	1.6
369.74	1.59
370.189	1.59
370.637	1.59
371.085	1.6
371.533	1.58
371.981	1.58
372.429	1.58
372.877	1.58
373.325	1.58
373.773	1.57
374.221	1.58
374.669	1.58
375.116	1.58
375.564	1.58
376.012	1.58
376.459	1.59
376.907	1.59
377.354	1.61
377.801	1.62
378.249	1.62
378.696	1.64
379.143	1.65
379.591	1.67
380.038	1.68
380.485	1.7
380.932	1.71
381.379	1.72
381.826	1.74
382.273	1.74
382.72	1.75
383.166	1.76
383.613	1.78
384.06	1.8
384.506	1.82
384.953	1.85
385.4	1.89
385.846	1.93
386.292	1.99
386.739	2.06
387.185	2.16
387.631	2.24
388.078	2.32
388.524	2.37
388.97	2.46
389.416	2.56
389.862	2.7
390.308	2.87
390.754	3.07
391.2	3.28
391.645	3.47
392.091	3.62
392.537	3.81
392.983	4.08
393.428	4.47
393.874	4.93
394.319	5.43
394.765	5.94
395.21	6.48
395.655	7.05
396.101	7.66
396.546	8.35
396.991	9.13
397.436	9.93
397.881	10.74
398.326	11.52
398.771	12.26
399.216	12.98
399.661	13.66
400.106	14.27
400.551	14.81
400.995	15.28
401.44	15.71
401.885	16.11
402.329	16.54
402.774	16.96
403.218	17.45
403.663	17.96
404.107	18.52
404.551	19.1
404.995	19.63
405.44	20.14
405.884	20.68
406.328	21.3
406.772	22.03
407.216	22.78
407.66	23.46
408.104	24.06
408.547	24.59
408.991	25.05
409.435	25.52
409.879	26.11
410.322	26.81
410.766	27.54
411.209	28.21
411.653	28.77
412.096	29.29
412.54	29.78
412.983	30.26
413.426	30.82
413.869	31.42
414.312	32.03
414.756	32.56
415.199	32.98
415.642	33.37
416.085	33.69
416.527	34
416.97	34.2
417.413	34.23
417.856	34.19
418.298	34.12
418.741	34.09
419.184	34.09
419.626	34.19
420.069	34.36
420.511	34.52
420.953	34.68
421.396	34.89
421.838	35.21
422.28	35.72
422.722	36.27
423.164	36.78
423.606	37.21
424.048	37.51
424.49	37.62
424.932	37.4
425.374	36.87
425.816	36.1
426.258	35.26
426.699	34.65
427.141	34.49
427.582	34.75
428.024	35.23
428.465	35.79
428.907	36.35
429.348	36.88
429.789	37.58
430.231	38.73
430.672	40.37
431.113	42.24
431.554	44.1
431.995	45.52
432.436	46.55
432.877	47.28
433.318	47.82
433.759	48.42
434.2	49.22
434.64	50.25
435.081	51.24
435.522	52.08
435.962	52.77
436.403	53.3
436.843	53.75
437.284	54.25
437.724	54.83
438.164	55.6
438.604	56.43
439.045	57.31
439.485	58.09
439.925	58.74
440.365	59.25
440.805	59.59
441.245	59.84
441.685	60.15
442.125	60.51
442.564	61
443.004	61.51
443.444	62.1
443.883	62.68
444.323	63.35
444.762	63.96
445.202	64.73
445.641	65.64
446.081	66.75
446.52	67.81
446.959	68.85
447.398	69.59
447.837	70.08
448.276	70.25
448.716	70.39
449.154	70.49
449.593	70.63
450.032	70.64
450.471	70.52
450.91	70.18
451.349	69.89
451.787	69.64
452.226	69.49
452.664	69.42
453.103	69.42
453.541	69.4
453.98	69.19
454.418	68.93
454.856	68.58
455.295	68.23
455.733	67.98
456.171	67.72
456.609	67.48
457.047	67.3
457.485	67.19
457.923	67.22
458.361	67.29
458.798	67.49
459.236	67.7
459.674	67.94
460.111	68.15
460.549	68.37
460.987	68.64
461.424	68.87
461.862	69.12
462.299	69.3
462.736	69.49
463.173	69.76
463.611	70.17
464.048	70.69
464.485	71.31
464.922	72.05
465.359	72.71
465.796	73.28
466.233	73.87
466.67	74.55
467.106	75.46
467.543	76.44
467.98	77.39
468.416	78.21
468.853	78.88
469.29	79.56
469.726	80.2
470.162	80.97
470.599	81.74
471.035	82.42
471.471	82.87
471.907	83.12
472.344	83.28
472.78	83.37
473.216	83.57
473.652	83.76
474.088	83.86
474.523	83.87
474.959	83.84
475.395	83.77
475.831	83.7
476.266	83.68
476.702	83.63
477.138	83.52
477.573	83.39
478.008	83
478.444	82.61
478.879	82.1
479.314	81.55
479.75	80.91
480.185	80.21
480.62	79.3
481.055	78.07
481.49	76.47
481.925	74.73
482.36	73.08
482.795	71.7
483.229	70.63
483.664	69.75
484.099	69.01
484.534	68.31
484.968	67.75
485.403	67.49
485.837	67.55
486.271	67.93
486.706	68.37
487.14	68.66
487.574	68.73
488.009	68.62
488.443	68.52
488.877	68.39
489.311	68.31
489.745	68.24
490.179	68.17
490.613	68.09
491.046	68.04
491.48	68.07
491.914	68.21
492.348	68.5
492.781	68.74
493.215	68.91
493.648	69.03
494.082	69.07
494.515	69.11
494.948	69.1
495.382	69.09
495.815	69.02
496.248	68.91
496.681	68.76
497.114	68.55
497.547	68.39
497.98	68.32
498.413	68.4
498.846	68.53
499.279	68.63
499.711	68.68
500.144	68.82
500.577	69.09
501.009	69.54
501.442	70.12
501.874	70.71
502.306	71.31
502.739	71.76
503.171	72.15
503.603	72.49
504.036	72.89
504.468	73.38
504.9	73.89
505.332	74.29
505.764	74.62
506.196	74.89
506.627	75.21
507.059	75.6
507.491	76.05
507.923	76.47
508.354	76.89
508.786	77.26
509.217	77.51
509.649	77.73
510.08	77.98
510.512	78.27
510.943	78.6
511.374	78.85
511.805	78.87
512.237	78.7
512.668	78.44
513.099	78.27
513.53	78.15
513.961	78.1
514.391	78.12
514.822	78.32
515.253	78.55
515.684	78.79
516.114	79.15
516.545	79.66
516.975	80.52
517.406	81.46
517.836	82.35
518.267	83.14
518.697	83.91
519.127	84.66
519.558	85.31
519.988	85.88
520.418	86.42
520.848	86.86
521.278	87.23
521.708	87.3
522.138	87.22
522.567	87.14
522.997	87.14
523.427	87.24
523.857	87.34
524.286	87.52
524.716	87.72
525.145	87.87
525.575	88.02
526.004	88.29
526.433	88.79
526.863	89.45
527.292	90.07
527.721	90.52
528.15	90.78
528.579	90.89
529.008	90.87
529.437	90.78
529.866	90.71
530.295	90.7
530.724	90.74
531.152	90.72
531.581	90.72
532.01	90.64
532.438	90.64
532.867	90.7
533.295	90.83
533.723	90.96
534.152	91.05
534.58	91.11
535.008	91.01
535.436	90.77
535.865	90.45
536.293	90.12
536.721	89.95
537.149	89.87
537.576	89.88
538.004	89.86
538.432	89.82
538.86	89.85
539.287	89.95
539.715	90.18
540.143	90.44
540.57	90.82
540.998	91.24
541.425	91.63
541.852	92
542.28	92.29
542.707	92.59
543.134	92.87
543.561	93.07
543.988	93.29
544.415	93.52
544.842	93.82
545.269	94.09
545.696	94.33
546.123	94.6
546.549	94.84
546.976	95.08
547.403	95.31
547.829	95.61
548.256	95.91
548.682	96.11
549.108	96.36
549.535	96.54
549.961	96.72
550.387	96.89
550.813	97.06
551.24	97.23
551.666	97.37
552.092	97.43
552.518	97.37
552.943	97.35
553.369	97.34
553.795	97.17
554.221	96.96
554.646	96.64
555.072	96.29
555.498	95.91
555.923	95.58
556.349	95.28
556.774	95.1
557.199	94.93
557.625	94.68
558.05	94.43
558.475	94.21
558.9	94.06
559.325	93.94
559.75	93.77
560.175	93.58
560.6	93.25
561.025	92.82
561.449	92.29
561.874	91.77
562.299	91.33
562.723	90.88
563.148	90.42
563.572	89.91
563.997	89.36
564.421	88.77
564.846	88.16
565.27	87.65
565.694	87.09
566.118	86.5
566.542	85.91
566.966	85.27
567.39	84.66
567.814	84.13
568.238	83.66
568.662	83.26
569.086	82.92
569.509	82.65
569.933	82.35
570.357	82.09
570.78	81.9
571.204	81.69
571.627	81.57
572.05	81.47
572.474	81.3
572.897	81.14
573.32	80.96
573.743	80.79
574.166	80.57
574.589	80.37
575.012	80.33
575.435	80.32
575.858	80.37
576.281	80.43
576.704	80.49
577.126	80.59
577.549	80.72
577.972	80.93
578.394	81.14
578.817	81.41
579.239	81.71
579.661	81.95
580.084	82.16
580.506	82.32
580.928	82.43
581.35	82.48
581.772	82.52
582.194	82.52
582.616	82.5
583.038	82.49
583.46	82.46
583.882	82.26
584.303	81.92
584.725	81.42
585.147	80.92
585.568	80.47
585.99	80.15
586.411	79.93
586.833	79.73
587.254	79.55
587.675	79.4
588.096	79.3
588.518	79.28
588.939	79.44
589.36	79.75
589.781	80.06
590.202	80.31
590.623	80.48
591.043	80.5
591.464	80.5
591.885	80.49
592.305	80.45
592.726	80.34
593.147	80.25
593.567	80.08
593.987	79.91
594.408	79.77
594.828	79.6
595.248	79.42
595.669	79.22
596.089	78.97
596.509	78.66
596.929	78.32
597.349	77.94
597.769	77.57
598.189	77.25
598.608	76.96
599.028	76.7
599.448	76.52
599.867	76.3
600.287	76.15
600.706	75.97
601.126	75.79
601.545	75.65
601.965	75.55
602.384	75.45
602.803	75.33
603.222	75.18
603.641	74.98
604.061	74.75
604.48	74.51
604.898	74.24
605.317	74.03
605.736	73.77
606.155	73.49
606.574	73.23
606.992	73
607.411	72.78
607.829	72.51
608.248	72.28
608.666	72.06
609.085	71.8
609.503	71.5
609.921	71.25
610.339	71.06
610.758	70.88
611.176	70.65
611.594	70.37
612.012	70.03
612.43	69.72
612.847	69.44
613.265	69.19
613.683	69.01
614.101	68.9
614.518	68.77
614.936	68.63
615.353	68.49
615.771	68.43
616.188	68.42
616.606	68.45
617.023	68.47
617.44	68.42
617.857	68.32
618.274	68.18
618.691	67.99
619.108	67.76
619.525	67.53
619.942	67.27
620.359	66.95
620.776	66.58
621.192	66.2
621.609	65.86
622.026	65.58
622.442	65.35
622.859	65.06
623.275	64.8
623.691	64.51
624.108	64.26
624.524	64
624.94	63.77
625.356	63.56
625.772	63.39
626.188	63.23
626.604	63.03
627.02	62.82
627.436	62.66
627.852	62.55
628.268	62.5
628.683	62.47
629.099	62.48
629.514	62.47
629.93	62.51
630.345	62.53
630.761	62.56
631.176	62.61
631.591	62.64
632.007	62.64
632.422	62.67
632.837	62.69
633.252	62.68
633.667	62.68
634.082	62.71
634.497	62.71
634.911	62.7
635.326	62.61
635.741	62.51
636.155	62.41
636.57	62.29
636.984	62.1
637.399	61.92
637.813	61.74
638.228	61.53
638.642	61.32
639.056	61.08
639.47	60.84
639.884	60.68
640.298	60.52
640.712	60.36
641.126	60.19
641.54	60.04
641.954	59.87
642.368	59.64
642.781	59.39
643.195	59.15
643.609	58.92
644.022	58.69
644.436	58.38
644.849	58.05
645.262	57.7
645.676	57.39
646.089	57.18
646.502	56.98
646.915	56.83
647.328	56.67
647.741	56.55
648.154	56.44
648.567	56.35
648.98	56.3
649.393	56.29
649.805	56.31
650.218	56.26
650.631	56.08
651.043	55.77
651.456	55.22
651.868	54.52
652.28	53.73
652.693	53
653.105	52.44
653.517	52
653.929	51.67
654.341	51.4
654.753	51.24
655.165	51.11
655.577	51.1
655.989	51.35
656.401	51.76
656.813	52.28
657.224	52.73
657.636	53.01
658.047	53.18
658.459	53.23
658.87	53.2
659.282	53.11
659.693	52.98
660.104	52.86
660.515	52.73
660.926	52.62
661.338	52.45
661.749	52.26
662.159	52.05
662.57	51.8
662.981	51.56
663.392	51.34
663.803	51.14
664.213	50.98
664.624	50.82
665.035	50.61
665.445	50.4
665.855	50.18
666.266	49.96
666.676	49.73
667.086	49.53
667.497	49.3
667.907	49.06
668.317	48.87
668.727	48.63
669.137	48.44
669.547	48.25
669.956	48.02
670.366	47.85
670.776	47.69
671.186	47.53
671.595	47.41
672.005	47.3
672.414	47.2
672.824	47.06
673.233	46.96
673.642	46.84
674.052	46.74
674.461	46.7
674.87	46.62
675.279	46.56
675.688	46.49
676.097	46.41
676.506	46.36
676.915	46.33
677.323	46.34
677.732	46.32
678.141	46.3
678.549	46.29
678.958	46.29
679.366	46.25
679.775	46.21
680.183	46.18
680.592	46.2
681	46.18
681.408	46.16
681.816	46.01
682.224	45.68
682.632	45.08
683.04	44.26
683.448	43.42
683.856	42.69
684.264	42.09
684.671	41.5
685.079	40.93
685.487	40.47
685.894	40.08
686.302	39.88
686.709	39.98
687.116	40.43
687.524	41.21
687.931	42.05
688.338	42.88
688.745	43.68
689.152	44.5
689.559	45.28
689.966	46.03
690.373	46.76
690.78	47.44
691.187	48.1
691.593	48.72
692	49.29
692.407	49.89
692.813	50.48
693.22	51.02
693.626	51.54
694.032	52.06
694.439	52.57
694.845	53.02
695.251	53.47
695.657	53.87
696.063	54.28
696.469	54.62
696.875	54.87
697.281	55.13
697.687	55.38
698.093	55.65
698.498	55.94
698.904	56.23
699.31	56.57
699.715	56.95
700.12	57.33
700.526	57.75
700.931	58.19
701.337	58.64
701.742	59.04
702.147	59.5
702.552	59.93
702.957	60.36
703.362	60.82
703.767	61.23
704.172	61.58
704.577	61.93
704.981	62.24
705.386	62.53
705.791	62.87
706.195	63.17
706.6	63.45
707.004	63.75
707.408	64.03
707.813	64.27
708.217	64.49
708.621	64.72
709.025	64.97
709.43	65.21
709.834	65.46
710.237	65.63
710.641	65.84
711.045	66.01
711.449	66.18
711.853	66.28
712.256	66.31
712.66	66.21
713.064	66.02
713.467	65.68
713.87	65.27
714.274	64.82
714.677	64.28
715.08	63.69
715.484	63.14
715.887	62.6
716.29	62.18
716.693	61.95
717.096	62.02
717.499	62.31
717.901	62.74
718.304	63.28
718.707	63.82
719.109	64.41
719.512	64.98
719.915	65.48
720.317	65.9
720.719	66.25
721.122	66.52
721.524	66.59
721.926	66.6
722.328	66.59
722.731	66.55
723.133	66.5
723.535	66.54
723.937	66.6
724.338	66.68
724.74	66.79
725.142	66.81
725.544	66.88
725.945	67.01
726.347	67.11
726.748	67.12
727.15	67.22
727.551	67.37
727.952	67.57
728.354	67.89
728.755	68.21
729.156	68.61
729.557	69.15
729.958	69.57
730.359	69.97
730.76	70.3
731.161	70.62
731.562	70.9
731.962	71.15
732.363	71.32
732.763	71.46
733.164	71.53
733.564	71.56
733.965	71.49
734.365	71.41
734.766	71.28
735.166	71.16
735.566	71.08
735.966	71.01
736.366	70.95
736.766	70.87
737.166	70.77
737.566	70.69
737.966	70.63
738.365	70.59
738.765	70.63
739.165	70.67
739.564	70.75
739.964	70.78
740.363	70.8
740.763	70.79
741.162	70.83
741.561	70.89
741.96	70.94
742.36	71
742.759	71
743.158	70.93
743.557	70.91
743.955	70.89
744.354	70.91
744.753	70.89
745.152	70.86
745.55	70.8
745.949	70.69
746.348	70.61
746.746	70.47
747.144	70.4
747.543	70.35
747.941	70.29
748.339	70.21
748.737	70.14
749.136	70.07
749.534	70
749.932	69.94
750.33	69.89
750.727	69.83
751.125	69.75
751.523	69.64
751.921	69.54
752.318	69.44
752.716	69.3
753.113	69.15
753.511	68.98
753.908	68.83
754.305	68.55
754.703	68
755.1	66.89
755.497	65.06
755.894	62.5
756.291	59.42
756.688	56.16
757.085	53.03
757.482	50.16
757.878	47.46
758.275	44.75
758.672	42.09
759.068	39.69
759.465	37.88
759.861	36.99
760.258	36.96
760.654	37.72
761.05	38.84
761.447	40.08
761.843	41.25
762.239	42.5
762.635	43.99
763.031	45.76
763.427	47.7
763.822	49.71
764.218	51.73
764.614	53.73
765.01	55.52
765.405	57.18
765.801	58.65
766.196	59.99
766.592	61.12
766.987	62.01
767.382	62.7
767.778	63.23
768.173	63.66
768.568	63.93
768.963	64.16
769.358	64.33
769.753	64.46
770.148	64.49
770.542	64.46
770.937	64.38
771.332	64.37
771.726	64.29
772.121	64.24
772.515	64.21
772.91	64.17
