Data from N_3_dec_va_2n_Splice17_02.txt Node
Date: Sat Feb 29 15:02:44 EST 2020
User: sa697716
Spectrometer: FLMS03696
Trigger mode: 0
Integration Time (sec): 3.180400E-1
Scans to average: 20
Electric dark correction enabled: true
Nonlinearity correction enabled: true
Boxcar width: 5
XAxis mode: Wavelengths
Number of Pixels in Spectrum: 2048
>>>>>Begin Spectral Data<<<<<
187.83	111.48
188.298	122.38
188.766	114.28
189.233	112.89
189.701	111.76
190.169	109.42
190.636	115.49
191.104	112.16
191.571	260.8
192.039	251.93
192.506	-217.01
192.974	1114.41
193.441	-359.69
193.908	143.02
194.375	226.23
194.842	160.49
195.31	83.35
195.777	93.76
196.244	84.61
196.711	82.93
197.177	81.98
197.644	80.87
198.111	81.29
198.578	81.13
199.045	81.59
199.511	81.43
199.978	82.51
200.445	82.63
200.911	82.68
201.378	82.73
201.844	83.48
202.31	83.99
202.777	84.36
203.243	84.41
203.709	84.48
204.176	84.07
204.642	84.1
205.108	83.5
205.574	83.34
206.04	82.64
206.506	81.81
206.972	80.4
207.438	79.66
207.903	79.09
208.369	77.62
208.835	76.57
209.301	75.29
209.766	73.69
210.232	72.22
210.697	71.08
211.163	69.75
211.628	68.19
212.094	67.19
212.559	65.75
213.024	64.08
213.49	62.65
213.955	61.24
214.42	59.91
214.885	58.03
215.35	55.88
215.815	52.41
216.28	49.19
216.745	45.79
217.21	41.9
217.675	38.42
218.14	35.22
218.604	32.3
219.069	29.78
219.534	27.5
219.998	25.76
220.463	24.31
220.927	23.18
221.392	22.08
221.856	21.17
222.32	20.37
222.785	19.64
223.249	18.99
223.713	18.48
224.177	17.91
224.642	17.5
225.106	17.07
225.57	16.65
226.034	16.26
226.497	15.9
226.961	15.51
227.425	15.18
227.889	14.86
228.353	14.57
228.816	14.29
229.28	14.02
229.744	13.77
230.207	13.51
230.671	13.25
231.134	13.03
231.597	12.79
232.061	12.59
232.524	12.41
232.987	12.23
233.45	12.03
233.914	11.86
234.377	11.73
234.84	11.56
235.303	11.42
235.766	11.28
236.229	11.14
236.691	11.04
237.154	10.92
237.617	10.81
238.08	10.7
238.542	10.58
239.005	10.47
239.468	10.33
239.93	10.23
240.393	10.14
240.855	10.02
241.317	9.92
241.78	9.83
242.242	9.71
242.704	9.61
243.166	9.5
243.629	9.4
244.091	9.32
244.553	9.23
245.015	9.15
245.477	9.05
245.939	8.96
246.4	8.87
246.862	8.79
247.324	8.73
247.786	8.67
248.247	8.6
248.709	8.53
249.17	8.45
249.632	8.38
250.093	8.29
250.555	8.23
251.016	8.17
251.477	8.11
251.939	8.04
252.4	7.98
252.861	7.91
253.322	7.86
253.783	7.82
254.244	7.76
254.705	7.7
255.166	7.67
255.627	7.63
256.088	7.57
256.549	7.52
257.009	7.47
257.47	7.41
257.931	7.35
258.391	7.29
258.852	7.22
259.312	7.18
259.773	7.13
260.233	7.06
260.694	7
261.154	6.95
261.614	6.9
262.074	6.84
262.534	6.79
262.994	6.74
263.455	6.7
263.915	6.65
264.374	6.6
264.834	6.55
265.294	6.5
265.754	6.46
266.214	6.42
266.673	6.39
267.133	6.35
267.593	6.32
268.052	6.28
268.512	6.25
268.971	6.22
269.431	6.2
269.89	6.17
270.349	6.14
270.809	6.11
271.268	6.09
271.727	6.07
272.186	6.04
272.645	6.01
273.104	5.99
273.563	5.97
274.022	5.95
274.481	5.93
274.94	5.92
275.399	5.9
275.857	5.88
276.316	5.85
276.775	5.83
277.233	5.82
277.692	5.8
278.15	5.77
278.609	5.74
279.067	5.72
279.525	5.7
279.984	5.68
280.442	5.67
280.9	5.66
281.358	5.64
281.816	5.63
282.274	5.61
282.732	5.6
283.19	5.6
283.648	5.6
284.106	5.59
284.564	5.59
285.021	5.58
285.479	5.57
285.937	5.55
286.394	5.55
286.852	5.54
287.309	5.53
287.767	5.51
288.224	5.5
288.682	5.48
289.139	5.47
289.596	5.43
290.053	5.41
290.511	5.37
290.968	5.35
291.425	5.33
291.882	5.3
292.339	5.28
292.796	5.24
293.252	5.21
293.709	5.19
294.166	5.17
294.623	5.16
295.079	5.14
295.536	5.13
295.992	5.12
296.449	5.1
296.905	5.08
297.362	5.06
297.818	5.05
298.274	5.04
298.731	5.02
299.187	5.01
299.643	5
300.099	4.99
300.555	4.97
301.011	4.96
301.467	4.95
301.923	4.94
302.379	4.94
302.835	4.93
303.291	4.92
303.746	4.92
304.202	4.9
304.658	4.89
305.113	4.88
305.569	4.88
306.024	4.87
306.479	4.86
306.935	4.86
307.39	4.86
307.845	4.85
308.301	4.86
308.756	4.86
309.211	4.86
309.666	4.86
310.121	4.87
310.576	4.86
311.031	4.86
311.486	4.87
311.94	4.86
312.395	4.87
312.85	4.86
313.305	4.86
313.759	4.85
314.214	4.84
314.668	4.83
315.123	4.83
315.577	4.83
316.032	4.82
316.486	4.81
316.94	4.81
317.394	4.79
317.849	4.78
318.303	4.77
318.757	4.75
319.211	4.73
319.665	4.73
320.119	4.72
320.572	4.71
321.026	4.69
321.48	4.68
321.934	4.67
322.387	4.66
322.841	4.65
323.295	4.64
323.748	4.64
324.202	4.63
324.655	4.62
325.108	4.61
325.562	4.59
326.015	4.59
326.468	4.57
326.921	4.56
327.374	4.55
327.827	4.54
328.28	4.53
328.733	4.52
329.186	4.52
329.639	4.51
330.092	4.52
330.545	4.52
330.997	4.52
331.45	4.53
331.903	4.52
332.355	4.52
332.808	4.53
333.26	4.54
333.713	4.55
334.165	4.56
334.617	4.57
335.069	4.57
335.522	4.58
335.974	4.57
336.426	4.57
336.878	4.58
337.33	4.58
337.782	4.59
338.234	4.59
338.686	4.58
339.137	4.57
339.589	4.56
340.041	4.55
340.493	4.54
340.944	4.54
341.396	4.54
341.847	4.53
342.299	4.5
342.75	4.48
343.201	4.46
343.653	4.45
344.104	4.43
344.555	4.42
345.006	4.41
345.457	4.39
345.908	4.37
346.359	4.36
346.81	4.35
347.261	4.35
347.712	4.34
348.163	4.33
348.613	4.32
349.064	4.31
349.515	4.3
349.965	4.29
350.416	4.29
350.866	4.29
351.317	4.28
351.767	4.28
352.217	4.27
352.668	4.27
353.118	4.28
353.568	4.29
354.018	4.32
354.468	4.32
354.918	4.33
355.368	4.34
355.818	4.33
356.268	4.34
356.718	4.34
357.168	4.34
357.617	4.34
358.067	4.34
358.517	4.34
358.966	4.35
359.416	4.35
359.865	4.35
360.315	4.34
360.764	4.34
361.213	4.33
361.663	4.34
362.112	4.35
362.561	4.35
363.01	4.35
363.459	4.34
363.908	4.33
364.357	4.33
364.806	4.34
365.255	4.35
365.703	4.34
366.152	4.35
366.601	4.36
367.05	4.36
367.498	4.36
367.947	4.36
368.395	4.37
368.844	4.38
369.292	4.37
369.74	4.37
370.189	4.37
370.637	4.38
371.085	4.38
371.533	4.37
371.981	4.37
372.429	4.35
372.877	4.35
373.325	4.34
373.773	4.34
374.221	4.34
374.669	4.33
375.116	4.33
375.564	4.32
376.012	4.32
376.459	4.32
376.907	4.34
377.354	4.35
377.801	4.35
378.249	4.35
378.696	4.37
379.143	4.38
379.591	4.39
380.038	4.4
380.485	4.41
380.932	4.42
381.379	4.41
381.826	4.42
382.273	4.43
382.72	4.43
383.166	4.43
383.613	4.42
384.06	4.41
384.506	4.41
384.953	4.4
385.4	4.39
385.846	4.4
386.292	4.42
386.739	4.41
387.185	4.43
387.631	4.43
388.078	4.44
388.524	4.43
388.97	4.45
389.416	4.46
389.862	4.46
390.308	4.46
390.754	4.47
391.2	4.47
391.645	4.49
392.091	4.48
392.537	4.5
392.983	4.52
393.428	4.54
393.874	4.56
394.319	4.59
394.765	4.61
395.21	4.62
395.655	4.64
396.101	4.66
396.546	4.67
396.991	4.69
397.436	4.69
397.881	4.7
398.326	4.74
398.771	4.77
399.216	4.79
399.661	4.82
400.106	4.85
400.551	4.86
400.995	4.87
401.44	4.87
401.885	4.88
402.329	4.9
402.774	4.91
403.218	4.91
403.663	4.9
404.107	4.92
404.551	4.93
404.995	4.93
405.44	4.95
405.884	4.98
406.328	4.99
406.772	5.01
407.216	5.02
407.66	5.05
408.104	5.05
408.547	5.08
408.991	5.08
409.435	5.11
409.879	5.13
410.322	5.16
410.766	5.16
411.209	5.19
411.653	5.2
412.096	5.21
412.54	5.22
412.983	5.23
413.426	5.26
413.869	5.28
414.312	5.3
414.756	5.33
415.199	5.36
415.642	5.4
416.085	5.42
416.527	5.46
416.97	5.48
417.413	5.5
417.856	5.5
418.298	5.49
418.741	5.49
419.184	5.48
419.626	5.47
420.069	5.46
420.511	5.45
420.953	5.44
421.396	5.45
421.838	5.47
422.28	5.5
422.722	5.53
423.164	5.54
423.606	5.57
424.048	5.57
424.49	5.6
424.932	5.59
425.374	5.59
425.816	5.59
426.258	5.56
426.699	5.52
427.141	5.48
427.582	5.47
428.024	5.48
428.465	5.48
428.907	5.49
429.348	5.49
429.789	5.5
430.231	5.51
430.672	5.53
431.113	5.56
431.554	5.58
431.995	5.61
432.436	5.61
432.877	5.6
433.318	5.59
433.759	5.61
434.2	5.61
434.64	5.64
435.081	5.65
435.522	5.65
435.962	5.68
436.403	5.72
436.843	5.75
437.284	5.76
437.724	5.8
438.164	5.81
438.604	5.82
439.045	5.84
439.485	5.84
439.925	5.84
440.365	5.85
440.805	5.84
441.245	5.82
441.685	5.84
442.125	5.85
442.564	5.87
443.004	5.89
443.444	5.89
443.883	5.89
444.323	5.9
444.762	5.92
445.202	5.97
445.641	5.99
446.081	6.02
446.52	6.02
446.959	6.04
447.398	6.06
447.837	6.09
448.276	6.1
448.716	6.14
449.154	6.17
449.593	6.17
450.032	6.16
450.471	6.16
450.91	6.14
451.349	6.14
451.787	6.14
452.226	6.13
452.664	6.11
453.103	6.1
453.541	6.08
453.98	6.05
454.418	6.03
454.856	6
455.295	5.98
455.733	5.97
456.171	5.95
456.609	5.93
457.047	5.9
457.485	5.88
457.923	5.88
458.361	5.85
458.798	5.85
459.236	5.85
459.674	5.85
460.111	5.86
460.549	5.85
460.987	5.85
461.424	5.85
461.862	5.86
462.299	5.87
462.736	5.87
463.173	5.88
463.611	5.88
464.048	5.9
464.485	5.9
464.922	5.89
465.359	5.9
465.796	5.88
466.233	5.89
466.67	5.88
467.106	5.85
467.543	5.85
467.98	5.84
468.416	5.85
468.853	5.85
469.29	5.84
469.726	5.87
470.162	5.85
470.599	5.85
471.035	5.85
471.471	5.84
471.907	5.86
472.344	5.85
472.78	5.86
473.216	5.85
473.652	5.83
474.088	5.85
474.523	5.82
474.959	5.81
475.395	5.81
475.831	5.81
476.266	5.82
476.702	5.82
477.138	5.79
477.573	5.77
478.008	5.77
478.444	5.75
478.879	5.73
479.314	5.73
479.75	5.74
480.185	5.72
480.62	5.71
481.055	5.69
481.49	5.66
481.925	5.67
482.36	5.65
482.795	5.63
483.229	5.62
483.664	5.61
484.099	5.6
484.534	5.58
484.968	5.57
485.403	5.57
485.837	5.56
486.271	5.56
486.706	5.54
487.14	5.56
487.574	5.57
488.009	5.59
488.443	5.59
488.877	5.6
489.311	5.62
489.745	5.63
490.179	5.64
490.613	5.67
491.046	5.7
491.48	5.73
491.914	5.76
492.348	5.79
492.781	5.82
493.215	5.85
493.648	5.89
494.082	5.94
494.515	5.98
494.948	6.03
495.382	6.07
495.815	6.11
496.248	6.17
496.681	6.22
497.114	6.28
497.547	6.35
497.98	6.41
498.413	6.48
498.846	6.54
499.279	6.62
499.711	6.69
500.144	6.77
500.577	6.85
501.009	6.94
501.442	7.03
501.874	7.14
502.306	7.24
502.739	7.33
503.171	7.44
503.603	7.58
504.036	7.72
504.468	7.87
504.9	8.02
505.332	8.18
505.764	8.34
506.196	8.51
506.627	8.67
507.059	8.85
507.491	9.05
507.923	9.23
508.354	9.41
508.786	9.6
509.217	9.77
509.649	9.99
510.08	10.21
510.512	10.41
510.943	10.63
511.374	10.86
511.805	11.09
512.237	11.32
512.668	11.56
513.099	11.82
513.53	12.08
513.961	12.36
514.391	12.6
514.822	12.84
515.253	13.13
515.684	13.4
516.114	13.67
516.545	13.95
516.975	14.23
517.406	14.51
517.836	14.78
518.267	15.05
518.697	15.34
519.127	15.64
519.558	15.92
519.988	16.19
520.418	16.47
520.848	16.74
521.278	17
521.708	17.29
522.138	17.54
522.567	17.79
522.997	18.03
523.427	18.27
523.857	18.48
524.286	18.71
524.716	18.92
525.145	19.14
525.575	19.36
526.004	19.56
526.433	19.73
526.863	19.94
527.292	20.11
527.721	20.28
528.15	20.44
528.579	20.61
529.008	20.76
529.437	20.9
529.866	21.03
530.295	21.14
530.724	21.27
531.152	21.39
531.581	21.5
532.01	21.61
532.438	21.72
532.867	21.82
533.295	21.93
533.723	22.01
534.152	22.08
534.58	22.16
535.008	22.22
535.436	22.29
535.865	22.34
536.293	22.41
536.721	22.45
537.149	22.48
537.576	22.53
538.004	22.56
538.432	22.59
538.86	22.62
539.287	22.68
539.715	22.73
540.143	22.74
540.57	22.77
540.998	22.8
541.425	22.83
541.852	22.86
542.28	22.85
542.707	22.89
543.134	22.93
543.561	22.95
543.988	22.94
544.415	22.97
544.842	23.01
545.269	23.03
545.696	23.04
546.123	23.08
546.549	23.11
546.976	23.17
547.403	23.2
547.829	23.22
548.256	23.25
548.682	23.26
549.108	23.27
549.535	23.28
549.961	23.32
550.387	23.32
550.813	23.31
551.24	23.32
551.666	23.32
552.092	23.29
552.518	23.27
552.943	23.28
553.369	23.28
553.795	23.27
554.221	23.25
554.646	23.21
555.072	23.18
555.498	23.15
555.923	23.1
556.349	23.04
556.774	23
557.199	22.95
557.625	22.88
558.05	22.81
558.475	22.73
558.9	22.64
559.325	22.55
559.75	22.47
560.175	22.36
560.6	22.28
561.025	22.18
561.449	22.06
561.874	21.97
562.299	21.84
562.723	21.73
563.148	21.6
563.572	21.47
563.997	21.35
564.421	21.23
564.846	21.09
565.27	20.94
565.694	20.79
566.118	20.64
566.542	20.48
566.966	20.34
567.39	20.18
567.814	20.05
568.238	19.88
568.662	19.73
569.086	19.56
569.509	19.41
569.933	19.24
570.357	19.07
570.78	18.92
571.204	18.75
571.627	18.58
572.05	18.43
572.474	18.29
572.897	18.16
573.32	18
573.743	17.86
574.166	17.72
574.589	17.59
575.012	17.49
575.435	17.36
575.858	17.26
576.281	17.17
576.704	17.06
577.126	16.95
577.549	16.86
577.972	16.78
578.394	16.68
578.817	16.6
579.239	16.52
579.661	16.44
580.084	16.37
580.506	16.29
580.928	16.21
581.35	16.14
581.772	16.07
582.194	16
582.616	15.93
583.038	15.88
583.46	15.82
583.882	15.75
584.303	15.67
584.725	15.6
585.147	15.52
585.568	15.45
585.99	15.4
586.411	15.34
586.833	15.28
587.254	15.23
587.675	15.18
588.096	15.11
588.518	15.07
588.939	15.03
589.36	14.98
589.781	14.96
590.202	14.92
590.623	14.87
591.043	14.83
591.464	14.77
591.885	14.73
592.305	14.67
592.726	14.64
593.147	14.61
593.567	14.55
593.987	14.52
594.408	14.48
594.828	14.45
595.248	14.42
595.669	14.38
596.089	14.35
596.509	14.31
596.929	14.28
597.349	14.24
597.769	14.19
598.189	14.17
598.608	14.12
599.028	14.08
599.448	14.04
599.867	13.99
600.287	13.94
600.706	13.91
601.126	13.87
601.545	13.82
601.965	13.77
602.384	13.72
602.803	13.66
603.222	13.62
603.641	13.57
604.061	13.52
604.48	13.45
604.898	13.4
605.317	13.34
605.736	13.27
606.155	13.22
606.574	13.16
606.992	13.1
607.411	13.04
607.829	12.95
608.248	12.88
608.666	12.81
609.085	12.74
609.503	12.66
609.921	12.58
610.339	12.51
610.758	12.44
611.176	12.38
611.594	12.3
612.012	12.22
612.43	12.18
612.847	12.12
613.265	12.05
613.683	11.98
614.101	11.92
614.518	11.87
614.936	11.8
615.353	11.74
615.771	11.67
616.188	11.61
616.606	11.55
617.023	11.49
617.44	11.43
617.857	11.37
618.274	11.33
618.691	11.29
619.108	11.26
619.525	11.21
619.942	11.17
620.359	11.13
620.776	11.1
621.192	11.09
621.609	11.06
622.026	11.05
622.442	11.03
622.859	10.99
623.275	10.98
623.691	10.95
624.108	10.93
624.524	10.92
624.94	10.9
625.356	10.89
625.772	10.87
626.188	10.86
626.604	10.84
627.02	10.84
627.436	10.82
627.852	10.8
628.268	10.78
628.683	10.76
629.099	10.75
629.514	10.74
629.93	10.71
630.345	10.67
630.761	10.62
631.176	10.6
631.591	10.57
632.007	10.53
632.422	10.48
632.837	10.43
633.252	10.39
633.667	10.33
634.082	10.27
634.497	10.21
634.911	10.14
635.326	10.07
635.741	9.97
636.155	9.89
636.57	9.79
636.984	9.69
637.399	9.59
637.813	9.48
638.228	9.36
638.642	9.28
639.056	9.17
639.47	9.07
639.884	8.97
640.298	8.86
640.712	8.74
641.126	8.64
641.54	8.55
641.954	8.46
642.368	8.35
642.781	8.26
643.195	8.15
643.609	8.05
644.022	7.96
644.436	7.87
644.849	7.8
645.262	7.74
645.676	7.67
646.089	7.58
646.502	7.51
646.915	7.47
647.328	7.42
647.741	7.37
648.154	7.34
648.567	7.3
648.98	7.27
649.393	7.23
649.805	7.18
650.218	7.15
650.631	7.13
651.043	7.1
651.456	7.08
651.868	7.05
652.28	7.03
652.693	6.98
653.105	6.95
653.517	6.91
653.929	6.88
654.341	6.86
654.753	6.81
655.165	6.79
655.577	6.73
655.989	6.67
656.401	6.61
656.813	6.55
657.224	6.5
657.636	6.44
658.047	6.38
658.459	6.31
658.87	6.25
659.282	6.2
659.693	6.13
660.104	6.07
660.515	6.01
660.926	5.96
661.338	5.9
661.749	5.83
662.159	5.79
662.57	5.74
662.981	5.69
663.392	5.64
663.803	5.6
664.213	5.56
664.624	5.52
665.035	5.48
665.445	5.45
665.855	5.43
666.266	5.43
666.676	5.39
667.086	5.36
667.497	5.35
667.907	5.32
668.317	5.3
668.727	5.28
669.137	5.27
669.547	5.28
669.956	5.27
670.366	5.28
670.776	5.27
671.186	5.27
671.595	5.29
672.005	5.3
672.414	5.31
672.824	5.33
673.233	5.35
673.642	5.36
674.052	5.37
674.461	5.38
674.87	5.38
675.279	5.4
675.688	5.42
676.097	5.44
676.506	5.46
676.915	5.49
677.323	5.53
677.732	5.57
678.141	5.6
678.549	5.64
678.958	5.69
679.366	5.74
679.775	5.81
680.183	5.87
680.592	5.94
681	5.99
681.408	6.06
681.816	6.12
682.224	6.22
682.632	6.32
683.04	6.42
683.448	6.55
683.856	6.68
684.264	6.83
684.671	7.01
685.079	7.18
685.487	7.39
685.894	7.62
686.302	7.86
686.709	8.11
687.116	8.4
687.524	8.71
687.931	9.03
688.338	9.39
688.745	9.77
689.152	10.15
689.559	10.56
689.966	11
690.373	11.47
690.78	11.95
691.187	12.44
691.593	12.93
692	13.44
692.407	13.98
692.813	14.51
693.22	15.04
693.626	15.6
694.032	16.16
694.439	16.73
694.845	17.28
695.251	17.87
695.657	18.44
696.063	19.02
696.469	19.59
696.875	20.16
697.281	20.72
697.687	21.3
698.093	21.85
698.498	22.41
698.904	22.97
699.31	23.49
699.715	24
700.12	24.51
700.526	25.03
700.931	25.54
701.337	26.04
701.742	26.5
702.147	26.97
702.552	27.44
702.957	27.92
703.362	28.36
703.767	28.82
704.172	29.26
704.577	29.71
704.981	30.15
705.386	30.58
705.791	30.98
706.195	31.4
706.6	31.79
707.004	32.18
707.408	32.56
707.813	32.92
708.217	33.25
708.621	33.63
709.025	33.98
709.43	34.3
709.834	34.65
710.237	34.99
710.641	35.3
711.045	35.64
711.449	35.97
711.853	36.28
712.256	36.61
712.66	36.94
713.064	37.24
713.467	37.52
713.87	37.82
714.274	38.12
714.677	38.4
715.08	38.7
715.484	38.98
715.887	39.24
716.29	39.53
716.693	39.8
717.096	40.06
717.499	40.31
717.901	40.57
718.304	40.84
718.707	41.06
719.109	41.3
719.512	41.56
719.915	41.78
720.317	42.04
720.719	42.23
721.122	42.42
721.524	42.67
721.926	42.87
722.328	43.07
722.731	43.27
723.133	43.46
723.535	43.65
723.937	43.83
724.338	43.99
724.74	44.12
725.142	44.24
725.544	44.38
725.945	44.48
726.347	44.64
726.748	44.79
727.15	44.9
727.551	45.02
727.952	45.14
728.354	45.27
728.755	45.38
729.156	45.52
729.557	45.7
729.958	45.86
730.359	45.98
730.76	46.06
731.161	46.13
731.562	46.24
731.962	46.34
732.363	46.42
732.763	46.49
733.164	46.56
733.564	46.62
733.965	46.68
734.365	46.72
734.766	46.78
735.166	46.81
735.566	46.86
735.966	46.9
736.366	46.92
736.766	47
737.166	47.04
737.566	47.07
737.966	47.12
738.365	47.16
738.765	47.19
739.165	47.21
739.564	47.28
739.964	47.29
740.363	47.34
740.763	47.4
741.162	47.41
741.561	47.45
741.96	47.53
742.36	47.56
742.759	47.58
743.158	47.59
743.557	47.66
743.955	47.73
744.354	47.8
744.753	47.8
745.152	47.82
745.55	47.82
745.949	47.83
746.348	47.85
746.746	47.86
747.144	47.9
747.543	47.95
747.941	47.98
748.339	47.98
748.737	48.02
749.136	48.06
749.534	48.1
749.932	48.14
750.33	48.16
750.727	48.17
751.125	48.17
751.523	48.16
751.921	48.17
752.318	48.15
752.716	48.16
753.113	48.15
753.511	48.13
753.908	48.07
754.305	48.02
754.703	48
755.1	47.97
755.497	47.96
755.894	47.94
756.291	47.92
756.688	47.89
757.085	47.83
757.482	47.8
757.878	47.8
758.275	47.85
758.672	47.87
759.068	47.88
759.465	47.85
759.861	47.85
760.258	47.83
760.654	47.82
761.05	47.83
761.447	47.84
761.843	47.84
762.239	47.79
762.635	47.78
763.031	47.79
763.427	47.79
763.822	47.81
764.218	47.81
764.614	47.84
765.01	47.87
765.405	47.83
765.801	47.82
766.196	47.82
766.592	47.85
766.987	47.84
767.382	47.85
767.778	47.85
768.173	47.84
768.568	47.82
768.963	47.78
769.358	47.75
769.753	47.78
770.148	47.77
770.542	47.78
770.937	47.77
771.332	47.76
771.726	47.71
772.121	47.68
772.515	47.68
772.91	47.71
773.304	47.72
773.699	47.73
774.093	47.72
774.487	47.73
774.881	47.72
775.275	47.72
775.669	47.73
776.063	47.74
776.457	47.74
776.851	47.71
777.245	47.71
777.638	47.71
778.032	47.71
778.425	47.73
778.819	47.75
779.212	47.74
779.606	47.75
779.999	47.75
780.392	47.76
780.786	47.79
781.179	47.84
781.572	47.83
