Data from N_3_ofc_ct_2n_Splice17_16.txt Node
Date: Sat Feb 29 14:47:36 EST 2020
User: sa697716
Spectrometer: FLMS03696
Trigger mode: 0
Integration Time (sec): 3.180400E-1
Scans to average: 20
Electric dark correction enabled: true
Nonlinearity correction enabled: true
Boxcar width: 5
XAxis mode: Wavelengths
Number of Pixels in Spectrum: 2048
>>>>>Begin Spectral Data<<<<<
187.83	118.46
188.298	131.31
188.766	109.05
189.233	114.72
189.701	119.11
190.169	102.68
190.636	122.42
191.104	158.92
191.571	700.23
192.039	464.63
192.506	-610.36
192.974	-1504.91
193.441	-211.06
193.908	44.25
194.375	131.91
194.842	238.62
195.31	121.34
195.777	110.65
196.244	40.19
196.711	33.89
197.177	32.8
197.644	32.3
198.111	31.17
198.578	30.06
199.045	30.52
199.511	30.83
199.978	30.93
200.445	30.26
200.911	30.61
201.378	31.04
201.844	31.67
202.31	32.46
202.777	32.6
203.243	33.46
203.709	34.22
204.176	34.41
204.642	34.27
205.108	33.92
205.574	34.51
206.04	34.59
206.506	34.31
206.972	33.81
207.438	33.23
207.903	33.47
208.369	32.87
208.835	32.42
209.301	32.14
209.766	32.15
210.232	32.46
210.697	32.34
211.163	31.97
211.628	31.76
212.094	31.7
212.559	31.39
213.024	30.63
213.49	30.08
213.955	29.94
214.42	29.38
214.885	28.66
215.35	27.93
215.815	27.06
216.28	26.58
216.745	25.86
217.21	24.94
217.675	24.08
218.14	23.33
218.604	22.51
219.069	21.67
219.534	21.01
219.998	20.32
220.463	19.89
220.927	19.47
221.392	19.02
221.856	18.67
222.32	18.29
222.785	18.04
223.249	17.74
223.713	17.53
224.177	17.33
224.642	17.13
225.106	16.95
225.57	16.7
226.034	16.49
226.497	16.25
226.961	16
227.425	15.78
227.889	15.55
228.353	15.32
228.816	15.12
229.28	14.88
229.744	14.68
230.207	14.5
230.671	14.31
231.134	14.1
231.597	13.93
232.061	13.77
232.524	13.61
232.987	13.43
233.45	13.25
233.914	13.06
234.377	12.92
234.84	12.77
235.303	12.61
235.766	12.46
236.229	12.33
236.691	12.19
237.154	12.04
237.617	11.91
238.08	11.8
238.542	11.68
239.005	11.56
239.468	11.42
239.93	11.3
240.393	11.18
240.855	11.05
241.317	10.93
241.78	10.84
242.242	10.73
242.704	10.63
243.166	10.51
243.629	10.43
244.091	10.34
244.553	10.25
245.015	10.16
245.477	10.07
245.939	9.98
246.4	9.89
246.862	9.8
247.324	9.73
247.786	9.66
248.247	9.59
248.709	9.51
249.17	9.46
249.632	9.39
250.093	9.31
250.555	9.25
251.016	9.19
251.477	9.13
251.939	9.06
252.4	9
252.861	8.93
253.322	8.86
253.783	8.8
254.244	8.73
254.705	8.67
255.166	8.63
255.627	8.57
256.088	8.51
256.549	8.46
257.009	8.41
257.47	8.35
257.931	8.3
258.391	8.24
258.852	8.2
259.312	8.16
259.773	8.11
260.233	8.05
260.694	8
261.154	7.95
261.614	7.91
262.074	7.87
262.534	7.83
262.994	7.79
263.455	7.75
263.915	7.71
264.374	7.66
264.834	7.63
265.294	7.58
265.754	7.55
266.214	7.52
266.673	7.49
267.133	7.45
267.593	7.43
268.052	7.39
268.512	7.36
268.971	7.32
269.431	7.3
269.89	7.28
270.349	7.25
270.809	7.22
271.268	7.2
271.727	7.17
272.186	7.15
272.645	7.12
273.104	7.1
273.563	7.08
274.022	7.06
274.481	7.03
274.94	7
275.399	6.98
275.857	6.95
276.316	6.92
276.775	6.88
277.233	6.85
277.692	6.82
278.15	6.79
278.609	6.76
279.067	6.73
279.525	6.7
279.984	6.67
280.442	6.64
280.9	6.63
281.358	6.6
281.816	6.58
282.274	6.56
282.732	6.55
283.19	6.53
283.648	6.52
284.106	6.5
284.564	6.49
285.021	6.48
285.479	6.46
285.937	6.43
286.394	6.41
286.852	6.4
287.309	6.39
287.767	6.37
288.224	6.35
288.682	6.33
289.139	6.31
289.596	6.28
290.053	6.24
290.511	6.2
290.968	6.18
291.425	6.16
291.882	6.12
292.339	6.1
292.796	6.07
293.252	6.04
293.709	6.01
294.166	5.98
294.623	5.95
295.079	5.94
295.536	5.93
295.992	5.91
296.449	5.89
296.905	5.87
297.362	5.85
297.818	5.82
298.274	5.81
298.731	5.79
299.187	5.78
299.643	5.76
300.099	5.75
300.555	5.72
301.011	5.7
301.467	5.69
301.923	5.68
302.379	5.67
302.835	5.66
303.291	5.64
303.746	5.63
304.202	5.61
304.658	5.59
305.113	5.58
305.569	5.57
306.024	5.56
306.479	5.55
306.935	5.54
307.39	5.52
307.845	5.51
308.301	5.51
308.756	5.5
309.211	5.5
309.666	5.5
310.121	5.49
310.576	5.49
311.031	5.49
311.486	5.48
311.94	5.47
312.395	5.47
312.85	5.46
313.305	5.46
313.759	5.45
314.214	5.44
314.668	5.44
315.123	5.43
315.577	5.41
316.032	5.41
316.486	5.4
316.94	5.39
317.394	5.38
317.849	5.37
318.303	5.35
318.757	5.33
319.211	5.31
319.665	5.29
320.119	5.28
320.572	5.27
321.026	5.25
321.48	5.23
321.934	5.22
322.387	5.21
322.841	5.19
323.295	5.17
323.748	5.15
324.202	5.13
324.655	5.12
325.108	5.1
325.562	5.09
326.015	5.07
326.468	5.06
326.921	5.05
327.374	5.04
327.827	5.03
328.28	5.02
328.733	5.01
329.186	5.02
329.639	5
330.092	4.99
330.545	4.98
330.997	4.99
331.45	4.98
331.903	4.97
332.355	4.97
332.808	4.97
333.26	4.97
333.713	4.97
334.165	4.96
334.617	4.97
335.069	4.97
335.522	4.98
335.974	4.97
336.426	4.97
336.878	4.97
337.33	4.96
337.782	4.96
338.234	4.95
338.686	4.94
339.137	4.94
339.589	4.93
340.041	4.91
340.493	4.9
340.944	4.89
341.396	4.88
341.847	4.87
342.299	4.85
342.75	4.83
343.201	4.81
343.653	4.79
344.104	4.78
344.555	4.76
345.006	4.75
345.457	4.74
345.908	4.73
346.359	4.72
346.81	4.72
347.261	4.71
347.712	4.7
348.163	4.69
348.613	4.68
349.064	4.67
349.515	4.66
349.965	4.65
350.416	4.64
350.866	4.63
351.317	4.62
351.767	4.61
352.217	4.61
352.668	4.6
353.118	4.61
353.568	4.62
354.018	4.63
354.468	4.63
354.918	4.64
355.368	4.64
355.818	4.64
356.268	4.64
356.718	4.65
357.168	4.64
357.617	4.64
358.067	4.63
358.517	4.62
358.966	4.62
359.416	4.63
359.865	4.62
360.315	4.61
360.764	4.61
361.213	4.61
361.663	4.61
362.112	4.62
362.561	4.62
363.01	4.62
363.459	4.61
363.908	4.61
364.357	4.61
364.806	4.61
365.255	4.61
365.703	4.61
366.152	4.61
366.601	4.61
367.05	4.61
367.498	4.61
367.947	4.61
368.395	4.62
368.844	4.62
369.292	4.61
369.74	4.61
370.189	4.6
370.637	4.62
371.085	4.61
371.533	4.61
371.981	4.61
372.429	4.6
372.877	4.6
373.325	4.59
373.773	4.59
374.221	4.6
374.669	4.6
375.116	4.6
375.564	4.59
376.012	4.6
376.459	4.61
376.907	4.63
377.354	4.64
377.801	4.65
378.249	4.68
378.696	4.69
379.143	4.7
379.591	4.72
380.038	4.75
380.485	4.77
380.932	4.78
381.379	4.79
381.826	4.81
382.273	4.82
382.72	4.85
383.166	4.87
383.613	4.89
384.06	4.91
384.506	4.93
384.953	4.94
385.4	4.97
385.846	4.98
386.292	5.01
386.739	5.02
387.185	5.05
387.631	5.08
388.078	5.12
388.524	5.12
388.97	5.15
389.416	5.17
389.862	5.2
390.308	5.21
390.754	5.25
391.2	5.28
391.645	5.31
392.091	5.33
392.537	5.34
392.983	5.37
393.428	5.41
393.874	5.43
394.319	5.47
394.765	5.48
395.21	5.5
395.655	5.52
396.101	5.54
396.546	5.56
396.991	5.58
397.436	5.58
397.881	5.6
398.326	5.64
398.771	5.67
399.216	5.7
399.661	5.73
400.106	5.78
400.551	5.78
400.995	5.79
401.44	5.8
401.885	5.81
402.329	5.83
402.774	5.84
403.218	5.83
403.663	5.82
404.107	5.83
404.551	5.83
404.995	5.83
405.44	5.85
405.884	5.85
406.328	5.86
406.772	5.88
407.216	5.9
407.66	5.92
408.104	5.92
408.547	5.93
408.991	5.94
409.435	5.93
409.879	5.92
410.322	5.94
410.766	5.95
411.209	5.97
411.653	5.97
412.096	5.96
412.54	5.96
412.983	5.97
413.426	5.98
413.869	5.99
414.312	6.02
414.756	6.03
415.199	6.03
415.642	6.05
416.085	6.06
416.527	6.08
416.97	6.11
417.413	6.12
417.856	6.1
418.298	6.09
418.741	6.07
419.184	6.06
419.626	6.06
420.069	6.07
420.511	6.05
420.953	6.04
421.396	6.02
421.838	6.02
422.28	6.04
422.722	6.07
423.164	6.08
423.606	6.12
424.048	6.11
424.49	6.12
424.932	6.11
425.374	6.11
425.816	6.11
426.258	6.11
426.699	6.06
427.141	6.02
427.582	6
428.024	5.99
428.465	5.98
428.907	5.98
429.348	5.99
429.789	6
430.231	5.99
430.672	5.99
431.113	6
431.554	6.04
431.995	6.06
432.436	6.07
432.877	6.08
433.318	6.07
433.759	6.07
434.2	6.06
434.64	6.07
435.081	6.09
435.522	6.11
435.962	6.12
436.403	6.14
436.843	6.13
437.284	6.14
437.724	6.15
438.164	6.17
438.604	6.19
439.045	6.18
439.485	6.19
439.925	6.18
440.365	6.17
440.805	6.16
441.245	6.13
441.685	6.16
442.125	6.16
442.564	6.17
443.004	6.18
443.444	6.19
443.883	6.21
444.323	6.21
444.762	6.23
445.202	6.29
445.641	6.31
446.081	6.37
446.52	6.38
446.959	6.43
447.398	6.47
447.837	6.52
448.276	6.54
448.716	6.58
449.154	6.61
449.593	6.66
450.032	6.65
450.471	6.67
450.91	6.67
451.349	6.68
451.787	6.68
452.226	6.65
452.664	6.63
453.103	6.63
453.541	6.62
453.98	6.62
454.418	6.58
454.856	6.58
455.295	6.55
455.733	6.54
456.171	6.53
456.609	6.53
457.047	6.53
457.485	6.53
457.923	6.54
458.361	6.52
458.798	6.51
459.236	6.51
459.674	6.5
460.111	6.51
460.549	6.48
460.987	6.48
461.424	6.47
461.862	6.47
462.299	6.46
462.736	6.45
463.173	6.45
463.611	6.45
464.048	6.45
464.485	6.45
464.922	6.44
465.359	6.46
465.796	6.45
466.233	6.46
466.67	6.46
467.106	6.46
467.543	6.47
467.98	6.47
468.416	6.49
468.853	6.48
469.29	6.51
469.726	6.51
470.162	6.49
470.599	6.5
471.035	6.51
471.471	6.52
471.907	6.52
472.344	6.54
472.78	6.54
473.216	6.53
473.652	6.55
474.088	6.54
474.523	6.54
474.959	6.55
475.395	6.57
475.831	6.57
476.266	6.56
476.702	6.56
477.138	6.54
477.573	6.54
478.008	6.54
478.444	6.54
478.879	6.53
479.314	6.54
479.75	6.54
480.185	6.53
480.62	6.52
481.055	6.51
481.49	6.5
481.925	6.49
482.36	6.47
482.795	6.46
483.229	6.46
483.664	6.46
484.099	6.45
484.534	6.45
484.968	6.45
485.403	6.45
485.837	6.46
486.271	6.48
486.706	6.48
487.14	6.51
487.574	6.53
488.009	6.55
488.443	6.56
488.877	6.58
489.311	6.6
489.745	6.62
490.179	6.64
490.613	6.67
491.046	6.71
491.48	6.75
491.914	6.79
492.348	6.83
492.781	6.86
493.215	6.9
493.648	6.97
494.082	7.02
494.515	7.07
494.948	7.13
495.382	7.19
495.815	7.25
496.248	7.32
496.681	7.38
497.114	7.43
497.547	7.51
497.98	7.59
498.413	7.67
498.846	7.76
499.279	7.86
499.711	7.95
500.144	8.06
500.577	8.17
501.009	8.28
501.442	8.41
501.874	8.54
502.306	8.68
502.739	8.81
503.171	8.97
503.603	9.14
504.036	9.31
504.468	9.48
504.9	9.67
505.332	9.85
505.764	10.04
506.196	10.25
506.627	10.47
507.059	10.69
507.491	10.92
507.923	11.15
508.354	11.4
508.786	11.64
509.217	11.89
509.649	12.16
510.08	12.44
510.512	12.73
510.943	13.01
511.374	13.31
511.805	13.62
512.237	13.93
512.668	14.25
513.099	14.59
513.53	14.93
513.961	15.28
514.391	15.62
514.822	15.97
515.253	16.33
515.684	16.68
516.114	17.04
516.545	17.4
516.975	17.77
517.406	18.12
517.836	18.46
518.267	18.82
518.697	19.19
519.127	19.55
519.558	19.91
519.988	20.27
520.418	20.62
520.848	20.98
521.278	21.35
521.708	21.67
522.138	22.01
522.567	22.36
522.997	22.69
523.427	23.01
523.857	23.31
524.286	23.62
524.716	23.92
525.145	24.22
525.575	24.5
526.004	24.78
526.433	25.05
526.863	25.33
527.292	25.59
527.721	25.82
528.15	26.05
528.579	26.28
529.008	26.5
529.437	26.69
529.866	26.87
530.295	27.06
530.724	27.25
531.152	27.42
531.581	27.56
532.01	27.68
532.438	27.83
532.867	27.95
533.295	28.07
533.723	28.19
534.152	28.32
534.58	28.43
535.008	28.49
535.436	28.55
535.865	28.62
536.293	28.71
536.721	28.79
537.149	28.87
537.576	28.94
538.004	29
538.432	29.04
538.86	29.05
539.287	29.11
539.715	29.16
540.143	29.2
540.57	29.24
540.998	29.29
541.425	29.33
541.852	29.33
542.28	29.35
542.707	29.38
543.134	29.43
543.561	29.45
543.988	29.48
544.415	29.53
544.842	29.57
545.269	29.61
545.696	29.62
546.123	29.66
546.549	29.71
546.976	29.76
547.403	29.79
547.829	29.8
548.256	29.85
548.682	29.87
549.108	29.88
549.535	29.9
549.961	29.92
550.387	29.92
550.813	29.94
551.24	29.92
551.666	29.94
552.092	29.95
552.518	29.94
552.943	29.92
553.369	29.89
553.795	29.86
554.221	29.82
554.646	29.78
555.072	29.75
555.498	29.67
555.923	29.63
556.349	29.53
556.774	29.45
557.199	29.38
557.625	29.29
558.05	29.2
558.475	29.1
558.9	29.01
559.325	28.89
559.75	28.75
560.175	28.62
560.6	28.49
561.025	28.35
561.449	28.19
561.874	28.02
562.299	27.87
562.723	27.7
563.148	27.53
563.572	27.37
563.997	27.17
564.421	26.99
564.846	26.81
565.27	26.59
565.694	26.36
566.118	26.16
566.542	25.97
566.966	25.75
567.39	25.53
567.814	25.32
568.238	25.06
568.662	24.85
569.086	24.64
569.509	24.42
569.933	24.2
570.357	24.01
570.78	23.78
571.204	23.55
571.627	23.35
572.05	23.16
572.474	22.95
572.897	22.76
573.32	22.56
573.743	22.37
574.166	22.18
574.589	22
575.012	21.83
575.435	21.69
575.858	21.53
576.281	21.37
576.704	21.22
577.126	21.07
577.549	20.96
577.972	20.85
578.394	20.72
578.817	20.59
579.239	20.47
579.661	20.36
580.084	20.24
580.506	20.12
580.928	20.01
581.35	19.9
581.772	19.82
582.194	19.71
582.616	19.61
583.038	19.51
583.46	19.44
583.882	19.37
584.303	19.27
584.725	19.18
585.147	19.09
585.568	19.02
585.99	18.93
586.411	18.85
586.833	18.77
587.254	18.69
587.675	18.61
588.096	18.53
588.518	18.46
588.939	18.39
589.36	18.33
589.781	18.28
590.202	18.22
590.623	18.17
591.043	18.1
591.464	18.04
591.885	17.98
592.305	17.94
592.726	17.9
593.147	17.87
593.567	17.83
593.987	17.8
594.408	17.78
594.828	17.73
595.248	17.69
595.669	17.66
596.089	17.63
596.509	17.58
596.929	17.55
597.349	17.5
597.769	17.43
598.189	17.4
598.608	17.34
599.028	17.28
599.448	17.25
599.867	17.19
600.287	17.13
600.706	17.06
601.126	17.01
601.545	16.94
601.965	16.86
602.384	16.8
602.803	16.72
603.222	16.64
603.641	16.57
604.061	16.49
604.48	16.42
604.898	16.34
605.317	16.26
605.736	16.16
606.155	16.07
606.574	15.99
606.992	15.89
607.411	15.81
607.829	15.66
608.248	15.54
608.666	15.44
609.085	15.34
609.503	15.22
609.921	15.11
610.339	15.03
610.758	14.93
611.176	14.84
611.594	14.74
612.012	14.63
612.43	14.58
612.847	14.51
613.265	14.41
613.683	14.31
614.101	14.23
614.518	14.15
614.936	14.06
615.353	13.98
615.771	13.89
616.188	13.82
616.606	13.76
617.023	13.69
617.44	13.61
617.857	13.54
618.274	13.48
618.691	13.42
619.108	13.36
619.525	13.31
619.942	13.25
620.359	13.22
620.776	13.16
621.192	13.11
621.609	13.08
622.026	13.04
622.442	13.01
622.859	12.99
623.275	12.98
623.691	12.95
624.108	12.92
624.524	12.89
624.94	12.87
625.356	12.85
625.772	12.85
626.188	12.84
626.604	12.82
627.02	12.81
627.436	12.78
627.852	12.76
628.268	12.74
628.683	12.73
629.099	12.73
629.514	12.71
629.93	12.68
630.345	12.63
630.761	12.59
631.176	12.54
631.591	12.5
632.007	12.44
632.422	12.39
632.837	12.34
633.252	12.27
633.667	12.18
634.082	12.11
634.497	12.02
634.911	11.93
635.326	11.84
635.741	11.75
636.155	11.65
636.57	11.56
636.984	11.44
637.399	11.31
637.813	11.2
638.228	11.08
638.642	10.97
639.056	10.86
639.47	10.74
639.884	10.62
640.298	10.5
640.712	10.38
641.126	10.24
641.54	10.12
641.954	10
642.368	9.88
642.781	9.75
643.195	9.63
643.609	9.52
644.022	9.4
644.436	9.29
644.849	9.19
645.262	9.1
645.676	9
646.089	8.92
646.502	8.83
646.915	8.76
647.328	8.7
647.741	8.63
648.154	8.58
648.567	8.54
648.98	8.49
649.393	8.44
649.805	8.38
650.218	8.35
650.631	8.31
651.043	8.29
651.456	8.25
651.868	8.2
652.28	8.17
652.693	8.11
653.105	8.06
653.517	8.01
653.929	7.97
654.341	7.92
654.753	7.86
655.165	7.8
655.577	7.72
655.989	7.66
656.401	7.58
656.813	7.51
657.224	7.45
657.636	7.38
658.047	7.29
658.459	7.22
658.87	7.16
659.282	7.1
659.693	7.03
660.104	6.95
660.515	6.87
660.926	6.81
661.338	6.73
661.749	6.66
662.159	6.6
662.57	6.56
662.981	6.5
663.392	6.45
663.803	6.39
664.213	6.34
664.624	6.32
665.035	6.29
665.445	6.27
665.855	6.25
666.266	6.23
666.676	6.2
667.086	6.18
667.497	6.16
667.907	6.13
668.317	6.12
668.727	6.11
669.137	6.09
669.547	6.09
669.956	6.08
670.366	6.08
670.776	6.09
671.186	6.1
671.595	6.11
672.005	6.14
672.414	6.16
672.824	6.18
673.233	6.21
673.642	6.23
674.052	6.25
674.461	6.28
674.87	6.3
675.279	6.33
675.688	6.35
676.097	6.39
676.506	6.42
676.915	6.46
677.323	6.5
677.732	6.54
678.141	6.6
678.549	6.66
678.958	6.72
679.366	6.78
679.775	6.84
680.183	6.92
680.592	6.98
681	7.04
681.408	7.12
681.816	7.19
682.224	7.29
682.632	7.38
683.04	7.48
683.448	7.6
683.856	7.72
684.264	7.88
684.671	8.06
685.079	8.24
685.487	8.47
685.894	8.71
686.302	8.96
686.709	9.25
687.116	9.56
687.524	9.89
687.931	10.26
688.338	10.66
688.745	11.08
689.152	11.53
689.559	12.01
689.966	12.5
690.373	13.04
690.78	13.6
691.187	14.2
691.593	14.83
692	15.47
692.407	16.14
692.813	16.83
693.22	17.53
693.626	18.24
694.032	18.97
694.439	19.73
694.845	20.47
695.251	21.25
695.657	22.01
696.063	22.78
696.469	23.56
696.875	24.32
697.281	25.05
697.687	25.83
698.093	26.59
698.498	27.36
698.904	28.1
699.31	28.86
699.715	29.58
700.12	30.31
700.526	31.04
700.931	31.77
701.337	32.5
701.742	33.2
702.147	33.9
702.552	34.58
702.957	35.25
703.362	35.95
703.767	36.6
704.172	37.27
704.577	37.92
704.981	38.55
705.386	39.16
705.791	39.79
706.195	40.39
706.6	40.98
707.004	41.59
707.408	42.18
707.813	42.74
708.217	43.33
708.621	43.9
709.025	44.46
709.43	44.99
709.834	45.56
710.237	46.07
710.641	46.66
711.045	47.17
711.449	47.67
711.853	48.2
712.256	48.71
712.66	49.19
713.064	49.66
713.467	50.13
713.87	50.61
714.274	51.1
714.677	51.56
715.08	51.97
715.484	52.41
715.887	52.89
716.29	53.31
716.693	53.72
717.096	54.13
717.499	54.55
717.901	54.94
718.304	55.33
718.707	55.67
719.109	56.04
719.512	56.43
719.915	56.82
720.317	57.15
720.719	57.48
721.122	57.82
721.524	58.17
721.926	58.48
722.328	58.82
722.731	59.18
723.133	59.47
723.535	59.8
723.937	60.07
724.338	60.32
724.74	60.58
725.142	60.78
725.544	61.02
725.945	61.25
726.347	61.47
726.748	61.66
727.15	61.82
727.551	62.05
727.952	62.22
728.354	62.44
728.755	62.64
729.156	62.87
729.557	63.1
729.958	63.3
730.359	63.45
730.76	63.64
731.161	63.78
731.562	63.96
731.962	64.11
732.363	64.26
732.763	64.41
733.164	64.55
733.564	64.64
733.965	64.76
734.365	64.84
734.766	64.97
735.166	65.02
735.566	65.13
735.966	65.2
736.366	65.27
736.766	65.34
737.166	65.4
737.566	65.42
737.966	65.5
738.365	65.57
738.765	65.66
739.165	65.71
739.564	65.8
739.964	65.87
740.363	65.95
740.763	66.01
741.162	66.04
741.561	66.12
741.96	66.22
742.36	66.28
742.759	66.29
743.158	66.34
743.557	66.41
743.955	66.49
744.354	66.56
744.753	66.61
745.152	66.68
745.55	66.77
745.949	66.81
746.348	66.85
746.746	66.91
747.144	67
747.543	67.05
747.941	67.1
748.339	67.16
748.737	67.2
749.136	67.23
749.534	67.26
749.932	67.28
750.33	67.27
750.727	67.27
751.125	67.27
751.523	67.25
751.921	67.27
752.318	67.27
752.716	67.22
753.113	67.24
753.511	67.23
753.908	67.23
754.305	67.2
754.703	67.19
755.1	67.17
755.497	67.16
755.894	67.17
756.291	67.15
756.688	67.14
757.085	67.14
757.482	67.11
757.878	67.1
758.275	67.08
758.672	67.11
759.068	67.13
759.465	67.16
759.861	67.13
760.258	67.1
760.654	67.11
761.05	67.09
761.447	67.07
761.843	67.03
762.239	67.01
762.635	66.99
763.031	66.93
763.427	66.88
763.822	66.86
764.218	66.88
764.614	66.89
765.01	66.86
765.405	66.85
765.801	66.84
766.196	66.85
766.592	66.86
766.987	66.87
767.382	66.91
767.778	66.93
768.173	66.91
768.568	66.87
768.963	66.85
769.358	66.84
769.753	66.87
770.148	66.89
770.542	66.87
770.937	66.88
771.332	66.9
771.726	66.86
772.121	66.82
772.515	66.87
772.91	66.88
773.304	66.87
773.699	66.86
774.093	66.84
774.487	66.85
774.881	66.88
775.275	66.88
775.669	66.83
776.063	66.84
776.457	66.85
776.851	66.84
777.245	66.85
777.638	66.86
778.032	66.89
778.425	66.85
778.819	66.82
779.212	66.81
779.606	66.77
779.999	66.79
780.392	66.81
