Data from N_3_hir_il_4n_Splice17_15.txt Node
Date: Sat Feb 29 15:13:16 EST 2020
User: sa697716
Spectrometer: FLMS03696
Trigger mode: 0
Integration Time (sec): 3.180400E-1
Scans to average: 20
Electric dark correction enabled: true
Nonlinearity correction enabled: true
Boxcar width: 5
XAxis mode: Wavelengths
Number of Pixels in Spectrum: 2048
>>>>>Begin Spectral Data<<<<<
187.83	121.59
188.298	129.43
188.766	123.52
189.233	114.01
189.701	114.47
190.169	115.19
190.636	111.25
191.104	102.69
191.571	223.83
192.039	259.73
192.506	-84.66
192.974	3941.02
193.441	-377.54
193.908	109.43
194.375	110.9
194.842	149.76
195.31	74.83
195.777	35.92
196.244	17.06
196.711	31.32
197.177	30.1
197.644	30.84
198.111	30.85
198.578	31.04
199.045	32.3
199.511	32.38
199.978	32.76
200.445	32.66
200.911	33.29
201.378	33.75
201.844	34.13
202.31	34.94
202.777	35.54
203.243	35.94
203.709	36.41
204.176	36.02
204.642	36.34
205.108	36.11
205.574	36.97
206.04	36.73
206.506	36.51
206.972	36
207.438	35.47
207.903	35.11
208.369	34.83
208.835	34.57
209.301	34.07
209.766	33.77
210.232	33.61
210.697	32.87
211.163	32.39
211.628	31.74
212.094	31.54
212.559	30.97
213.024	30.45
213.49	29.79
213.955	29.2
214.42	28.71
214.885	27.73
215.35	27.06
215.815	25.91
216.28	24.67
216.745	23.67
217.21	22.33
217.675	21.05
218.14	19.77
218.604	18.63
219.069	17.73
219.534	16.94
219.998	16.33
220.463	15.65
220.927	15.15
221.392	14.67
221.856	14.2
222.32	13.83
222.785	13.55
223.249	13.26
223.713	13.02
224.177	12.76
224.642	12.56
225.106	12.31
225.57	12.08
226.034	11.89
226.497	11.68
226.961	11.5
227.425	11.28
227.889	11.1
228.353	10.96
228.816	10.8
229.28	10.63
229.744	10.45
230.207	10.3
230.671	10.16
231.134	10
231.597	9.89
232.061	9.77
232.524	9.66
232.987	9.54
233.45	9.4
233.914	9.29
234.377	9.19
234.84	9.09
235.303	8.99
235.766	8.9
236.229	8.81
236.691	8.73
237.154	8.64
237.617	8.55
238.08	8.47
238.542	8.37
239.005	8.27
239.468	8.19
239.93	8.12
240.393	8.03
240.855	7.92
241.317	7.85
241.78	7.78
242.242	7.69
242.704	7.62
243.166	7.54
243.629	7.49
244.091	7.43
244.553	7.36
245.015	7.31
245.477	7.24
245.939	7.2
246.4	7.13
246.862	7.07
247.324	7.03
247.786	6.98
248.247	6.93
248.709	6.88
249.17	6.82
249.632	6.77
250.093	6.7
250.555	6.65
251.016	6.61
251.477	6.55
251.939	6.5
252.4	6.45
252.861	6.4
253.322	6.35
253.783	6.32
254.244	6.27
254.705	6.22
255.166	6.2
255.627	6.17
256.088	6.12
256.549	6.09
257.009	6.04
257.47	6
257.931	5.96
258.391	5.93
258.852	5.87
259.312	5.83
259.773	5.79
260.233	5.74
260.694	5.7
261.154	5.65
261.614	5.62
262.074	5.59
262.534	5.54
262.994	5.51
263.455	5.47
263.915	5.44
264.374	5.41
264.834	5.38
265.294	5.35
265.754	5.31
266.214	5.28
266.673	5.25
267.133	5.22
267.593	5.19
268.052	5.16
268.512	5.13
268.971	5.11
269.431	5.09
269.89	5.06
270.349	5.04
270.809	5.02
271.268	5.01
271.727	4.99
272.186	4.98
272.645	4.96
273.104	4.94
273.563	4.92
274.022	4.9
274.481	4.88
274.94	4.86
275.399	4.84
275.857	4.82
276.316	4.79
276.775	4.76
277.233	4.74
277.692	4.71
278.15	4.68
278.609	4.66
279.067	4.64
279.525	4.61
279.984	4.6
280.442	4.59
280.9	4.57
281.358	4.56
281.816	4.54
282.274	4.53
282.732	4.51
283.19	4.52
283.648	4.51
284.106	4.49
284.564	4.48
285.021	4.47
285.479	4.45
285.937	4.43
286.394	4.41
286.852	4.4
287.309	4.4
287.767	4.39
288.224	4.37
288.682	4.35
289.139	4.33
289.596	4.31
290.053	4.28
290.511	4.26
290.968	4.24
291.425	4.22
291.882	4.2
292.339	4.18
292.796	4.15
293.252	4.13
293.709	4.11
294.166	4.1
294.623	4.08
295.079	4.07
295.536	4.06
295.992	4.04
296.449	4.03
296.905	4.01
297.362	3.99
297.818	3.99
298.274	3.97
298.731	3.96
299.187	3.94
299.643	3.93
300.099	3.91
300.555	3.9
301.011	3.89
301.467	3.87
301.923	3.87
302.379	3.86
302.835	3.85
303.291	3.84
303.746	3.83
304.202	3.82
304.658	3.81
305.113	3.8
305.569	3.8
306.024	3.8
306.479	3.79
306.935	3.78
307.39	3.78
307.845	3.77
308.301	3.76
308.756	3.77
309.211	3.76
309.666	3.76
310.121	3.75
310.576	3.73
311.031	3.72
311.486	3.71
311.94	3.7
312.395	3.7
312.85	3.69
313.305	3.68
313.759	3.67
314.214	3.66
314.668	3.66
315.123	3.66
315.577	3.66
316.032	3.66
316.486	3.65
316.94	3.64
317.394	3.63
317.849	3.63
318.303	3.63
318.757	3.61
319.211	3.6
319.665	3.58
320.119	3.57
320.572	3.57
321.026	3.56
321.48	3.55
321.934	3.54
322.387	3.53
322.841	3.52
323.295	3.5
323.748	3.5
324.202	3.5
324.655	3.49
325.108	3.47
325.562	3.45
326.015	3.43
326.468	3.42
326.921	3.41
327.374	3.41
327.827	3.4
328.28	3.4
328.733	3.38
329.186	3.38
329.639	3.38
330.092	3.38
330.545	3.39
330.997	3.39
331.45	3.38
331.903	3.37
332.355	3.35
332.808	3.36
333.26	3.36
333.713	3.36
334.165	3.35
334.617	3.34
335.069	3.33
335.522	3.34
335.974	3.34
336.426	3.34
336.878	3.34
337.33	3.34
337.782	3.34
338.234	3.34
338.686	3.33
339.137	3.34
339.589	3.33
340.041	3.33
340.493	3.31
340.944	3.31
341.396	3.3
341.847	3.3
342.299	3.29
342.75	3.27
343.201	3.24
343.653	3.23
344.104	3.22
344.555	3.22
345.006	3.2
345.457	3.2
345.908	3.19
346.359	3.19
346.81	3.18
347.261	3.17
347.712	3.16
348.163	3.16
348.613	3.15
349.064	3.14
349.515	3.12
349.965	3.12
350.416	3.11
350.866	3.1
351.317	3.09
351.767	3.08
352.217	3.07
352.668	3.07
353.118	3.07
353.568	3.07
354.018	3.07
354.468	3.07
354.918	3.07
355.368	3.06
355.818	3.06
356.268	3.06
356.718	3.07
357.168	3.06
357.617	3.05
358.067	3.04
358.517	3.04
358.966	3.04
359.416	3.04
359.865	3.04
360.315	3.04
360.764	3.04
361.213	3.03
361.663	3.03
362.112	3.04
362.561	3.04
363.01	3.04
363.459	3.04
363.908	3.03
364.357	3.04
364.806	3.03
365.255	3.04
365.703	3.03
366.152	3.03
366.601	3.02
367.05	3.02
367.498	3.02
367.947	3.02
368.395	3.03
368.844	3.03
369.292	3.03
369.74	3.04
370.189	3.03
370.637	3.03
371.085	3.04
371.533	3.04
371.981	3.03
372.429	3.02
372.877	3.02
373.325	3
373.773	3
374.221	2.99
374.669	2.99
375.116	2.98
375.564	2.98
376.012	2.98
376.459	2.98
376.907	3
377.354	3
377.801	3
378.249	3.02
378.696	3.03
379.143	3.04
379.591	3.04
380.038	3.06
380.485	3.07
380.932	3.08
381.379	3.09
381.826	3.09
382.273	3.11
382.72	3.13
383.166	3.14
383.613	3.14
384.06	3.15
384.506	3.16
384.953	3.16
385.4	3.17
385.846	3.17
386.292	3.2
386.739	3.2
387.185	3.23
387.631	3.25
388.078	3.27
388.524	3.28
388.97	3.31
389.416	3.32
389.862	3.35
390.308	3.37
390.754	3.41
391.2	3.43
391.645	3.47
392.091	3.48
392.537	3.51
392.983	3.54
393.428	3.58
393.874	3.61
394.319	3.65
394.765	3.68
395.21	3.7
395.655	3.73
396.101	3.76
396.546	3.79
396.991	3.82
397.436	3.83
397.881	3.86
398.326	3.9
398.771	3.93
399.216	3.96
399.661	4
400.106	4.05
400.551	4.09
400.995	4.12
401.44	4.13
401.885	4.17
402.329	4.21
402.774	4.23
403.218	4.26
403.663	4.29
404.107	4.33
404.551	4.36
404.995	4.39
405.44	4.41
405.884	4.43
406.328	4.47
406.772	4.5
407.216	4.54
407.66	4.58
408.104	4.61
408.547	4.63
408.991	4.65
409.435	4.67
409.879	4.69
410.322	4.73
410.766	4.77
411.209	4.8
411.653	4.82
412.096	4.84
412.54	4.86
412.983	4.88
413.426	4.92
413.869	4.94
414.312	4.99
414.756	5.04
415.199	5.06
415.642	5.1
416.085	5.13
416.527	5.17
416.97	5.21
417.413	5.22
417.856	5.23
418.298	5.24
418.741	5.25
419.184	5.25
419.626	5.24
420.069	5.24
420.511	5.25
420.953	5.25
421.396	5.26
421.838	5.28
422.28	5.31
422.722	5.33
423.164	5.35
423.606	5.38
424.048	5.39
424.49	5.43
424.932	5.45
425.374	5.45
425.816	5.45
426.258	5.44
426.699	5.41
427.141	5.4
427.582	5.39
428.024	5.39
428.465	5.4
428.907	5.43
429.348	5.43
429.789	5.43
430.231	5.43
430.672	5.45
431.113	5.47
431.554	5.5
431.995	5.51
432.436	5.54
432.877	5.51
433.318	5.51
433.759	5.51
434.2	5.51
434.64	5.52
435.081	5.53
435.522	5.53
435.962	5.56
436.403	5.57
436.843	5.58
437.284	5.58
437.724	5.64
438.164	5.63
438.604	5.65
439.045	5.65
439.485	5.66
439.925	5.67
440.365	5.68
440.805	5.68
441.245	5.67
441.685	5.69
442.125	5.7
442.564	5.71
443.004	5.75
443.444	5.78
443.883	5.82
444.323	5.82
444.762	5.86
445.202	5.92
445.641	5.96
446.081	6
446.52	6
446.959	6.03
447.398	6.07
447.837	6.11
448.276	6.11
448.716	6.12
449.154	6.16
449.593	6.19
450.032	6.21
450.471	6.23
450.91	6.24
451.349	6.29
451.787	6.3
452.226	6.3
452.664	6.28
453.103	6.29
453.541	6.32
453.98	6.32
454.418	6.31
454.856	6.27
455.295	6.27
455.733	6.25
456.171	6.23
456.609	6.22
457.047	6.22
457.485	6.22
457.923	6.2
458.361	6.16
458.798	6.16
459.236	6.14
459.674	6.14
460.111	6.14
460.549	6.13
460.987	6.12
461.424	6.11
461.862	6.09
462.299	6.09
462.736	6.08
463.173	6.1
463.611	6.1
464.048	6.1
464.485	6.1
464.922	6.08
465.359	6.1
465.796	6.09
466.233	6.1
466.67	6.11
467.106	6.11
467.543	6.13
467.98	6.12
468.416	6.12
468.853	6.13
469.29	6.14
469.726	6.16
470.162	6.15
470.599	6.17
471.035	6.18
471.471	6.19
471.907	6.21
472.344	6.21
472.78	6.22
473.216	6.21
473.652	6.21
474.088	6.22
474.523	6.21
474.959	6.21
475.395	6.21
475.831	6.23
476.266	6.23
476.702	6.22
477.138	6.22
477.573	6.21
478.008	6.21
478.444	6.21
478.879	6.2
479.314	6.2
479.75	6.22
480.185	6.22
480.62	6.19
481.055	6.19
481.49	6.17
481.925	6.18
482.36	6.17
482.795	6.16
483.229	6.16
483.664	6.16
484.099	6.16
484.534	6.16
484.968	6.16
485.403	6.16
485.837	6.17
486.271	6.19
486.706	6.19
487.14	6.21
487.574	6.23
488.009	6.26
488.443	6.26
488.877	6.27
489.311	6.29
489.745	6.31
490.179	6.34
490.613	6.36
491.046	6.4
491.48	6.44
491.914	6.47
492.348	6.51
492.781	6.54
493.215	6.58
493.648	6.64
494.082	6.69
494.515	6.75
494.948	6.81
495.382	6.86
495.815	6.92
496.248	6.99
496.681	7.06
497.114	7.12
497.547	7.19
497.98	7.27
498.413	7.35
498.846	7.44
499.279	7.54
499.711	7.62
500.144	7.73
500.577	7.85
501.009	7.95
501.442	8.07
501.874	8.19
502.306	8.32
502.739	8.45
503.171	8.59
503.603	8.73
504.036	8.88
504.468	9.04
504.9	9.2
505.332	9.36
505.764	9.54
506.196	9.71
506.627	9.9
507.059	10.08
507.491	10.29
507.923	10.5
508.354	10.71
508.786	10.92
509.217	11.14
509.649	11.37
510.08	11.59
510.512	11.81
510.943	12.07
511.374	12.3
511.805	12.55
512.237	12.81
512.668	13.07
513.099	13.34
513.53	13.6
513.961	13.87
514.391	14.14
514.822	14.44
515.253	14.73
515.684	15
516.114	15.31
516.545	15.61
516.975	15.91
517.406	16.21
517.836	16.51
518.267	16.82
518.697	17.13
519.127	17.43
519.558	17.71
519.988	18
520.418	18.29
520.848	18.58
521.278	18.85
521.708	18.98
522.138	19.22
522.567	19.47
522.997	19.72
523.427	19.96
523.857	20.21
524.286	20.45
524.716	20.68
525.145	20.92
525.575	21.12
526.004	21.32
526.433	21.66
526.863	21.88
527.292	22.09
527.721	22.27
528.15	22.45
528.579	22.62
529.008	22.78
529.437	22.93
529.866	23.07
530.295	23.22
530.724	23.38
531.152	23.51
531.581	23.64
532.01	23.75
532.438	23.87
532.867	23.98
533.295	24.09
533.723	24.21
534.152	24.31
534.58	24.4
535.008	24.44
535.436	24.49
535.865	24.55
536.293	24.62
536.721	24.66
537.149	24.69
537.576	24.73
538.004	24.74
538.432	24.76
538.86	24.81
539.287	24.84
539.715	24.91
540.143	24.95
540.57	24.99
540.998	25.02
541.425	25.06
541.852	25.09
542.28	25.11
542.707	25.16
543.134	25.21
543.561	25.22
543.988	25.23
544.415	25.26
544.842	25.29
545.269	25.34
545.696	25.35
546.123	25.38
546.549	25.42
546.976	25.47
547.403	25.49
547.829	25.51
548.256	25.53
548.682	25.57
549.108	25.61
549.535	25.62
549.961	25.63
550.387	25.65
550.813	25.66
551.24	25.67
551.666	25.7
552.092	25.69
552.518	25.69
552.943	25.69
553.369	25.69
553.795	25.66
554.221	25.63
554.646	25.6
555.072	25.59
555.498	25.57
555.923	25.54
556.349	25.44
556.774	25.41
557.199	25.37
557.625	25.31
558.05	25.2
558.475	25.15
558.9	25.09
559.325	25.01
559.75	24.92
560.175	24.84
560.6	24.75
561.025	24.69
561.449	24.59
561.874	24.48
562.299	24.38
562.723	24.29
563.148	24.16
563.572	24.05
563.997	23.9
564.421	23.77
564.846	23.63
565.27	23.48
565.694	23.33
566.118	23.17
566.542	23.03
566.966	22.87
567.39	22.7
567.814	22.54
568.238	22.36
568.662	22.22
569.086	22.04
569.509	21.87
569.933	21.7
570.357	21.52
570.78	21.36
571.204	21.19
571.627	21.03
572.05	20.89
572.474	20.75
572.897	20.62
573.32	20.45
573.743	20.32
574.166	20.17
574.589	20.05
575.012	19.93
575.435	19.8
575.858	19.69
576.281	19.58
576.704	19.48
577.126	19.35
577.549	19.25
577.972	19.17
578.394	19.08
578.817	18.99
579.239	18.92
579.661	18.83
580.084	18.75
580.506	18.67
580.928	18.59
581.35	18.5
581.772	18.44
582.194	18.36
582.616	18.3
583.038	18.23
583.46	18.17
583.882	18.07
584.303	18
584.725	17.95
585.147	17.86
585.568	17.77
585.99	17.72
586.411	17.66
586.833	17.6
587.254	17.55
587.675	17.5
588.096	17.45
588.518	17.42
588.939	17.37
589.36	17.3
589.781	17.28
590.202	17.24
590.623	17.19
591.043	17.15
591.464	17.1
591.885	17.05
592.305	17.01
592.726	16.96
593.147	16.94
593.567	16.9
593.987	16.9
594.408	16.86
594.828	16.84
595.248	16.8
595.669	16.78
596.089	16.75
596.509	16.71
596.929	16.67
597.349	16.64
597.769	16.61
598.189	16.58
598.608	16.52
599.028	16.49
599.448	16.46
599.867	16.44
600.287	16.39
600.706	16.35
601.126	16.29
601.545	16.24
601.965	16.18
602.384	16.13
602.803	16.07
603.222	16.01
603.641	15.94
604.061	15.87
604.48	15.79
604.898	15.73
605.317	15.65
605.736	15.58
606.155	15.51
606.574	15.43
606.992	15.33
607.411	15.25
607.829	15.14
608.248	15.06
608.666	14.99
609.085	14.9
609.503	14.81
609.921	14.74
610.339	14.66
610.758	14.57
611.176	14.49
611.594	14.41
612.012	14.34
612.43	14.3
612.847	14.21
613.265	14.14
613.683	14.04
614.101	13.96
614.518	13.88
614.936	13.81
615.353	13.73
615.771	13.66
616.188	13.6
616.606	13.53
617.023	13.46
617.44	13.4
617.857	13.32
618.274	13.28
618.691	13.24
619.108	13.18
619.525	13.12
619.942	13.1
620.359	13.06
620.776	13.02
621.192	12.98
621.609	12.95
622.026	12.92
622.442	12.89
622.859	12.86
623.275	12.83
623.691	12.81
624.108	12.79
624.524	12.74
624.94	12.72
625.356	12.71
625.772	12.7
626.188	12.69
626.604	12.67
627.02	12.67
627.436	12.66
627.852	12.64
628.268	12.63
628.683	12.62
629.099	12.62
629.514	12.6
629.93	12.58
630.345	12.54
630.761	12.5
631.176	12.48
631.591	12.44
632.007	12.4
632.422	12.36
632.837	12.31
633.252	12.27
633.667	12.21
634.082	12.14
634.497	12.06
634.911	12
635.326	11.92
635.741	11.83
636.155	11.74
636.57	11.65
636.984	11.55
637.399	11.45
637.813	11.34
638.228	11.24
638.642	11.15
639.056	11.05
639.47	10.94
639.884	10.84
640.298	10.74
640.712	10.63
641.126	10.52
641.54	10.42
641.954	10.32
642.368	10.21
642.781	10.09
643.195	9.96
643.609	9.85
644.022	9.74
644.436	9.63
644.849	9.54
645.262	9.46
645.676	9.36
646.089	9.27
646.502	9.18
646.915	9.1
647.328	9.04
647.741	8.98
648.154	8.93
648.567	8.88
648.98	8.82
649.393	8.77
649.805	8.7
650.218	8.65
650.631	8.6
651.043	8.55
651.456	8.5
651.868	8.44
652.28	8.4
652.693	8.33
653.105	8.28
653.517	8.23
653.929	8.18
654.341	8.13
654.753	8.05
655.165	7.99
655.577	7.92
655.989	7.83
656.401	7.74
656.813	7.65
657.224	7.58
657.636	7.49
658.047	7.4
658.459	7.28
658.87	7.19
659.282	7.11
659.693	7.02
660.104	6.94
660.515	6.86
660.926	6.79
661.338	6.72
661.749	6.63
662.159	6.55
662.57	6.47
662.981	6.41
663.392	6.33
663.803	6.26
664.213	6.2
664.624	6.14
665.035	6.08
665.445	6.03
665.855	5.97
666.266	5.93
666.676	5.89
667.086	5.85
667.497	5.82
667.907	5.79
668.317	5.75
668.727	5.73
669.137	5.7
669.547	5.69
669.956	5.67
670.366	5.66
670.776	5.65
671.186	5.66
671.595	5.66
672.005	5.67
672.414	5.67
672.824	5.68
673.233	5.69
673.642	5.69
674.052	5.7
674.461	5.72
674.87	5.73
675.279	5.73
675.688	5.75
676.097	5.77
676.506	5.79
676.915	5.81
677.323	5.84
677.732	5.88
678.141	5.94
678.549	5.98
678.958	6.03
679.366	6.09
679.775	6.16
680.183	6.22
680.592	6.29
681	6.35
681.408	6.45
681.816	6.55
682.224	6.66
682.632	6.77
683.04	6.91
683.448	7.04
683.856	7.19
684.264	7.36
684.671	7.56
685.079	7.77
685.487	8.02
685.894	8.28
686.302	8.55
686.709	8.84
687.116	9.16
687.524	9.49
687.931	9.84
688.338	10.24
688.745	10.65
689.152	11.08
689.559	11.54
689.966	12
690.373	12.47
690.78	12.97
691.187	13.49
691.593	14.01
692	14.55
692.407	15.1
692.813	15.66
693.22	16.23
693.626	16.81
694.032	17.39
694.439	17.98
694.845	18.57
695.251	19.16
695.657	19.72
696.063	20.32
696.469	20.91
696.875	21.48
697.281	22.04
697.687	22.6
698.093	23.16
698.498	23.71
698.904	24.26
699.31	24.78
699.715	25.31
700.12	25.82
700.526	26.34
700.931	26.86
701.337	27.36
701.742	27.83
702.147	28.33
702.552	28.8
702.957	29.26
703.362	29.7
703.767	30.16
704.172	30.62
704.577	31.06
704.981	31.48
705.386	31.89
705.791	32.32
706.195	32.71
706.6	33.09
707.004	33.49
707.408	33.87
707.813	34.26
708.217	34.62
708.621	34.96
709.025	35.31
709.43	35.66
709.834	36.01
710.237	36.32
710.641	36.68
711.045	37.02
711.449	37.33
711.853	37.66
712.256	37.98
712.66	38.31
713.064	38.61
713.467	38.92
713.87	39.21
714.274	39.49
714.677	39.79
715.08	40.04
715.484	40.32
715.887	40.61
716.29	40.86
716.693	41.09
717.096	41.33
717.499	41.58
717.901	41.8
718.304	42.03
718.707	42.26
719.109	42.48
719.512	42.75
719.915	42.97
720.317	43.18
720.719	43.37
721.122	43.59
721.524	43.79
721.926	44.01
722.328	44.2
722.731	44.38
723.133	44.57
723.535	44.76
723.937	44.93
724.338	45.05
724.74	45.19
725.142	45.35
725.544	45.51
725.945	45.65
726.347	45.78
726.748	45.9
727.15	46.05
727.551	46.19
727.952	46.33
728.354	46.45
728.755	46.6
729.156	46.73
729.557	46.86
729.958	46.95
730.359	47.06
730.76	47.15
731.161	47.28
731.562	47.36
731.962	47.46
732.363	47.52
732.763	47.61
733.164	47.66
733.564	47.71
733.965	47.77
734.365	47.83
734.766	47.87
735.166	47.92
735.566	47.93
735.966	47.95
736.366	47.97
736.766	48.01
737.166	48.05
737.566	48.1
737.966	48.14
738.365	48.21
738.765	48.25
739.165	48.27
739.564	48.34
739.964	48.4
740.363	48.47
740.763	48.49
741.162	48.53
741.561	48.57
741.96	48.65
742.36	48.69
742.759	48.7
743.158	48.73
743.557	48.79
743.955	48.82
744.354	48.89
744.753	48.92
745.152	48.95
745.55	48.99
745.949	49.03
746.348	49.04
746.746	49.06
747.144	49.12
747.543	49.16
747.941	49.22
748.339	49.28
748.737	49.29
749.136	49.33
749.534	49.37
749.932	49.39
750.33	49.41
750.727	49.42
751.125	49.43
751.523	49.4
751.921	49.43
752.318	49.4
752.716	49.33
753.113	49.33
753.511	49.25
753.908	49.22
754.305	49.2
754.703	49.15
755.1	49.14
755.497	49.13
755.894	49.13
756.291	49.07
756.688	49.05
757.085	49.04
757.482	49
757.878	49.05
758.275	49.04
758.672	49.02
759.068	49.05
759.465	49.01
759.861	48.99
760.258	48.97
760.654	48.96
761.05	48.97
761.447	48.97
761.843	48.97
762.239	48.94
762.635	48.95
763.031	48.96
763.427	48.92
763.822	48.91
764.218	48.9
764.614	48.91
765.01	48.92
765.405	48.88
765.801	48.87
766.196	48.87
766.592	48.88
766.987	48.88
767.382	48.87
767.778	48.9
768.173	48.92
768.568	48.91
768.963	48.93
769.358	48.96
769.753	49.01
770.148	49.02
770.542	49.01
770.937	49.01
771.332	49.04
771.726	49.03
772.121	49.01
772.515	49.02
772.91	49.03
773.304	49.01
773.699	49
774.093	48.96
774.487	48.96
774.881	48.95
775.275	48.93
775.669	48.92
776.063	48.9
776.457	48.88
776.851	48.83
777.245	48.86
777.638	48.87
778.032	48.86
778.425	48.87
778.819	48.9
779.212	48.94
779.606	48.95
779.999	48.95
780.392	48.97
780.786	48.98
781.179	49.05
781.572	49.06
781.965	49.07
782.358	49.06
