Data from N_3_div_wi_4n_Splice17_16.txt Node
Date: Sat Feb 29 14:44:18 EST 2020
User: sa697716
Spectrometer: FLMS03696
Trigger mode: 0
Integration Time (sec): 3.180400E-1
Scans to average: 20
Electric dark correction enabled: true
Nonlinearity correction enabled: true
Boxcar width: 5
XAxis mode: Wavelengths
Number of Pixels in Spectrum: 2048
>>>>>Begin Spectral Data<<<<<
187.83	85.25
188.298	77.01
188.766	76.36
189.233	82.33
189.701	84.32
190.169	88.38
190.636	92.19
191.104	110.59
191.571	399.7
192.039	356.15
192.506	-298.46
192.974	-3957
193.441	530.17
193.908	22.12
194.375	30.36
194.842	67.32
195.31	59.44
195.777	56.25
196.244	21.38
196.711	28.35
197.177	27.01
197.644	28.09
198.111	29.49
198.578	29.48
199.045	29.55
199.511	30.18
199.978	30.42
200.445	30.4
200.911	30.24
201.378	31.25
201.844	31.99
202.31	32.98
202.777	33.14
203.243	33.26
203.709	33.75
204.176	33.84
204.642	33.94
205.108	34.25
205.574	34.79
206.04	35.23
206.506	35.1
206.972	34.91
207.438	35.1
207.903	35.92
208.369	36.13
208.835	36.4
209.301	36.83
209.766	37.16
210.232	37.56
210.697	37.91
211.163	38.4
211.628	38.71
212.094	39.03
212.559	39.35
213.024	39.16
213.49	39.42
213.955	39.51
214.42	39.46
214.885	39.56
215.35	39.67
215.815	39.87
216.28	40.19
216.745	40.44
217.21	40.74
217.675	40.85
218.14	40.79
218.604	40.64
219.069	40.57
219.534	40.53
219.998	40.42
220.463	40.25
220.927	40.06
221.392	39.7
221.856	39.46
222.32	39.17
222.785	38.8
223.249	38.53
223.713	38.2
224.177	37.9
224.642	37.54
225.106	37.14
225.57	36.76
226.034	36.33
226.497	35.95
226.961	35.47
227.425	35.01
227.889	34.61
228.353	34.19
228.816	33.76
229.28	33.29
229.744	32.86
230.207	32.46
230.671	32.01
231.134	31.61
231.597	31.17
232.061	30.8
232.524	30.4
232.987	29.99
233.45	29.56
233.914	29.16
234.377	28.79
234.84	28.41
235.303	28.04
235.766	27.66
236.229	27.3
236.691	26.97
237.154	26.63
237.617	26.31
238.08	25.99
238.542	25.67
239.005	25.38
239.468	25.05
239.93	24.77
240.393	24.47
240.855	24.2
241.317	23.93
241.78	23.68
242.242	23.41
242.704	23.14
243.166	22.9
243.629	22.65
244.091	22.42
244.553	22.2
245.015	21.99
245.477	21.77
245.939	21.55
246.4	21.32
246.862	21.13
247.324	20.95
247.786	20.78
248.247	20.59
248.709	20.41
249.17	20.23
249.632	20.06
250.093	19.88
250.555	19.71
251.016	19.55
251.477	19.39
251.939	19.23
252.4	19.08
252.861	18.91
253.322	18.77
253.783	18.65
254.244	18.51
254.705	18.4
255.166	18.31
255.627	18.22
256.088	18.12
256.549	18.05
257.009	17.97
257.47	17.88
257.931	17.8
258.391	17.72
258.852	17.62
259.312	17.56
259.773	17.47
260.233	17.35
260.694	17.27
261.154	17.18
261.614	17.08
262.074	17
262.534	16.91
262.994	16.82
263.455	16.74
263.915	16.66
264.374	16.57
264.834	16.48
265.294	16.41
265.754	16.32
266.214	16.25
266.673	16.17
267.133	16.1
267.593	16.04
268.052	15.95
268.512	15.88
268.971	15.81
269.431	15.75
269.89	15.67
270.349	15.6
270.809	15.56
271.268	15.49
271.727	15.42
272.186	15.35
272.645	15.28
273.104	15.23
273.563	15.17
274.022	15.12
274.481	15.05
274.94	14.98
275.399	14.91
275.857	14.83
276.316	14.76
276.775	14.69
277.233	14.62
277.692	14.55
278.15	14.48
278.609	14.4
279.067	14.32
279.525	14.24
279.984	14.18
280.442	14.12
280.9	14.06
281.358	13.99
281.816	13.92
282.274	13.85
282.732	13.79
283.19	13.73
283.648	13.67
284.106	13.61
284.564	13.58
285.021	13.53
285.479	13.49
285.937	13.45
286.394	13.41
286.852	13.39
287.309	13.35
287.767	13.32
288.224	13.27
288.682	13.22
289.139	13.17
289.596	13.1
290.053	13.02
290.511	12.94
290.968	12.86
291.425	12.79
291.882	12.71
292.339	12.63
292.796	12.56
293.252	12.5
293.709	12.43
294.166	12.37
294.623	12.32
295.079	12.27
295.536	12.21
295.992	12.16
296.449	12.11
296.905	12.07
297.362	12.02
297.818	11.96
298.274	11.91
298.731	11.87
299.187	11.82
299.643	11.78
300.099	11.74
300.555	11.68
301.011	11.64
301.467	11.59
301.923	11.54
302.379	11.49
302.835	11.45
303.291	11.41
303.746	11.36
304.202	11.31
304.658	11.26
305.113	11.23
305.569	11.2
306.024	11.16
306.479	11.12
306.935	11.09
307.39	11.06
307.845	11.03
308.301	11.01
308.756	10.98
309.211	10.95
309.666	10.93
310.121	10.91
310.576	10.89
311.031	10.87
311.486	10.84
311.94	10.83
312.395	10.8
312.85	10.77
313.305	10.73
313.759	10.72
314.214	10.69
314.668	10.66
315.123	10.63
315.577	10.6
316.032	10.57
316.486	10.55
316.94	10.51
317.394	10.48
317.849	10.46
318.303	10.43
318.757	10.4
319.211	10.36
319.665	10.32
320.119	10.27
320.572	10.24
321.026	10.21
321.48	10.17
321.934	10.14
322.387	10.11
322.841	10.07
323.295	10.03
323.748	10
324.202	9.97
324.655	9.94
325.108	9.91
325.562	9.86
326.015	9.83
326.468	9.79
326.921	9.76
327.374	9.72
327.827	9.69
328.28	9.66
328.733	9.62
329.186	9.6
329.639	9.57
330.092	9.55
330.545	9.53
330.997	9.5
331.45	9.47
331.903	9.45
332.355	9.43
332.808	9.42
333.26	9.41
333.713	9.4
334.165	9.38
334.617	9.37
335.069	9.35
335.522	9.35
335.974	9.35
336.426	9.35
336.878	9.35
337.33	9.34
337.782	9.33
338.234	9.32
338.686	9.31
339.137	9.29
339.589	9.27
340.041	9.26
340.493	9.23
340.944	9.21
341.396	9.18
341.847	9.14
342.299	9.1
342.75	9.06
343.201	9.01
343.653	8.98
344.104	8.94
344.555	8.91
345.006	8.86
345.457	8.83
345.908	8.81
346.359	8.78
346.81	8.75
347.261	8.74
347.712	8.71
348.163	8.69
348.613	8.67
349.064	8.64
349.515	8.62
349.965	8.61
350.416	8.58
350.866	8.57
351.317	8.55
351.767	8.54
352.217	8.52
352.668	8.52
353.118	8.51
353.568	8.5
354.018	8.5
354.468	8.49
354.918	8.49
355.368	8.5
355.818	8.49
356.268	8.49
356.718	8.48
357.168	8.47
357.617	8.45
358.067	8.45
358.517	8.45
358.966	8.45
359.416	8.45
359.865	8.45
360.315	8.44
360.764	8.43
361.213	8.42
361.663	8.43
362.112	8.43
362.561	8.44
363.01	8.44
363.459	8.44
363.908	8.44
364.357	8.45
364.806	8.44
365.255	8.46
365.703	8.46
366.152	8.48
366.601	8.49
367.05	8.51
367.498	8.52
367.947	8.54
368.395	8.56
368.844	8.57
369.292	8.57
369.74	8.59
370.189	8.6
370.637	8.62
371.085	8.65
371.533	8.67
371.981	8.7
372.429	8.72
372.877	8.73
373.325	8.75
373.773	8.78
374.221	8.81
374.669	8.84
375.116	8.87
375.564	8.89
376.012	8.92
376.459	8.94
376.907	8.97
377.354	8.99
377.801	9.02
378.249	9.06
378.696	9.08
379.143	9.12
379.591	9.15
380.038	9.2
380.485	9.24
380.932	9.27
381.379	9.3
381.826	9.34
382.273	9.37
382.72	9.41
383.166	9.45
383.613	9.49
384.06	9.53
384.506	9.55
384.953	9.57
385.4	9.6
385.846	9.63
386.292	9.68
386.739	9.7
387.185	9.74
387.631	9.77
388.078	9.78
388.524	9.79
388.97	9.8
389.416	9.82
389.862	9.84
390.308	9.86
390.754	9.88
391.2	9.89
391.645	9.92
392.091	9.93
392.537	9.94
392.983	9.98
393.428	10.02
393.874	10.05
394.319	10.07
394.765	10.07
395.21	10.06
395.655	10.08
396.101	10.1
396.546	10.1
396.991	10.1
397.436	10.09
397.881	10.09
398.326	10.09
398.771	10.11
399.216	10.12
399.661	10.15
400.106	10.18
400.551	10.18
400.995	10.15
401.44	10.13
401.885	10.12
402.329	10.11
402.774	10.09
403.218	10.08
403.663	10.05
404.107	10.04
404.551	10.02
404.995	9.98
405.44	9.95
405.884	9.94
406.328	9.94
406.772	9.94
407.216	9.94
407.66	9.93
408.104	9.92
408.547	9.91
408.991	9.88
409.435	9.86
409.879	9.86
410.322	9.85
410.766	9.84
411.209	9.85
411.653	9.83
412.096	9.81
412.54	9.8
412.983	9.79
413.426	9.79
413.869	9.8
414.312	9.82
414.756	9.84
415.199	9.85
415.642	9.85
416.085	9.85
416.527	9.87
416.97	9.89
417.413	9.88
417.856	9.86
418.298	9.84
418.741	9.81
419.184	9.79
419.626	9.77
420.069	9.77
420.511	9.78
420.953	9.75
421.396	9.73
421.838	9.71
422.28	9.71
422.722	9.72
423.164	9.72
423.606	9.72
424.048	9.7
424.49	9.71
424.932	9.7
425.374	9.68
425.816	9.66
426.258	9.64
426.699	9.6
427.141	9.56
427.582	9.53
428.024	9.53
428.465	9.53
428.907	9.55
429.348	9.55
429.789	9.53
430.231	9.5
430.672	9.5
431.113	9.51
431.554	9.55
431.995	9.56
432.436	9.57
432.877	9.57
433.318	9.58
433.759	9.56
434.2	9.55
434.64	9.59
435.081	9.61
435.522	9.61
435.962	9.64
436.403	9.66
436.843	9.68
437.284	9.71
437.724	9.74
438.164	9.75
438.604	9.78
439.045	9.78
439.485	9.79
439.925	9.82
440.365	9.84
440.805	9.82
441.245	9.82
441.685	9.84
442.125	9.84
442.564	9.85
443.004	9.87
443.444	9.89
443.883	9.91
444.323	9.93
444.762	9.98
445.202	10.02
445.641	10.08
446.081	10.15
446.52	10.17
446.959	10.21
447.398	10.27
447.837	10.32
448.276	10.35
448.716	10.41
449.154	10.46
449.593	10.47
450.032	10.5
450.471	10.53
450.91	10.52
451.349	10.55
451.787	10.58
452.226	10.55
452.664	10.53
453.103	10.52
453.541	10.52
453.98	10.5
454.418	10.46
454.856	10.42
455.295	10.4
455.733	10.37
456.171	10.37
456.609	10.36
457.047	10.34
457.485	10.33
457.923	10.33
458.361	10.3
458.798	10.3
459.236	10.29
459.674	10.3
460.111	10.29
460.549	10.28
460.987	10.25
461.424	10.24
461.862	10.24
462.299	10.21
462.736	10.2
463.173	10.18
463.611	10.16
464.048	10.15
464.485	10.14
464.922	10.11
465.359	10.09
465.796	10.07
466.233	10.06
466.67	10.05
467.106	10.06
467.543	10.04
467.98	10.04
468.416	10.04
468.853	10.02
469.29	10.01
469.726	10.03
470.162	10.02
470.599	10.03
471.035	10.02
471.471	10.02
471.907	10
472.344	10.01
472.78	9.99
473.216	9.98
473.652	10
474.088	10.02
474.523	10.01
474.959	10.01
475.395	10.01
475.831	10.02
476.266	10.01
476.702	10
477.138	9.99
477.573	9.98
478.008	9.99
478.444	9.96
478.879	9.93
479.314	9.92
479.75	9.92
480.185	9.9
480.62	9.88
481.055	9.87
481.49	9.86
481.925	9.85
482.36	9.84
482.795	9.83
483.229	9.84
483.664	9.83
484.099	9.83
484.534	9.83
484.968	9.83
485.403	9.84
485.837	9.85
486.271	9.85
486.706	9.86
487.14	9.89
487.574	9.9
488.009	9.92
488.443	9.95
488.877	9.96
489.311	9.97
489.745	10
490.179	10.03
490.613	10.05
491.046	10.1
491.48	10.13
491.914	10.16
492.348	10.2
492.781	10.23
493.215	10.27
493.648	10.34
494.082	10.4
494.515	10.45
494.948	10.5
495.382	10.57
495.815	10.63
496.248	10.71
496.681	10.79
497.114	10.87
497.547	10.96
497.98	11.04
498.413	11.13
498.846	11.24
499.279	11.35
499.711	11.45
500.144	11.55
500.577	11.67
501.009	11.78
501.442	11.91
501.874	12.06
502.306	12.2
502.739	12.34
503.171	12.5
503.603	12.67
504.036	12.84
504.468	13.05
504.9	13.27
505.332	13.47
505.764	13.7
506.196	13.93
506.627	14.17
507.059	14.4
507.491	14.66
507.923	14.93
508.354	15.19
508.786	15.46
509.217	15.73
509.649	16.02
510.08	16.33
510.512	16.63
510.943	16.93
511.374	17.25
511.805	17.59
512.237	17.94
512.668	18.28
513.099	18.65
513.53	19.01
513.961	19.38
514.391	19.75
514.822	20.12
515.253	20.5
515.684	20.88
516.114	21.28
516.545	21.67
516.975	22.07
517.406	22.46
517.836	22.84
518.267	23.25
518.697	23.65
519.127	24.04
519.558	24.43
519.988	24.82
520.418	25.21
520.848	25.6
521.278	25.96
521.708	26.34
522.138	26.7
522.567	27.06
522.997	27.42
523.427	27.76
523.857	28.09
524.286	28.43
524.716	28.76
525.145	29.08
525.575	29.38
526.004	29.68
526.433	29.98
526.863	30.3
527.292	30.57
527.721	30.82
528.15	31.08
528.579	31.34
529.008	31.58
529.437	31.81
529.866	32
530.295	32.23
530.724	32.46
531.152	32.65
531.581	32.79
532.01	32.96
532.438	33.15
532.867	33.31
533.295	33.45
533.723	33.59
534.152	33.72
534.58	33.87
535.008	33.93
535.436	34.02
535.865	34.11
536.293	34.22
536.721	34.34
537.149	34.41
537.576	34.48
538.004	34.54
538.432	34.59
538.86	34.64
539.287	34.7
539.715	34.81
540.143	34.86
540.57	34.9
540.998	34.96
541.425	34.99
541.852	35.04
542.28	35.09
542.707	35.16
543.134	35.2
543.561	35.27
543.988	35.31
544.415	35.34
544.842	35.4
545.269	35.45
545.696	35.49
546.123	35.55
546.549	35.59
546.976	35.65
547.403	35.67
547.829	35.72
548.256	35.75
548.682	35.8
549.108	35.82
549.535	35.85
549.961	35.88
550.387	35.89
550.813	35.89
551.24	35.9
551.666	35.91
552.092	35.94
552.518	35.94
552.943	35.94
553.369	35.92
553.795	35.91
554.221	35.87
554.646	35.84
555.072	35.81
555.498	35.77
555.923	35.72
556.349	35.66
556.774	35.59
557.199	35.52
557.625	35.45
558.05	35.34
558.475	35.24
558.9	35.16
559.325	35.08
559.75	34.98
560.175	34.86
560.6	34.73
561.025	34.59
561.449	34.45
561.874	34.3
562.299	34.15
562.723	34
563.148	33.85
563.572	33.68
563.997	33.48
564.421	33.26
564.846	33.09
565.27	32.9
565.694	32.71
566.118	32.5
566.542	32.3
566.966	32.09
567.39	31.89
567.814	31.65
568.238	31.41
568.662	31.21
569.086	31
569.509	30.77
569.933	30.55
570.357	30.33
570.78	30.11
571.204	29.9
571.627	29.69
572.05	29.49
572.474	29.31
572.897	29.12
573.32	28.93
573.743	28.76
574.166	28.57
574.589	28.4
575.012	28.23
575.435	28.08
575.858	27.91
576.281	27.75
576.704	27.6
577.126	27.44
577.549	27.32
577.972	27.2
578.394	27.05
578.817	26.92
579.239	26.79
579.661	26.69
580.084	26.58
580.506	26.46
580.928	26.35
581.35	26.26
581.772	26.16
582.194	26.04
582.616	25.91
583.038	25.82
583.46	25.72
583.882	25.63
584.303	25.51
584.725	25.39
585.147	25.28
585.568	25.18
585.99	25.06
586.411	24.96
586.833	24.87
587.254	24.8
587.675	24.71
588.096	24.64
588.518	24.54
588.939	24.46
589.36	24.38
589.781	24.31
590.202	24.25
590.623	24.19
591.043	24.11
591.464	24.05
591.885	23.99
592.305	23.92
592.726	23.84
593.147	23.78
593.567	23.73
593.987	23.68
594.408	23.64
594.828	23.57
595.248	23.52
595.669	23.47
596.089	23.4
596.509	23.33
596.929	23.26
597.349	23.21
597.769	23.15
598.189	23.11
598.608	23.04
599.028	22.97
599.448	22.92
599.867	22.84
600.287	22.78
600.706	22.73
601.126	22.68
601.545	22.62
601.965	22.55
602.384	22.49
602.803	22.4
603.222	22.34
603.641	22.26
604.061	22.17
604.48	22.08
604.898	21.99
605.317	21.91
605.736	21.82
606.155	21.74
606.574	21.66
606.992	21.57
607.411	21.48
607.829	21.36
608.248	21.27
608.666	21.18
609.085	21.11
609.503	21.01
609.921	20.91
610.339	20.82
610.758	20.72
611.176	20.63
611.594	20.54
612.012	20.44
612.43	20.39
612.847	20.3
613.265	20.22
613.683	20.11
614.101	20.01
614.518	19.93
614.936	19.84
615.353	19.74
615.771	19.66
616.188	19.57
616.606	19.49
617.023	19.39
617.44	19.31
617.857	19.21
618.274	19.15
618.691	19.1
619.108	19.02
619.525	18.95
619.942	18.89
620.359	18.84
620.776	18.8
621.192	18.74
621.609	18.69
622.026	18.66
622.442	18.65
622.859	18.62
623.275	18.59
623.691	18.56
624.108	18.55
624.524	18.53
624.94	18.49
625.356	18.46
625.772	18.47
626.188	18.48
626.604	18.44
627.02	18.41
627.436	18.4
627.852	18.36
628.268	18.34
628.683	18.31
629.099	18.29
629.514	18.28
629.93	18.22
630.345	18.15
630.761	18.07
631.176	18.02
631.591	17.95
632.007	17.86
632.422	17.77
632.837	17.66
633.252	17.55
633.667	17.42
634.082	17.29
634.497	17.17
634.911	17.03
635.326	16.89
635.741	16.72
636.155	16.57
636.57	16.41
636.984	16.23
637.399	16.05
637.813	15.85
638.228	15.64
638.642	15.45
639.056	15.24
639.47	15.04
639.884	14.83
640.298	14.64
640.712	14.42
641.126	14.21
641.54	14.02
641.954	13.84
642.368	13.66
642.781	13.48
643.195	13.3
643.609	13.13
644.022	12.96
644.436	12.81
644.849	12.67
645.262	12.56
645.676	12.43
646.089	12.32
646.502	12.2
646.915	12.1
647.328	12.01
647.741	11.92
648.154	11.84
648.567	11.78
648.98	11.72
649.393	11.66
649.805	11.6
650.218	11.55
650.631	11.49
651.043	11.45
651.456	11.41
651.868	11.37
652.28	11.34
652.693	11.28
653.105	11.24
653.517	11.19
653.929	11.14
654.341	11.09
654.753	11.04
655.165	10.99
655.577	10.91
655.989	10.82
656.401	10.73
656.813	10.66
657.224	10.59
657.636	10.5
658.047	10.41
658.459	10.3
658.87	10.21
659.282	10.1
659.693	10
660.104	9.91
660.515	9.84
660.926	9.74
661.338	9.65
661.749	9.56
662.159	9.46
662.57	9.37
662.981	9.3
663.392	9.22
663.803	9.15
664.213	9.08
664.624	9.01
665.035	8.93
665.445	8.88
665.855	8.83
666.266	8.78
666.676	8.72
667.086	8.68
667.497	8.64
667.907	8.6
668.317	8.57
668.727	8.53
669.137	8.51
669.547	8.51
669.956	8.49
670.366	8.47
670.776	8.46
671.186	8.46
671.595	8.47
672.005	8.49
672.414	8.5
672.824	8.52
673.233	8.55
673.642	8.56
674.052	8.58
674.461	8.6
674.87	8.64
675.279	8.67
675.688	8.71
676.097	8.75
676.506	8.79
676.915	8.84
677.323	8.9
677.732	8.96
678.141	9.02
678.549	9.09
678.958	9.18
679.366	9.25
679.775	9.37
680.183	9.48
680.592	9.6
681	9.73
681.408	9.87
681.816	10
682.224	10.18
682.632	10.39
683.04	10.59
683.448	10.82
683.856	11.11
684.264	11.38
684.671	11.68
685.079	12.02
685.487	12.41
685.894	12.82
686.302	13.27
686.709	13.74
687.116	14.26
687.524	14.79
687.931	15.35
688.338	15.95
688.745	16.6
689.152	17.29
689.559	18
689.966	18.71
690.373	19.47
690.78	20.24
691.187	21.05
691.593	21.87
692	22.71
692.407	23.55
692.813	24.4
693.22	25.23
693.626	26.1
694.032	26.99
694.439	27.89
694.845	28.77
695.251	29.69
695.657	30.54
696.063	31.39
696.469	32.26
696.875	33.14
697.281	33.99
697.687	34.87
698.093	35.69
698.498	36.52
698.904	37.32
699.31	38.1
699.715	38.89
700.12	39.67
700.526	40.44
700.931	41.2
701.337	41.93
701.742	42.65
702.147	43.34
702.552	44.04
702.957	44.7
703.362	45.38
703.767	46.04
704.172	46.65
704.577	47.28
704.981	47.9
705.386	48.47
705.791	49.06
706.195	49.63
706.6	50.19
707.004	50.75
707.408	51.29
707.813	51.79
708.217	52.29
708.621	52.78
709.025	53.25
709.43	53.71
709.834	54.21
710.237	54.65
710.641	55.14
711.045	55.58
711.449	55.98
711.853	56.42
712.256	56.85
712.66	57.24
713.064	57.62
713.467	58
713.87	58.39
714.274	58.78
714.677	59.16
715.08	59.48
715.484	59.87
715.887	60.25
716.29	60.57
716.693	60.88
717.096	61.23
717.499	61.57
717.901	61.89
718.304	62.21
718.707	62.5
719.109	62.81
719.512	63.14
719.915	63.39
720.317	63.66
720.719	63.93
721.122	64.25
721.524	64.53
721.926	64.81
722.328	65.09
722.731	65.32
723.133	65.57
723.535	65.81
723.937	66.02
724.338	66.22
724.74	66.43
725.142	66.6
725.544	66.77
725.945	66.93
726.347	67.1
726.748	67.23
727.15	67.41
727.551	67.56
727.952	67.69
728.354	67.86
728.755	68.02
729.156	68.17
729.557	68.36
729.958	68.5
730.359	68.66
730.76	68.77
731.161	68.89
731.562	69.01
731.962	69.12
732.363	69.21
732.763	69.32
733.164	69.4
733.564	69.44
733.965	69.49
734.365	69.55
734.766	69.6
735.166	69.63
735.566	69.66
735.966	69.72
736.366	69.74
736.766	69.81
737.166	69.86
737.566	69.9
737.966	69.96
738.365	70.04
738.765	70.1
739.165	70.13
739.564	70.19
739.964	70.25
740.363	70.31
740.763	70.36
741.162	70.34
741.561	70.36
741.96	70.41
742.36	70.43
742.759	70.44
743.158	70.45
743.557	70.5
743.955	70.54
744.354	70.6
744.753	70.64
745.152	70.69
745.55	70.78
745.949	70.81
746.348	70.86
746.746	70.92
747.144	71
747.543	71.05
747.941	71.09
748.339	71.16
748.737	71.18
749.136	71.2
749.534	71.25
749.932	71.26
750.33	71.29
750.727	71.31
751.125	71.33
751.523	71.29
751.921	71.29
752.318	71.29
752.716	71.25
753.113	71.25
753.511	71.18
753.908	71.14
754.305	71.08
754.703	71.04
755.1	70.97
755.497	70.93
755.894	70.94
756.291	70.91
756.688	70.87
757.085	70.87
757.482	70.85
757.878	70.89
758.275	70.91
758.672	70.94
759.068	70.98
759.465	70.97
759.861	70.97
760.258	70.93
760.654	70.93
761.05	70.94
761.447	70.92
761.843	70.85
762.239	70.79
762.635	70.74
763.031	70.73
763.427	70.64
763.822	70.6
764.218	70.57
764.614	70.56
765.01	70.54
765.405	70.5
765.801	70.47
766.196	70.52
766.592	70.55
766.987	70.56
767.382	70.52
767.778	70.55
768.173	70.57
768.568	70.54
768.963	70.53
769.358	70.49
769.753	70.49
770.148	70.49
770.542	70.44
770.937	70.4
771.332	70.39
771.726	70.41
