Data from N_3_ofc_oh_4n_Splice17_10.txt Node
Date: Sat Feb 29 15:06:15 EST 2020
User: sa697716
Spectrometer: FLMS03696
Trigger mode: 0
Integration Time (sec): 3.180400E-1
Scans to average: 20
Electric dark correction enabled: true
Nonlinearity correction enabled: true
Boxcar width: 5
XAxis mode: Wavelengths
Number of Pixels in Spectrum: 2048
>>>>>Begin Spectral Data<<<<<
187.83	37.87
188.298	32.58
188.766	49.4
189.233	41.41
189.701	42.82
190.169	48.75
190.636	38.61
191.104	20.14
191.571	89.92
192.039	182.4
192.506	-204.18
192.974	1620.59
193.441	172.43
193.908	93.12
194.375	106.62
194.842	140.85
195.31	126.11
195.777	109.94
196.244	102.24
196.711	99.69
197.177	97.37
197.644	96.74
198.111	97.12
198.578	98.49
199.045	98.99
199.511	99.27
199.978	99.12
200.445	98.67
200.911	98.68
201.378	98.41
201.844	99.19
202.31	99.63
202.777	99.87
203.243	100.22
203.709	99.49
204.176	98.83
204.642	98.32
205.108	98.08
205.574	97.77
206.04	97.32
206.506	96.9
206.972	95.59
207.438	94.73
207.903	93.9
208.369	92.17
208.835	91.49
209.301	90.46
209.766	88.75
210.232	87.11
210.697	85.95
211.163	84.49
211.628	82.71
212.094	81.34
212.559	80
213.024	78.56
213.49	76.8
213.955	74.91
214.42	72.78
214.885	70.71
215.35	68.04
215.815	64.33
216.28	60.55
216.745	56.24
217.21	51.96
217.675	47.72
218.14	43.84
218.604	40.68
219.069	37.9
219.534	35.49
219.998	33.5
220.463	31.84
220.927	30.43
221.392	29.17
221.856	28.21
222.32	27.28
222.785	26.54
223.249	25.91
223.713	25.29
224.177	24.71
224.642	24.23
225.106	23.73
225.57	23.25
226.034	22.83
226.497	22.43
226.961	22.01
227.425	21.63
227.889	21.28
228.353	20.92
228.816	20.6
229.28	20.24
229.744	19.91
230.207	19.63
230.671	19.35
231.134	19.06
231.597	18.79
232.061	18.53
232.524	18.29
232.987	18.03
233.45	17.78
233.914	17.54
234.377	17.35
234.84	17.17
235.303	16.97
235.766	16.78
236.229	16.61
236.691	16.46
237.154	16.29
237.617	16.17
238.08	16.04
238.542	15.92
239.005	15.78
239.468	15.63
239.93	15.5
240.393	15.37
240.855	15.23
241.317	15.11
241.78	14.98
242.242	14.86
242.704	14.72
243.166	14.57
243.629	14.44
244.091	14.29
244.553	14.19
245.015	14.05
245.477	13.93
245.939	13.8
246.4	13.68
246.862	13.55
247.324	13.45
247.786	13.34
248.247	13.24
248.709	13.13
249.17	13.03
249.632	12.92
250.093	12.81
250.555	12.69
251.016	12.62
251.477	12.51
251.939	12.41
252.4	12.32
252.861	12.23
253.322	12.14
253.783	12.06
254.244	11.99
254.705	11.91
255.166	11.86
255.627	11.79
256.088	11.7
256.549	11.63
257.009	11.55
257.47	11.46
257.931	11.38
258.391	11.29
258.852	11.21
259.312	11.12
259.773	11.04
260.233	10.95
260.694	10.87
261.154	10.79
261.614	10.71
262.074	10.64
262.534	10.57
262.994	10.5
263.455	10.43
263.915	10.36
264.374	10.29
264.834	10.22
265.294	10.16
265.754	10.1
266.214	10.03
266.673	9.97
267.133	9.91
267.593	9.87
268.052	9.81
268.512	9.76
268.971	9.72
269.431	9.68
269.89	9.64
270.349	9.6
270.809	9.57
271.268	9.53
271.727	9.49
272.186	9.46
272.645	9.42
273.104	9.4
273.563	9.36
274.022	9.33
274.481	9.29
274.94	9.26
275.399	9.22
275.857	9.19
276.316	9.16
276.775	9.11
277.233	9.08
277.692	9.05
278.15	9
278.609	8.97
279.067	8.93
279.525	8.91
279.984	8.89
280.442	8.86
280.9	8.85
281.358	8.83
281.816	8.81
282.274	8.79
282.732	8.78
283.19	8.76
283.648	8.75
284.106	8.74
284.564	8.73
285.021	8.72
285.479	8.71
285.937	8.7
286.394	8.68
286.852	8.67
287.309	8.66
287.767	8.63
288.224	8.62
288.682	8.59
289.139	8.57
289.596	8.52
290.053	8.48
290.511	8.43
290.968	8.39
291.425	8.35
291.882	8.3
292.339	8.26
292.796	8.23
293.252	8.19
293.709	8.15
294.166	8.11
294.623	8.09
295.079	8.06
295.536	8.04
295.992	8.01
296.449	7.99
296.905	7.97
297.362	7.95
297.818	7.93
298.274	7.91
298.731	7.88
299.187	7.86
299.643	7.84
300.099	7.82
300.555	7.79
301.011	7.77
301.467	7.76
301.923	7.74
302.379	7.73
302.835	7.72
303.291	7.7
303.746	7.69
304.202	7.68
304.658	7.67
305.113	7.66
305.569	7.67
306.024	7.66
306.479	7.65
306.935	7.64
307.39	7.65
307.845	7.65
308.301	7.65
308.756	7.66
309.211	7.66
309.666	7.67
310.121	7.67
310.576	7.67
311.031	7.68
311.486	7.7
311.94	7.7
312.395	7.7
312.85	7.7
313.305	7.7
313.759	7.72
314.214	7.73
314.668	7.73
315.123	7.73
315.577	7.73
316.032	7.73
316.486	7.71
316.94	7.7
317.394	7.69
317.849	7.67
318.303	7.66
318.757	7.63
319.211	7.6
319.665	7.58
320.119	7.55
320.572	7.54
321.026	7.52
321.48	7.5
321.934	7.5
322.387	7.49
322.841	7.47
323.295	7.45
323.748	7.44
324.202	7.44
324.655	7.43
325.108	7.41
325.562	7.38
326.015	7.36
326.468	7.33
326.921	7.33
327.374	7.32
327.827	7.31
328.28	7.31
328.733	7.31
329.186	7.31
329.639	7.3
330.092	7.3
330.545	7.31
330.997	7.34
331.45	7.36
331.903	7.35
332.355	7.35
332.808	7.35
333.26	7.36
333.713	7.37
334.165	7.37
334.617	7.39
335.069	7.4
335.522	7.41
335.974	7.42
336.426	7.43
336.878	7.45
337.33	7.45
337.782	7.46
338.234	7.47
338.686	7.46
339.137	7.47
339.589	7.46
340.041	7.46
340.493	7.43
340.944	7.42
341.396	7.41
341.847	7.39
342.299	7.35
342.75	7.32
343.201	7.29
343.653	7.26
344.104	7.23
344.555	7.2
345.006	7.17
345.457	7.16
345.908	7.14
346.359	7.12
346.81	7.11
347.261	7.11
347.712	7.1
348.163	7.1
348.613	7.08
349.064	7.06
349.515	7.06
349.965	7.05
350.416	7.05
350.866	7.04
351.317	7.04
351.767	7.04
352.217	7.03
352.668	7.04
353.118	7.04
353.568	7.05
354.018	7.06
354.468	7.06
354.918	7.08
355.368	7.09
355.818	7.09
356.268	7.1
356.718	7.1
357.168	7.1
357.617	7.1
358.067	7.1
358.517	7.1
358.966	7.11
359.416	7.11
359.865	7.1
360.315	7.09
360.764	7.08
361.213	7.07
361.663	7.06
362.112	7.08
362.561	7.07
363.01	7.08
363.459	7.08
363.908	7.08
364.357	7.08
364.806	7.07
365.255	7.08
365.703	7.08
366.152	7.08
366.601	7.09
367.05	7.09
367.498	7.08
367.947	7.08
368.395	7.09
368.844	7.09
369.292	7.08
369.74	7.09
370.189	7.08
370.637	7.08
371.085	7.08
371.533	7.09
371.981	7.08
372.429	7.07
372.877	7.06
373.325	7.05
373.773	7.06
374.221	7.07
374.669	7.07
375.116	7.07
375.564	7.08
376.012	7.08
376.459	7.09
376.907	7.09
377.354	7.11
377.801	7.13
378.249	7.15
378.696	7.15
379.143	7.15
379.591	7.16
380.038	7.17
380.485	7.19
380.932	7.21
381.379	7.2
381.826	7.21
382.273	7.21
382.72	7.22
383.166	7.23
383.613	7.24
384.06	7.25
384.506	7.26
384.953	7.27
385.4	7.28
385.846	7.28
386.292	7.31
386.739	7.33
387.185	7.37
387.631	7.38
388.078	7.39
388.524	7.39
388.97	7.41
389.416	7.41
389.862	7.43
390.308	7.46
390.754	7.49
391.2	7.51
391.645	7.54
392.091	7.56
392.537	7.58
392.983	7.61
393.428	7.66
393.874	7.71
394.319	7.76
394.765	7.78
395.21	7.78
395.655	7.81
396.101	7.82
396.546	7.84
396.991	7.85
397.436	7.86
397.881	7.89
398.326	7.92
398.771	7.93
399.216	7.96
399.661	7.99
400.106	8.03
400.551	8.04
400.995	8.06
401.44	8.05
401.885	8.07
402.329	8.08
402.774	8.06
403.218	8.06
403.663	8.06
404.107	8.06
404.551	8.08
404.995	8.08
405.44	8.08
405.884	8.09
406.328	8.1
406.772	8.11
407.216	8.13
407.66	8.15
408.104	8.17
408.547	8.16
408.991	8.15
409.435	8.14
409.879	8.14
410.322	8.16
410.766	8.17
411.209	8.18
411.653	8.18
412.096	8.19
412.54	8.21
412.983	8.23
413.426	8.28
413.869	8.31
414.312	8.36
414.756	8.39
415.199	8.41
415.642	8.46
416.085	8.5
416.527	8.54
416.97	8.56
417.413	8.56
417.856	8.53
418.298	8.51
418.741	8.52
419.184	8.5
419.626	8.5
420.069	8.5
420.511	8.48
420.953	8.47
421.396	8.47
421.838	8.48
422.28	8.52
422.722	8.58
423.164	8.6
423.606	8.61
424.048	8.62
424.49	8.65
424.932	8.64
425.374	8.66
425.816	8.64
426.258	8.63
426.699	8.59
427.141	8.57
427.582	8.56
428.024	8.57
428.465	8.58
428.907	8.62
429.348	8.62
429.789	8.62
430.231	8.64
430.672	8.68
431.113	8.74
431.554	8.8
431.995	8.84
432.436	8.88
432.877	8.89
433.318	8.93
433.759	8.96
434.2	9
434.64	9.05
435.081	9.08
435.522	9.12
435.962	9.15
436.403	9.21
436.843	9.25
437.284	9.29
437.724	9.33
438.164	9.35
438.604	9.37
439.045	9.4
439.485	9.43
439.925	9.46
440.365	9.47
440.805	9.46
441.245	9.45
441.685	9.48
442.125	9.52
442.564	9.56
443.004	9.57
443.444	9.61
443.883	9.65
444.323	9.69
444.762	9.77
445.202	9.85
445.641	9.92
446.081	10
446.52	10.04
446.959	10.09
447.398	10.18
447.837	10.29
448.276	10.33
448.716	10.38
449.154	10.43
449.593	10.44
450.032	10.46
450.471	10.5
450.91	10.49
451.349	10.51
451.787	10.52
452.226	10.49
452.664	10.48
453.103	10.48
453.541	10.48
453.98	10.48
454.418	10.47
454.856	10.44
455.295	10.44
455.733	10.43
456.171	10.42
456.609	10.38
457.047	10.36
457.485	10.33
457.923	10.31
458.361	10.3
458.798	10.29
459.236	10.28
459.674	10.29
460.111	10.27
460.549	10.28
460.987	10.28
461.424	10.3
461.862	10.32
462.299	10.32
462.736	10.32
463.173	10.32
463.611	10.31
464.048	10.33
464.485	10.31
464.922	10.31
465.359	10.32
465.796	10.31
466.233	10.33
466.67	10.33
467.106	10.35
467.543	10.36
467.98	10.36
468.416	10.39
468.853	10.4
469.29	10.43
469.726	10.45
470.162	10.46
470.599	10.46
471.035	10.48
471.471	10.48
471.907	10.5
472.344	10.5
472.78	10.5
473.216	10.5
473.652	10.52
474.088	10.52
474.523	10.52
474.959	10.51
475.395	10.51
475.831	10.49
476.266	10.49
476.702	10.48
477.138	10.47
477.573	10.47
478.008	10.47
478.444	10.44
478.879	10.43
479.314	10.41
479.75	10.4
480.185	10.41
480.62	10.41
481.055	10.4
481.49	10.38
481.925	10.37
482.36	10.35
482.795	10.33
483.229	10.33
483.664	10.32
484.099	10.32
484.534	10.32
484.968	10.31
485.403	10.29
485.837	10.27
486.271	10.27
486.706	10.27
487.14	10.28
487.574	10.29
488.009	10.29
488.443	10.3
488.877	10.31
489.311	10.32
489.745	10.33
490.179	10.35
490.613	10.38
491.046	10.41
491.48	10.45
491.914	10.49
492.348	10.52
492.781	10.57
493.215	10.62
493.648	10.67
494.082	10.73
494.515	10.78
494.948	10.85
495.382	10.91
495.815	10.97
496.248	11.05
496.681	11.11
497.114	11.18
497.547	11.27
497.98	11.36
498.413	11.43
498.846	11.52
499.279	11.61
499.711	11.71
500.144	11.81
500.577	11.91
501.009	12.01
501.442	12.14
501.874	12.28
502.306	12.42
502.739	12.55
503.171	12.71
503.603	12.88
504.036	13.06
504.468	13.24
504.9	13.45
505.332	13.66
505.764	13.87
506.196	14.07
506.627	14.29
507.059	14.51
507.491	14.76
507.923	15.01
508.354	15.25
508.786	15.51
509.217	15.77
509.649	16.04
510.08	16.33
510.512	16.63
510.943	16.94
511.374	17.26
511.805	17.59
512.237	17.93
512.668	18.25
513.099	18.6
513.53	18.96
513.961	19.33
514.391	19.69
514.822	20.07
515.253	20.44
515.684	20.81
516.114	21.18
516.545	21.57
516.975	21.96
517.406	22.37
517.836	22.75
518.267	23.13
518.697	23.53
519.127	23.92
519.558	24.31
519.988	24.7
520.418	25.08
520.848	25.48
521.278	25.86
521.708	26.3
522.138	26.66
522.567	27.03
522.997	27.41
523.427	27.77
523.857	28.12
524.286	28.45
524.716	28.79
525.145	29.14
525.575	29.45
526.004	29.76
526.433	29.99
526.863	30.3
527.292	30.58
527.721	30.84
528.15	31.1
528.579	31.36
529.008	31.63
529.437	31.86
529.866	32.09
530.295	32.31
530.724	32.54
531.152	32.77
531.581	32.94
532.01	33.12
532.438	33.3
532.867	33.49
533.295	33.65
533.723	33.78
534.152	33.91
534.58	34.03
535.008	34.13
535.436	34.2
535.865	34.28
536.293	34.39
536.721	34.48
537.149	34.57
537.576	34.62
538.004	34.68
538.432	34.74
538.86	34.81
539.287	34.87
539.715	34.93
540.143	35
540.57	35.05
540.998	35.1
541.425	35.16
541.852	35.19
542.28	35.23
542.707	35.29
543.134	35.33
543.561	35.37
543.988	35.41
544.415	35.47
544.842	35.52
545.269	35.57
545.696	35.61
546.123	35.64
546.549	35.69
546.976	35.75
547.403	35.77
547.829	35.84
548.256	35.9
548.682	35.93
549.108	35.96
549.535	35.98
549.961	36.01
550.387	36.04
550.813	36.06
551.24	36.08
551.666	36.1
552.092	36.11
552.518	36.09
552.943	36.09
553.369	36.11
553.795	36.11
554.221	36.11
554.646	36.09
555.072	36.03
555.498	36.01
555.923	35.97
556.349	35.89
556.774	35.84
557.199	35.78
557.625	35.67
558.05	35.55
558.475	35.44
558.9	35.34
559.325	35.22
559.75	35.11
560.175	34.97
560.6	34.82
561.025	34.69
561.449	34.52
561.874	34.35
562.299	34.2
562.723	34.05
563.148	33.88
563.572	33.7
563.997	33.52
564.421	33.32
564.846	33.12
565.27	32.92
565.694	32.7
566.118	32.51
566.542	32.3
566.966	32.07
567.39	31.83
567.814	31.59
568.238	31.35
568.662	31.11
569.086	30.87
569.509	30.65
569.933	30.41
570.357	30.18
570.78	29.96
571.204	29.72
571.627	29.52
572.05	29.32
572.474	29.11
572.897	28.93
573.32	28.74
573.743	28.56
574.166	28.36
574.589	28.18
575.012	28.02
575.435	27.84
575.858	27.7
576.281	27.53
576.704	27.38
577.126	27.22
577.549	27.09
577.972	26.97
578.394	26.82
578.817	26.72
579.239	26.61
579.661	26.5
580.084	26.41
580.506	26.29
580.928	26.18
581.35	26.07
581.772	25.99
582.194	25.89
582.616	25.78
583.038	25.7
583.46	25.59
583.882	25.5
584.303	25.39
584.725	25.29
585.147	25.18
585.568	25.09
585.99	25
586.411	24.91
586.833	24.82
587.254	24.74
587.675	24.66
588.096	24.6
588.518	24.53
588.939	24.46
589.36	24.39
589.781	24.33
590.202	24.28
590.623	24.22
591.043	24.15
591.464	24.07
591.885	24.01
592.305	23.94
592.726	23.87
593.147	23.83
593.567	23.77
593.987	23.72
594.408	23.67
594.828	23.61
595.248	23.58
595.669	23.52
596.089	23.49
596.509	23.42
596.929	23.35
597.349	23.32
597.769	23.26
598.189	23.22
598.608	23.16
599.028	23.09
599.448	23.04
599.867	22.96
600.287	22.9
600.706	22.82
601.126	22.75
601.545	22.69
601.965	22.61
602.384	22.52
602.803	22.44
603.222	22.36
603.641	22.31
604.061	22.23
604.48	22.15
604.898	22.09
605.317	22.01
605.736	21.93
606.155	21.85
606.574	21.78
606.992	21.7
607.411	21.61
607.829	21.49
608.248	21.37
608.666	21.26
609.085	21.17
609.503	21.07
609.921	20.97
610.339	20.88
610.758	20.79
611.176	20.67
611.594	20.57
612.012	20.47
612.43	20.41
612.847	20.33
613.265	20.25
613.683	20.15
614.101	20.04
614.518	19.94
614.936	19.86
615.353	19.77
615.771	19.7
616.188	19.62
616.606	19.55
617.023	19.48
617.44	19.41
617.857	19.34
618.274	19.28
618.691	19.23
619.108	19.19
619.525	19.12
619.942	19.08
620.359	19.03
620.776	19
621.192	18.94
621.609	18.9
622.026	18.86
622.442	18.81
622.859	18.76
623.275	18.75
623.691	18.72
624.108	18.71
624.524	18.68
624.94	18.64
625.356	18.61
625.772	18.6
626.188	18.58
626.604	18.55
627.02	18.54
627.436	18.52
627.852	18.47
628.268	18.44
628.683	18.41
629.099	18.39
629.514	18.36
629.93	18.32
630.345	18.26
630.761	18.21
631.176	18.16
631.591	18.11
632.007	18.04
632.422	17.99
632.837	17.92
633.252	17.84
633.667	17.75
634.082	17.65
634.497	17.54
634.911	17.44
635.326	17.32
635.741	17.19
636.155	17.04
636.57	16.91
636.984	16.75
637.399	16.58
637.813	16.4
638.228	16.23
638.642	16.07
639.056	15.92
639.47	15.74
639.884	15.58
640.298	15.4
640.712	15.22
641.126	15.04
641.54	14.87
641.954	14.73
642.368	14.58
642.781	14.42
643.195	14.25
643.609	14.09
644.022	13.95
644.436	13.81
644.849	13.69
645.262	13.57
645.676	13.46
646.089	13.35
646.502	13.23
646.915	13.13
647.328	13.05
647.741	12.97
648.154	12.91
648.567	12.85
648.98	12.79
649.393	12.75
649.805	12.69
650.218	12.65
650.631	12.59
651.043	12.56
651.456	12.52
651.868	12.48
652.28	12.44
652.693	12.37
653.105	12.33
653.517	12.28
653.929	12.23
654.341	12.18
654.753	12.14
655.165	12.11
655.577	12.03
655.989	11.96
656.401	11.89
656.813	11.81
657.224	11.74
657.636	11.66
658.047	11.57
658.459	11.47
658.87	11.38
659.282	11.29
659.693	11.18
660.104	11.11
660.515	11.02
660.926	10.93
661.338	10.85
661.749	10.76
662.159	10.68
662.57	10.61
662.981	10.53
663.392	10.45
663.803	10.38
664.213	10.32
664.624	10.25
665.035	10.19
665.445	10.14
665.855	10.09
666.266	10.05
666.676	10.02
667.086	9.99
667.497	9.94
667.907	9.91
668.317	9.89
668.727	9.85
669.137	9.82
669.547	9.81
669.956	9.78
670.366	9.78
670.776	9.77
671.186	9.74
671.595	9.73
672.005	9.74
672.414	9.74
672.824	9.75
673.233	9.78
673.642	9.79
674.052	9.78
674.461	9.79
674.87	9.79
675.279	9.81
675.688	9.83
676.097	9.86
676.506	9.87
676.915	9.9
677.323	9.94
677.732	9.97
678.141	10
678.549	10.07
678.958	10.15
679.366	10.21
679.775	10.27
680.183	10.36
680.592	10.46
681	10.54
681.408	10.65
681.816	10.77
682.224	10.91
682.632	11.09
683.04	11.25
683.448	11.44
683.856	11.66
684.264	11.9
684.671	12.17
685.079	12.45
685.487	12.8
685.894	13.16
686.302	13.54
686.709	13.95
687.116	14.4
687.524	14.89
687.931	15.4
688.338	15.96
688.745	16.56
689.152	17.18
689.559	17.83
689.966	18.52
690.373	19.24
690.78	19.99
691.187	20.74
691.593	21.52
692	22.31
692.407	23.14
692.813	23.99
693.22	24.83
693.626	25.69
694.032	26.56
694.439	27.42
694.845	28.26
695.251	29.12
695.657	30.02
696.063	30.88
696.469	31.75
696.875	32.6
697.281	33.44
697.687	34.29
698.093	35.13
698.498	35.95
698.904	36.79
699.31	37.62
699.715	38.44
700.12	39.22
700.526	40.03
700.931	40.8
701.337	41.58
701.742	42.34
702.147	43.07
702.552	43.81
702.957	44.53
703.362	45.24
703.767	45.93
704.172	46.63
704.577	47.29
704.981	47.93
705.386	48.57
705.791	49.2
706.195	49.8
706.6	50.41
707.004	51
707.408	51.58
707.813	52.14
708.217	52.69
708.621	53.21
709.025	53.76
709.43	54.27
709.834	54.78
710.237	55.29
710.641	55.82
711.045	56.3
711.449	56.78
711.853	57.29
712.256	57.75
712.66	58.22
713.064	58.65
713.467	59.09
713.87	59.53
714.274	59.99
714.677	60.43
715.08	60.84
715.484	61.27
715.887	61.69
716.29	62.07
716.693	62.46
717.096	62.85
717.499	63.22
717.901	63.6
718.304	63.97
718.707	64.31
719.109	64.66
719.512	65.04
719.915	65.34
720.317	65.66
720.719	65.96
721.122	66.26
721.524	66.58
721.926	66.93
722.328	67.21
722.731	67.49
723.133	67.76
723.535	68.03
723.937	68.27
724.338	68.49
724.74	68.71
725.142	68.91
725.544	69.1
725.945	69.32
726.347	69.5
726.748	69.66
727.15	69.85
727.551	70.04
727.952	70.2
728.354	70.38
728.755	70.56
729.156	70.75
729.557	70.95
729.958	71.13
730.359	71.24
730.76	71.38
731.161	71.57
731.562	71.73
731.962	71.86
732.363	71.95
732.763	72.05
733.164	72.17
733.564	72.27
733.965	72.34
734.365	72.44
734.766	72.56
735.166	72.64
735.566	72.69
735.966	72.74
736.366	72.8
736.766	72.88
737.166	72.97
737.566	73.06
737.966	73.1
738.365	73.23
738.765	73.31
739.165	73.35
739.564	73.42
739.964	73.49
740.363	73.56
740.763	73.58
741.162	73.63
741.561	73.67
741.96	73.72
742.36	73.81
742.759	73.8
743.158	73.8
743.557	73.83
743.955	73.91
744.354	73.98
744.753	74.06
745.152	74.13
745.55	74.18
745.949	74.23
746.348	74.27
746.746	74.29
747.144	74.37
747.543	74.46
747.941	74.57
748.339	74.64
748.737	74.68
749.136	74.68
749.534	74.71
749.932	74.74
750.33	74.72
750.727	74.76
751.125	74.77
751.523	74.72
751.921	74.7
752.318	74.65
752.716	74.62
753.113	74.59
753.511	74.53
753.908	74.5
754.305	74.47
754.703	74.45
755.1	74.42
755.497	74.41
755.894	74.41
756.291	74.38
756.688	74.35
757.085	74.34
757.482	74.32
757.878	74.37
758.275	74.37
758.672	74.37
759.068	74.42
759.465	74.43
759.861	74.44
760.258	74.39
760.654	74.42
761.05	74.42
761.447	74.42
761.843	74.4
762.239	74.32
762.635	74.29
763.031	74.3
763.427	74.28
763.822	74.22
764.218	74.18
764.614	74.21
765.01	74.2
765.405	74.2
765.801	74.15
766.196	74.16
766.592	74.21
766.987	74.24
767.382	74.27
767.778	74.3
768.173	74.33
768.568	74.31
768.963	74.31
769.358	74.34
769.753	74.39
770.148	74.4
770.542	74.39
770.937	74.39
771.332	74.43
771.726	74.38
772.121	74.33
772.515	74.33
772.91	74.35
773.304	74.4
773.699	74.35
