Data from C_1_HIR_IL_4N_Splice17_11-51-40-086.txt Node
Date: Sat Mar 14 11:51:40 EDT 2020
User: sa697716
Spectrometer: FLMS03696
Trigger mode: 0
Integration Time (sec): 3.180400E-1
Scans to average: 20
Electric dark correction enabled: true
Nonlinearity correction enabled: true
Boxcar width: 5
XAxis mode: Wavelengths
Number of Pixels in Spectrum: 2048
>>>>>Begin Spectral Data<<<<<
187.83	-186416.39
188.298	1360.84
188.766	741.15
189.233	629.78
189.701	891.16
190.169	1204.6
190.636	484.31
191.104	403.42
191.571	24.28
192.039	-75.24
192.506	-44.66
192.974	414.76
193.441	-797.46
193.908	-352.82
194.375	-116.58
194.842	-53.38
195.31	-112.73
195.777	87.54
196.244	305.37
196.711	433.27
197.177	575.72
197.644	849.4
198.111	1486.49
198.578	2105.22
199.045	1712.58
199.511	2819.08
199.978	3295.27
200.445	2814.41
200.911	3134.31
201.378	3523.41
201.844	3180.97
202.31	5445.11
202.777	5675.52
203.243	3144.86
203.709	3006.62
204.176	3582.33
204.642	2952.05
205.108	2748.73
205.574	2252.17
206.04	2051.86
206.506	1928.78
206.972	1827.27
207.438	1767.79
207.903	2021.67
208.369	1783.31
208.835	1779.08
209.301	1858.58
209.766	1893.53
210.232	1884.16
210.697	2328.08
211.163	2886.83
211.628	4333.26
212.094	3644.7
212.559	4472.98
213.024	2769.35
213.49	3346.08
213.955	3263.29
214.42	3214.84
214.885	2987.15
215.35	2865.03
215.815	2744
216.28	2886.64
216.745	2353.48
217.21	2547.34
217.675	2325.65
218.14	2611.32
218.604	2917.67
219.069	3327.69
219.534	3468.97
219.998	4040.94
220.463	4879.69
220.927	6033.53
221.392	5701.03
221.856	5761.92
222.32	7223.41
222.785	8947.57
223.249	11259.97
223.713	12578.64
224.177	12550.3
224.642	16096.88
225.106	19815.25
225.57	21679.1
226.034	16097.39
226.497	24476
226.961	22101.13
227.425	25757.81
227.889	28550.2
228.353	28529.85
228.816	58875.85
229.28	56294.75
229.744	47415.36
230.207	28806.98
230.671	28303.43
231.134	46834.44
231.597	54012.37
232.061	53966.18
232.524	52660.72
232.987	36190.13
233.45	32535.9
233.914	29192.06
234.377	29932.08
234.84	27382.13
235.303	32221.62
235.766	35922.07
236.229	37090.5
236.691	23343.46
237.154	26228.72
237.617	19708.24
238.08	20205.35
238.542	23644.44
239.005	16885.22
239.468	16740.98
239.93	15773.42
240.393	14355.39
240.855	12590.18
241.317	12885.27
241.78	15656.12
242.242	16160.32
242.704	17460.46
243.166	15205.62
243.629	13788.67
244.091	15864.03
244.553	17381.61
245.015	18669.51
245.477	24126.77
245.939	35369.39
246.4	37500.82
246.862	36442.6
247.324	34355.27
247.786	38402.19
248.247	50288.34
248.709	51980.76
249.17	38888.84
249.632	36662.24
250.093	42517.51
250.555	36708.99
251.016	22398.6
251.477	21248.77
251.939	22932.37
252.4	24068.78
252.861	28597.37
253.322	26598.07
253.783	31647.2
254.244	41056.68
254.705	32331.65
255.166	28737.83
255.627	28306.46
256.088	39873.98
256.549	42321.04
257.009	36445.56
257.47	44229.82
257.931	36040.59
258.391	26991.55
258.852	27812.93
259.312	29139.94
259.773	35997.88
260.233	30432.35
260.694	25663.63
261.154	29148.02
261.614	23402.47
262.074	20944.24
262.534	21762.64
262.994	20510.04
263.455	27348.58
263.915	23048.58
264.374	21707.32
264.834	23710.32
265.294	26280.19
265.754	27227.19
266.214	25763
266.673	24133.88
267.133	30423.09
267.593	30195.53
268.052	36944.33
268.512	32126.09
268.971	38723.52
269.431	42498.08
269.89	38064.86
270.349	57084.46
270.809	63630.33
271.268	57228.58
271.727	128519.84
272.186	83363.51
272.645	62554.13
273.104	45153.22
273.563	65417.69
274.022	51503.65
274.481	43839.98
274.94	33793.07
275.399	25119.27
275.857	29274.49
276.316	39643.74
276.775	35275.28
277.233	34748.95
277.692	32514.35
278.15	36802.58
278.609	37846.13
279.067	34992.01
279.525	32495.63
279.984	41977.27
280.442	50479.12
280.9	49786.73
281.358	32711.48
281.816	30485.57
282.274	29824.74
282.732	30826.01
283.19	31014.01
283.648	26801.67
284.106	28582.86
284.564	29078.42
285.021	26978.13
285.479	20098.26
285.937	18278.29
286.394	16054.95
286.852	16537.36
287.309	17396.81
287.767	16810.24
288.224	15975.67
288.682	17514.87
289.139	19218.41
289.596	17582.29
290.053	18263.08
290.511	23031.96
290.968	27916.45
291.425	37850.68
291.882	31472.67
292.339	27379.14
292.796	27137.32
293.252	25564.9
293.709	20324.49
294.166	18212.84
294.623	20119.93
295.079	19289.21
295.536	19376.23
295.992	17581.21
296.449	17384.24
296.905	18065.1
297.362	17311.33
297.818	18212.54
298.274	18882.16
298.731	19207.97
299.187	19027.95
299.643	20414.47
300.099	24677.55
300.555	27060.87
301.011	22619.04
301.467	21801.94
301.923	25536.24
302.379	24954.57
302.835	24502.66
303.291	24511.24
303.746	27935.3
304.202	35238.47
304.658	35378.3
305.113	23807.78
305.569	23318.51
306.024	24871.4
306.479	23691.15
306.935	19941.57
307.39	21760.28
307.845	20087.28
308.301	20209.36
308.756	19673.79
309.211	18965.66
309.666	19441.22
310.121	24137.06
310.576	24539.48
311.031	24327
311.486	27849.06
311.94	27868.45
312.395	37301.22
312.85	70139.72
313.305	344957.38
313.759	1785673.89
314.214	129184.18
314.668	102460.99
315.123	86115.15
315.577	30842.95
316.032	27445.36
316.486	34377.42
316.94	27086.59
317.394	18843.85
317.849	14642.52
318.303	13858.04
318.757	13055.37
319.211	14437.22
319.665	12624.82
320.119	12788.69
320.572	18340.35
321.026	17137.81
321.48	14265.1
321.934	15580.17
322.387	15607.11
322.841	16857.91
323.295	15141.3
323.748	17448.54
324.202	17707.16
324.655	21249.18
325.108	29637
325.562	20945.13
326.015	24849.92
326.468	18761.62
326.921	20957.21
327.374	19542.42
327.827	20348.23
328.28	23036.54
328.733	15457.31
329.186	13601.62
329.639	12971.24
330.092	10948.16
330.545	10419.05
330.997	10530.24
331.45	11525.39
331.903	13502.82
332.355	23242.49
332.808	22603.85
333.26	18698.61
333.713	20335.06
334.165	20500.65
334.617	27400.82
335.069	22130.28
335.522	40101.77
335.974	44317.1
336.426	40507.88
336.878	28070.23
337.33	14259.49
337.782	13938.98
338.234	17433.79
338.686	20832.95
339.137	24692.51
339.589	23276.44
340.041	18240.14
340.493	15665.27
340.944	16067.19
341.396	17277.77
341.847	14533.64
342.299	17109.32
342.75	20869.82
343.201	18242.33
343.653	20947.47
344.104	25705.32
344.555	20215.63
345.006	31512.71
345.457	24092.73
345.908	19126.28
346.359	18024.89
346.81	14695.32
347.261	15497.26
347.712	15242.81
348.163	16319.87
348.613	16534.14
349.064	15464.26
349.515	13526.99
349.965	13871.01
350.416	16743.92
350.866	18393.55
351.317	20790.06
351.767	34406.87
352.217	43478.66
352.668	36070.13
353.118	33088.84
353.568	31876.23
354.018	25162.02
354.468	26563.78
354.918	19074.92
355.368	16675.73
355.818	23549.75
356.268	67727.26
356.718	283028.38
357.168	70508.98
357.617	35441.8
358.067	39433.19
358.517	36891.26
358.966	43265.06
359.416	48507.51
359.865	52345.77
360.315	62210.88
360.764	29048.03
361.213	16283.13
361.663	15455.53
362.112	19062.72
362.561	30756.46
363.01	23164.04
363.459	19536.96
363.908	21124.71
364.357	17936.59
364.806	30278.35
365.255	20848.38
365.703	19099.28
366.152	19148.17
366.601	15492.93
367.05	12595.15
367.498	11465.73
367.947	12008.18
368.395	12497.7
368.844	11094.86
369.292	13401.65
369.74	9279.34
370.189	14221.09
370.637	16725.54
371.085	14436.1
371.533	17663.76
371.981	17037.51
372.429	16293.54
372.877	17019
373.325	14314.33
373.773	14623.42
374.221	13068.63
374.669	16241.2
375.116	14096.57
375.564	14245.47
376.012	15987.92
376.459	13214.92
376.907	15841.44
377.354	19243.89
377.801	18009.64
378.249	20752.93
378.696	26669.41
379.143	32428.73
379.591	34716.51
380.038	59035.21
380.485	42825.32
380.932	46441.83
381.379	42651.11
381.826	31567.46
382.273	22513.81
382.72	19733.16
383.166	19325.01
383.613	12579.07
384.06	11368.63
384.506	13224.58
384.953	9756.82
385.4	9864
385.846	8673.93
386.292	8500.67
386.739	8341.24
387.185	8277.39
387.631	8311.21
388.078	8073.88
388.524	8665.95
388.97	8019.38
389.416	6696.55
389.862	7127.71
390.308	6764.79
390.754	6883
391.2	7465.36
391.645	7657.68
392.091	7326.94
392.537	7092.1
392.983	7105.68
393.428	6977.55
393.874	7485.29
394.319	7509.06
394.765	7114.91
395.21	7303.66
395.655	6842.06
396.101	6405.42
396.546	5773.05
396.991	5810.85
397.436	5384.96
397.881	5195.42
398.326	4912.05
398.771	4633.48
399.216	4041.76
399.661	3635.76
400.106	3614.21
400.551	3686.91
400.995	3300.62
401.44	3256.61
401.885	3055.39
402.329	3079.83
402.774	2949.83
403.218	2848.47
403.663	2739.63
404.107	2811.47
404.551	2821.25
404.995	2582.03
405.44	2482.37
405.884	2514.12
406.328	2426.01
406.772	2408.86
407.216	2186.61
407.66	2108
408.104	1997.41
408.547	1866.29
408.991	1801.51
409.435	1729.31
409.879	1698.62
410.322	1674.38
410.766	1611.82
411.209	1529.19
411.653	1465.09
412.096	1431.44
412.54	1426.4
412.983	1413.86
413.426	1415.93
413.869	1409.28
414.312	1378.77
414.756	1328.98
415.199	1264.75
415.642	1226.66
416.085	1229.02
416.527	1218.46
416.97	1236.06
417.413	1172.87
417.856	1155.92
418.298	1139.68
418.741	1131.85
419.184	1125.16
419.626	1168.43
420.069	1167.56
420.511	1171.84
420.953	1140.13
421.396	1129.6
421.838	1100.21
422.28	1125.98
422.722	1133.51
423.164	1149.4
423.606	1128.93
424.048	1129.24
424.49	1071.22
424.932	1062.92
425.374	1046.04
425.816	1065.16
426.258	1082.67
426.699	1092.5
427.141	1074.09
427.582	1087.13
428.024	1080.51
428.465	1073.53
428.907	1047.3
429.348	1035.31
429.789	1036.65
430.231	1015.59
430.672	1029.33
431.113	1004.48
431.554	991.29
431.995	965.7
432.436	931.69
432.877	911.47
433.318	896.02
433.759	891.12
434.2	891.95
434.64	881.99
435.081	884.27
435.522	838.31
435.962	809.69
436.403	789.87
436.843	799.82
437.284	782.47
437.724	759.69
438.164	759.38
438.604	742.9
439.045	713.89
439.485	683.53
439.925	669.21
440.365	651.78
440.805	640.33
441.245	632.14
441.685	608.6
442.125	604.46
442.564	606.74
443.004	593.2
443.444	592.05
443.883	593.35
444.323	589.36
444.762	588.1
445.202	594.89
445.641	607.05
446.081	602.86
446.52	606.7
446.959	599.68
447.398	586.41
447.837	579.01
448.276	567.51
448.716	573.51
449.154	577.84
449.593	564.43
450.032	560.85
450.471	548.77
450.91	548.13
451.349	548.4
451.787	546.16
452.226	554.2
452.664	554.27
453.103	553.33
453.541	549.09
453.98	546.92
454.418	549.48
454.856	541.85
455.295	541.45
455.733	546.31
456.171	548.12
456.609	548.7
457.047	547
457.485	555.57
457.923	557.82
458.361	550.99
458.798	552.3
459.236	551.43
459.674	553.54
460.111	555.33
460.549	549.55
460.987	547.04
461.424	543.91
461.862	542.09
462.299	532.18
462.736	531.88
463.173	533.67
463.611	528.54
464.048	527.12
464.485	532.32
464.922	527.52
465.359	524.72
465.796	519.09
466.233	516.88
466.67	512.2
467.106	511.77
467.543	506.31
467.98	499.21
468.416	486.85
468.853	484.01
469.29	469.64
469.726	464.94
470.162	452.32
470.599	445.29
471.035	440.24
471.471	430.31
471.907	427.31
472.344	424.46
472.78	425.62
473.216	428.77
473.652	421.7
474.088	419.21
474.523	416.92
474.959	421.25
475.395	416.66
475.831	414.25
476.266	414.96
476.702	412.44
477.138	406.7
477.573	404.34
478.008	403.32
478.444	404.9
478.879	408.68
479.314	410.06
479.75	408.91
480.185	410.82
480.62	413.64
481.055	415.07
481.49	418.33
481.925	424.28
482.36	432.42
482.795	443.35
483.229	454.84
483.664	464.07
484.099	465.04
484.534	471.5
484.968	475.8
485.403	475.97
485.837	475.25
486.271	474.56
486.706	474.84
487.14	468.1
487.574	460.66
488.009	456.12
488.443	452.04
488.877	457.38
489.311	458.87
489.745	463.64
490.179	468.88
490.613	477.74
491.046	481.12
491.48	483.85
491.914	484.54
492.348	488.51
492.781	492.01
493.215	493.12
493.648	492.71
494.082	496.5
494.515	497.12
494.948	502.24
495.382	504.88
495.815	508.4
496.248	513.1
496.681	522.8
497.114	530.64
497.547	537.3
497.98	546.87
498.413	552.88
498.846	559.86
499.279	566.18
499.711	570.45
500.144	573.45
500.577	581.64
501.009	590.87
501.442	598.8
501.874	601.23
502.306	604.9
502.739	613.34
503.171	625.58
503.603	630
504.036	639.63
504.468	645.41
504.9	656.22
505.332	664.21
505.764	669.24
506.196	677.44
506.627	691.35
507.059	704.32
507.491	712.87
507.923	713.91
508.354	728.83
508.786	739.83
509.217	756.98
509.649	771.82
510.08	790.29
510.512	808.06
510.943	824.3
511.374	837.83
511.805	857.64
512.237	877.44
512.668	908.07
513.099	934.73
513.53	961.7
513.961	983.4
514.391	1014.25
514.822	1046.16
515.253	1080.27
515.684	1106.16
516.114	1135.45
516.545	1159.01
516.975	1186
517.406	1207.31
517.836	1214.71
518.267	1225.81
518.697	1247.1
519.127	1255.66
519.558	1267.4
519.988	1275.64
520.418	1289.73
520.848	1310.77
521.278	1322.87
521.708	1344.25
522.138	1360.07
522.567	1392.72
522.997	1419.46
523.427	1437.05
523.857	1458.29
524.286	1472.11
524.716	1490.51
525.145	1511.95
525.575	1525.2
526.004	1543.16
526.433	1542.05
526.863	1546.05
527.292	1539.85
527.721	1548.52
528.15	1558.12
528.579	1561.58
529.008	1574
529.437	1597.52
529.866	1612.1
530.295	1630.79
530.724	1645.05
531.152	1671.6
531.581	1686.86
532.01	1706.1
532.438	1716.68
532.867	1731.88
533.295	1750.36
533.723	1758.11
534.152	1757.2
534.58	1758.89
535.008	1745.4
535.436	1748.21
535.865	1757.26
536.293	1771.98
536.721	1788.43
537.149	1814.2
537.576	1818.18
538.004	1832.29
538.432	1840.36
538.86	1840.16
539.287	1847.92
539.715	1862.8
540.143	1866.05
540.57	1864
540.998	1861.68
541.425	1839.73
541.852	1819.68
542.28	1817.78
542.707	1801.6
543.134	1788.61
543.561	1785.53
543.988	1778.55
544.415	1777.99
544.842	1772.74
545.269	1765.2
545.696	1765.68
546.123	1777.78
546.549	1767.25
546.976	1754.68
547.403	1753.82
547.829	1755.72
548.256	1757.44
548.682	1753.52
549.108	1745.14
549.535	1744.62
549.961	1746.99
550.387	1734.96
550.813	1729.82
551.24	1735.67
551.666	1737.08
552.092	1727.77
552.518	1720.49
552.943	1713.09
553.369	1720.67
553.795	1725.9
554.221	1725.76
554.646	1720.27
555.072	1728.78
555.498	1731.99
555.923	1738.51
556.349	1751.1
556.774	1757.25
557.199	1757.71
557.625	1761.52
558.05	1752.17
558.475	1759.27
558.9	1755.49
559.325	1746.77
559.75	1739.09
560.175	1730.63
560.6	1722.25
561.025	1717.54
561.449	1716.23
561.874	1718.7
562.299	1720.04
562.723	1724.16
563.148	1712.01
563.572	1714.42
563.997	1720.8
564.421	1723.07
564.846	1720.37
565.27	1720.57
565.694	1715.12
566.118	1723.72
566.542	1727.43
566.966	1719.01
567.39	1712.01
567.814	1698.91
568.238	1694
568.662	1694.62
569.086	1692.94
569.509	1696.13
569.933	1679.49
570.357	1669.29
570.78	1645.02
571.204	1629.51
571.627	1615.98
572.05	1610.68
572.474	1606.62
572.897	1592.55
573.32	1582.31
573.743	1570.46
574.166	1549.73
574.589	1545.35
575.012	1535.02
575.435	1531.24
575.858	1519.07
576.281	1504.77
576.704	1486.92
577.126	1472.74
577.549	1459.56
577.972	1448.42
578.394	1435.6
578.817	1427.03
579.239	1408.5
579.661	1393.77
580.084	1377.07
580.506	1363.42
580.928	1358.9
581.35	1347.77
581.772	1341.83
582.194	1328.12
582.616	1313.88
583.038	1298.53
583.46	1286.62
583.882	1282.49
584.303	1283.35
584.725	1277.02
585.147	1277.27
585.568	1283.47
585.99	1290.76
586.411	1294.45
586.833	1305.16
587.254	1305.43
587.675	1316.28
588.096	1326.09
588.518	1318.28
588.939	1302.47
589.36	1300.92
589.781	1289.96
590.202	1265.27
590.623	1257.26
591.043	1253.46
591.464	1240.64
591.885	1235.65
592.305	1230.57
592.726	1218.01
593.147	1219.06
593.567	1214.79
593.987	1207.07
594.408	1201.77
594.828	1200.12
595.248	1193.94
595.669	1178.16
596.089	1171.96
596.509	1166.47
596.929	1154.31
597.349	1154.52
597.769	1145.31
598.189	1140.33
598.608	1140.7
599.028	1141.76
599.448	1140.55
599.867	1131.18
600.287	1126.49
600.706	1121.93
601.126	1112.3
601.545	1111.03
601.965	1109.35
602.384	1104.44
602.803	1105.41
603.222	1099.94
603.641	1093.06
604.061	1089.27
604.48	1083.7
604.898	1088.73
605.317	1091.29
605.736	1091.99
606.155	1087.78
606.574	1078.36
606.992	1080.48
607.411	1074.08
607.829	1065.92
608.248	1061.38
608.666	1057.52
609.085	1054.97
609.503	1046.91
609.921	1040.42
610.339	1039.52
610.758	1036.53
611.176	1030.86
611.594	1022
612.012	1017.45
612.43	1017.76
612.847	1020.62
613.265	1019.56
613.683	1021.32
614.101	1020.55
614.518	1015.66
614.936	1006.24
615.353	994.19
615.771	990.34
616.188	988.88
616.606	984.9
617.023	978.67
617.44	967.1
617.857	959.04
618.274	951.68
618.691	945.45
619.108	937.22
619.525	931.56
619.942	934.68
620.359	935.63
620.776	930.2
621.192	926.9
621.609	925.38
622.026	928.81
622.442	932.95
622.859	934.16
623.275	926.93
623.691	929.82
624.108	937.77
624.524	947.57
624.94	946.56
625.356	953.19
625.772	961.92
626.188	969.03
626.604	971.01
627.02	967.48
627.436	966.21
627.852	972.52
628.268	982.05
628.683	975.95
629.099	969.54
629.514	965.58
629.93	968.5
630.345	970.39
630.761	966.27
631.176	967.72
631.591	964.36
632.007	958.55
632.422	955.76
632.837	945.91
633.252	942.04
633.667	934.22
634.082	925.72
634.497	914.74
634.911	899.56
635.326	896.5
635.741	882.29
636.155	872.51
636.57	872.03
636.984	870.48
637.399	869.78
637.813	867.25
638.228	863.94
638.642	865.3
639.056	856.92
639.47	854.97
639.884	846.55
640.298	840.28
640.712	838.04
641.126	826.62
641.54	817.81
641.954	811.87
642.368	801.78
642.781	794.92
643.195	780.22
643.609	777.4
644.022	771.68
644.436	765.6
644.849	755.06
645.262	744.68
645.676	744.75
646.089	740.51
646.502	729.04
646.915	723.97
647.328	710.67
647.741	708.45
648.154	699.46
648.567	697.37
648.98	688.48
649.393	687.9
649.805	684.44
650.218	677.39
650.631	666.6
651.043	661.71
651.456	657.02
651.868	657.28
652.28	668.68
652.693	676.75
653.105	679.11
653.517	684.08
653.929	684.32
654.341	687.84
654.753	679.83
655.165	682.53
655.577	680.58
655.989	677.29
656.401	669.6
656.813	645.36
657.224	631.97
657.636	612.82
658.047	601.53
658.459	587.9
658.87	580.34
659.282	572.36
659.693	558.98
660.104	549.2
660.515	539.95
660.926	538.7
661.338	536.77
661.749	532.06
662.159	526.91
662.57	523.33
662.981	521.09
663.392	517.1
663.803	519.75
664.213	518.49
664.624	516.03
665.035	519.46
665.445	512.47
665.855	508.84
666.266	505.18
666.676	503.88
667.086	498.64
667.497	498.91
667.907	495.97
668.317	490.75
668.727	490.6
669.137	492.34
669.547	491.05
669.956	493.86
670.366	496.32
670.776	497.07
671.186	500.78
671.595	505.47
672.005	508.33
672.414	509.26
672.824	510.16
673.233	512.46
673.642	515.61
674.052	519.05
674.461	521.26
674.87	524.65
675.279	525.06
675.688	526.4
676.097	528.06
676.506	526.08
676.915	536.35
677.323	537.91
677.732	538.62
678.141	538.22
678.549	531.59
678.958	530.92
679.366	531.1
679.775	534.03
680.183	542.32
680.592	546.5
681	552.17
681.408	547.29
681.816	552.6
682.224	558.65
682.632	565.74
683.04	585.38
683.448	601.41
683.856	621.34
684.264	645.38
684.671	665.88
685.079	692.33
685.487	720.52
685.894	761.95
686.302	797.15
686.709	824.13
687.116	856.63
687.524	884.07
687.931	908.17
688.338	929.66
688.745	948.56
689.152	972.01
689.559	1002.96
689.966	1035.53
690.373	1054.22
690.78	1086.41
691.187	1135.61
691.593	1175.86
692	1212.64
692.407	1266.03
692.813	1331.71
693.22	1385.64
693.626	1444.07
694.032	1494.14
694.439	1565.43
694.845	1625.19
695.251	1698.31
695.657	1767.99
696.063	1864.12
696.469	1941.31
696.875	2015.8
697.281	2065.31
697.687	2125.59
698.093	2178.83
698.498	2264.61
698.904	2334.13
699.31	2431.62
699.715	2507.94
700.12	2608.88
