Data from C_1_DEC_ON_6N_Splice17_11-53-38-811.txt Node
Date: Sat Mar 14 11:53:38 EDT 2020
User: sa697716
Spectrometer: FLMS03696
Trigger mode: 0
Integration Time (sec): 3.180400E-1
Scans to average: 20
Electric dark correction enabled: true
Nonlinearity correction enabled: true
Boxcar width: 5
XAxis mode: Wavelengths
Number of Pixels in Spectrum: 2048
>>>>>Begin Spectral Data<<<<<
187.83	-388913.97
188.298	2737.97
188.766	1427.83
189.233	1319.23
189.701	1868.93
190.169	2467.56
190.636	888.35
191.104	686.61
191.571	141.16
192.039	-33.85
192.506	-79.85
192.974	409.51
193.441	-718.87
193.908	-288.69
194.375	-36.86
194.842	38.46
195.31	79.94
195.777	144.69
196.244	321.02
196.711	352.54
197.177	431.34
197.644	576.8
198.111	984.21
198.578	1417.17
199.045	1135.76
199.511	1791.31
199.978	2088.11
200.445	1756.28
200.911	1913.41
201.378	2112.58
201.844	1961.43
202.31	3318.89
202.777	3483.61
203.243	1952.25
203.709	1847.94
204.176	2214.05
204.642	1841.4
205.108	1709.56
205.574	1401.62
206.04	1276.09
206.506	1197.8
206.972	1130.49
207.438	1092.19
207.903	1234.92
208.369	1088.33
208.835	1092.78
209.301	1142.15
209.766	1166.72
210.232	1154.02
210.697	1415.46
211.163	1743.91
211.628	2611.39
212.094	2160.14
212.559	2660.19
213.024	1650.87
213.49	1992.38
213.955	1914.44
214.42	1838.09
214.885	1690.84
215.35	1618.28
215.815	1589.82
216.28	1662.01
216.745	1335.01
217.21	1416.54
217.675	1253.42
218.14	1372.95
218.604	1466.75
219.069	1606.99
219.534	1655.64
219.998	1852.05
220.463	2163.95
220.927	2511.82
221.392	2291.12
221.856	2285.76
222.32	2802.88
222.785	3399.68
223.249	4194.01
223.713	4643.91
224.177	4588.67
224.642	5771.14
225.106	7067.19
225.57	7639.34
226.034	5718.78
226.497	8709.89
226.961	7812.68
227.425	9082.67
227.889	10046.31
228.353	9980.39
228.816	20438.24
229.28	19523.13
229.744	16346.98
230.207	9896.24
230.671	9719.19
231.134	15890.41
231.597	18282.09
232.061	18274.28
232.524	17747.7
232.987	12202.05
233.45	11016.54
233.914	9887.2
234.377	10046
234.84	9205.57
235.303	10857.87
235.766	12140.98
236.229	12513.43
236.691	7849.61
237.154	8799.32
237.617	6656.29
238.08	6825.27
238.542	7958.63
239.005	5687.57
239.468	5678.65
239.93	5362.96
240.393	4884.6
240.855	4285.56
241.317	4397.14
241.78	5340.22
242.242	5520.36
242.704	5964.38
243.166	5187.07
243.629	4735.33
244.091	5454.82
244.553	5976.46
245.015	6435.01
245.477	8303.21
245.939	12125.02
246.4	12867.22
246.862	12501.84
247.324	11767.54
247.786	13099.15
248.247	17178.81
248.709	17667.53
249.17	13251.02
249.632	12567.52
250.093	14611.29
250.555	12589.13
251.016	7716.62
251.477	7325.32
251.939	7917.62
252.4	8302.14
252.861	9862.91
253.322	9160.76
253.783	10891.2
254.244	14100.44
254.705	11047.99
255.166	9788.63
255.627	9642.36
256.088	13639.44
256.549	14501.3
257.009	12501.6
257.47	15148.57
257.931	12324.78
258.391	9239.65
258.852	9519.56
259.312	9965.15
259.773	12306.82
260.233	10410.53
260.694	8816.5
261.154	9958.48
261.614	8009.3
262.074	7138.16
262.534	7424.71
262.994	7014.26
263.455	9316.65
263.915	7858.54
264.374	7394.01
264.834	8057.31
265.294	8904.04
265.754	9216.59
266.214	8718.3
266.673	8164.98
267.133	10283.35
267.593	10192.09
268.052	12456.98
268.512	10833.78
268.971	13090.6
269.431	14385.68
269.89	12899.56
270.349	19354.02
270.809	21558.36
271.268	19347.45
271.727	43229.09
272.186	28048.51
272.645	21022.64
273.104	15136.5
273.563	21942.43
274.022	17188.38
274.481	14607.67
274.94	11265.74
275.399	8372.06
275.857	9724.92
276.316	13154.76
276.775	11712.83
277.233	11535.96
277.692	10840.76
278.15	12288.6
278.609	12671.62
279.067	11733.75
279.525	10937.58
279.984	14116.84
280.442	16974.42
280.9	16806.62
281.358	11061.65
281.816	10327.08
282.274	10114.61
282.732	10434.14
283.19	10494.37
283.648	9061.62
284.106	9666.21
284.564	9810.19
285.021	9132.77
285.479	6815.3
285.937	6189.48
286.394	5476.22
286.852	5647.42
287.309	5957.07
287.767	5792.82
288.224	5529.17
288.682	6078.92
289.139	6692.49
289.596	6152.75
290.053	6384.52
290.511	8065.33
290.968	9812.43
291.425	13271.59
291.882	11105.66
292.339	9694.44
292.796	9589.37
293.252	9024.27
293.709	7178.33
294.166	6444.93
294.623	7118.69
295.079	6828.44
295.536	6885.32
295.992	6263.4
296.449	6193.03
296.905	6439.7
297.362	6193.49
297.818	6522.02
298.274	6789.28
298.731	6904.84
299.187	6836.3
299.643	7330.34
300.099	8876.87
300.555	9716.04
301.011	8132.16
301.467	7906.17
301.923	9213.6
302.379	8996.65
302.835	8822.86
303.291	8848.01
303.746	10100.17
304.202	12783.73
304.658	12885.49
305.113	8701.61
305.569	8546.18
306.024	9100.73
306.479	8623.91
306.935	7314.05
307.39	7981.8
307.845	7419.63
308.301	7489.57
308.756	7315.54
309.211	7042.24
309.666	7234.81
310.121	9007.06
310.576	9157.87
311.031	9096.14
311.486	10400.18
311.94	10378.43
312.395	13893.64
312.85	26049.31
313.305	127385.8
313.759	663459.01
314.214	48323.92
314.668	38319.88
315.123	32275.4
315.577	11618.38
316.032	10379.63
316.486	13035.97
316.94	10315.07
317.394	7212.21
317.849	5620.26
318.303	5326.49
318.757	5025.19
319.211	5551.4
319.665	4850.14
320.119	4910.82
320.572	7023.84
321.026	6585.04
321.48	5476.38
321.934	5966.66
322.387	5965.8
322.841	6450.09
323.295	5838.4
323.748	6696.88
324.202	6792.22
324.655	8193.68
325.108	11479.45
325.562	8131.2
326.015	9632.81
326.468	7314.29
326.921	8178.98
327.374	7665.05
327.827	8049.72
328.28	9103.85
328.733	6146.52
329.186	5414.19
329.639	5168.52
330.092	4369.35
330.545	4179.9
330.997	4226.98
331.45	4635.64
331.903	5456.43
332.355	9367.96
332.808	9051.9
333.26	7466.66
333.713	8087.75
334.165	8147.18
334.617	10855.52
335.069	8703.51
335.522	15692.18
335.974	17373.97
336.426	15917.69
336.878	11019.33
337.33	5596.3
337.782	5478.33
338.234	6892.59
338.686	8226.43
339.137	9757.59
339.589	9190.13
340.041	7247.35
340.493	6204.11
340.944	6369.64
341.396	6838.99
341.847	5756.84
342.299	6831.06
342.75	8345.84
343.201	7250.05
343.653	8368.89
344.104	10303.27
344.555	8089.86
345.006	12523.49
345.457	9673.7
345.908	7668.71
346.359	7231.76
346.81	5889.59
347.261	6158.79
347.712	6041.31
348.163	6449.68
348.613	6547.05
349.064	6095.21
349.515	5360.66
349.965	5508.43
350.416	6617.15
350.866	7255.21
351.317	8193.43
351.767	13577.3
352.217	17157.21
352.668	14255.61
353.118	13145.49
353.568	12607.98
354.018	10009.71
354.468	10569.63
354.918	7609.15
355.368	6641.88
355.818	9379.31
356.268	26926.58
356.718	113050.39
357.168	28315.17
357.617	14236.86
358.067	15806.53
358.517	14839.06
358.966	17496.82
359.416	19708.94
359.865	21239.11
360.315	25325.83
360.764	11875.86
361.213	6675.64
361.663	6298.15
362.112	7736.05
362.561	12523.12
363.01	9486.92
363.459	8000.73
363.908	8621.07
364.357	7343.63
364.806	12411.76
365.255	8546.09
365.703	7838.94
366.152	7850.81
366.601	6390.56
367.05	5227.64
367.498	4761.05
367.947	4968.72
368.395	5175.91
368.844	4599.19
369.292	5486.72
369.74	3810.22
370.189	5815.87
370.637	6830.35
371.085	5899.11
371.533	7178.71
371.981	6879.85
372.429	6568.34
372.877	6850.56
373.325	5741.08
373.773	5823.6
374.221	5203.51
374.669	6450.14
375.116	5591.33
375.564	5637.39
376.012	6281.58
376.459	5193.96
376.907	6246.06
377.354	7554.93
377.801	7033.52
378.249	8111.96
378.696	10415.4
379.143	12617.15
379.591	13420.61
380.038	22777.23
380.485	16444.6
380.932	17875.99
381.379	16445.81
381.826	12149.47
382.273	8601.74
382.72	7569.55
383.166	7342.18
383.613	4766.45
384.06	4313.41
384.506	5012.16
384.953	3666.69
385.4	3692.71
385.846	3219.12
386.292	3121.66
386.739	3044.24
387.185	3018.39
387.631	3037.73
388.078	2989.68
388.524	3209.75
388.97	2993.29
389.416	2524.19
389.862	2707.5
390.308	2581.42
390.754	2656.35
391.2	2915.79
391.645	3032.71
392.091	2969.99
392.537	2904.83
392.983	2932.29
393.428	2940.12
393.874	3171.19
394.319	3232.1
394.765	3144.16
395.21	3314.9
395.655	3191.19
396.101	3071.4
396.546	2844.52
396.991	2933.57
397.436	2807.22
397.881	2799.67
398.326	2741.51
398.771	2694.63
399.216	2440
399.661	2272.6
400.106	2338.71
400.551	2471.51
400.995	2279.65
401.44	2313.42
401.885	2226.92
402.329	2295.47
402.774	2242.8
403.218	2214.68
403.663	2176.63
404.107	2284.1
404.551	2341.82
404.995	2197.05
405.44	2164.43
405.884	2248.23
406.328	2223.64
406.772	2262.2
407.216	2102.88
407.66	2082.19
408.104	2025.55
408.547	1943.27
408.991	1921.56
409.435	1889.72
409.879	1892.84
410.322	1896.39
410.766	1858.83
411.209	1798.98
411.653	1760.72
412.096	1758.45
412.54	1788.08
412.983	1805.46
413.426	1836.38
413.869	1860.63
414.312	1848.59
414.756	1806.01
415.199	1747.6
415.642	1720.9
416.085	1741.33
416.527	1746.29
416.97	1790.44
417.413	1713.78
417.856	1705.46
418.298	1696.57
418.741	1691.06
419.184	1692.83
419.626	1769.56
420.069	1771.38
420.511	1784.7
420.953	1756.06
421.396	1750.09
421.838	1715.69
422.28	1765.36
422.722	1786.89
423.164	1830.97
423.606	1819.22
424.048	1838.5
424.49	1760.64
424.932	1768.18
425.374	1757.12
425.816	1791.09
426.258	1820.64
426.699	1825.64
427.141	1768.79
427.582	1768.86
428.024	1739.57
428.465	1727.08
428.907	1690.98
429.348	1691.91
429.789	1711.34
430.231	1691.18
430.672	1731.62
431.113	1711.19
431.554	1722.26
431.995	1734.75
432.436	1725.7
432.877	1734.13
433.318	1737.39
433.759	1759.52
434.2	1779.35
434.64	1776.74
435.081	1799.57
435.522	1725.88
435.962	1689.05
436.403	1676.74
436.843	1721.77
437.284	1704.86
437.724	1676.7
438.164	1695.46
438.604	1670.84
439.045	1619.32
439.485	1568.35
439.925	1555.5
440.365	1535.59
440.805	1532.68
441.245	1523.28
441.685	1473.78
442.125	1470.97
442.564	1486.08
443.004	1455.23
443.444	1456.64
443.883	1466.72
444.323	1467.25
444.762	1482.31
445.202	1512.99
445.641	1543.9
446.081	1546.65
446.52	1572.12
446.959	1569.3
447.398	1543.89
447.837	1546.8
448.276	1537.98
448.716	1564.38
449.154	1586.83
449.593	1546.68
450.032	1540.51
450.471	1515.34
450.91	1517.98
451.349	1509.63
451.787	1502.91
452.226	1521.48
452.664	1514.26
453.103	1509.27
453.541	1506.07
453.98	1498.76
454.418	1513.72
454.856	1487.01
455.295	1485.06
455.733	1493.1
456.171	1500.19
456.609	1496.02
457.047	1493.69
457.485	1508.56
457.923	1508.46
458.361	1486.01
458.798	1490.87
459.236	1487.35
459.674	1503.69
460.111	1514.77
460.549	1503.78
460.987	1505.14
461.424	1506.43
461.862	1502.63
462.299	1487
462.736	1490.35
463.173	1499.81
463.611	1483.37
464.048	1482.01
464.485	1498.38
464.922	1491.69
465.359	1494.04
465.796	1469.74
466.233	1468.54
466.67	1463.37
467.106	1467.38
467.543	1462.53
467.98	1455.37
468.416	1436.07
468.853	1440.92
469.29	1412.19
469.726	1409.11
470.162	1383.14
470.599	1389.04
471.035	1389.82
471.471	1370.11
471.907	1378.08
472.344	1381.02
472.78	1391.38
473.216	1414.25
473.652	1400.83
474.088	1400.28
474.523	1399.16
474.959	1416.35
475.395	1406.37
475.831	1396.6
476.266	1404.78
476.702	1402.82
477.138	1387.39
477.573	1383.7
478.008	1377.45
478.444	1382.42
478.879	1392.82
479.314	1395.54
479.75	1390.93
480.185	1393.35
480.62	1402.18
481.055	1402.8
481.49	1401.85
481.925	1410.63
482.36	1414.68
482.795	1432.73
483.229	1445.43
483.664	1449.6
484.099	1434.8
484.534	1437.34
484.968	1436.56
485.403	1428.86
485.837	1418.82
486.271	1410.27
486.706	1409.81
487.14	1400.92
487.574	1386.83
488.009	1384.75
488.443	1381.08
488.877	1395.26
489.311	1401.34
489.745	1416.58
490.179	1428.08
490.613	1450.3
491.046	1461.22
491.48	1470.98
491.914	1471.87
492.348	1482.5
492.781	1491.52
493.215	1498.3
493.648	1508.52
494.082	1526.8
494.515	1530.49
494.948	1547.46
495.382	1560.58
495.815	1570.98
496.248	1581.89
496.681	1607.38
497.114	1630.78
497.547	1648.59
497.98	1669.72
498.413	1674.22
498.846	1686.79
499.279	1702.99
499.711	1714.03
500.144	1720.2
500.577	1740.13
501.009	1762.83
501.442	1782.56
501.874	1787.74
502.306	1800.5
502.739	1824.98
503.171	1870.46
503.603	1888.9
504.036	1918.31
504.468	1935.26
504.9	1965.06
505.332	1986.8
505.764	2005.32
506.196	2029.6
506.627	2068.43
507.059	2101.99
507.491	2128.31
507.923	2126.24
508.354	2165.33
508.786	2194.97
509.217	2241.27
509.649	2278.82
510.08	2326.41
510.512	2361.07
510.943	2392.44
511.374	2416.06
511.805	2460.98
512.237	2505.35
512.668	2577.87
513.099	2631.01
513.53	2675.28
513.961	2698.27
514.391	2749.2
514.822	2799.45
515.253	2863.85
515.684	2908.97
516.114	2967.14
516.545	3008.79
516.975	3062.9
517.406	3102.97
517.836	3115.31
518.267	3148.3
518.697	3210.44
519.127	3241.57
519.558	3279.23
519.988	3303.47
520.418	3345.24
520.848	3397.36
521.278	3429.12
521.708	3405.34
522.138	3439.79
522.567	3514.54
522.997	3565.02
523.427	3587.84
523.857	3610.38
524.286	3621.66
524.716	3648.15
525.145	3682.1
525.575	3702.38
526.004	3731.65
526.433	3781.92
526.863	3777.99
527.292	3750.32
527.721	3767.68
528.15	3795.19
528.579	3811.36
529.008	3844.35
529.437	3896.44
529.866	3922.31
530.295	3952.49
530.724	3967.16
531.152	4017.2
531.581	4038.67
532.01	4072.17
532.438	4085.93
532.867	4112.38
533.295	4144
533.723	4150.47
534.152	4140.43
534.58	4137.45
535.008	4102.07
535.436	4103.97
535.865	4118.15
536.293	4146.04
536.721	4172.95
537.149	4212.98
537.576	4200.56
538.004	4217.32
538.432	4229.7
538.86	4222.57
539.287	4235.44
539.715	4261.15
540.143	4267.06
540.57	4260.03
540.998	4256.1
541.425	4207.96
541.852	4173.63
542.28	4184.19
542.707	4160.38
543.134	4137.73
543.561	4138.7
543.988	4130.18
544.415	4137.23
544.842	4131.88
545.269	4121.19
545.696	4130.47
546.123	4170.07
546.549	4153.09
546.976	4129.5
547.403	4135.78
547.829	4148.69
548.256	4161.14
548.682	4159.69
549.108	4147.75
549.535	4154.08
549.961	4165.26
550.387	4140.74
550.813	4129.56
551.24	4149.65
551.666	4158.32
552.092	4140.37
552.518	4130.12
552.943	4116.63
553.369	4133.45
553.795	4145.7
554.221	4145.41
554.646	4136.42
555.072	4152.67
555.498	4158.47
555.923	4168.39
556.349	4189.29
556.774	4195.01
557.199	4184.91
557.625	4191.5
558.05	4171.67
558.475	4188.9
558.9	4178.62
559.325	4153.03
559.75	4134.23
560.175	4117.32
560.6	4100.31
561.025	4092.4
561.449	4092.8
561.874	4100.09
562.299	4096.76
562.723	4102.01
563.148	4066.23
563.572	4064.13
563.997	4074.01
564.421	4078.27
564.846	4066.72
565.27	4059.08
565.694	4037.28
566.118	4044.89
566.542	4042.75
566.966	4015.52
567.39	3989.1
567.814	3950.5
568.238	3933.28
568.662	3931.9
569.086	3924.06
569.509	3931.99
569.933	3894.14
570.357	3879.77
570.78	3836.08
571.204	3808.44
571.627	3788.4
572.05	3787.12
572.474	3790.06
572.897	3770.28
573.32	3755.18
573.743	3738.51
574.166	3698.24
574.589	3700.08
575.012	3681.25
575.435	3676.39
575.858	3654.12
576.281	3630.19
576.704	3600.96
577.126	3580.21
577.549	3560.24
577.972	3544.89
578.394	3524.91
578.817	3513.13
579.239	3480.84
579.661	3458.52
580.084	3430.7
580.506	3411.16
580.928	3410.74
581.35	3392.41
581.772	3387.74
582.194	3358.68
582.616	3330.24
583.038	3297.78
583.46	3272.93
583.882	3258.3
584.303	3261.28
584.725	3244.89
585.147	3228.28
585.568	3227.09
585.99	3219.78
586.411	3197.4
586.833	3197.94
587.254	3174.06
587.675	3180.84
588.096	3185.03
588.518	3153.9
588.939	3101.02
589.36	3080.77
589.781	3057.07
590.202	2995.3
590.623	2985.29
591.043	2993.64
591.464	2974.64
591.885	2967.34
592.305	2955.57
592.726	2927.52
593.147	2930.12
593.567	2919.48
593.987	2903.68
594.408	2890.7
594.828	2887.39
595.248	2870.52
595.669	2826.48
596.089	2810.17
596.509	2798.4
596.929	2769.69
597.349	2768.2
597.769	2744.28
598.189	2726.52
598.608	2721.77
599.028	2719.25
599.448	2713.6
599.867	2686.61
600.287	2677.04
600.706	2666.95
601.126	2645.51
601.545	2640.28
601.965	2636.12
602.384	2622.75
602.803	2624.78
603.222	2612.8
603.641	2598.58
604.061	2588.52
604.48	2576.99
604.898	2586.69
605.317	2587.73
605.736	2583.62
606.155	2568.65
606.574	2540.89
606.992	2540.76
607.411	2522.46
607.829	2498.93
608.248	2484.36
608.666	2471.17
609.085	2460.88
609.503	2436.86
609.921	2417.3
610.339	2411.95
610.758	2402.8
611.176	2386.49
611.594	2362.94
612.012	2351.91
612.43	2349.94
612.847	2352.63
613.265	2343.26
613.683	2340.06
614.101	2332.24
614.518	2318.82
614.936	2296.15
615.353	2265.82
615.771	2256.17
616.188	2252.86
616.606	2241.48
617.023	2226.75
617.44	2200.43
617.857	2190.81
618.274	2177.12
618.691	2165.08
619.108	2146.7
619.525	2131.38
619.942	2137.99
620.359	2136.61
620.776	2122.18
621.192	2108.08
621.609	2095.32
622.026	2096.5
622.442	2095.66
622.859	2092.04
623.275	2073.43
623.691	2075.42
624.108	2086.95
624.524	2102.06
624.94	2094.3
625.356	2101.88
625.772	2115.23
626.188	2128.6
626.604	2126.07
627.02	2114.26
627.436	2105.64
627.852	2110.28
628.268	2122.77
628.683	2103.94
629.099	2085.65
629.514	2076.03
629.93	2079.68
630.345	2085.41
630.761	2078.21
631.176	2082.99
631.591	2071.5
632.007	2060.75
632.422	2057.28
632.837	2040.29
633.252	2035.09
633.667	2020.52
634.082	2004.72
634.497	1983.73
634.911	1951.58
635.326	1944.67
635.741	1915.95
636.155	1900.66
636.57	1899.25
636.984	1896.32
637.399	1895.12
637.813	1893.32
638.228	1886.4
638.642	1889.32
639.056	1870.1
639.47	1868.19
639.884	1851.12
640.298	1837.4
640.712	1831.23
641.126	1809.95
641.54	1792.98
641.954	1782.53
642.368	1759.5
642.781	1743.74
643.195	1713.81
643.609	1708.26
644.022	1691.73
644.436	1679.78
644.849	1654.77
645.262	1629.36
645.676	1623.47
646.089	1608.52
646.502	1577.18
646.915	1561.57
647.328	1531.83
647.741	1524.2
648.154	1502.71
648.567	1493.51
648.98	1471.06
649.393	1470.9
649.805	1465.3
650.218	1454.98
650.631	1433.47
651.043	1426.7
651.456	1418.16
651.868	1416.74
652.28	1436.21
652.693	1447.13
653.105	1445.9
653.517	1444.25
653.929	1430.14
654.341	1426.38
654.753	1400.18
655.165	1400.9
655.577	1391.69
655.989	1382.43
656.401	1369.86
656.813	1322.26
657.224	1300.11
657.636	1269.8
658.047	1256.27
658.459	1240.12
658.87	1235.92
659.282	1226.06
659.693	1199.75
660.104	1179.16
660.515	1160.4
660.926	1156.05
661.338	1150.42
661.749	1139.73
662.159	1126.01
662.57	1118.1
662.981	1108.5
663.392	1094.87
663.803	1096.3
664.213	1090.26
664.624	1082.92
665.035	1082.86
665.445	1062.85
665.855	1050.24
666.266	1037.73
666.676	1031.78
667.086	1017.19
667.497	1013.14
667.907	1000.93
668.317	984.39
668.727	974.27
669.137	971.58
669.547	964.98
669.956	964.5
670.366	962.94
670.776	959.8
671.186	959.77
671.595	959.57
672.005	959.73
672.414	955.78
672.824	951.26
673.233	956
673.642	954.76
674.052	954.33
674.461	953.84
674.87	956.29
675.279	949.48
675.688	949.97
676.097	948.83
676.506	943.6
676.915	958.45
677.323	959.99
677.732	956.22
678.141	953.14
678.549	940.75
678.958	939.02
679.366	936.38
679.775	942.75
680.183	954.34
680.592	961.83
681	967.25
681.408	958.77
681.816	966.78
682.224	975.69
682.632	988.15
683.04	1021.91
683.448	1047.39
683.856	1075.49
684.264	1104.62
684.671	1129.24
685.079	1162.97
685.487	1203.01
685.894	1264.51
686.302	1311.82
686.709	1350.17
687.116	1397.18
687.524	1436.47
687.931	1473.14
688.338	1511.74
688.745	1549.99
689.152	1591.3
689.559	1645.64
689.966	1697.62
690.373	1721.24
690.78	1767.34
691.187	1836.38
691.593	1887.13
692	1932.51
692.407	1999.46
692.813	2081.53
693.22	2147.52
693.626	2219.52
694.032	2278.34
694.439	2368.21
694.845	2441.26
695.251	2532.58
695.657	2612.29
696.063	2731.52
696.469	2815.62
696.875	2895.14
697.281	2938.31
