Data from C_1_DEC_CT_2N_Splice17_11-46-33-179.txt Node
Date: Sat Mar 14 11:46:33 EDT 2020
User: sa697716
Spectrometer: FLMS03696
Trigger mode: 0
Integration Time (sec): 3.180400E-1
Scans to average: 20
Electric dark correction enabled: true
Nonlinearity correction enabled: true
Boxcar width: 5
XAxis mode: Wavelengths
Number of Pixels in Spectrum: 2048
>>>>>Begin Spectral Data<<<<<
187.83	-132736.24
188.298	1151.27
188.766	692.04
189.233	623.07
189.701	933.5
190.169	1282.21
190.636	532.03
191.104	535.7
191.571	131.63
192.039	-17.05
192.506	-32.98
192.974	478.53
193.441	-566.41
193.908	-82.08
194.375	-19.04
194.842	83.11
195.31	71.75
195.777	148.43
196.244	276.61
196.711	143.36
197.177	116.76
197.644	84.69
198.111	116.51
198.578	153.64
199.045	101.11
199.511	157.54
199.978	110.21
200.445	144.19
200.911	112.75
201.378	70.77
201.844	136.63
202.31	162.8
202.777	214.51
203.243	157.44
203.709	108.86
204.176	123.95
204.642	82.06
205.108	81.34
205.574	52.13
206.04	21.49
206.506	9.64
206.972	-27.32
207.438	-16.18
207.903	-18.6
208.369	2.99
208.835	23.56
209.301	39.98
209.766	27.22
210.232	31.45
210.697	28.35
211.163	25.8
211.628	-15.03
212.094	17.89
212.559	127.47
213.024	77.58
213.49	84.27
213.955	75.66
214.42	36.12
214.885	56.73
215.35	72.19
215.815	168.03
216.28	189.63
216.745	158.57
217.21	195.72
217.675	138.52
218.14	155.17
218.604	146.14
219.069	148.72
219.534	180.87
219.998	181.03
220.463	185.39
220.927	79.8
221.392	69.92
221.856	87
222.32	24.27
222.785	30.43
223.249	-7.01
223.713	-8.15
224.177	5.01
224.642	-67.15
225.106	-131.75
225.57	-196.02
226.034	-41.19
226.497	-67.06
226.961	-22.3
227.425	35.51
227.889	-28.82
228.353	-13.6
228.816	-92.33
229.28	8.57
229.744	-40.24
230.207	73.67
230.671	119.1
231.134	12.07
231.597	34.63
232.061	-77.26
232.524	-119.47
232.987	-34.37
233.45	10.36
233.914	16.75
234.377	-56.25
234.84	-27.38
235.303	-76.52
235.766	-94.82
236.229	-98.93
236.691	-94.31
237.154	-98.79
237.617	-55.64
238.08	-70.86
238.542	-111.64
239.005	-74.15
239.468	-43.5
239.93	-37.78
240.393	-27.7
240.855	-13.36
241.317	-27.67
241.78	-50.73
242.242	-43.54
242.704	-23.47
243.166	-8.1
243.629	30.99
244.091	52.54
244.553	41.76
245.015	56.55
245.477	70.78
245.939	64.66
246.4	129.06
246.862	121.37
247.324	112.42
247.786	89.34
248.247	57.05
248.709	-75.66
249.17	-77.75
249.632	25.94
250.093	110.34
250.555	65.85
251.016	86.83
251.477	77.93
251.939	121.21
252.4	110.04
252.861	106.69
253.322	142.58
253.783	131.88
254.244	126.75
254.705	29.49
255.166	-42.24
255.627	-26.08
256.088	-60.77
256.549	-54.36
257.009	-60.59
257.47	-88.82
257.931	-82.52
258.391	-71.87
258.852	-59.24
259.312	-80.76
259.773	-109.3
260.233	-25.92
260.694	-2.16
261.154	-12.05
261.614	54.14
262.074	42.58
262.534	84.99
262.994	97.63
263.455	103.89
263.915	114.24
264.374	125.17
264.834	138.29
265.294	103.19
265.754	124.43
266.214	111.96
266.673	73.06
267.133	72.29
267.593	15.44
268.052	5.78
268.512	1.18
268.971	67.95
269.431	92.97
269.89	66.84
270.349	140.25
270.809	130.1
271.268	132.81
271.727	150.03
272.186	129.2
272.645	161.86
273.104	84.15
273.563	115.66
274.022	-39.01
274.481	-7.51
274.94	15.91
275.399	-5.22
275.857	-24.36
276.316	-60.42
276.775	-49.67
277.233	-45.56
277.692	-41.9
278.15	-19.81
278.609	34.47
279.067	47.49
279.525	62.1
279.984	72.01
280.442	82.93
280.9	168
281.358	117.23
281.816	118.63
282.274	103.1
282.732	61.71
283.19	51.78
283.648	18.65
284.106	19.3
284.564	-23.74
285.021	-9.75
285.479	-10.99
285.937	-60.71
286.394	-34.74
286.852	-48.8
287.309	-45.38
287.767	0.27
288.224	14.16
288.682	0.72
289.139	13.36
289.596	17.9
290.053	-7.6
290.511	-25.2
290.968	-6
291.425	-32.03
291.882	36
292.339	52.84
292.796	11.13
293.252	17.6
293.709	62.19
294.166	49.45
294.623	50.85
295.079	51.13
295.536	86.38
295.992	86.29
296.449	71.91
296.905	85.76
297.362	97.32
297.818	91.22
298.274	100.64
298.731	78.41
299.187	72.92
299.643	77.44
300.099	123.74
300.555	118.93
301.011	106.75
301.467	173.5
301.923	129.81
302.379	120.16
302.835	131.8
303.291	123.63
303.746	120.96
304.202	138.95
304.658	143.93
305.113	64.77
305.569	63.83
306.024	54.02
306.479	-10.52
306.935	31.16
307.39	12.04
307.845	5.53
308.301	17.23
308.756	16.45
309.211	43.82
309.666	13.96
310.121	57.75
310.576	9.4
311.031	-16.01
311.486	-71.14
311.94	-123.63
312.395	-224.87
312.85	-419.59
313.305	-3153.64
313.759	-10944.96
314.214	-809.77
314.668	-428.6
315.123	-273.23
315.577	0.42
316.032	47.58
316.486	84.27
316.94	122.8
317.394	119.94
317.849	100.55
318.303	112.22
318.757	108.97
319.211	116.71
319.665	93.43
320.119	89.74
320.572	92.81
321.026	80.04
321.48	62.04
321.934	41.63
322.387	36.81
322.841	54.9
323.295	85.1
323.748	33.05
324.202	16.49
324.655	29.5
325.108	120.87
325.562	102.3
326.015	85.74
326.468	81.11
326.921	97.32
327.374	115.44
327.827	110.65
328.28	108.63
328.733	107.65
329.186	107.44
329.639	97.02
330.092	52.69
330.545	64.55
330.997	74.68
331.45	103.31
331.903	154.49
332.355	229.38
332.808	201.45
333.26	148.53
333.713	157.57
334.165	137.28
334.617	165.84
335.069	76.42
335.522	14.02
335.974	73.35
336.426	-14.34
336.878	-110.57
337.33	-52.61
337.782	-50.49
338.234	-24.47
338.686	-62.96
339.137	-67.46
339.589	-59.19
340.041	-8.54
340.493	-1.48
340.944	-5.43
341.396	-2.83
341.847	34.2
342.299	75.3
342.75	147.03
343.201	84.33
343.653	87.6
344.104	71.28
344.555	70.51
345.006	42.54
345.457	117.82
345.908	60.34
346.359	76.88
346.81	52.1
347.261	32.3
347.712	-11.33
348.163	-24.87
348.613	36.88
349.064	44.13
349.515	17.02
349.965	23.59
350.416	-12.36
350.866	-17.91
351.317	-37.24
351.767	-42.26
352.217	-77.52
352.668	-58.36
353.118	-19.32
353.568	-111.42
354.018	-28.98
354.468	4.95
354.918	26.42
355.368	28.95
355.818	36.78
356.268	-50.69
356.718	-212.93
357.168	46.27
357.617	79.51
358.067	-14.15
358.517	-77.73
358.966	-93.22
359.416	36.32
359.865	-26.13
360.315	-100
360.764	-30.48
361.213	11.38
361.663	-27.73
362.112	-85.09
362.561	-166.5
363.01	-39.94
363.459	-31.85
363.908	-86.33
364.357	-69.01
364.806	-139.63
365.255	-123.72
365.703	-74.03
366.152	-73.33
366.601	-47.64
367.05	-7
367.498	9.36
367.947	-24.53
368.395	-27.23
368.844	-1.62
369.292	-54.3
369.74	-14.89
370.189	-44.93
370.637	-88.63
371.085	-79.94
371.533	-116.14
371.981	-132.07
372.429	-103.39
372.877	-113.45
373.325	-57.35
373.773	-69.94
374.221	-65.27
374.669	-102.2
375.116	-47.49
375.564	-31.31
376.012	-27.73
376.459	-10.87
376.907	-20.43
377.354	-53.15
377.801	-14.15
378.249	-28.51
378.696	-61.79
379.143	-6.88
379.591	-61.33
380.038	-205.42
380.485	-99.48
380.932	-158.37
381.379	-0.68
381.826	56.24
382.273	47.5
382.72	-8.49
383.166	24.91
383.613	30.25
384.06	17.87
384.506	44.2
384.953	35.11
385.4	16.51
385.846	24.26
386.292	-10.56
386.739	-21.94
387.185	-44.91
387.631	-36.22
388.078	-17.4
388.524	-29.78
388.97	-34.87
389.416	-30.79
389.862	-15.79
390.308	-21.6
390.754	-20.71
391.2	-21.59
391.645	-30.14
392.091	11.35
392.537	15.71
392.983	-12.75
393.428	21.94
393.874	14.34
394.319	32.36
394.765	50.66
395.21	48.55
395.655	50.44
396.101	52.91
396.546	50.87
396.991	22.21
397.436	22.98
397.881	24.16
398.326	6.98
398.771	22.32
399.216	10.93
399.661	2
400.106	12.69
400.551	13.76
400.995	12.55
401.44	13.7
401.885	17.34
402.329	14.02
402.774	14.77
403.218	27.75
403.663	24.08
404.107	26.48
404.551	28.75
404.995	24.27
405.44	17.89
405.884	15.9
406.328	10.38
406.772	4.14
407.216	5.7
407.66	2.88
408.104	-10.16
408.547	-10.1
408.991	-11.14
409.435	-13.86
409.879	-11.84
410.322	-9.42
410.766	-6.45
411.209	-2.47
411.653	1.24
412.096	5.74
412.54	4.98
412.983	8.27
413.426	11.8
413.869	11.77
414.312	16.31
414.756	13.22
415.199	11.47
415.642	14.5
416.085	15.81
416.527	13.62
416.97	10.4
417.413	11.12
417.856	8.41
418.298	5.67
418.741	3.21
419.184	-3.87
419.626	-8.24
420.069	-8.77
420.511	-9.72
420.953	-8.59
421.396	-6.8
421.838	-9.11
422.28	-8.79
422.722	-6.4
423.164	-8.49
423.606	-8.13
424.048	-7.93
424.49	-3.06
424.932	-4.03
425.374	-8.58
425.816	-10.93
426.258	-12.04
426.699	-8.96
427.141	-3.97
427.582	-5.43
428.024	-5.69
428.465	-5.15
428.907	-3.52
429.348	-5.08
429.789	-1.08
430.231	4.4
430.672	6.27
431.113	7.36
431.554	6.56
431.995	1.91
432.436	4.2
432.877	5.06
433.318	7.86
433.759	7.51
434.2	8.41
434.64	6.58
435.081	4.87
435.522	3.47
435.962	1.29
436.403	4.68
436.843	3.4
437.284	1.33
437.724	-1.16
438.164	-5.89
438.604	-6.39
439.045	-4.38
439.485	-0.97
439.925	-1.44
440.365	-1.39
440.805	-1.31
441.245	-1.91
441.685	-0.93
442.125	-1.62
442.564	-1.28
443.004	0.15
443.444	0.48
443.883	0.43
444.323	-3.64
444.762	-8.59
445.202	-10.57
445.641	-8.86
446.081	-11.85
446.52	-11.77
446.959	-10.87
447.398	-8.06
447.837	-7.13
448.276	-7.38
448.716	-7.19
449.154	-7.3
449.593	-3.9
450.032	-2.71
450.471	-5.36
450.91	-6.18
451.349	-4.32
451.787	-5.4
452.226	-6.18
452.664	-7.54
453.103	-7.85
453.541	-9.55
453.98	-5.76
454.418	-4.55
454.856	-2
455.295	-0.42
455.733	1.66
456.171	0.53
456.609	3.15
457.047	3.53
457.485	6.55
457.923	9.47
458.361	9.84
458.798	7.99
459.236	7.62
459.674	6.16
460.111	6.8
460.549	6.81
460.987	5.82
461.424	3.69
461.862	4.45
462.299	3.63
462.736	3.87
463.173	3.88
463.611	7.55
464.048	8.89
464.485	8.81
464.922	8.21
465.359	7.51
465.796	16.63
466.233	18.88
466.67	20.6
467.106	22.43
467.543	19.62
467.98	19.75
468.416	15.69
468.853	13.23
469.29	12.21
469.726	11.55
470.162	10.79
470.599	3.08
471.035	1.09
471.471	-0.74
471.907	-3.34
472.344	-3.35
472.78	-3.1
473.216	-3.42
473.652	-2.05
474.088	-2.86
474.523	-2.24
474.959	-2.08
475.395	-1.28
475.831	-0.59
476.266	-0.47
476.702	-0.56
477.138	-0.37
477.573	-0.81
478.008	0.23
478.444	0.24
478.879	2.57
479.314	3.28
479.75	3.13
480.185	2.28
480.62	1.61
481.055	0.98
481.49	1.67
481.925	1.67
482.36	3.42
482.795	2.02
483.229	1.28
483.664	0.2
484.099	-0.41
484.534	0.85
484.968	1.65
485.403	1.49
485.837	0.91
486.271	0.24
486.706	0.33
487.14	-1.38
487.574	-0.64
488.009	-0.87
488.443	-0.95
488.877	0.05
489.311	-1.14
489.745	-1.48
490.179	-0.58
490.613	1.67
491.046	1.47
491.48	1.59
491.914	1.83
492.348	1.28
492.781	1.83
493.215	1.84
493.648	0.56
494.082	0.52
494.515	1.01
494.948	1.32
495.382	-0.45
495.815	-0.06
496.248	0.2
496.681	-0.38
497.114	-0.58
497.547	-0.31
497.98	0.7
498.413	2.56
498.846	2.89
499.279	1.89
499.711	0.85
500.144	1.23
500.577	2.22
501.009	2.08
501.442	3.4
501.874	4.26
502.306	3.57
502.739	5.97
503.171	5.09
503.603	5.38
504.036	5.61
504.468	5.52
504.9	4.94
505.332	4.05
505.764	4.67
506.196	4.35
506.627	4.27
507.059	4.77
507.491	1.48
507.923	1.44
508.354	1.52
508.786	1.57
509.217	1.78
509.649	1.97
510.08	1.66
510.512	2.1
510.943	2.05
511.374	2.17
511.805	1.91
512.237	1.72
512.668	0.6
513.099	-0.51
513.53	-0.56
513.961	-0.21
514.391	-0.58
514.822	1.2
515.253	0.63
515.684	0.38
516.114	0.32
516.545	1.14
516.975	1.28
517.406	1.22
517.836	1.76
518.267	2.12
518.697	2.77
519.127	3.68
519.558	1.98
519.988	1.23
520.418	0.71
520.848	-0.2
521.278	-1.58
521.708	22.18
522.138	23.57
522.567	22.44
522.997	22.2
523.427	21.68
523.857	21.62
524.286	21.7
524.716	22.84
525.145	23.2
525.575	24.04
526.004	24.03
526.433	1.07
526.863	-0.31
527.292	1.68
527.721	2.49
528.15	1.94
528.579	1.81
529.008	2.05
529.437	0.35
529.866	0.14
530.295	-0.27
530.724	0.88
531.152	0.84
531.581	2.13
532.01	1.52
532.438	0.56
532.867	0.5
533.295	1.01
533.723	0.94
534.152	2.02
534.58	2.51
535.008	2.64
535.436	3.68
535.865	2.92
536.293	1.71
536.721	0.9
537.149	1.36
537.576	2.83
538.004	2.69
538.432	2.13
538.86	2.41
539.287	1.64
539.715	1.49
540.143	0.17
540.57	0.6
540.998	1.02
541.425	2.62
541.852	2.1
542.28	0.97
542.707	0.79
543.134	1.37
543.561	1.21
543.988	1.82
544.415	1.74
544.842	0.73
545.269	0.83
545.696	1.16
546.123	0.82
546.549	1.13
546.976	1.51
547.403	1.13
547.829	0.17
548.256	-0.59
548.682	-0.61
549.108	0.24
549.535	0.62
549.961	0.11
550.387	-0.35
550.813	0.91
551.24	0.48
551.666	-0.28
552.092	-0.24
552.518	0.3
552.943	1.39
553.369	1.12
553.795	1.13
554.221	1.95
554.646	2.28
555.072	3.56
555.498	1.17
555.923	1.08
556.349	1.72
556.774	1.91
557.199	1.81
557.625	0.57
558.05	1.33
558.475	0.6
558.9	0.23
559.325	2.05
559.75	2.47
560.175	2.86
560.6	2.71
561.025	1.78
561.449	1.6
561.874	1.1
562.299	2.07
562.723	1.25
563.148	1.29
563.572	1.05
563.997	-0.73
564.421	-2.82
564.846	-3
565.27	-2.77
565.694	-2.65
566.118	-3.02
566.542	-1.53
566.966	-1.56
567.39	-1.53
567.814	-1.12
568.238	-0.78
568.662	-1.14
569.086	-0.64
569.509	-0.92
569.933	0.48
570.357	0.77
570.78	0.75
571.204	1.69
571.627	1.25
572.05	1.48
572.474	2.2
572.897	2.25
573.32	3.73
573.743	3.73
574.166	4.5
574.589	2.98
575.012	2.84
575.435	2.6
575.858	1.73
576.281	2.06
576.704	1.56
577.126	-0.24
577.549	-0.8
577.972	-2.14
578.394	-2
578.817	-0.08
579.239	-0.08
579.661	0.82
580.084	2.18
580.506	1.88
580.928	1.25
581.35	1.69
581.772	2.91
582.194	3.46
582.616	2.78
583.038	2.3
583.46	0.5
583.882	0.85
584.303	-0.52
584.725	-1.28
585.147	3.01
585.568	3.59
585.99	4.16
586.411	4.38
586.833	4.97
587.254	5.9
587.675	6.06
588.096	6.2
588.518	6.58
588.939	6.81
589.36	6.84
589.781	1.53
590.202	4.51
590.623	4.26
591.043	2.68
591.464	2.05
591.885	2.4
592.305	1.59
592.726	0.49
593.147	0.6
593.567	1.03
593.987	1.12
594.408	1.29
594.828	-1.88
595.248	-1.66
595.669	0.21
596.089	0.15
596.509	-0.23
596.929	0.36
597.349	1.28
597.769	1.1
598.189	1.52
598.608	1.39
599.028	0.9
599.448	0.3
599.867	0.04
600.287	-1.11
600.706	-0.67
601.126	-0.12
601.545	0.69
601.965	0.46
602.384	0.04
602.803	-0.5
603.222	-0.18
603.641	0.2
604.061	1.31
604.48	1.12
604.898	1.17
605.317	0.71
605.736	0.25
606.155	0.6
606.574	0.57
606.992	0.78
607.411	1.01
607.829	-0.02
608.248	-0.04
608.666	-1.38
609.085	-0.91
609.503	-1.25
609.921	-0.9
610.339	-0.99
610.758	-1.79
611.176	-1.99
611.594	-1.27
612.012	-1.28
612.43	-0.07
612.847	-0.66
613.265	0.93
613.683	0.13
614.101	0.58
614.518	-0.17
614.936	-0.12
615.353	0.39
615.771	0.81
616.188	0.66
616.606	0.82
617.023	1.02
617.44	1.83
617.857	0.82
618.274	0.35
618.691	0.89
619.108	1.17
619.525	1.21
619.942	1.72
620.359	1.67
620.776	1.26
621.192	1.79
621.609	2.06
622.026	2.3
622.442	2.21
622.859	2.39
623.275	1.7
623.691	1.32
624.108	1.29
624.524	0.49
624.94	1.15
625.356	1.51
625.772	0.25
626.188	-1.01
626.604	-1.16
627.02	-1.1
627.436	-0.81
627.852	0.96
628.268	1.86
628.683	1.69
629.099	1.49
629.514	0.43
629.93	-0.27
630.345	-0.03
630.761	-0.6
631.176	-0.8
631.591	1.01
632.007	2.75
632.422	1.42
632.837	0.54
633.252	1.61
633.667	1.68
634.082	2.81
634.497	3.41
634.911	5.27
635.326	6.15
635.741	6.7
636.155	5.59
636.57	5.15
636.984	4.41
637.399	5.74
637.813	4.79
638.228	4.61
638.642	3.53
639.056	3.33
639.47	2
639.884	2.04
640.298	1.38
640.712	2.08
641.126	1.37
641.54	1.63
641.954	-0.4
642.368	-0.18
642.781	2.72
643.195	3.25
643.609	3.72
644.022	3.75
644.436	3
644.849	2.51
645.262	1.63
645.676	1.18
646.089	1.31
646.502	3.01
646.915	2.47
647.328	1.23
647.741	1.37
648.154	0.9
648.567	2.95
648.98	4.13
649.393	4.43
649.805	4.17
650.218	3.85
650.631	4.44
651.043	3.61
651.456	4.08
651.868	3.22
652.28	2.06
652.693	0.77
653.105	-1.3
653.517	-1.65
653.929	-1.66
654.341	-0.84
654.753	0.52
655.165	0.2
655.577	0.93
655.989	1.25
656.401	-0.39
656.813	1.38
657.224	1.99
657.636	1.48
658.047	3.16
658.459	3.24
658.87	2.3
659.282	1.5
659.693	2.59
660.104	3.13
660.515	2.22
660.926	2.34
661.338	1.42
661.749	1.46
662.159	2.51
662.57	0.29
662.981	0.16
663.392	0.06
663.803	0.55
664.213	-0.5
664.624	-1.17
665.035	-1.23
665.445	-1.22
665.855	0.24
666.266	1.71
666.676	1.06
667.086	0.59
667.497	1.39
667.907	1.61
668.317	0.49
668.727	3.71
669.137	2.8
669.547	2.9
669.956	2.14
670.366	1.11
670.776	0.88
671.186	0.83
671.595	1.41
672.005	0.25
672.414	0.79
672.824	2
673.233	-1.77
673.642	-0.91
674.052	0.06
674.461	1.84
674.87	1.82
675.279	2.31
675.688	1.15
676.097	3.12
676.506	3.88
676.915	3.15
677.323	3.11
677.732	3.81
678.141	3.03
678.549	2.2
678.958	0.7
679.366	-0.14
679.775	-0.86
680.183	1.99
680.592	0.9
681	0.52
681.408	0.99
681.816	0.2
682.224	-0.98
682.632	0.61
683.04	0.8
683.448	1.34
683.856	3.09
684.264	3.57
684.671	0.54
685.079	-0.92
685.487	-1.01
685.894	-1.95
686.302	-3.08
686.709	-2.04
687.116	-2.48
687.524	-1.8
687.931	-0.63
688.338	-2.08
688.745	-3.82
689.152	-2.55
689.559	-1.88
689.966	-0.48
690.373	-0.1
690.78	1.6
691.187	1.7
691.593	1.51
692	1.08
692.407	1.51
692.813	4.12
693.22	5.06
693.626	3.89
694.032	5.22
694.439	5
694.845	5.73
695.251	4.67
695.657	4.86
696.063	3.04
696.469	2.12
696.875	1.37
697.281	-0.94
697.687	-1.64
698.093	-1.32
698.498	-1.13
698.904	-2.6
699.31	-3.51
699.715	0.35
700.12	-0.05
700.526	1.76
700.931	1.89
701.337	2.77
701.742	4.93
702.147	4.59
702.552	4.69
702.957	3.04
703.362	3.46
703.767	3.47
704.172	-0.66
704.577	-1.84
704.981	-3.73
705.386	-2.6
705.791	-3.26
706.195	-5.96
706.6	-5.2
707.004	-5.87
707.408	-5.97
707.813	-4.35
708.217	-3.09
708.621	-2.1
709.025	-1.39
709.43	1.55
709.834	1.52
710.237	1.44
710.641	2.2
711.045	2.73
711.449	4.76
711.853	9.52
712.256	7.64
712.66	6.49
713.064	6.86
713.467	7.44
713.87	7.08
714.274	7.27
714.677	8.85
715.08	10.14
715.484	10.08
715.887	11.34
716.29	6.71
716.693	8.85
717.096	10.05
717.499	10.54
717.901	9.76
718.304	9
718.707	7.65
719.109	5.35
719.512	2.84
719.915	5.51
720.317	3.99
720.719	2.1
721.122	0.28
721.524	0.16
721.926	5.35
722.328	6.47
722.731	5.5
723.133	5.94
723.535	6.75
723.937	7.6
724.338	7.41
724.74	7.92
725.142	61.68
725.544	66.5
725.945	80.11
726.347	75.16
726.748	73.72
727.15	75.3
727.551	78.53
727.952	76.37
728.354	75
728.755	73.93
729.156	72.31
729.557	20.75
729.958	16.46
730.359	3.1
730.76	2.46
731.161	3.51
731.562	1.67
731.962	-1.86
732.363	-0.08
732.763	-0.87
733.164	-3.47
733.564	-2.18
733.965	-1.27
734.365	-0.71
734.766	-0.31
735.166	-0.92
735.566	0.47
735.966	1.08
736.366	2.34
736.766	1.06
737.166	0.92
737.566	1.55
737.966	0.86
738.365	1.09
738.765	2.52
739.165	1.77
739.564	1.96
739.964	-0.06
740.363	-0.24
740.763	-2.34
741.162	-0.56
741.561	0.16
741.96	1.26
742.36	0.29
742.759	0.35
743.158	-1.27
743.557	-1.24
743.955	-1.01
744.354	-0.95
744.753	-1.72
745.152	0.7
745.55	-0.68
745.949	0.08
746.348	-0.39
746.746	-1.36
747.144	1.07
747.543	0.38
747.941	0.11
748.339	0.07
748.737	0.68
749.136	2.51
749.534	0.9
749.932	3.85
750.33	3.07
750.727	1.59
751.125	4
751.523	2.8
751.921	6.23
752.318	6.88
752.716	8.7
753.113	8.81
753.511	7.86
753.908	7.91
754.305	9.9
754.703	10.85
755.1	12.61
755.497	12.1
755.894	11.02
756.291	8.33
756.688	9.29
757.085	6.63
757.482	7.61
757.878	9.92
758.275	12.09
758.672	5.14
759.068	3.22
759.465	1.31
759.861	-2.07
760.258	-5.97
760.654	-7.92
761.05	-7.73
761.447	-3.93
761.843	-5.18
762.239	-4.13
762.635	-7.68
763.031	-8.67
763.427	-8.49
763.822	-6.27
764.218	-4.09
764.614	-2.25
765.01	-2.86
765.405	-4.36
765.801	-4
766.196	-2.77
766.592	-5.19
766.987	-3.33
767.382	-3.03
767.778	-2.72
768.173	-3.32
768.568	-3.29
768.963	-2.42
769.358	-2.26
769.753	-0.71
770.148	-0.79
770.542	-1.76
