Data from C_1_DEC_VA_2N_Splice17_11-57-51-108.txt Node
Date: Sat Mar 14 11:57:51 EDT 2020
User: sa697716
Spectrometer: FLMS03696
Trigger mode: 0
Integration Time (sec): 3.180400E-1
Scans to average: 20
Electric dark correction enabled: true
Nonlinearity correction enabled: true
Boxcar width: 5
XAxis mode: Wavelengths
Number of Pixels in Spectrum: 2048
>>>>>Begin Spectral Data<<<<<
187.83	-312436.96
188.298	2316.55
188.766	1202.54
189.233	1089.18
189.701	1560.02
190.169	2106.09
190.636	853.99
191.104	673.52
191.571	118.73
192.039	-17.76
192.506	-76.25
192.974	475.16
193.441	-599.94
193.908	-181.75
194.375	-27.06
194.842	19.99
195.31	91.56
195.777	206.38
196.244	393.7
196.711	459.64
197.177	573.11
197.644	813.32
198.111	1412.34
198.578	1992.07
199.045	1590.74
199.511	2600.74
199.978	3077.59
200.445	2592.74
200.911	2862.75
201.378	3222.48
201.844	2939.13
202.31	5009.02
202.777	5219.09
203.243	2921.44
203.709	2779.83
204.176	3317.43
204.642	2743.92
205.108	2547.78
205.574	2086.4
206.04	1895.05
206.506	1769.57
206.972	1678.93
207.438	1627.92
207.903	1854.29
208.369	1625.1
208.835	1612.54
209.301	1684.4
209.766	1716.89
210.232	1690.18
210.697	2105.23
211.163	2607.96
211.628	3955.7
212.094	3304.12
212.559	4049.03
213.024	2518.56
213.49	3072.79
213.955	3010.13
214.42	2975.58
214.885	2787.27
215.35	2696.48
215.815	2581.35
216.28	2738.12
216.745	2216.98
217.21	2392.62
217.675	2205.13
218.14	2464.74
218.604	2742.22
219.069	3119.27
219.534	3248.91
219.998	3757.3
220.463	4551.99
220.927	5609.24
221.392	5264.08
221.856	5350.75
222.32	6752.98
222.785	8358.84
223.249	10523.25
223.713	11732.58
224.177	11742.09
224.642	15086.55
225.106	18613.63
225.57	20375.85
226.034	15160.13
226.497	23122.5
226.961	20891.52
227.425	24330.25
227.889	26972.13
228.353	26997.32
228.816	55820.13
229.28	53416.51
229.744	45070.66
230.207	27409.69
230.671	26929.33
231.134	44427.23
231.597	51252.47
232.061	51218.73
232.524	49926.17
232.987	34388.59
233.45	30937.98
233.914	27754.23
234.377	28466.01
234.84	26071.27
235.303	30732.29
235.766	34325.95
236.229	35521.15
236.691	22395.1
237.154	25174.51
237.617	18970.06
238.08	19446.16
238.542	22804.99
239.005	16306.11
239.468	16187.9
239.93	15249.57
240.393	13863.96
240.855	12178.69
241.317	12482
241.78	15173.57
242.242	15697.49
242.704	16953.15
243.166	14761.97
243.629	13403.88
244.091	15450.33
244.553	16924.45
245.015	18198.63
245.477	23526.68
245.939	34469.78
246.4	36609.96
246.862	35590.51
247.324	33562.85
247.786	37542.02
248.247	49165.74
248.709	50779.02
249.17	38000.65
249.632	35848.07
250.093	41616.05
250.555	36002.52
251.016	21974.96
251.477	20862.08
251.939	22537.62
252.4	23653
252.861	28160.29
253.322	26236.7
253.783	31237.73
254.244	40527.46
254.705	31987.36
255.166	28468.95
255.627	28022.83
256.088	39561.07
256.549	42035.39
257.009	36201.2
257.47	43971.2
257.931	35795.31
258.391	26822.58
258.852	27678.97
259.312	29054.17
259.773	35863.55
260.233	30311.49
260.694	25593.56
261.154	29041.47
261.614	23310.13
262.074	20875.06
262.534	21690.06
262.994	20465.05
263.455	27280.74
263.915	22963.37
264.374	21628.15
264.834	23635.61
265.294	26181.59
265.754	27130.85
266.214	25681.96
266.673	24091.76
267.133	30414.19
267.593	30178.6
268.052	36937.33
268.512	32137.3
268.971	38784.29
269.431	42539.17
269.89	38097.42
270.349	57132.11
270.809	63669.09
271.268	57241.51
271.727	128379.98
272.186	83068.66
272.645	62260.35
273.104	44894.31
273.563	64962.05
274.022	51102.28
274.481	43464.79
274.94	33461.27
275.399	24871
275.857	28963.47
276.316	39192.38
276.775	34860.34
277.233	34366.66
277.692	32185.51
278.15	36401.43
278.609	37471.18
279.067	34692.25
279.525	32217.64
279.984	41654.15
280.442	50056.21
280.9	49333.47
281.358	32446.76
281.816	30247.24
282.274	29586.54
282.732	30574.32
283.19	30724.05
283.648	26517.95
284.106	28204.08
284.564	28718.94
285.021	26623.05
285.479	19858
285.937	18074.83
286.394	15863.63
286.852	16323.44
287.309	17174.46
287.767	16598.99
288.224	15805.35
288.682	17356.49
289.139	19077.23
289.596	17449.34
290.053	18163.4
290.511	22890.97
290.968	27755.79
291.425	37651.78
291.882	31342.81
292.339	27282.32
292.796	27079.68
293.252	25524.69
293.709	20276.45
294.166	18169.03
294.623	20083.08
295.079	19263.71
295.536	19360.23
295.992	17578.92
296.449	17385.86
296.905	18056.8
297.362	17307.93
297.818	18189.35
298.274	18881.22
298.731	19237.7
299.187	19041.98
299.643	20458.91
300.099	24719.34
300.555	27147.61
301.011	22694.28
301.467	21869.52
301.923	25606.01
302.379	25006.41
302.835	24581.7
303.291	24611.41
303.746	28016.1
304.202	35405.13
304.658	35521.6
305.113	23921.79
305.569	23453.43
306.024	25040
306.479	23885.12
306.935	20159.65
307.39	22041.26
307.845	20375.19
308.301	20488
308.756	19983.86
309.211	19267.06
309.666	19746.43
310.121	24506.93
310.576	24864.34
311.031	24660.26
311.486	28226.5
311.94	28239.1
312.395	37734.84
312.85	70890.39
313.305	348635.64
313.759	1803127.94
314.214	130655.22
314.668	103646.09
315.123	87160.76
315.577	31281.24
316.032	27863.85
316.486	34958.87
316.94	27547.46
317.394	19210.94
317.849	14938.91
318.303	14135.85
318.757	13343.04
319.211	14759.53
319.665	12917.85
320.119	13069.36
320.572	18702.46
321.026	17442.85
321.48	14501.98
321.934	15824.44
322.387	15846.7
322.841	17113.26
323.295	15389.71
323.748	17726.08
324.202	17969.77
324.655	21604.84
325.108	30175.1
325.562	21354.02
326.015	25388.08
326.468	19220.85
326.921	21501.51
327.374	20057.29
327.827	20883.44
328.28	23648.74
328.733	15852.49
329.186	13942.21
329.639	13285.48
330.092	11197.31
330.545	10660.9
330.997	10751.24
331.45	11725.35
331.903	13741.47
332.355	23662.13
332.808	23005.57
333.26	18991.47
333.713	20636.3
334.165	20796.33
334.617	27786.8
335.069	22498.29
335.522	40723.05
335.974	45123.68
336.426	41291.38
336.878	28584.71
337.33	14500.44
337.782	14149.6
338.234	17684.77
338.686	21129.59
339.137	25049.92
339.589	23514.23
340.041	18432.58
340.493	15842.99
340.944	16208.87
341.396	17458.48
341.847	14685.92
342.299	17299.37
342.75	21137.53
343.201	18526.65
343.653	21325.97
344.104	26181.01
344.555	20634.56
345.006	32074.26
345.457	24554.42
345.908	19511.55
346.359	18391.02
346.81	14984.35
347.261	15805.84
347.712	15539.7
348.163	16603.99
348.613	16766.58
349.064	15663.44
349.515	13724.03
349.965	14097.71
350.416	16967.92
350.866	18621.91
351.317	21015.54
351.767	34852.28
352.217	44037.25
352.668	36594.72
353.118	33630.96
353.568	32488.45
354.018	25723.97
354.468	27117.04
354.918	19424.64
355.368	16995.08
355.818	24026.98
356.268	69097.85
356.718	288803.98
357.168	71865.85
357.617	36051.68
358.067	40042.32
358.517	37563.19
358.966	44049.83
359.416	49370.79
359.865	53420.35
360.315	63593.73
360.764	29668.93
361.213	16608.53
361.663	15710.71
362.112	19377.75
362.561	31255.91
363.01	23587.17
363.459	19863.79
363.908	21476.96
364.357	18234.97
364.806	30749.48
365.255	21170.14
365.703	19414.57
366.152	19467.8
366.601	15818.05
367.05	12860.16
367.498	11691.41
367.947	12220.16
368.395	12678.39
368.844	11223.52
369.292	13534.67
369.74	9361.36
370.189	14315.11
370.637	16779.19
371.085	14471.58
371.533	17609.97
371.981	16972.53
372.429	16197.78
372.877	16852.3
373.325	14109.17
373.773	14382.78
374.221	12811.53
374.669	15903.52
375.116	13754.31
375.564	13859.13
376.012	15502.41
376.459	12777.58
376.907	15261.05
377.354	18473.41
377.801	17241.56
378.249	19819.45
378.696	25289.1
379.143	30653.66
379.591	32702.47
380.038	55395.49
380.485	40032.75
380.932	43335.71
381.379	39638.35
381.826	29167.16
382.273	20752.65
382.72	18163.96
383.166	17720.75
383.613	11522.6
384.06	10388.62
384.506	12016.74
384.953	8826.36
385.4	8898.06
385.846	7775.75
386.292	7587.84
386.739	7433.96
387.185	7354.89
387.631	7366.21
388.078	7159.32
388.524	7653.11
388.97	7072.76
389.416	5901.7
389.862	6282.14
390.308	5963.03
390.754	6079.63
391.2	6604.89
391.645	6779.44
392.091	6492.36
392.537	6278.09
392.983	6292.85
393.428	6206.24
393.874	6663.76
394.319	6705.72
394.765	6367.65
395.21	6557.79
395.655	6147.6
396.101	5767.71
396.546	5198.29
396.991	5250.1
397.436	4880.04
397.881	4727.64
398.326	4485.15
398.771	4249.32
399.216	3716.63
399.661	3348.52
400.106	3336.27
400.551	3423.14
400.995	3075.77
401.44	3050.53
401.885	2864.47
402.329	2894.75
402.774	2771.56
403.218	2682.21
403.663	2582.58
404.107	2652.08
404.551	2672.44
404.995	2452.75
405.44	2359.67
405.884	2391.21
406.328	2311.27
406.772	2304.83
407.216	2100.43
407.66	2032.17
408.104	1927.73
408.547	1805.45
408.991	1746.91
409.435	1679.31
409.879	1652.52
410.322	1630.24
410.766	1575.4
411.209	1497.63
411.653	1436.49
412.096	1404.66
412.54	1403.45
412.983	1391.5
413.426	1394.32
413.869	1391.04
414.312	1364.79
414.756	1315.4
415.199	1253.37
415.642	1215.88
416.085	1218.25
416.527	1208.18
416.97	1226.77
417.413	1163.43
417.856	1151.08
418.298	1136.08
418.741	1126.37
419.184	1121.38
419.626	1165.43
420.069	1164.39
420.511	1167.41
420.953	1139.71
421.396	1129.93
421.838	1099.55
422.28	1122.71
422.722	1130.89
423.164	1145.99
423.606	1129.2
424.048	1130.16
424.49	1072.36
424.932	1064.32
425.374	1050.47
425.816	1069.34
426.258	1087.54
426.699	1097.79
427.141	1081.46
427.582	1093.54
428.024	1087.11
428.465	1078.14
428.907	1049.8
429.348	1036.04
429.789	1037.54
430.231	1017.61
430.672	1028.37
431.113	1003.38
431.554	990.23
431.995	963.58
432.436	928.83
432.877	907.1
433.318	891.29
433.759	884.39
434.2	886
434.64	875.68
435.081	874.45
435.522	828.88
435.962	798.66
436.403	781.38
436.843	794
437.284	778.17
437.724	758.1
438.164	757.86
438.604	742.53
439.045	715.18
439.485	685.77
439.925	671.31
440.365	653.56
440.805	645.64
441.245	637.55
441.685	614.02
442.125	607.95
442.564	612.42
443.004	600.61
443.444	597.77
443.883	598.33
444.323	593.35
444.762	593.21
445.202	601.02
445.641	611.79
446.081	608.72
446.52	612.72
446.959	607.88
447.398	592
447.837	586.43
448.276	576.8
448.716	582.32
449.154	589.44
449.593	578.82
450.032	578.81
450.471	568.22
450.91	567.66
451.349	567.05
451.787	564.21
452.226	572.51
452.664	571.2
453.103	572.27
453.541	569.88
453.98	567.74
454.418	569.76
454.856	560.04
455.295	558.69
455.733	563.12
456.171	565.78
456.609	566.91
457.047	567.1
457.485	575.45
457.923	576.12
458.361	568.54
458.798	570.49
459.236	569.46
459.674	573.45
460.111	577.74
460.549	572.11
460.987	568.36
461.424	567.74
461.862	565.57
462.299	558.74
462.736	559.16
463.173	561.91
463.611	556.92
464.048	556.71
464.485	561.45
464.922	555.04
465.359	551.69
465.796	549.07
466.233	543.59
466.67	539.61
467.106	536.92
467.543	531.77
467.98	524.85
468.416	510.34
468.853	504.76
469.29	490.4
469.726	485.05
470.162	472.86
470.599	464.27
471.035	460.14
471.471	448.74
471.907	445.7
472.344	442.97
472.78	444.1
473.216	449.43
473.652	444.63
474.088	443.26
474.523	441.98
474.959	446.63
475.395	442.62
475.831	441.6
476.266	442.79
476.702	441.37
477.138	435.47
477.573	433.84
478.008	432.43
478.444	434.07
478.879	438.06
479.314	440.06
479.75	439.19
480.185	440.47
480.62	442.49
481.055	444.99
481.49	448
481.925	454.26
482.36	461.81
482.795	474.09
483.229	487.2
483.664	497.08
484.099	498.83
484.534	505.9
484.968	510.73
485.403	512.19
485.837	511.97
486.271	511.03
486.706	512.22
487.14	506.78
487.574	498.99
488.009	494.81
488.443	490.19
488.877	495.8
489.311	498.06
489.745	505.1
490.179	510.58
490.613	521.09
491.046	526.27
491.48	530.52
491.914	532.28
492.348	536.69
492.781	540.22
493.215	542.71
493.648	544.01
494.082	549.16
494.515	550.78
494.948	558.69
495.382	562.39
495.815	567.79
496.248	574.22
496.681	585.58
497.114	597.2
497.547	606.71
497.98	619.01
498.413	626.4
498.846	636.45
499.279	645.33
499.711	650.91
500.144	655.77
500.577	667.17
501.009	678.96
501.442	689.7
501.874	693.35
502.306	699.39
502.739	709.45
503.171	725.12
503.603	730.72
504.036	742.42
504.468	750.24
504.9	764.14
505.332	773.09
505.764	780.99
506.196	791.39
506.627	808.38
507.059	824.44
507.491	836.39
507.923	838.9
508.354	856.75
508.786	869.59
509.217	890.51
509.649	907.95
510.08	930.06
510.512	948.79
510.943	966.59
511.374	982.53
511.805	1004.98
512.237	1026.89
512.668	1061.38
513.099	1092.16
513.53	1122.44
513.961	1146.25
514.391	1180.67
514.822	1217.43
515.253	1257.2
515.684	1287.03
516.114	1319.08
516.545	1344.54
516.975	1374.49
517.406	1396.85
517.836	1403.79
518.267	1415.59
518.697	1437.92
519.127	1446.77
519.558	1456.36
519.988	1462.8
520.418	1477.58
520.848	1498
521.278	1510.41
521.708	1529.15
522.138	1544.83
522.567	1579.18
522.997	1607.99
523.427	1627.1
523.857	1647.07
524.286	1661.17
524.716	1679.86
525.145	1701.83
525.575	1715.47
526.004	1731.41
526.433	1729.41
526.863	1731.68
527.292	1723.37
527.721	1729.67
528.15	1736.02
528.579	1739.19
529.008	1751.78
529.437	1777.12
529.866	1790.84
530.295	1810.26
530.724	1824.86
531.152	1854.4
531.581	1869.84
532.01	1889
532.438	1899.56
532.867	1915.79
533.295	1934.24
533.723	1941.28
534.152	1939.55
534.58	1940.56
535.008	1923.97
535.436	1926.62
535.865	1935.52
536.293	1951.73
536.721	1968.64
537.149	1997.11
537.576	2002.12
538.004	2017.26
538.432	2026.58
538.86	2025.44
539.287	2033.51
539.715	2049.43
540.143	2053.66
540.57	2051.34
540.998	2048.52
541.425	2024.71
541.852	2001.09
542.28	1999.01
542.707	1981.11
543.134	1966.3
543.561	1962.48
543.988	1955.63
544.415	1954.78
544.842	1949.08
545.269	1940.27
545.696	1941.29
546.123	1954.46
546.549	1943.57
546.976	1928.51
547.403	1928.04
547.829	1929.91
548.256	1930.52
548.682	1925.76
549.108	1916.56
549.535	1914.73
549.961	1915.82
550.387	1901.57
550.813	1896.08
551.24	1901.7
551.666	1903.95
552.092	1892.91
552.518	1884.8
552.943	1878.53
553.369	1884.8
553.795	1890.68
554.221	1890.57
554.646	1886.83
555.072	1897.47
555.498	1901.56
555.923	1910.96
556.349	1925.28
556.774	1932.88
557.199	1933.25
557.625	1939.25
558.05	1932.02
558.475	1942.48
558.9	1941.19
559.325	1932.07
559.75	1924.63
560.175	1916.14
560.6	1908.95
561.025	1905.61
561.449	1906.22
561.874	1911.7
562.299	1913.98
562.723	1920.75
563.148	1909.22
563.572	1911.69
563.997	1920.97
564.421	1925.24
564.846	1924.93
565.27	1927.3
565.694	1923.1
566.118	1935.18
566.542	1941.88
566.966	1933.88
567.39	1927.67
567.814	1914.86
568.238	1913.26
568.662	1918.05
569.086	1919.51
569.509	1926.23
569.933	1908.78
570.357	1900.3
570.78	1877.24
571.204	1862.43
571.627	1849.86
572.05	1847.8
572.474	1846.48
572.897	1833.41
573.32	1823.11
573.743	1811.3
574.166	1791.07
574.589	1789.14
575.012	1779.64
575.435	1775.74
575.858	1763.99
576.281	1752.47
576.704	1734.16
577.126	1720.9
577.549	1706.86
577.972	1695.52
578.394	1684.51
578.817	1675.06
579.239	1654.45
579.661	1639.41
580.084	1622.77
580.506	1608.11
580.928	1602.55
581.35	1590.17
581.772	1584.15
582.194	1570.28
582.616	1556.28
583.038	1539.62
583.46	1528.86
583.882	1525.06
584.303	1528.1
584.725	1522.19
585.147	1522.57
585.568	1532.4
585.99	1543.23
586.411	1548.45
586.833	1562.08
587.254	1562.51
587.675	1576.27
588.096	1587.76
588.518	1581.35
588.939	1563.49
589.36	1560.83
589.781	1550.25
590.202	1519.23
590.623	1509.5
591.043	1505.21
591.464	1490.54
591.885	1486.47
592.305	1479.92
592.726	1464.78
593.147	1465.05
593.567	1459.67
593.987	1450.91
594.408	1444.51
594.828	1442.67
595.248	1436.21
595.669	1417.19
596.089	1410.94
596.509	1404.72
596.929	1391.78
597.349	1392.14
597.769	1382.54
598.189	1375.88
598.608	1377.12
599.028	1379.32
599.448	1379.4
599.867	1367.61
600.287	1363.94
600.706	1358.42
601.126	1347.1
601.545	1344.6
601.965	1342.68
602.384	1336.76
602.803	1338.74
603.222	1333.89
603.641	1326.16
604.061	1321.22
604.48	1315.33
604.898	1322.29
605.317	1326.75
605.736	1328.32
606.155	1324.1
606.574	1314.53
606.992	1318.03
607.411	1312.56
607.829	1303.49
608.248	1299.58
608.666	1295.52
609.085	1293.42
609.503	1283.47
609.921	1275.64
610.339	1275.93
610.758	1273.85
611.176	1267.36
611.594	1257.01
612.012	1251.69
612.43	1253.58
612.847	1258.21
613.265	1258.51
613.683	1261.58
614.101	1261.43
614.518	1256.27
614.936	1245.03
615.353	1229.82
615.771	1225.51
616.188	1225.66
616.606	1221.8
617.023	1212.91
617.44	1198.65
617.857	1191.15
618.274	1182.41
618.691	1175.94
619.108	1166.4
619.525	1159.58
619.942	1164.4
620.359	1165.26
620.776	1159.25
621.192	1154.47
621.609	1151.29
622.026	1156.45
622.442	1161.17
622.859	1163.02
623.275	1155.2
623.691	1159.45
624.108	1170.4
624.524	1183.15
624.94	1183.84
625.356	1192.25
625.772	1203.41
626.188	1214.17
626.604	1214.96
627.02	1209.84
627.436	1208.21
627.852	1215.25
628.268	1226.17
628.683	1217.21
629.099	1209.24
629.514	1204.52
629.93	1206.51
630.345	1210.17
630.761	1207.33
631.176	1209.39
631.591	1205.2
632.007	1198.9
632.422	1196.12
632.837	1185.23
633.252	1181.92
633.667	1171.88
634.082	1162.17
634.497	1150.68
634.911	1131.85
635.326	1125.69
635.741	1109.37
636.155	1097.75
636.57	1097.26
636.984	1094
637.399	1093.37
637.813	1090.64
638.228	1087.26
638.642	1088.43
639.056	1075.28
639.47	1072.85
639.884	1063.9
640.298	1056.04
640.712	1052.01
641.126	1038.18
641.54	1027.8
641.954	1021.47
642.368	1008.73
642.781	999.06
643.195	982.04
643.609	980.97
644.022	972.11
644.436	964.81
644.849	951.16
645.262	939.14
645.676	937.96
646.089	932
646.502	916.44
646.915	909.21
647.328	893.06
647.741	888.76
648.154	876.52
648.567	873.85
648.98	861.73
649.393	860.23
649.805	854.3
650.218	846.15
650.631	831.72
651.043	826.15
651.456	820.36
651.868	819.32
652.28	832.19
652.693	841.67
653.105	845.46
653.517	851.3
653.929	850.68
654.341	855.05
654.753	842.65
655.165	846.15
655.577	840.48
655.989	834.46
656.401	824.51
656.813	793.61
657.224	775.35
657.636	748.89
658.047	733.3
658.459	715.34
658.87	705.36
659.282	694.97
659.693	677.14
660.104	663.78
660.515	649.96
660.926	646.49
661.338	641.65
661.749	634.01
662.159	626.21
662.57	620.25
662.981	614.44
663.392	606.89
663.803	607.34
664.213	602.53
664.624	596.94
665.035	597.55
665.445	585.91
665.855	578.94
666.266	571.55
666.676	567.66
667.086	560.01
667.497	558.24
667.907	552.43
668.317	544.66
668.727	542.59
669.137	542.69
669.547	540.72
669.956	543.05
670.366	545.3
670.776	546.85
671.186	549.25
671.595	551.54
672.005	554.01
672.414	553.95
672.824	553.58
673.233	555.78
673.642	556.72
674.052	559.64
674.461	561.9
674.87	563.82
675.279	562.58
675.688	565.04
676.097	567.01
676.506	565.29
676.915	576.86
677.323	579.82
677.732	578.83
678.141	580.92
678.549	573.63
678.958	573.32
679.366	574.01
679.775	579.01
680.183	587.99
680.592	592.89
681	599.27
681.408	596.25
681.816	603.95
682.224	614.16
682.632	623.63
683.04	649.43
683.448	672.16
683.856	700
684.264	730.8
684.671	759.99
685.079	796.67
685.487	836.71
685.894	889.68
686.302	934.94
686.709	974.02
687.116	1021.65
687.524	1061.27
687.931	1096.55
688.338	1128.94
688.745	1157.87
689.152	1190.75
689.559	1233.66
689.966	1276.48
690.373	1302.76
690.78	1346.13
691.187	1409.17
691.593	1458.65
692	1503.03
692.407	1568.08
692.813	1646.22
693.22	1708.89
693.626	1775.42
694.032	1829.25
694.439	1909.02
694.845	1972.79
695.251	2052.86
695.657	2123.54
696.063	2226.78
696.469	2307.27
696.875	2379.51
697.281	2422.84
697.687	2476.76
698.093	2522.91
