Data from C_1_DEC_NC_4N_Splice17_11-44-19-608.txt Node
Date: Sat Mar 14 11:44:19 EDT 2020
User: sa697716
Spectrometer: FLMS03696
Trigger mode: 0
Integration Time (sec): 3.180400E-1
Scans to average: 20
Electric dark correction enabled: true
Nonlinearity correction enabled: true
Boxcar width: 5
XAxis mode: Wavelengths
Number of Pixels in Spectrum: 2048
>>>>>Begin Spectral Data<<<<<
187.83	-174390.51
188.298	1206.02
188.766	720.08
189.233	667.22
189.701	934.26
190.169	1332.29
190.636	465.84
191.104	407.04
191.571	31.63
192.039	-46.21
192.506	28.49
192.974	416.9
193.441	-798.33
193.908	-182.63
194.375	10.93
194.842	36.24
195.31	85.3
195.777	140.73
196.244	283.01
196.711	149.37
197.177	130.87
197.644	125.37
198.111	170.93
198.578	198.09
199.045	119.35
199.511	139.12
199.978	79.84
200.445	83.1
200.911	29.09
201.378	-84.97
201.844	-30.22
202.31	-89.68
202.777	-82.86
203.243	-46.93
203.709	-58.98
204.176	-87.09
204.642	-65.24
205.108	-34.88
205.574	-38.11
206.04	-43.91
206.506	-28.75
206.972	-47.07
207.438	-64.27
207.903	-70.99
208.369	-33.09
208.835	-19.46
209.301	-14.82
209.766	-38.87
210.232	-34.29
210.697	-50.5
211.163	-93.96
211.628	-158.46
212.094	-101.19
212.559	-7.6
213.024	0.61
213.49	-6.71
213.955	-13.17
214.42	-44.35
214.885	-30.16
215.35	-16.08
215.815	84.37
216.28	101.31
216.745	88.76
217.21	108.09
217.675	47.96
218.14	44.59
218.604	23.97
219.069	45.61
219.534	92.4
219.998	80.35
220.463	82.74
220.927	-23.71
221.392	-26.89
221.856	-18.57
222.32	-87.73
222.785	-57.62
223.249	-74.4
223.713	-87.11
224.177	-101.39
224.642	-226.6
225.106	-283.84
225.57	-315.96
226.034	-158.65
226.497	-200.72
226.961	-130.65
227.425	-86.21
227.889	-154.36
228.353	-200.55
228.816	-453.07
229.28	-430.55
229.744	-315.59
230.207	-118.6
230.671	-112.17
231.134	-342.87
231.597	-351.48
232.061	-433.03
232.524	-483.01
232.987	-289.49
233.45	-171.88
233.914	-142.02
234.377	-199.97
234.84	-168.34
235.303	-230.56
235.766	-246.06
236.229	-213.46
236.691	-163.23
237.154	-200.24
237.617	-123.52
238.08	-168.2
238.542	-224.85
239.005	-129.3
239.468	-94.48
239.93	-95.16
240.393	-79.5
240.855	-69.37
241.317	-80.35
241.78	-117.97
242.242	-103.82
242.704	-72.9
243.166	-18.41
243.629	24.01
244.091	12.39
244.553	-9.24
245.015	5.82
245.477	-6.43
245.939	-44.93
246.4	-21.65
246.862	1.5
247.324	-8.92
247.786	-66.25
248.247	-175.26
248.709	-328.65
249.17	-214.65
249.632	-86.02
250.093	-41.21
250.555	-22.83
251.016	27.64
251.477	31.63
251.939	42.1
252.4	34.31
252.861	8.68
253.322	33.34
253.783	15.53
254.244	-50.2
254.705	-93.51
255.166	-131.34
255.627	-140.45
256.088	-190.77
256.549	-238.44
257.009	-212.84
257.47	-298.21
257.931	-272.66
258.391	-194.39
258.852	-190.43
259.312	-169.18
259.773	-252.23
260.233	-152.47
260.694	-88.36
261.154	-127.74
261.614	-25.05
262.074	-36.4
262.534	-7.32
262.994	33.75
263.455	11.3
263.915	38.05
264.374	33.27
264.834	48.96
265.294	18.11
265.754	27.78
266.214	26.92
266.673	-8.79
267.133	-16.36
267.593	-32.59
268.052	-50.71
268.512	-35.59
268.971	-2.27
269.431	-4.42
269.89	6.23
270.349	28.01
270.809	21.14
271.268	36.9
271.727	-86.06
272.186	33.14
272.645	33.77
273.104	-43.68
273.563	-87.69
274.022	-192.42
274.481	-125.73
274.94	-105.08
275.399	-95.1
275.857	-146.87
276.316	-249.69
276.775	-206.24
277.233	-217.2
277.692	-177.9
278.15	-145.66
278.609	-76.83
279.067	-47.75
279.525	-51.66
279.984	-81.41
280.442	-98.52
280.9	-4.81
281.358	4.42
281.816	12.61
282.274	-8.66
282.732	-58.15
283.19	-91.37
283.648	-124.88
284.106	-137.44
284.564	-154.7
285.021	-121.91
285.479	-89.99
285.937	-133.41
286.394	-92.43
286.852	-107.9
287.309	-110.51
287.767	-64.38
288.224	-41.32
288.682	-51.16
289.139	-41.84
289.596	-24.26
290.053	-32.15
290.511	-58.49
290.968	-40.87
291.425	-93.19
291.882	-11.19
292.339	38.92
292.796	-23.2
293.252	-36.81
293.709	5.94
294.166	6.15
294.623	-15.07
295.079	-33.21
295.536	-23.31
295.992	-18.08
296.449	-9.74
296.905	-10.7
297.362	7.56
297.818	14.16
298.274	36.02
298.731	22.94
299.187	8.53
299.643	25.69
300.099	60.63
300.555	84.66
301.011	63.03
301.467	129.39
301.923	80.86
302.379	70.43
302.835	69.05
303.291	45.25
303.746	44
304.202	65.34
304.658	57.06
305.113	21.3
305.569	15.84
306.024	14.14
306.479	-71.46
306.935	-24.55
307.39	-73.57
307.845	-64.66
308.301	-50.12
308.756	-69.63
309.211	-64.73
309.666	-84
310.121	-65.12
310.576	-76.88
311.031	-108.17
311.486	-136.51
311.94	-163.96
312.395	-259.84
312.85	-587.23
313.305	-3821.06
313.759	-13626.7
314.214	-1056.44
314.668	-817.48
315.123	-669.44
315.577	-227.92
316.032	-162.43
316.486	-217.64
316.94	-128.45
317.394	-49.62
317.849	-24.27
318.303	-14.87
318.757	-10.06
319.211	3.35
319.665	18.1
320.119	4.98
320.572	2.9
321.026	23.07
321.48	23.72
321.934	-2.66
322.387	-9.71
322.841	14.68
323.295	68.65
323.748	14.3
324.202	0.54
324.655	-9.65
325.108	43.03
325.562	49.34
326.015	28.15
326.468	30.34
326.921	43.07
327.374	75.49
327.827	107.24
328.28	94.75
328.733	92.14
329.186	96.6
329.639	93.8
330.092	67.1
330.545	70.51
330.997	96.58
331.45	133.28
331.903	188.25
332.355	247.39
332.808	170.54
333.26	124.97
333.713	152.23
334.165	142.01
334.617	132.36
335.069	40.29
335.522	-30.48
335.974	-122.26
336.426	-255.6
336.878	-289.11
337.33	-117.99
337.782	-107.86
338.234	-85.64
338.686	-143.49
339.137	-180.93
339.589	-147.23
340.041	-61.27
340.493	-46.12
340.944	-30.8
341.396	-3.67
341.847	47.96
342.299	73.31
342.75	133.01
343.201	39.02
343.653	52.36
344.104	29.71
344.555	19.67
345.006	-93.49
345.457	14.44
345.908	3.78
346.359	36.44
346.81	4.08
347.261	-23.74
347.712	-46.9
348.163	-57.3
348.613	-9.2
349.064	2.25
349.515	16.97
349.965	48.5
350.416	18.8
350.866	7.2
351.317	-52.81
351.767	-76.85
352.217	-126.92
352.668	-149.93
353.118	-131.81
353.568	-279.9
354.018	-183.56
354.468	-165.57
354.918	-97.03
355.368	-62.83
355.818	-110.17
356.268	-374.89
356.718	-899.11
357.168	-92.01
357.617	-15.31
358.067	-63.69
358.517	2.32
358.966	21.4
359.416	31.23
359.865	-30.21
360.315	-260.94
360.764	-74.21
361.213	-19.63
361.663	-64.2
362.112	-130.18
362.561	-232.53
363.01	-156.29
363.459	-128.75
363.908	-178.28
364.357	-122.56
364.806	-250.97
365.255	-131.65
365.703	-95.97
366.152	-109.76
366.601	-75.76
367.05	-20.34
367.498	0.46
367.947	-21.02
368.395	-45.65
368.844	-23.35
369.292	-85.39
369.74	-33.34
370.189	-90.13
370.637	-131.56
371.085	-105.94
371.533	-137.49
371.981	-179.7
372.429	-116.7
372.877	-87.3
373.325	-44.47
373.773	-70.73
374.221	-86.86
374.669	-110.4
375.116	-76.16
375.564	-95.38
376.012	-103.49
376.459	-76.71
376.907	-81.26
377.354	-163.43
377.801	-134.54
378.249	-134.2
378.696	-187.01
379.143	-158.52
379.591	-222.75
380.038	-400.9
380.485	-153.29
380.932	-185.4
381.379	-39.65
381.826	22.07
382.273	-6.87
382.72	-42.17
383.166	-15.41
383.613	22.78
384.06	17.01
384.506	40.72
384.953	35.5
385.4	16.39
385.846	6.57
386.292	-26.58
386.739	-38.56
387.185	-37.35
387.631	-38.03
388.078	-31.26
388.524	-42.66
388.97	-27.43
389.416	-28.1
389.862	-25.78
390.308	-26.83
390.754	-9.88
391.2	-8
391.645	-15.36
392.091	18.52
392.537	32.06
392.983	18.74
393.428	44.32
393.874	30.7
394.319	58.01
394.765	71.2
395.21	75.25
395.655	61.56
396.101	59.14
396.546	62.78
396.991	38.46
397.436	28.71
397.881	22.17
398.326	2.08
398.771	15.84
399.216	-2.56
399.661	-13.09
400.106	-8.42
400.551	-3.53
400.995	-3.81
401.44	-6.78
401.885	-1.52
402.329	1.87
402.774	5.63
403.218	23.89
403.663	22.93
404.107	30.04
404.551	36.53
404.995	31.44
405.44	23.59
405.884	24.29
406.328	20.74
406.772	15.89
407.216	14.13
407.66	9.01
408.104	-6.16
408.547	-9.7
408.991	-9.84
409.435	-10.13
409.879	-6.36
410.322	-3.72
410.766	-0.92
411.209	1.58
411.653	1.2
412.096	5.72
412.54	4.56
412.983	8.54
413.426	12.62
413.869	8.15
414.312	11.18
414.756	6.04
415.199	6.19
415.642	8.24
416.085	10.88
416.527	10.29
416.97	8.63
417.413	11.4
417.856	8.17
418.298	7.07
418.741	6.4
419.184	2.48
419.626	-2.1
420.069	-4.04
420.511	-4.91
420.953	-3.29
421.396	-3.36
421.838	-6.29
422.28	-6.67
422.722	-4.2
423.164	-7.74
423.606	-5.22
424.048	-8.56
424.49	-3.44
424.932	-3.7
425.374	-7.18
425.816	-11.51
426.258	-9.89
426.699	-7.44
427.141	-5.5
427.582	-9.58
428.024	-9.53
428.465	-11.59
428.907	-7.64
429.348	-10.34
429.789	-7.64
430.231	-3.68
430.672	-2.9
431.113	-3.02
431.554	-3.73
431.995	-5.11
432.436	-0.06
432.877	2.21
433.318	5.55
433.759	2.16
434.2	4.67
434.64	2.99
435.081	1.27
435.522	1.84
435.962	2.43
436.403	3.49
436.843	1.57
437.284	-1.95
437.724	-5.28
438.164	-10.08
438.604	-8.24
439.045	-5.39
439.485	-0.84
439.925	-0.97
440.365	-1.66
440.805	-2.49
441.245	-0.65
441.685	0.55
442.125	0.28
442.564	0.48
443.004	2.74
443.444	2.77
443.883	1.37
444.323	-2.93
444.762	-7.23
445.202	-8.65
445.641	-6.67
446.081	-9.49
446.52	-9.5
446.959	-7.81
447.398	-5.65
447.837	-5.28
448.276	-5.46
448.716	-4.49
449.154	-5.27
449.593	-2.21
450.032	-1.04
450.471	-3.62
450.91	-4.68
451.349	-2.42
451.787	-2.56
452.226	-3.51
452.664	-4.45
453.103	-5.1
453.541	-7.99
453.98	-4.7
454.418	-4.53
454.856	-2.28
455.295	-1.95
455.733	-0.71
456.171	-1.9
456.609	-0.29
457.047	0.48
457.485	2.66
457.923	4.93
458.361	6.51
458.798	5.63
459.236	5.64
459.674	4.12
460.111	4
460.549	5.27
460.987	3.03
461.424	0.99
461.862	0.7
462.299	1.08
462.736	1.61
463.173	1.96
463.611	4.91
464.048	6.27
464.485	7.44
464.922	8.31
465.359	6.75
465.796	17.32
466.233	19.18
466.67	21.78
467.106	21.92
467.543	20.18
467.98	18.37
468.416	15.55
468.853	14.05
469.29	12.31
469.726	11.98
470.162	11.38
470.599	3.93
471.035	1.51
471.471	0.06
471.907	-1.51
472.344	-1.83
472.78	-0.67
473.216	-2.07
473.652	-2.5
474.088	-3.24
474.523	-3.06
474.959	-3.27
475.395	-3.93
475.831	-2.95
476.266	-2.22
476.702	-2.81
477.138	-2.59
477.573	-3.39
478.008	-2.68
478.444	-2.08
478.879	0.12
479.314	-0.03
479.75	0.63
480.185	0.62
480.62	-0.14
481.055	-0.76
481.49	0.42
481.925	1.03
482.36	3.45
482.795	2.76
483.229	2.52
483.664	2.11
484.099	2.18
484.534	2.67
484.968	3.62
485.403	3.49
485.837	2.21
486.271	1.86
486.706	0.89
487.14	-1.01
487.574	-0.49
488.009	-0.29
488.443	-1.11
488.877	-0.28
489.311	-1.16
489.745	-1.77
490.179	-1.24
490.613	1.28
491.046	0.18
491.48	0.61
491.914	1.2
492.348	1.32
492.781	1.52
493.215	2.11
493.648	1.1
494.082	1.04
494.515	1.42
494.948	2.38
495.382	0.74
495.815	1.18
496.248	1.27
496.681	0.69
497.114	-0.2
497.547	-0.02
497.98	0.51
498.413	2.22
498.846	2.5
499.279	1.89
499.711	0.98
500.144	1
500.577	2.28
501.009	2.08
501.442	3.54
501.874	4.85
502.306	4.57
502.739	6.69
503.171	5.77
503.603	6.23
504.036	6.28
504.468	6.65
504.9	6.58
505.332	5.44
505.764	6.32
506.196	5.41
506.627	5.43
507.059	5.32
507.491	1.96
507.923	1.97
508.354	1.75
508.786	2.25
509.217	2.17
509.649	2.29
510.08	1.95
510.512	1.98
510.943	2.26
511.374	1.99
511.805	1.5
512.237	1.46
512.668	0.7
513.099	-0.14
513.53	-0.31
513.961	-0.19
514.391	-0.64
514.822	1.65
515.253	1.44
515.684	0.77
516.114	1.02
516.545	2.23
516.975	2.67
517.406	2.84
517.836	3
518.267	3.05
518.697	4.14
519.127	4.45
519.558	2.89
519.988	2.4
520.418	2.35
520.848	1.18
521.278	0.62
521.708	33.6
522.138	34.26
522.567	33.32
522.997	32.93
523.427	31.59
523.857	31.64
524.286	31.66
524.716	32.23
525.145	32.7
525.575	33.6
526.004	32.61
526.433	-0.31
526.863	-0.72
527.292	1.73
527.721	2.68
528.15	2.89
528.579	2.8
529.008	2.76
529.437	1.71
529.866	1.16
530.295	0.49
530.724	2.15
531.152	2.51
531.581	2.93
532.01	2.24
532.438	1.33
532.867	0.78
533.295	1.28
533.723	1.27
534.152	1.55
534.58	1.95
535.008	2.24
535.436	2.96
535.865	2.75
536.293	1.68
536.721	1.11
537.149	1.43
537.576	2.96
538.004	3.21
538.432	2.93
538.86	3.48
539.287	3.15
539.715	3.25
540.143	1.71
540.57	1.87
540.998	1.85
541.425	3.44
541.852	3.23
542.28	2.01
542.707	1.5
543.134	2.09
543.561	2.03
543.988	2.47
544.415	2.63
544.842	2.16
545.269	2.58
545.696	3.28
546.123	2.28
546.549	2.35
546.976	3.25
547.403	2.93
547.829	1.78
548.256	1.61
548.682	1.76
549.108	2.41
549.535	2.94
549.961	2.16
550.387	2.07
550.813	3.14
551.24	3.09
551.666	1.92
552.092	2.22
552.518	2.44
552.943	3.39
553.369	3.13
553.795	2.48
554.221	2.55
554.646	2.69
555.072	4.13
555.498	2.08
555.923	1.71
556.349	2.16
556.774	2.09
557.199	2.11
557.625	0.89
558.05	0.82
558.475	0.76
558.9	0.91
559.325	1.77
559.75	1.09
560.175	1.82
560.6	1.34
561.025	0.5
561.449	0.62
561.874	0.25
562.299	0.9
562.723	0.9
563.148	0.81
563.572	0.07
563.997	-0.36
564.421	-1.63
564.846	-2.26
565.27	-1.9
565.694	-1.43
566.118	-1.86
566.542	-0.6
566.966	-0.82
567.39	-0.91
567.814	-0.51
568.238	-0.22
568.662	-0.95
569.086	-0.42
569.509	-0.02
569.933	2.03
570.357	2.47
570.78	2.22
571.204	2.82
571.627	2.57
572.05	2.6
572.474	3.23
572.897	3.33
573.32	4.51
573.743	3.67
574.166	3.96
574.589	2.4
575.012	2.32
575.435	2.64
575.858	2.03
576.281	2.22
576.704	2
577.126	0.69
577.549	0.75
577.972	-0.19
578.394	0.62
578.817	2.56
579.239	2.1
579.661	2.12
580.084	3.18
580.506	3.65
580.928	3.36
581.35	3.35
581.772	4.04
582.194	3.92
582.616	3.81
583.038	2.76
583.46	0.38
583.882	0.85
584.303	-0.33
584.725	-1.65
585.147	2.65
585.568	3.1
585.99	3.94
586.411	4.19
586.833	5.07
587.254	5.23
587.675	5.91
588.096	6.19
588.518	5.84
588.939	6.75
589.36	7.31
589.781	1.49
590.202	3.94
590.623	3.11
591.043	1.98
591.464	1.44
591.885	1.74
592.305	1.25
592.726	1.15
593.147	1.59
593.567	1.42
593.987	1.44
594.408	0.73
594.828	-2.2
595.248	-1.08
595.669	0.42
596.089	-0.12
596.509	-0.81
596.929	-0.71
597.349	-0.23
597.769	-0.47
598.189	0.01
598.608	-0.2
599.028	0.51
599.448	0.49
599.867	-0.16
600.287	-0.99
600.706	-0.38
601.126	0.59
601.545	1.43
601.965	1.43
602.384	1.35
602.803	0.78
603.222	1.01
603.641	0.52
604.061	0.82
604.48	0.83
604.898	0.27
605.317	0.21
605.736	-0.33
606.155	0.3
606.574	0.28
606.992	0.53
607.411	1.1
607.829	0.17
608.248	0.42
608.666	-0.35
609.085	-0.29
609.503	0.11
609.921	0.59
610.339	0.9
610.758	-0.55
611.176	-0.78
611.594	-0.06
612.012	-0.09
612.43	1.3
612.847	1.41
613.265	3.08
613.683	3.2
614.101	3.21
614.518	2.45
614.936	2.15
615.353	2.94
615.771	3.29
616.188	3.26
616.606	2.84
617.023	2.78
617.44	3.06
617.857	1.44
618.274	0.95
618.691	1.94
619.108	1.96
619.525	1.6
619.942	1.94
620.359	1.92
620.776	1.22
621.192	2.21
621.609	2.33
622.026	2.47
622.442	3.58
622.859	3.15
623.275	1.89
623.691	1.52
624.108	2.38
624.524	1.88
624.94	1.68
625.356	1.15
625.772	0.03
626.188	-0.48
626.604	-0.21
627.02	-0.42
627.436	0.53
627.852	2.53
628.268	3.59
628.683	2.72
629.099	2.55
629.514	2.38
629.93	2.47
630.345	2.8
630.761	2.24
631.176	1.75
631.591	3.17
632.007	3.22
632.422	0.86
632.837	-0.23
633.252	1.27
633.667	1.38
634.082	1.8
634.497	2.87
634.911	4.7
635.326	5.57
635.741	5.65
636.155	4.67
636.57	5.39
636.984	6.13
637.399	8.12
637.813	7.23
638.228	6.81
638.642	5.96
639.056	5.6
639.47	4.22
639.884	4.26
640.298	4.9
640.712	5.38
641.126	5.29
641.54	4.8
641.954	1.94
642.368	1.84
642.781	4.72
643.195	5.12
643.609	5.47
644.022	4.69
644.436	3.97
644.849	2.62
645.262	0.86
645.676	-1.05
646.089	-0.5
646.502	1.49
646.915	0.48
647.328	-0.85
647.741	0.02
648.154	-0.4
648.567	2.99
648.98	3.27
649.393	3.83
649.805	4.48
650.218	5.43
650.631	5.88
651.043	5.87
651.456	7.3
651.868	6.42
652.28	4.91
652.693	4.26
653.105	1.8
653.517	1.41
653.929	1.15
654.341	1.85
654.753	2.7
655.165	1.36
655.577	0.78
655.989	0.73
656.401	-0.04
656.813	1.84
657.224	1.71
657.636	0.84
658.047	2.18
658.459	2.57
658.87	0.47
659.282	-0.04
659.693	1.93
660.104	2.53
660.515	1.73
660.926	1.71
661.338	0.63
661.749	0.37
662.159	2.18
662.57	0.6
662.981	0.35
663.392	1.26
663.803	0.95
664.213	-0.3
664.624	-0.34
665.035	-0.99
665.445	-1.32
665.855	-0.54
666.266	0.84
666.676	-0.05
667.086	-0.41
667.497	0.61
667.907	0.97
668.317	0.72
668.727	4.31
669.137	2.97
669.547	3.49
669.956	2.77
670.366	2.61
670.776	3.19
671.186	2.56
671.595	3.34
672.005	2.18
672.414	2.6
672.824	3.37
673.233	-0.82
673.642	-0.07
674.052	0.78
674.461	2.63
674.87	2.1
675.279	2.34
675.688	1.66
676.097	2.82
676.506	2.65
676.915	1.91
677.323	1.92
677.732	2.8
678.141	1.85
678.549	1.56
678.958	0.76
679.366	-0.06
679.775	-2.36
680.183	0.36
680.592	-0.51
681	-0.72
681.408	-0.06
681.816	-0.39
682.224	-1.52
682.632	0.78
683.04	0.11
683.448	-0
683.856	0.88
684.264	2.56
684.671	-0.22
685.079	-0.88
685.487	-1.1
685.894	-2.5
686.302	-3.78
686.709	-2.24
687.116	-3.37
687.524	-2.43
687.931	-1.06
688.338	-1.51
688.745	-3.55
689.152	-3.25
689.559	-2.05
689.966	0.33
690.373	1.78
690.78	3.25
691.187	3.02
691.593	2.75
692	2.14
692.407	2
692.813	5.29
693.22	6.82
693.626	5.76
694.032	5.71
694.439	4.8
694.845	4.04
695.251	3.85
695.657	3.74
696.063	2.21
696.469	2
696.875	1.93
697.281	-0.48
697.687	-0.7
698.093	0.24
698.498	0.55
698.904	-1.21
699.31	-0.91
699.715	0.58
700.12	-0.08
700.526	1.22
700.931	1.67
701.337	1.98
701.742	2.95
702.147	2.29
702.552	2.33
702.957	0.38
703.362	1.28
703.767	1.2
704.172	-0.25
704.577	-0.41
704.981	-1.43
705.386	-1.26
705.791	-1.99
706.195	-3.27
706.6	-2.47
707.004	-3.93
707.408	-3.4
707.813	-2.16
708.217	-1.32
708.621	-1.94
709.025	-2.38
709.43	0.03
709.834	-0.3
710.237	-0.29
710.641	-0.13
711.045	-0.17
711.449	1.6
711.853	6.05
712.256	4.86
712.66	4.09
713.064	4.3
713.467	6.08
713.87	4.53
714.274	5.85
714.677	6.63
715.08	7.49
715.484	7.66
715.887	10.54
716.29	6.17
716.693	7.58
717.096	8.38
717.499	9.09
717.901	7.79
718.304	7.78
718.707	6.15
719.109	5.99
719.512	4.19
719.915	7.2
720.317	5.05
720.719	3.02
721.122	2.35
721.524	2.5
721.926	7.39
722.328	7.83
722.731	8.16
723.133	8.39
723.535	8.42
723.937	8.23
724.338	7.18
724.74	8.85
725.142	64.53
725.544	68.29
725.945	81.36
726.347	75.57
726.748	75.74
727.15	76.47
727.551	79.38
727.952	77.39
728.354	76.87
728.755	75.55
729.156	72.83
729.557	20
729.958	15.37
730.359	3.22
730.76	3.71
731.161	3.62
731.562	2.09
731.962	-1.34
732.363	-0.52
732.763	-0.02
733.164	-2.17
733.564	-0.71
733.965	0.48
734.365	1.73
734.766	1.31
735.166	1.32
735.566	2.64
735.966	3.18
736.366	4.08
736.766	3.34
737.166	2.9
737.566	4.5
737.966	3.28
738.365	2.88
738.765	3.72
739.165	3.43
739.564	3.33
739.964	0.73
740.363	-0.28
740.763	-2.05
741.162	0.58
741.561	0.5
741.96	0.79
742.36	-0.01
742.759	0.91
743.158	-1.51
743.557	-2.08
743.955	-3.1
744.354	-2.29
744.753	-1.91
745.152	-0.25
745.55	-3.42
745.949	-2.92
746.348	-2.92
746.746	-4.61
747.144	-2.54
747.543	-2.71
747.941	-2.36
748.339	-0.63
748.737	0.16
749.136	0.82
749.534	-0.23
749.932	2.79
750.33	1.98
750.727	0.28
751.125	3.4
751.523	0.56
751.921	5.43
752.318	5
752.716	5.68
753.113	4.78
753.511	4.47
753.908	5.23
754.305	9.48
754.703	9.54
755.1	11.28
755.497	10.33
755.894	9.96
756.291	5.97
756.688	7.55
757.085	4.86
757.482	6.47
757.878	9.74
758.275	10.89
758.672	1.31
759.068	2.34
759.465	0.34
759.861	-1.54
760.258	-3.88
760.654	-4.61
761.05	-6.45
761.447	-5.5
761.843	-5.51
762.239	-6.22
762.635	-9.26
763.031	-11.99
763.427	-10.76
763.822	-8.35
764.218	-7.32
764.614	-4.48
765.01	-4.79
765.405	-5.53
765.801	-3.34
766.196	-3.27
766.592	-4.83
