Data from C_1_DIV_OH_2N_Splice17_11-50-02-140.txt Node
Date: Sat Mar 14 11:50:02 EDT 2020
User: sa697716
Spectrometer: FLMS03696
Trigger mode: 0
Integration Time (sec): 3.180400E-1
Scans to average: 20
Electric dark correction enabled: true
Nonlinearity correction enabled: true
Boxcar width: 5
XAxis mode: Wavelengths
Number of Pixels in Spectrum: 2048
>>>>>Begin Spectral Data<<<<<
187.83	-250306.17
188.298	1855.52
188.766	921.42
189.233	786.24
189.701	1091.08
190.169	1494
190.636	551.09
191.104	398.26
191.571	20.69
192.039	-78.5
192.506	-138.72
192.974	261.68
193.441	-392.01
193.908	-237.39
194.375	-110.64
194.842	-89.72
195.31	-51.39
195.777	83.16
196.244	263.23
196.711	437.18
197.177	568.9
197.644	840.7
198.111	1492.91
198.578	2122.72
199.045	1741.29
199.511	2878.18
199.978	3381.72
200.445	2868.93
200.911	3205.15
201.378	3618
201.844	3267.84
202.31	5666.83
202.777	5927.41
203.243	3278.87
203.709	3134.95
204.176	3700.98
204.642	3063.22
205.108	2874.41
205.574	2371.09
206.04	2180.89
206.506	2068.01
206.972	1967.21
207.438	1912.75
207.903	2186.25
208.369	1943.46
208.835	1931.95
209.301	2045.93
209.766	2112.06
210.232	2092.86
210.697	2592.63
211.163	3230.52
211.628	4889.51
212.094	4120.67
212.559	5056.21
213.024	3164.96
213.49	3846.08
213.955	3792.12
214.42	3752.2
214.885	3505.18
215.35	3380.58
215.815	3250.8
216.28	3471.74
216.745	2860.57
217.21	3151.52
217.675	2959.71
218.14	3405.99
218.604	3919.89
219.069	4600.08
219.534	4923.99
219.998	5873.35
220.463	7296.72
220.927	9217.66
221.392	8832.43
221.856	9056.78
222.32	11581.93
222.785	14420.73
223.249	18335.47
223.713	20588.71
224.177	20699.25
224.642	26744.08
225.106	33062.58
225.57	36245.95
226.034	26967.69
226.497	41124.03
226.961	37201.71
227.425	43343.22
227.889	48333.69
228.353	48416.35
228.816	100322.66
229.28	96053.4
229.744	81110.43
230.207	49323.93
230.671	48602.89
231.134	80670.2
231.597	93050.5
232.061	93265.47
232.524	91073.2
232.987	62681.33
233.45	56376.5
233.914	50600.19
234.377	51961.8
234.84	47605.7
235.303	56166.78
235.766	62740.11
236.229	64841.46
236.691	40902.2
237.154	45967.78
237.617	34552.75
238.08	35426.12
238.542	41529.62
239.005	29671.08
239.468	29447.88
239.93	27743.85
240.393	25222.89
240.855	22117.67
241.317	22664.63
241.78	27572.56
242.242	28501.32
242.704	30769.09
243.166	26782.03
243.629	24259
244.091	27941.5
244.553	30607.62
245.015	32884.13
245.477	42579.63
245.939	62471.2
246.4	66275.59
246.862	64448.83
247.324	60782.9
247.786	68093.47
248.247	89318.16
248.709	92448.6
249.17	69164.9
249.632	65108
250.093	75445.5
250.555	65065.88
251.016	39641.92
251.477	37615.16
251.939	40561.4
252.4	42543.52
252.861	50596.11
253.322	47046.96
253.783	56009.46
254.244	72629.36
254.705	57297.25
255.166	50987.15
255.627	50212.98
256.088	70789.67
256.549	75182.06
257.009	64788.63
257.47	78674.65
257.931	64081.45
258.391	47979.49
258.852	49442.74
259.312	51875.49
259.773	64124.84
260.233	54134.36
260.694	45641.73
261.154	51788.37
261.614	41498.93
262.074	37150.73
262.534	38563.55
262.994	36342.21
263.455	48465.46
263.915	40833.24
264.374	38486.21
264.834	42023.8
265.294	46632.32
265.754	48289.39
266.214	45757.08
266.673	42922.86
267.133	54160.21
267.593	53799
268.052	65815.58
268.512	57245.7
268.971	68951.41
269.431	75595.88
269.89	67697.96
270.349	101475.7
270.809	113227.33
271.268	101772.4
271.727	228357.03
272.186	147894.18
272.645	110836.26
273.104	80017.61
273.563	115809.52
274.022	91196.36
274.481	77520.9
274.94	59683.18
275.399	44399.37
275.857	51696.3
276.316	69905.39
276.775	62199.55
277.233	61211.48
277.692	57247.65
278.15	64706.14
278.609	66541.83
279.067	61539.57
279.525	57117.83
279.984	73735.36
280.442	88516.81
280.9	87132.75
281.358	57286.67
281.816	53315.22
282.274	52190.1
282.732	53951.59
283.19	54222.77
283.648	46769.25
284.106	49780.33
284.564	50622.26
285.021	46917.14
285.479	34903.22
285.937	31770.99
286.394	27833.82
286.852	28648.4
287.309	30073.95
287.767	28970.96
288.224	27504.76
288.682	30161.17
289.139	33075.26
289.596	30229.61
290.053	31385.8
290.511	39634.89
290.968	48021.8
291.425	65187.47
291.882	54149.61
292.339	47058.64
292.796	46736.72
293.252	44024.56
293.709	34917.93
294.166	31297.27
294.623	34569.27
295.079	33192.41
295.536	33304.35
295.992	30224.28
296.449	29869.16
296.905	31037.87
297.362	29753.12
297.818	31299.41
298.274	32457.69
298.731	33084.39
299.187	32706.46
299.643	35131.94
300.099	42454.08
300.555	46555.86
301.011	38872.89
301.467	37395.9
301.923	43809.36
302.379	42784.64
302.835	41985.74
303.291	41990.84
303.746	47766.21
304.202	60309.59
304.658	60481.44
305.113	40672.47
305.569	39800.48
306.024	42410.23
306.479	40409.54
306.935	34011.07
307.39	37096.38
307.845	34239.12
308.301	34416.7
308.756	33515.53
309.211	32283.59
309.666	33031.09
310.121	40904.68
310.576	41537.81
311.031	41189.86
311.486	47204.66
311.94	47162.54
312.395	63110.99
312.85	118574.08
313.305	582872.58
313.759	3006489.06
314.214	217825.08
314.668	172731.31
315.123	145213.53
315.577	51963.37
316.032	46171.5
316.486	57709.52
316.94	45474.65
317.394	31601.59
317.849	24523.27
318.303	23232.13
318.757	21944.28
319.211	24221.68
319.665	21178.36
320.119	21438.13
320.572	30774.48
321.026	28742.4
321.48	23945.13
321.934	26136.98
322.387	26211.21
322.841	28308.43
323.295	25379.97
323.748	29298.55
324.202	29709.12
324.655	35665.74
325.108	49783.37
325.562	35145.59
326.015	41777.34
326.468	31574.55
326.921	35310.47
327.374	32872.69
327.827	34187.85
328.28	38699.71
328.733	25897.53
329.186	22808.05
329.639	21716.91
330.092	18310.33
330.545	17430.77
330.997	17563.46
331.45	19153.27
331.903	22396.17
332.355	38577.02
332.808	37508.78
333.26	30949.5
333.713	33553.96
334.165	33740.87
334.617	45122.17
335.069	36479.81
335.522	65982.47
335.974	73083.66
336.426	66891.14
336.878	46336.39
337.33	23492.59
337.782	22917.21
338.234	28675.3
338.686	34342.19
339.137	40675.5
339.589	38283.81
340.041	29968.94
340.493	25729.69
340.944	26295.34
341.396	28308.03
341.847	23830.26
342.299	28056.33
342.75	34268.34
343.201	29997.75
343.653	34479.08
344.104	42466.72
344.555	33420.99
345.006	52079.04
345.457	39850.91
345.908	31799.77
346.359	29889.22
346.81	24302.94
347.261	25681.26
347.712	25300.27
348.163	27105.13
348.613	27413.78
349.064	25565.37
349.515	22385.45
349.965	22948.82
350.416	27667.39
350.866	30320.92
351.317	34296.92
351.767	56843.91
352.217	71724.73
352.668	59499.37
353.118	54529.16
353.568	52696.94
354.018	41646.06
354.468	43924.74
354.918	31489.24
355.368	27542.22
355.818	38899.2
356.268	112026.08
356.718	468403.64
357.168	116541.68
357.617	58475.07
358.067	65176.96
358.517	60990.03
358.966	71454.12
359.416	79983.98
359.865	86515.07
360.315	103015.43
360.764	48052.69
361.213	26882.94
361.663	25508.07
362.112	31477.35
362.561	50858.37
363.01	38313.7
363.459	32293.38
363.908	34967.65
364.357	29710.2
364.806	50173
365.255	34526.7
365.703	31615.05
366.152	31695.27
366.601	25665.1
367.05	20845.39
367.498	18924.51
367.947	19771.37
368.395	20504.66
368.844	18151.58
369.292	21904.13
369.74	15134.82
370.189	23164.45
370.637	27168.28
371.085	23429.79
371.533	28555.8
371.981	27552.24
372.429	26255.06
372.877	27316.02
373.325	22900.57
373.773	23370.66
374.221	20806.84
374.669	25825.75
375.116	22316.31
375.564	22487.62
376.012	25150.19
376.459	20712.47
376.907	24721.79
377.354	29910.37
377.801	27876.86
378.249	32032.73
378.696	40962.58
379.143	49652.36
379.591	52924.34
380.038	89552.45
380.485	64696.99
380.932	69880.43
381.379	63913.45
381.826	47037.46
382.273	33465.64
382.72	29325.93
383.166	28547.14
383.613	18471.82
384.06	16642.34
384.506	19234.35
384.953	14131.85
385.4	14244.17
385.846	12498.88
386.292	12197.25
386.739	11956.38
387.185	11840.22
387.631	11835.59
388.078	11498.86
388.524	12311.49
388.97	11378.57
389.416	9486.25
389.862	10072.06
390.308	9537.65
390.754	9669.46
391.2	10510.76
391.645	10762.29
392.091	10252.04
392.537	9896.73
392.983	9914
393.428	9728.67
393.874	10420.4
394.319	10447.49
394.765	9894.45
395.21	10174.2
395.655	9536.67
396.101	8916.52
396.546	8024.91
396.991	8110.58
397.436	7532.34
397.881	7275.8
398.326	6903.01
398.771	6524.17
399.216	5706.58
399.661	5142.23
400.106	5113.33
400.551	5222.32
400.995	4670.17
401.44	4617.01
401.885	4330.45
402.329	4366.41
402.774	4175.59
403.218	4026.05
403.663	3877.66
404.107	3979.07
404.551	4000.04
404.995	3666.98
405.44	3534
405.884	3590.05
406.328	3473.57
406.772	3454.56
407.216	3145.79
407.66	3041.59
408.104	2890.7
408.547	2698.63
408.991	2607.18
409.435	2504.15
409.879	2461.8
410.322	2422.91
410.766	2332.15
411.209	2213.73
411.653	2126.49
412.096	2077.56
412.54	2075.78
412.983	2059.57
413.426	2060.83
413.869	2058.98
414.312	2020.12
414.756	1944.39
415.199	1853.38
415.642	1799.06
416.085	1798.01
416.527	1784.4
416.97	1811.57
417.413	1714.64
417.856	1692.56
418.298	1674.05
418.741	1660.26
419.184	1655.36
419.626	1726.17
420.069	1724.5
420.511	1731.35
420.953	1691.91
421.396	1673.48
421.838	1631.57
422.28	1667.72
422.722	1676.92
423.164	1701.39
423.606	1672.26
424.048	1668.96
424.49	1582.42
424.932	1575.13
425.374	1556.6
425.816	1585.29
426.258	1613.95
426.699	1631.2
427.141	1606.61
427.582	1632.03
428.024	1624.3
428.465	1614.73
428.907	1575.18
429.348	1558.5
429.789	1555.59
430.231	1519.82
430.672	1536.83
431.113	1502.09
431.554	1479.1
431.995	1444.03
432.436	1389.9
432.877	1357.15
433.318	1333.53
433.759	1328.72
434.2	1329.05
434.64	1315.89
435.081	1319.25
435.522	1251.59
435.962	1208.25
436.403	1182.84
436.843	1199.83
437.284	1176.82
437.724	1149.07
438.164	1154.32
438.604	1129.7
439.045	1087.96
439.485	1043.85
439.925	1024.52
440.365	1001.06
440.805	986.46
441.245	973.38
441.685	938.63
442.125	931.83
442.564	937.64
443.004	917.59
443.444	916.31
443.883	920.01
444.323	916.77
444.762	921.1
445.202	934.88
445.641	953.26
446.081	950.9
446.52	960.75
446.959	953.37
447.398	931.49
447.837	922.15
448.276	908.19
448.716	918.02
449.154	928.58
449.593	907.65
450.032	907.38
450.471	893.48
450.91	897.2
451.349	896.13
451.787	896
452.226	909.34
452.664	911.19
453.103	912.87
453.541	912.22
453.98	909.77
454.418	916.77
454.856	902.41
455.295	900.86
455.733	908.1
456.171	913.05
456.609	913.77
457.047	915.61
457.485	928.92
457.923	932.02
458.361	921.23
458.798	924.74
459.236	923.88
459.674	931.49
460.111	937.46
460.549	927.87
460.987	927.61
461.424	924.69
461.862	920.14
462.299	906.67
462.736	905.28
463.173	907.61
463.611	897.5
464.048	894.82
464.485	901.81
464.922	894.46
465.359	890.44
465.796	873.22
466.233	866.53
466.67	857.03
467.106	853.82
467.543	846.73
467.98	835.82
468.416	815.07
468.853	808.86
469.29	786.14
469.726	777.94
470.162	757.75
470.599	752.15
471.035	746.38
471.471	730.98
471.907	727.55
472.344	723.55
472.78	725.45
473.216	735.66
473.652	726.84
474.088	724.58
474.523	720.09
474.959	727.51
475.395	719.74
475.831	715.21
476.266	718.2
476.702	716.26
477.138	707.18
477.573	705.3
478.008	701.12
478.444	703.97
478.879	708.58
479.314	711.76
479.75	711.12
480.185	714.67
480.62	720.74
481.055	723.86
481.49	729.24
481.925	739.65
482.36	751.27
482.795	773.04
483.229	794.66
483.664	813.37
484.099	817.38
484.534	830.59
484.968	839.71
485.403	843
485.837	844.12
486.271	843.49
486.706	846.21
487.14	839.42
487.574	827.49
488.009	820.57
488.443	814.7
488.877	823.34
489.311	826.89
489.745	837.38
490.179	845.78
490.613	861.51
491.046	870.65
491.48	878.74
491.914	881.1
492.348	889.38
492.781	896.8
493.215	900.59
493.648	905.76
494.082	914.04
494.515	916.48
494.948	929.34
495.382	938.6
495.815	947.07
496.248	956.11
496.681	975.68
497.114	994.26
497.547	1009.69
497.98	1029.1
498.413	1039.45
498.846	1056.21
499.279	1071.71
499.711	1080.64
500.144	1087.46
500.577	1103.89
501.009	1122.38
501.442	1138.03
501.874	1142.02
502.306	1149.17
502.739	1161.45
503.171	1185.01
503.603	1193.37
504.036	1209.71
504.468	1221.47
504.9	1241.26
505.332	1254.04
505.764	1262.41
506.196	1275.59
506.627	1298.55
507.059	1319.83
507.491	1337.37
507.923	1338.03
508.354	1360.49
508.786	1378.04
509.217	1404.44
509.649	1425.44
510.08	1454.3
510.512	1478.9
510.943	1502.01
511.374	1520.6
511.805	1550.34
512.237	1578.16
512.668	1624.39
513.099	1664.16
513.53	1703.92
513.961	1733.19
514.391	1780.24
514.822	1825.28
515.253	1875.82
515.684	1910.5
516.114	1950.84
516.545	1979.03
516.975	2015.1
517.406	2039.06
517.836	2041.11
518.267	2046.48
518.697	2070.07
519.127	2072.69
519.558	2081.63
519.988	2084.88
520.418	2097.63
520.848	2120.07
521.278	2130.05
521.708	2129.81
522.138	2144.62
522.567	2187.02
522.997	2221.12
523.427	2240.29
523.857	2261.14
524.286	2273.27
524.716	2292.63
525.145	2315.31
525.575	2328.47
526.004	2346.78
526.433	2355.83
526.863	2353.93
527.292	2335.32
527.721	2339.18
528.15	2344.67
528.579	2342.73
529.008	2354.79
529.437	2383.7
529.866	2401.52
530.295	2421.6
530.724	2436
531.152	2471.19
531.581	2486.65
532.01	2509.19
532.438	2521.19
532.867	2539.91
533.295	2564.6
533.723	2571.25
534.152	2566.03
534.58	2562.5
535.008	2539.17
535.436	2540.44
535.865	2550.2
536.293	2572.29
536.721	2593.02
537.149	2625.77
537.576	2628.97
538.004	2645.85
538.432	2657.06
538.86	2654.23
539.287	2666.08
539.715	2685.55
540.143	2691
540.57	2686.16
540.998	2680.98
541.425	2648.66
541.852	2619.87
542.28	2616.93
542.707	2594.67
543.134	2574.82
543.561	2569
543.988	2557.14
544.415	2556.54
544.842	2546.54
545.269	2534.61
545.696	2534.41
546.123	2551.34
546.549	2534.77
546.976	2516.49
547.403	2513.88
547.829	2515.07
548.256	2517.37
548.682	2510.3
549.108	2496.24
549.535	2495.27
549.961	2498.61
550.387	2479.52
550.813	2469.84
551.24	2477.55
551.666	2478.65
552.092	2464.28
552.518	2454.25
552.943	2444.9
553.369	2454.61
553.795	2462.83
554.221	2462.61
554.646	2455.51
555.072	2468.17
555.498	2475.88
555.923	2487.91
556.349	2506.64
556.774	2518.27
557.199	2520.7
557.625	2528.16
558.05	2520.14
558.475	2533.73
558.9	2532.98
559.325	2521.57
559.75	2514.19
560.175	2506.03
560.6	2497.81
561.025	2496.43
561.449	2498.6
561.874	2506.53
562.299	2513.26
562.723	2524.26
563.148	2512.09
563.572	2517.78
563.997	2533.56
564.421	2544.02
564.846	2545.91
565.27	2552.79
565.694	2551.55
566.118	2569.69
566.542	2582.18
566.966	2575.9
567.39	2571.39
567.814	2559.48
568.238	2561.57
568.662	2571.23
569.086	2576.42
569.509	2588.69
569.933	2568.77
570.357	2559.08
570.78	2531.64
571.204	2514.36
571.627	2502.27
572.05	2501.99
572.474	2501.93
572.897	2485.45
573.32	2475.03
573.743	2462.67
574.166	2437.66
574.589	2439.27
575.012	2429.86
575.435	2428.67
575.858	2416.85
576.281	2400.09
576.704	2378.27
577.126	2362.2
577.549	2346.99
577.972	2335.29
578.394	2320.62
578.817	2309.13
579.239	2283.24
579.661	2264.25
580.084	2242.82
580.506	2223.9
580.928	2218.02
581.35	2202.27
581.772	2196.25
582.194	2178.91
582.616	2160.66
583.038	2141.33
583.46	2128.66
583.882	2124.7
584.303	2131.61
584.725	2124.34
585.147	2124.65
585.568	2140.24
585.99	2157.61
586.411	2166.63
586.833	2186.77
587.254	2189.68
587.675	2210.78
588.096	2228.69
588.518	2219.94
588.939	2196.32
589.36	2194.29
589.781	2184.52
590.202	2143.1
590.623	2129.48
591.043	2126.33
591.464	2107.77
591.885	2101.14
592.305	2090.74
592.726	2071.46
593.147	2073.95
593.567	2065.69
593.987	2056.3
594.408	2048.57
594.828	2048.39
595.248	2040.94
595.669	2014.57
596.089	2005.63
596.509	1997.19
596.929	1978.56
597.349	1979.06
597.769	1964.56
598.189	1957.96
598.608	1958.69
599.028	1962.24
599.448	1963.54
599.867	1946.9
600.287	1942.87
600.706	1935.94
601.126	1921.63
601.545	1919.43
601.965	1918.39
602.384	1912.47
602.803	1915.71
603.222	1909.93
603.641	1899.61
604.061	1892.15
604.48	1886.27
604.898	1896.8
605.317	1905.4
605.736	1909.49
606.155	1906.4
606.574	1894.54
606.992	1902.48
607.411	1895.35
607.829	1884.23
608.248	1880.49
608.666	1880.04
609.085	1880.19
609.503	1869.38
609.921	1860.98
610.339	1864.95
610.758	1865.59
611.176	1858.18
611.594	1845.38
612.012	1841.94
612.43	1846.37
612.847	1855.73
613.265	1855.38
613.683	1862.02
614.101	1864.04
614.518	1857.95
614.936	1844.29
615.353	1823.55
615.771	1819.84
616.188	1819.35
616.606	1814.11
617.023	1805.06
617.44	1786.21
617.857	1777.86
618.274	1765.17
618.691	1755.8
619.108	1743.5
619.525	1734.25
619.942	1743.96
620.359	1747.91
620.776	1742.14
621.192	1736.13
621.609	1733.34
622.026	1741.63
622.442	1749.52
622.859	1755.33
623.275	1746.07
623.691	1754.87
624.108	1770.91
624.524	1790.26
624.94	1790.62
625.356	1804.4
625.772	1823.56
626.188	1840.15
626.604	1842.67
627.02	1836.73
627.436	1833.45
627.852	1841.33
628.268	1857.54
628.683	1845.83
629.099	1834.51
629.514	1828.53
629.93	1833.13
630.345	1838.8
630.761	1832.26
631.176	1836.77
631.591	1827.68
632.007	1819.7
632.422	1817.25
632.837	1801.07
633.252	1797.07
633.667	1781.79
634.082	1767.09
634.497	1748.29
634.911	1720.01
635.326	1714.54
635.741	1689.97
636.155	1675.12
636.57	1674.23
636.984	1673.01
637.399	1673.42
637.813	1670.14
638.228	1667.35
638.642	1672.64
639.056	1657.35
639.47	1655.88
639.884	1642.3
640.298	1631.3
640.712	1627.61
641.126	1608.25
641.54	1594.13
641.954	1585.14
642.368	1567.92
642.781	1553.29
643.195	1526.76
643.609	1525.59
644.022	1515.49
644.436	1508.97
644.849	1493.47
645.262	1477.68
645.676	1479.06
646.089	1471.7
646.502	1449.39
646.915	1440.91
647.328	1418.52
647.741	1414.38
648.154	1395.9
648.567	1389.98
648.98	1371.22
649.393	1368.44
649.805	1362.22
650.218	1349.91
650.631	1328.41
651.043	1320.65
651.456	1312
651.868	1312.71
652.28	1335.63
652.693	1354.09
653.105	1363.65
653.517	1374.56
653.929	1374.6
654.341	1380.61
654.753	1365.93
655.165	1372.44
655.577	1367.13
655.989	1359.96
656.401	1348.26
656.813	1298.29
657.224	1268.4
657.636	1229.21
658.047	1205.06
658.459	1177.08
658.87	1164.14
659.282	1146.15
659.693	1117.54
660.104	1097.04
660.515	1077.26
660.926	1070.92
661.338	1065.44
661.749	1055.75
662.159	1041.33
662.57	1033
662.981	1025.39
663.392	1013.15
663.803	1016.01
664.213	1010.47
664.624	1002.17
665.035	1002.91
665.445	985.15
665.855	972.77
666.266	961.16
666.676	955.98
667.086	943.08
667.497	939.45
667.907	930.72
668.317	917.01
668.727	910.36
669.137	910.16
669.547	905
669.956	905.4
670.366	907.09
670.776	906.91
671.186	910.23
671.595	912.4
672.005	917.02
672.414	913.26
672.824	910.46
673.233	915.74
673.642	918.06
674.052	921.49
674.461	923.83
674.87	928.64
675.279	925.21
675.688	927.14
676.097	927.71
676.506	922.97
676.915	941.13
677.323	943.93
677.732	942.23
678.141	940.83
678.549	929.7
678.958	929.06
679.366	928.84
679.775	936.29
680.183	949.2
680.592	957.75
681	967.16
681.408	961.68
681.816	974
682.224	986.58
682.632	1001.32
683.04	1039.95
683.448	1073.71
683.856	1116.22
684.264	1164
684.671	1209.97
685.079	1265.96
685.487	1326.33
685.894	1410.86
686.302	1481.05
686.709	1541.01
687.116	1610.51
687.524	1669.15
687.931	1719.91
688.338	1761.83
688.745	1800.48
689.152	1843.93
689.559	1899.72
689.966	1955.53
690.373	1980.63
690.78	2031.94
691.187	2113.01
691.593	2171.57
692	2221.31
692.407	2298.66
692.813	2392.69
693.22	2465.1
693.626	2540.48
694.032	2597.95
694.439	2689.31
694.845	2759.08
