Data from C_1_DEC_OH_4N_Splice17_11-56-05-627.txt Node
Date: Sat Mar 14 11:56:05 EDT 2020
User: sa697716
Spectrometer: FLMS03696
Trigger mode: 0
Integration Time (sec): 3.180400E-1
Scans to average: 20
Electric dark correction enabled: true
Nonlinearity correction enabled: true
Boxcar width: 5
XAxis mode: Wavelengths
Number of Pixels in Spectrum: 2048
>>>>>Begin Spectral Data<<<<<
187.83	-144878.89
188.298	1152.33
188.766	672.18
189.233	543.83
189.701	789.97
190.169	1287.18
190.636	513.3
191.104	446.34
191.571	94.65
192.039	-44.98
192.506	-95.52
192.974	488.37
193.441	-923.86
193.908	-332.75
194.375	-146.41
194.842	-83.43
195.31	-22.11
195.777	102.67
196.244	303.83
196.711	432.82
197.177	564.42
197.644	828.27
198.111	1448.12
198.578	2050.88
199.045	1634.03
199.511	2698.34
199.978	3178.32
200.445	2747
200.911	3057.01
201.378	3433.07
201.844	3115.45
202.31	5336.53
202.777	5555.61
203.243	3092.77
203.709	2971.29
204.176	3571.88
204.642	2945.6
205.108	2715.63
205.574	2212.36
206.04	2001.96
206.506	1876.77
206.972	1781.67
207.438	1722.45
207.903	1963.61
208.369	1721.34
208.835	1686.9
209.301	1766.85
209.766	1809.16
210.232	1808.78
210.697	2240.94
211.163	2797.59
211.628	4226.56
212.094	3536.93
212.559	4344.82
213.024	2701.68
213.49	3289.35
213.955	3249.32
214.42	3180.24
214.885	2961.92
215.35	2834.47
215.815	2704.87
216.28	2873.63
216.745	2339.4
217.21	2555.31
217.675	2360.92
218.14	2685.59
218.604	3029.22
219.069	3499.81
219.534	3701
219.998	4362.72
220.463	5341.95
220.927	6669.13
221.392	6320.43
221.856	6435.68
222.32	8151.44
222.785	10121.05
223.249	12771.86
223.713	14334.58
224.177	14359.13
224.642	18457.23
225.106	22748.83
225.57	24890.57
226.034	18534.21
226.497	28253.18
226.961	25541.17
227.425	29738.08
227.889	33036.16
228.353	33088.57
228.816	68172.54
229.28	65219.66
229.744	55053.07
230.207	33473.88
230.671	32983.33
231.134	54613.62
231.597	63006.78
232.061	62984.36
232.524	61476.57
232.987	42379.42
233.45	38090.48
233.914	34229.65
234.377	35125.88
234.84	32181.52
235.303	37968.52
235.766	42374.1
236.229	43747.85
236.691	27574.2
237.154	31011.86
237.617	23321.37
238.08	23859.56
238.542	27964.72
239.005	19980.49
239.468	19821.32
239.93	18662.58
240.393	16944.23
240.855	14867.01
241.317	15230.64
241.78	18503.69
242.242	19111.1
242.704	20627.37
243.166	17947.39
243.629	16285.73
244.091	18757.58
244.553	20538.08
245.015	22089.87
245.477	28591.82
245.939	41914.62
246.4	44469.6
246.862	43275.22
247.324	40818.64
247.786	45652.58
248.247	59846.93
248.709	61729.69
249.17	46160.63
249.632	43489.3
250.093	50383.59
250.555	43506.53
251.016	26507.27
251.477	25144.91
251.939	27106.52
252.4	28421.63
252.861	33826.04
253.322	31468.25
253.783	37492.51
254.244	48679.33
254.705	38422.66
255.166	34200.68
255.627	33670.44
256.088	47545.24
256.549	50531.87
257.009	43526.04
257.47	52859.59
257.931	43047.26
258.391	32307.45
258.852	33323.67
259.312	34954.73
259.773	43188.84
260.233	36484.7
260.694	30759.14
261.154	34899.14
261.614	27997.2
262.074	25055.02
262.534	26030.36
262.994	24551.81
263.455	32709.05
263.915	27568.94
264.374	25972.24
264.834	28364.09
265.294	31459.12
265.754	32614.52
266.214	30869.89
266.673	28937.81
267.133	36546.17
267.593	36291.97
268.052	44418.65
268.512	38605.77
268.971	46570
269.431	51063.07
269.89	45731.81
270.349	68550.96
270.809	76433.13
271.268	68745.72
271.727	154285.15
272.186	99999.78
272.645	75013.93
273.104	54151.25
273.563	78456.04
274.022	61730.87
274.481	52504.49
274.94	40457.52
275.399	30083.97
275.857	35074.02
276.316	47447.09
276.775	42230.07
277.233	41538.61
277.692	38859.51
278.15	43911.54
278.609	45196.81
279.067	41805.61
279.525	38880.86
279.984	50248.46
280.442	60378.59
280.9	59441.03
281.358	39127.42
281.816	36455.54
282.274	35712.01
282.732	36956.17
283.19	37193.52
283.648	32105.31
284.106	34176.21
284.564	34739.61
285.021	32193.69
285.479	23986.2
285.937	21830.24
286.394	19135.63
286.852	19687.49
287.309	20709.73
287.767	19987.88
288.224	19002.79
288.682	20842.71
289.139	22886.55
289.596	20938.44
290.053	21758.4
290.511	27475.47
290.968	33329.29
291.425	45312.04
291.882	37702.15
292.339	32785.32
292.796	32532.13
293.252	30664.33
293.709	24351.23
294.166	21831.39
294.623	24143.63
295.079	23171.34
295.536	23287.31
295.992	21130.64
296.449	20870.6
296.905	21703.7
297.362	20793.76
297.818	21866.85
298.274	22671.01
298.731	23114.23
299.187	22872.7
299.643	24545.73
300.099	29695.29
300.555	32528.34
301.011	27195.85
301.467	26193.55
301.923	30686.27
302.379	29997.6
302.835	29488.22
303.291	29506.76
303.746	33602.36
304.202	42482.14
304.658	42633.02
305.113	28663.73
305.569	28116.39
306.024	30012.89
306.479	28621.51
306.935	24108.57
307.39	26315.99
307.845	24286.44
308.301	24472.93
308.756	23844.73
309.211	22939.9
309.666	23509.3
310.121	29180.05
310.576	29587.64
311.031	29321.52
311.486	33561.35
311.94	33528.62
312.395	44828.24
312.85	84267.83
313.305	413821.66
313.759	2138771.89
314.214	155016.66
314.668	122873.8
315.123	103238.74
315.577	37028.93
316.032	32936.99
316.486	41235.72
316.94	32509.31
317.394	22642.03
317.849	17594.32
318.303	16638.14
318.757	15678.11
319.211	17328.16
319.665	15165.78
320.119	15359.59
320.572	22035.86
321.026	20568.71
321.48	17118.41
321.934	18682.25
322.387	18710.06
322.841	20202.6
323.295	18179.55
323.748	20962.7
324.202	21279.42
324.655	25542.98
325.108	35614.3
325.562	25151.05
326.015	29881.91
326.468	22577.44
326.921	25226.71
327.374	23529.79
327.827	24458.21
328.28	27600.05
328.733	18514.77
329.186	16280.94
329.639	15494.12
330.092	13074.23
330.545	12428.44
330.997	12546.94
331.45	13721.25
331.903	16074.48
332.355	27671.65
332.808	26957.8
333.26	22280.03
333.713	24178.02
334.165	24347.67
334.617	32527.29
335.069	26319.38
335.522	47679.01
335.974	52710.57
336.426	48190.91
336.878	33438.55
337.33	16935.09
337.782	16518.29
338.234	20664.51
338.686	24723.14
339.137	29314.16
339.589	27612.7
340.041	21602.66
340.493	18552
340.944	18989.22
341.396	20431
341.847	17157.75
342.299	20243.61
342.75	24705.14
343.201	21637.16
343.653	24884.84
344.104	30555.37
344.555	24048.12
345.006	37468.92
345.457	28640.58
345.908	22768.15
346.359	21431.48
346.81	17476.25
347.261	18423.88
347.712	18128.59
348.163	19432.53
348.613	19635.83
349.064	18338.73
349.515	16081.5
349.965	16493.07
350.416	19887.55
350.866	21853.63
351.317	24705.95
351.767	40853.14
352.217	51606.24
352.668	42848.04
353.118	39226.39
353.568	37907.55
354.018	29983.94
354.468	31603.28
354.918	22663.76
355.368	19862.51
355.818	28037.16
356.268	80595.35
356.718	336886.07
357.168	83808.22
357.617	42075.65
358.067	46862.88
358.517	43822.95
358.966	51365.17
359.416	57553.87
359.865	62189.89
360.315	73908.89
360.764	34468.98
361.213	19333.59
361.663	18327.07
362.112	22655.73
362.561	36598.02
363.01	27567.78
363.459	23198.07
363.908	25141.06
364.357	21299.79
364.806	36004.47
365.255	24776.72
365.703	22692.09
366.152	22693.85
366.601	18398.68
367.05	14917.05
367.498	13530.08
367.947	14127.38
368.395	14687.8
368.844	12981.16
369.292	15659.61
369.74	10823.22
370.189	16527.55
370.637	19367.41
371.085	16704.64
371.533	20380.03
371.981	19644.48
372.429	18721.88
372.877	19507.98
373.325	16350.83
373.773	16652.83
374.221	14809.61
374.669	18332.65
375.116	15860.18
375.564	15958.58
376.012	17812.93
376.459	14649.98
376.907	17493.46
377.354	21166.64
377.801	19722.9
378.249	22624.41
378.696	28895.27
379.143	35011.82
379.591	37294.84
380.038	63149.11
380.485	45660.23
380.932	49317.03
381.379	45072.29
381.826	33183.88
382.273	23517.46
382.72	20504.47
383.166	19956.68
383.613	12905.03
384.06	11632.21
384.506	13467.6
384.953	9865.41
385.4	9907.77
385.846	8668.95
386.292	8442.85
386.739	8235.88
387.185	8148.15
387.631	8158.41
388.078	7898
388.524	8448.93
388.97	7784.85
389.416	6470.8
389.862	6866.33
390.308	6507.52
390.754	6584.79
391.2	7126.97
391.645	7275.65
392.091	6933.84
392.537	6674.56
392.983	6681.06
393.428	6563.75
393.874	7023.69
394.319	7041.64
394.765	6670.46
395.21	6850.6
395.655	6422.18
396.101	6007.79
396.546	5419.68
396.991	5464.43
397.436	5068.17
397.881	4887.46
398.326	4620.45
398.771	4359.12
399.216	3802.26
399.661	3417.71
400.106	3395.52
400.551	3468.34
400.995	3102.36
401.44	3064.81
401.885	2875.65
402.329	2899.28
402.774	2773.03
403.218	2681.84
403.663	2580.9
404.107	2646.61
404.551	2660.53
404.995	2436.4
405.44	2345
405.884	2377.13
406.328	2296.48
406.772	2282.96
407.216	2078.54
407.66	2010.79
408.104	1905.8
408.547	1783.99
408.991	1725.92
409.435	1659.93
409.879	1635.19
410.322	1609.75
410.766	1554.44
411.209	1477.03
411.653	1419.11
412.096	1389.3
412.54	1385.24
412.983	1373.33
413.426	1374.11
413.869	1369.09
414.312	1341.41
414.756	1290.62
415.199	1231.28
415.642	1194.1
416.085	1194.31
416.527	1186.35
416.97	1201.72
417.413	1140.49
417.856	1124.75
418.298	1110.51
418.741	1102.92
419.184	1101.89
419.626	1144.14
420.069	1142.55
420.511	1146.8
420.953	1120.16
421.396	1105.5
421.838	1076.25
422.28	1098.81
422.722	1108.51
423.164	1125.62
423.606	1105.92
424.048	1100.23
424.49	1048.1
424.932	1042.9
425.374	1028.46
425.816	1047.12
426.258	1068.58
426.699	1080.58
427.141	1065
427.582	1077.38
428.024	1068.9
428.465	1061.84
428.907	1035.9
429.348	1021.63
429.789	1020.22
430.231	999.01
430.672	1009.82
431.113	983.17
431.554	969.18
431.995	943.35
432.436	910.77
432.877	891.65
433.318	878.87
433.759	874.77
434.2	874.55
434.64	867.36
435.081	869.57
435.522	825.35
435.962	796.39
436.403	778.99
436.843	791.31
437.284	773.86
437.724	753.37
438.164	752.35
438.604	737.01
439.045	708.67
439.485	679.55
439.925	665.8
440.365	648.18
440.805	639.02
441.245	629.63
441.685	605.13
442.125	599.21
442.564	602.23
443.004	588.34
443.444	585.76
443.883	586.89
444.323	580.32
444.762	579.44
445.202	586.01
445.641	595.92
446.081	591.61
446.52	595.48
446.959	588.86
447.398	573.63
447.837	565.94
448.276	555.08
448.716	560.08
449.154	563.38
449.593	549.49
450.032	547.51
450.471	536.56
450.91	536.99
451.349	536.15
451.787	533.76
452.226	541.1
452.664	540.33
453.103	540.32
453.541	536.11
453.98	534.7
454.418	537.24
454.856	529.57
455.295	528.55
455.733	531.43
456.171	533.71
456.609	533.71
457.047	533.02
457.485	541.24
457.923	541.48
458.361	534.56
458.798	537.05
459.236	535.92
459.674	538.94
460.111	541.41
460.549	536.99
460.987	534.46
461.424	532.56
461.862	530.38
462.299	522.16
462.736	522.09
463.173	523.81
463.611	518.87
464.048	518.95
464.485	523.59
464.922	519.68
465.359	517.05
465.796	512.75
466.233	510.44
466.67	506.67
467.106	506.75
467.543	502.09
467.98	496.9
468.416	484
468.853	478.23
469.29	464.54
469.726	458.26
470.162	446.38
470.599	438.94
471.035	433.58
471.471	422.96
471.907	419.13
472.344	417.04
472.78	417.3
473.216	420.51
473.652	416.08
474.088	413.06
474.523	411.38
474.959	414.49
475.395	410.32
475.831	407.79
476.266	408.51
476.702	406.37
477.138	400.41
477.573	398.21
478.008	396.94
478.444	397.88
478.879	401.09
479.314	402.64
479.75	400.69
480.185	402.11
480.62	404.66
481.055	406.41
481.49	409.06
481.925	414.42
482.36	422.12
482.795	433.62
483.229	444.28
483.664	452.78
484.099	453.95
484.534	461.81
484.968	465.9
485.403	467.4
485.837	466.64
486.271	465.46
486.706	465.53
487.14	459.17
487.574	451.18
488.009	447.26
488.443	443.31
488.877	447.59
489.311	447.97
489.745	452.81
490.179	456.44
490.613	465.57
491.046	469.03
491.48	471.68
491.914	472.86
492.348	475.84
492.781	478.61
493.215	479.64
493.648	479.72
494.082	483.2
494.515	483.03
494.948	488.07
495.382	490.23
495.815	493.59
496.248	497.68
496.681	506.58
497.114	515.28
497.547	522.42
497.98	532.23
498.413	538.17
498.846	545.75
499.279	552.4
499.711	556.41
500.144	559.26
500.577	566.96
501.009	576.2
501.442	584.1
501.874	586.51
502.306	588.91
502.739	595.68
503.171	606.88
503.603	611.44
504.036	620.62
504.468	627.06
504.9	637.47
505.332	645.3
505.764	651.3
506.196	659.01
506.627	672.35
507.059	685.99
507.491	695.68
507.923	698.29
508.354	712.93
508.786	724.47
509.217	742.33
509.649	757.09
510.08	775.67
510.512	792.21
510.943	808.76
511.374	822.43
511.805	842.62
512.237	862.6
512.668	892.8
513.099	919.75
513.53	946.87
513.961	968.45
514.391	999.71
514.822	1032.73
515.253	1068.69
515.684	1094.8
516.114	1125.16
516.545	1149.28
516.975	1177.01
517.406	1198.07
517.836	1205.53
518.267	1217.12
518.697	1238.94
519.127	1248.11
519.558	1259.75
519.988	1268.24
520.418	1283.54
520.848	1304.3
521.278	1317.38
521.708	1339.85
522.138	1356.39
522.567	1389.06
522.997	1415.7
523.427	1433.51
523.857	1454.26
524.286	1468.62
524.716	1486.23
525.145	1506.97
525.575	1519.83
526.004	1536.48
526.433	1534.53
526.863	1537.62
527.292	1532.02
527.721	1540.5
528.15	1548.12
528.579	1550.45
529.008	1562.94
529.437	1586.85
529.866	1601.67
530.295	1620.38
530.724	1632.93
531.152	1659.8
531.581	1675.4
532.01	1694.31
532.438	1703.14
532.867	1719.12
533.295	1739
533.723	1746.55
534.152	1745.64
534.58	1746.67
535.008	1733.03
535.436	1737.37
535.865	1745.42
536.293	1760.33
536.721	1775.98
537.149	1802.5
537.576	1805.93
538.004	1818.45
538.432	1825.73
538.86	1825.04
539.287	1833.53
539.715	1847.48
540.143	1851.25
540.57	1849.41
540.998	1847.26
541.425	1827.02
541.852	1807.26
542.28	1806.21
542.707	1791.18
543.134	1778.61
543.561	1774.59
543.988	1767.44
544.415	1767.72
544.842	1762.44
545.269	1754.16
545.696	1753.85
546.123	1764.18
546.549	1752.96
546.976	1740.69
547.403	1740.55
547.829	1742.55
548.256	1745.34
548.682	1740.59
549.108	1732.24
549.535	1732
549.961	1733.36
550.387	1721.16
550.813	1715.46
551.24	1722.65
551.666	1723.22
552.092	1712.83
552.518	1705.9
552.943	1698.86
553.369	1705.44
553.795	1709.98
554.221	1708.69
554.646	1705.29
555.072	1714.64
555.498	1719.38
555.923	1724.84
556.349	1737.4
556.774	1744.32
557.199	1743.4
557.625	1746.61
558.05	1738.58
558.475	1746.17
558.9	1742.17
559.325	1731.2
559.75	1722.97
560.175	1713.8
560.6	1706.62
561.025	1701.98
561.449	1700.15
561.874	1702.7
562.299	1704.21
562.723	1708.34
563.148	1697.28
563.572	1699.23
563.997	1705.77
564.421	1708.09
564.846	1704.55
565.27	1703.93
565.694	1697.93
566.118	1704.38
566.542	1708.09
566.966	1698.66
567.39	1691.39
567.814	1676.74
568.238	1672.08
568.662	1673.17
569.086	1671.13
569.509	1673.73
569.933	1656.55
570.357	1646.18
570.78	1624.25
571.204	1608.33
571.627	1595.06
572.05	1589.31
572.474	1585.95
572.897	1571.09
573.32	1561.44
573.743	1548.74
574.166	1530.25
574.589	1526.18
575.012	1516.82
575.435	1512.16
575.858	1502.04
576.281	1488.91
576.704	1472.41
577.126	1458.82
577.549	1446.29
577.972	1434.37
578.394	1423.91
578.817	1414.41
579.239	1395.95
579.661	1381.72
580.084	1365.16
580.506	1349.33
580.928	1342.83
581.35	1331.05
581.772	1324.35
582.194	1311.37
582.616	1297.89
583.038	1282.74
583.46	1271.97
583.882	1266.8
584.303	1267.63
584.725	1262.41
585.147	1263.25
585.568	1271.27
585.99	1279.17
586.411	1281.52
586.833	1291.36
587.254	1290.91
587.675	1299.89
588.096	1308.22
588.518	1303.02
588.939	1288
589.36	1284.81
589.781	1273.06
590.202	1248.41
590.623	1240.28
591.043	1238.84
591.464	1227.96
591.885	1224.49
592.305	1219.89
592.726	1207.42
593.147	1207.15
593.567	1202.15
593.987	1195.48
594.408	1191.74
594.828	1189.75
595.248	1183.37
595.669	1167.49
596.089	1160.57
596.509	1153.98
596.929	1141.8
597.349	1141.44
597.769	1132.91
598.189	1127.14
598.608	1126.74
599.028	1126.78
599.448	1125.19
599.867	1114.39
600.287	1109.63
600.706	1104.96
601.126	1096.34
601.545	1095.03
601.965	1093.21
602.384	1087.43
602.803	1087.47
603.222	1083.1
603.641	1076.5
604.061	1072.75
604.48	1067.96
604.898	1072.67
605.317	1075.58
605.736	1075.22
606.155	1071.21
606.574	1061.63
606.992	1064.37
607.411	1059.35
607.829	1050.66
608.248	1046.7
608.666	1042.76
609.085	1040.35
609.503	1032.77
609.921	1026.13
610.339	1026.12
610.758	1023.05
611.176	1018.19
611.594	1009.46
612.012	1005.07
612.43	1006.4
612.847	1009.45
613.265	1008.91
613.683	1011.08
614.101	1009.94
614.518	1005.55
614.936	996.15
615.353	983.84
615.771	980.03
616.188	978.76
616.606	974.56
617.023	966.22
617.44	953.98
617.857	946.7
618.274	938.3
618.691	931.68
619.108	922.86
619.525	917.47
619.942	920.95
620.359	922.11
620.776	917.52
621.192	914.19
621.609	913.25
622.026	918.13
622.442	921.61
622.859	923.45
623.275	918
623.691	921.95
624.108	930.23
624.524	941.03
624.94	940.39
625.356	946.91
625.772	955.34
626.188	962.32
626.604	962.85
627.02	960.12
627.436	958.64
627.852	964.53
628.268	973.13
628.683	965.56
629.099	959.05
629.514	954.78
629.93	957.22
630.345	960.82
630.761	958.18
631.176	960.16
631.591	955.49
632.007	950.38
632.422	947.69
632.837	938.22
633.252	936.24
633.667	926.8
634.082	919.47
634.497	908.64
634.911	893.01
635.326	889.14
635.741	874.59
636.155	865.85
636.57	865.21
636.984	862.7
637.399	862.44
637.813	859.69
638.228	856.85
638.642	857.42
639.056	848.88
639.47	846.02
639.884	838.08
640.298	831.56
640.712	828.68
641.126	818.4
641.54	809.24
641.954	802.76
642.368	792
642.781	785.85
643.195	772.34
643.609	770.11
644.022	764.93
644.436	759.68
644.849	749.04
645.262	738.79
645.676	736.66
646.089	732.35
646.502	721.12
646.915	715.94
647.328	702.44
647.741	699.5
648.154	688.82
648.567	685.54
648.98	675.9
649.393	676.77
649.805	673.41
650.218	668.18
650.631	656.62
651.043	652.21
651.456	648.5
651.868	647.36
652.28	657.49
652.693	665.64
653.105	668.89
653.517	674.47
653.929	673.89
654.341	677.67
654.753	669.16
655.165	674.22
655.577	671
655.989	667.05
656.401	661.79
656.813	638.71
657.224	625.71
657.636	607.14
658.047	595.85
658.459	582.61
658.87	575.23
659.282	568.15
659.693	554.29
660.104	544.49
660.515	535.55
660.926	533.73
661.338	531.76
661.749	527.88
662.159	523.08
662.57	520.94
662.981	518.96
663.392	515.67
663.803	518.34
664.213	518.43
664.624	518.29
665.035	521.97
665.445	514.99
665.855	512.25
666.266	509.57
666.676	509.23
667.086	504.19
667.497	505.93
667.907	503.54
668.317	498.82
668.727	498.37
669.137	499.26
669.547	498.85
669.956	502.11
670.366	503.9
670.776	505.89
671.186	510.28
671.595	514.17
672.005	516.87
672.414	518.22
672.824	518.96
673.233	522.58
673.642	525.38
674.052	528.85
674.461	531.77
674.87	535.87
675.279	536.15
675.688	537.88
676.097	539.98
676.506	538.52
676.915	548.48
677.323	550.57
677.732	550.9
678.141	552.22
678.549	545.56
678.958	545.15
679.366	545.66
679.775	548.37
680.183	556.88
680.592	561.56
681	566.22
681.408	562.16
681.816	568.3
682.224	572.05
682.632	578.42
683.04	598.51
683.448	614.65
683.856	635.35
684.264	658.88
684.671	678.92
685.079	704.65
685.487	733.94
685.894	775.31
686.302	809.58
686.709	840.24
687.116	874.42
687.524	903.43
687.931	929.9
688.338	953.16
688.745	974.1
689.152	999.21
689.559	1034.99
689.966	1071.04
690.373	1092.58
690.78	1128.19
691.187	1182.57
691.593	1227.81
692	1269.73
692.407	1328.31
692.813	1399.8
693.22	1460.43
693.626	1524
694.032	1577.18
694.439	1653.35
694.845	1717.26
695.251	1796.64
695.657	1869.01
696.063	1969.38
696.469	2051.46
696.875	2128.57
697.281	2180
697.687	2240.24
698.093	2292.89
698.498	2378.64
698.904	2450.97
699.31	2549.04
699.715	2624.1
700.12	2726.68
