Data from C_1_DIV_WI_4N_Splice17_11-48-15-290.txt Node
Date: Sat Mar 14 11:48:15 EDT 2020
User: sa697716
Spectrometer: FLMS03696
Trigger mode: 0
Integration Time (sec): 3.180400E-1
Scans to average: 20
Electric dark correction enabled: true
Nonlinearity correction enabled: true
Boxcar width: 5
XAxis mode: Wavelengths
Number of Pixels in Spectrum: 2048
>>>>>Begin Spectral Data<<<<<
187.83	-286685.64
188.298	2048.99
188.766	1097.69
189.233	1026.69
189.701	1460.11
190.169	2039.83
190.636	788.27
191.104	679.34
191.571	164.5
192.039	16.22
192.506	18.78
192.974	552.26
193.441	-855.85
193.908	-263.26
194.375	-68.12
194.842	55.87
195.31	69.8
195.777	114.89
196.244	320.28
196.711	438.16
197.177	547.82
197.644	817.77
198.111	1425.02
198.578	1987.05
199.045	1593.89
199.511	2620.97
199.978	3010.22
200.445	2566.59
200.911	2856.32
201.378	3185.18
201.844	2903.35
202.31	4971.65
202.777	5111.01
203.243	2853.89
203.709	2708.55
204.176	3229.8
204.642	2689.45
205.108	2530.1
205.574	2092.49
206.04	1926.69
206.506	1809.8
206.972	1705.03
207.438	1653.22
207.903	1890.5
208.369	1654.23
208.835	1653.85
209.301	1740.1
209.766	1787.78
210.232	1790.89
210.697	2219.72
211.163	2743.06
211.628	4223.7
212.094	3572.6
212.559	4424.73
213.024	2796.93
213.49	3441.03
213.955	3389.56
214.42	3327.16
214.885	3097.7
215.35	2985.18
215.815	2878.42
216.28	3084.64
216.745	2542.34
217.21	2793.03
217.675	2642.73
218.14	3049.4
218.604	3514.21
219.069	4159.83
219.534	4474.6
219.998	5372.28
220.463	6674.39
220.927	8458.94
221.392	8120.36
221.856	8331.86
222.32	10700.31
222.785	13314.85
223.249	16933.72
223.713	19063.17
224.177	19180.94
224.642	24816.49
225.106	30695.63
225.57	33671.2
226.034	25077.69
226.497	38239.29
226.961	34600.19
227.425	40290.32
227.889	44872.56
228.353	44960.53
228.816	92937.1
229.28	88995.43
229.744	75226.02
230.207	45656.11
230.671	44943.64
231.134	74560.71
231.597	86030.64
232.061	86213.26
232.524	84271.64
232.987	58093.24
233.45	52279.74
233.914	46936.96
234.377	48127.17
234.84	44019.35
235.303	51979.7
235.766	58034.42
236.229	59967.2
236.691	37803.91
237.154	42449.26
237.617	31888.13
238.08	32639.07
238.542	38194.73
239.005	27272.66
239.468	27056.37
239.93	25470.21
240.393	23134.22
240.855	20271.86
241.317	20755.32
241.78	25248.08
242.242	26082.71
242.704	28116
243.166	24443.99
243.629	22162.19
244.091	25549.09
244.553	27973.78
245.015	30058.66
245.477	38874.69
245.939	57031.15
246.4	60465.9
246.862	58775.74
247.324	55380.15
247.786	62028.48
248.247	81443.66
248.709	84167.28
249.17	62872.62
249.632	59139.68
250.093	68511.77
250.555	59159.82
251.016	36051.25
251.477	34188.12
251.939	36864.44
252.4	38690.39
252.861	46022.54
253.322	42730.15
253.783	50896.23
254.244	66016.8
254.705	52147.68
255.166	46383.7
255.627	45628.11
256.088	64348.93
256.549	68308.39
257.009	58779.49
257.47	71309.66
257.931	58053.44
258.391	43565.59
258.852	44888.86
259.312	47094.25
259.773	58168.42
260.233	49110.77
260.694	41443.94
261.154	47016.12
261.614	37702.73
262.074	33748.1
262.534	35057.11
262.994	33018.2
263.455	43979.09
263.915	37064.87
264.374	34912
264.834	38099.44
265.294	42282.61
265.754	43802.56
266.214	41497.03
266.673	38929.5
267.133	49169.65
267.593	48810.52
268.052	59730.76
268.512	51960.15
268.971	62561.36
269.431	68583.33
269.89	61437.25
270.349	92104.04
270.809	102610.17
271.268	92173.57
271.727	206806.48
272.186	133824.45
272.645	100292.29
273.104	72391.04
273.563	104728.65
274.022	82416.22
274.481	70056.34
274.94	53920.54
275.399	40053.17
275.857	46628.01
276.316	63021.86
276.775	55997.34
277.233	55094.85
277.692	51530.8
278.15	58182.87
278.609	59767.07
279.067	55260.5
279.525	51245.07
279.984	66144.16
280.442	79393.19
280.9	78141.57
281.358	51362.11
281.816	47811.8
282.274	46771.45
282.732	48280.95
283.19	48473.84
283.648	41802.44
284.106	44474.21
284.564	45227.5
285.021	41880.57
285.479	31176.02
285.937	28363.06
286.394	24844.86
286.852	25567.36
287.309	26837.81
287.767	25873.77
288.224	24592.64
288.682	26989.81
289.139	29583.02
289.596	27051.84
290.053	28107.07
290.511	35453.63
290.968	42956.24
291.425	58324.97
291.882	48430.92
292.339	42122.88
292.796	41820.06
293.252	39377.82
293.709	31211.64
294.166	27987.63
294.623	30893.86
295.079	29607.4
295.536	29689.06
295.992	26920.02
296.449	26586.2
296.905	27612.74
297.362	26451.56
297.818	27781.11
298.274	28771.62
298.731	29314.84
299.187	28973.99
299.643	31082.14
300.099	37540.89
300.555	41150.64
301.011	34345.56
301.467	33005.47
301.923	38628.58
302.379	37687.96
302.835	37037.03
303.291	37077.36
303.746	42156.39
304.202	53175.55
304.658	53345.7
305.113	35869.65
305.569	35122.27
306.024	37434.51
306.479	35676.98
306.935	30011.66
307.39	32737.2
307.845	30174.3
308.301	30295.82
308.756	29487.36
309.211	28367.33
309.666	29013.29
310.121	35914.72
310.576	36419.25
311.031	36078.12
311.486	41319.57
311.94	41307.2
312.395	55157.24
312.85	103475.84
313.305	508394.74
313.759	2623955.48
314.214	189922.06
314.668	150591.42
315.123	126726.26
315.577	45380.41
316.032	40297.21
316.486	50380.15
316.94	39620.07
317.394	27546.83
317.849	21406.85
318.303	20275.12
318.757	19134.39
319.211	21120.02
319.665	18460.32
320.119	18646.64
320.572	26720.02
321.026	24921.86
321.48	20717.52
321.934	22602.84
322.387	22651.26
322.841	24420.58
323.295	21847.99
323.748	25149.54
324.202	25485.8
324.655	30552.57
325.108	42603.19
325.562	30061.71
326.015	35731.86
326.468	26983.54
326.921	30163.42
327.374	28083.39
327.827	29189.81
328.28	33052.8
328.733	22089.69
329.186	19411.59
329.639	18467.9
330.092	15551.55
330.545	14787.16
330.997	14903.4
331.45	16263.63
331.903	19018.18
332.355	32676.8
332.808	31742.47
333.26	26178.31
333.713	28428.81
334.165	28631.71
334.617	38250.4
335.069	30957.43
335.522	55925.05
335.974	61805
336.426	56427.56
336.878	39055.91
337.33	19795.59
337.782	19301.82
338.234	24106
338.686	28814.82
339.137	34101.59
339.589	32033.36
340.041	25064.53
340.493	21534.23
340.944	22030.89
341.396	23713.55
341.847	19939.37
342.299	23499.88
342.75	28676.85
343.201	25119.73
343.653	28901.64
344.104	35497.02
344.555	27990.46
345.006	43571
345.457	33348.5
345.908	26518.44
346.359	24913.75
346.81	20282.72
347.261	21375.27
347.712	21034.74
348.163	22546.34
348.613	22773.97
349.064	21243.03
349.515	18566
349.965	19028.77
350.416	22892.4
350.866	25109.95
351.317	28409.39
351.767	46988.61
352.217	59333.43
352.668	49225.46
353.118	45066.92
353.568	43451.76
354.018	34338.17
354.468	36146.51
354.918	25837.36
355.368	22578.23
355.818	31858.82
356.268	91515.82
356.718	381953.62
357.168	95015.45
357.617	47667.23
358.067	52926.46
358.517	49531.94
358.966	57979.24
359.416	64929.31
359.865	70277.21
360.315	83780.32
360.764	39083.47
361.213	21874.22
361.663	20755.45
362.112	25576.96
362.561	41269.35
363.01	31097.28
363.459	26163.03
363.908	28364.01
364.357	24090.13
364.806	40654.89
365.255	27910.82
365.703	25562.47
366.152	25612.87
366.601	20753.7
367.05	16827.45
367.498	15287.38
367.947	16001.72
368.395	16664.85
368.844	14731.34
369.292	17783.14
369.74	12304.2
370.189	18871.79
370.637	22135.5
371.085	19127.75
371.533	23317.22
371.981	22534.68
372.429	21504.46
372.877	22407.24
373.325	18794.96
373.773	19196.11
374.221	17124.58
374.669	21284.23
375.116	18434.24
375.564	18645.81
376.012	20879.97
376.459	17243.94
376.907	20670.69
377.354	25077.84
377.801	23439.35
378.249	26952.87
378.696	34518.72
379.143	41891.87
379.591	44758.75
380.038	75773.49
380.485	54729.71
380.932	59233.44
381.379	54252.3
381.826	39967.05
382.273	28411.3
382.72	24928.69
383.166	24391.22
383.613	15892.4
384.06	14365.11
384.506	16681.32
384.953	12288.39
385.4	12430.74
385.846	10921.11
386.292	10688.47
386.739	10498.95
387.185	10425.22
387.631	10438.79
388.078	10131.57
388.524	10845.1
388.97	10025.37
389.416	8366.31
389.862	8904.28
390.308	8439.63
390.754	8578.51
391.2	9325.38
391.645	9557.7
392.091	9121.35
392.537	8803.67
392.983	8827.83
393.428	8665.11
393.874	9281.61
394.319	9294.8
394.765	8803.94
395.21	9043.21
395.655	8464.84
396.101	7913.59
396.546	7136.58
396.991	7209.06
397.436	6699.11
397.881	6455.31
398.326	6112.84
398.771	5771.47
399.216	5044.3
399.661	4539.36
400.106	4509.61
400.551	4608.02
400.995	4123.67
401.44	4068.28
401.885	3816.01
402.329	3839.8
402.774	3675.36
403.218	3545.65
403.663	3410.76
404.107	3494.51
404.551	3505.91
404.995	3211.64
405.44	3088.96
405.884	3130.39
406.328	3024.56
406.772	3003.92
407.216	2735.13
407.66	2637.01
408.104	2499.35
408.547	2337.14
408.991	2256.48
409.435	2168.93
409.879	2133.2
410.322	2101.23
410.766	2021.77
411.209	1915.04
411.653	1834.14
412.096	1790.65
412.54	1791.51
412.983	1778.03
413.426	1773.4
413.869	1770.93
414.312	1733.06
414.756	1667.6
415.199	1585.08
415.642	1535.25
416.085	1532.62
416.527	1520.2
416.97	1540.94
417.413	1458.16
417.856	1440.58
418.298	1426.82
418.741	1411.92
419.184	1407.91
419.626	1464.01
420.069	1463.76
420.511	1470.55
420.953	1435.8
421.396	1421.52
421.838	1385.09
422.28	1412.57
422.722	1416.89
423.164	1434.68
423.606	1410.57
424.048	1409.04
424.49	1336.06
424.932	1325.1
425.374	1307.44
425.816	1331.21
426.258	1355.2
426.699	1369.78
427.141	1351.75
427.582	1373.57
428.024	1369.68
428.465	1359.58
428.907	1324.2
429.348	1308.79
429.789	1311.41
430.231	1282.22
430.672	1296.45
431.113	1264.48
431.554	1245.55
431.995	1212.46
432.436	1164.21
432.877	1135.14
433.318	1115.01
433.759	1108.39
434.2	1107.75
434.64	1093.39
435.081	1095.47
435.522	1038.72
435.962	1002.08
436.403	978.22
436.843	991.1
437.284	970.79
437.724	943.37
438.164	946.91
438.604	926.68
439.045	891.07
439.485	854.87
439.925	836.73
440.365	815.23
440.805	801.91
441.245	791.7
441.685	763.54
442.125	758.69
442.564	763.22
443.004	745.43
443.444	742.7
443.883	742.71
444.323	738.1
444.762	740.07
445.202	750.62
445.641	763.68
446.081	759.23
446.52	762.95
446.959	752.04
447.398	732.4
447.837	722.16
448.276	708.65
448.716	715.48
449.154	719.94
449.593	701.26
450.032	697.02
450.471	683.96
450.91	683.96
451.349	682.05
451.787	679.75
452.226	689.14
452.664	688.97
453.103	688.35
453.541	685.38
453.98	683.33
454.418	686.97
454.856	677.1
455.295	675.64
455.733	678.79
456.171	680.61
456.609	682.25
457.047	682.55
457.485	691.82
457.923	693.34
458.361	684.29
458.798	685.61
459.236	684.25
459.674	688.18
460.111	691.39
460.549	686.15
460.987	684.89
461.424	681.79
461.862	678.07
462.299	667.63
462.736	666.05
463.173	669.08
463.611	662.45
464.048	661.11
464.485	667.01
464.922	660.34
465.359	656.04
465.796	646.33
466.233	642.22
466.67	635.71
467.106	633.64
467.543	628.21
467.98	619.25
468.416	603.15
468.853	597.11
469.29	578.08
469.726	571.57
470.162	556.33
470.599	549.58
471.035	543.72
471.471	531.67
471.907	528.91
472.344	525.46
472.78	526.88
473.216	532.26
473.652	525.58
474.088	524.05
474.523	521.5
474.959	526.3
475.395	520.42
475.831	516.51
476.266	516.93
476.702	514.83
477.138	508.07
477.573	504.95
478.008	502.71
478.444	504.53
478.879	507.85
479.314	508.86
479.75	507.3
480.185	509.26
480.62	513.66
481.055	517.43
481.49	520.97
481.925	528.27
482.36	536.77
482.795	551.29
483.229	565.65
483.664	577.21
484.099	579.72
484.534	588.37
484.968	594.11
485.403	595.12
485.837	592.97
486.271	590.35
486.706	590.42
487.14	583.76
487.574	574.31
488.009	567.94
488.443	562.67
488.877	567.82
489.311	568.73
489.745	574.08
490.179	577.92
490.613	587.75
491.046	591.94
491.48	595.49
491.914	595.27
492.348	597.56
492.781	600.61
493.215	600.46
493.648	600.29
494.082	604.11
494.515	603.6
494.948	609.37
495.382	612.02
495.815	614.76
496.248	618.9
496.681	628.19
497.114	637.52
497.547	644.3
497.98	654.35
498.413	657.24
498.846	663.42
499.279	669.25
499.711	670.84
500.144	671.16
500.577	678.54
501.009	684.22
501.442	690.42
501.874	689.74
502.306	690.09
502.739	694.86
503.171	705.85
503.603	706.92
504.036	712.59
504.468	716.22
504.9	724.38
505.332	728.87
505.764	732.34
506.196	736.7
506.627	747.14
507.059	756.93
507.491	762.96
507.923	760.15
508.354	770.61
508.786	778.25
509.217	791.91
509.649	802.83
510.08	816.33
510.512	828.64
510.943	840.2
511.374	848.97
511.805	864.36
512.237	878.77
512.668	904.67
513.099	926.96
513.53	948.97
513.961	965.66
514.391	991.56
514.822	1019.29
515.253	1047.17
515.684	1067.59
516.114	1091.28
516.545	1108.68
516.975	1130.35
517.406	1145.31
517.836	1148.71
518.267	1154.63
518.697	1169.83
519.127	1173.87
519.558	1180.36
519.988	1185.98
520.418	1195.91
520.848	1210.9
521.278	1219.61
521.708	1227.15
522.138	1238.48
522.567	1263.78
522.997	1285.25
523.427	1298.94
523.857	1313.9
524.286	1323.93
524.716	1337.04
525.145	1353.61
525.575	1363.99
526.004	1376.5
526.433	1381.16
526.863	1382.83
527.292	1375.95
527.721	1381.35
528.15	1386.67
528.579	1387.92
529.008	1397.49
529.437	1416.27
529.866	1428.1
530.295	1442.76
530.724	1454.1
531.152	1477.01
531.581	1489.15
532.01	1505.17
532.438	1513.47
532.867	1526.85
533.295	1543.5
533.723	1549.37
534.152	1548.22
534.58	1548.18
535.008	1535.96
535.436	1538.84
535.865	1545.04
536.293	1558.19
536.721	1571.83
537.149	1593.6
537.576	1596.5
538.004	1607.01
538.432	1613.71
538.86	1614.04
539.287	1621.5
539.715	1632.55
540.143	1634.1
540.57	1631.81
540.998	1628.29
541.425	1609.55
541.852	1591.3
542.28	1589.06
542.707	1574.6
543.134	1561.98
543.561	1557.97
543.988	1551.41
544.415	1551.53
544.842	1546.98
545.269	1540.99
545.696	1542.06
546.123	1551.97
546.549	1543.86
546.976	1533.56
547.403	1533.3
547.829	1535.03
548.256	1535.04
548.682	1531.07
549.108	1523.74
549.535	1522.29
549.961	1522.82
550.387	1510.45
550.813	1505.16
551.24	1509.34
551.666	1508.03
552.092	1499.58
552.518	1493.03
552.943	1488.74
553.369	1493.95
553.795	1497.89
554.221	1498.23
554.646	1493.77
555.072	1502.89
555.498	1505.84
555.923	1511.93
556.349	1524.63
556.774	1530.39
557.199	1530.83
557.625	1533.22
558.05	1527.54
558.475	1535.84
558.9	1533.31
559.325	1525.5
559.75	1518.8
560.175	1511.59
560.6	1503.89
561.025	1499.79
561.449	1499.54
561.874	1502
562.299	1504.23
562.723	1508.36
563.148	1497.45
563.572	1499.75
563.997	1505.39
564.421	1507.26
564.846	1506.63
565.27	1509.23
565.694	1506.32
566.118	1514.35
566.542	1518.99
566.966	1512.98
567.39	1506.97
567.814	1496.72
568.238	1494.72
568.662	1498.25
569.086	1500.01
569.509	1504.27
569.933	1490.26
570.357	1482.91
570.78	1464.04
571.204	1451.95
571.627	1441.37
572.05	1439.38
572.474	1437.15
572.897	1425.58
573.32	1418.03
573.743	1408.09
574.166	1391.14
574.589	1390.24
575.012	1383.24
575.435	1380.87
575.858	1372
576.281	1361.14
576.704	1346.69
577.126	1336.75
577.549	1326.02
577.972	1316.8
578.394	1307.16
578.817	1300.95
579.239	1283.92
579.661	1270.8
580.084	1256.86
580.506	1245.41
580.928	1241.6
581.35	1231.65
581.772	1226.79
582.194	1214.89
582.616	1204.08
583.038	1191.22
583.46	1181.32
583.882	1176.95
584.303	1179.55
584.725	1175.01
585.147	1176.13
585.568	1182.55
585.99	1191.17
586.411	1195.19
586.833	1205.37
587.254	1205.33
587.675	1217.01
588.096	1226
588.518	1221.64
588.939	1207.17
589.36	1204.67
589.781	1195.57
590.202	1172.98
590.623	1165.21
591.043	1162.04
591.464	1152.97
591.885	1150.07
592.305	1143.17
592.726	1132.24
593.147	1133.98
593.567	1129.57
593.987	1124.35
594.408	1118.89
594.828	1117.18
595.248	1112.25
595.669	1098.8
596.089	1092.32
596.509	1086.43
596.929	1076.11
597.349	1075.91
597.769	1067.25
598.189	1062.09
598.608	1062.32
599.028	1064.22
599.448	1063.81
599.867	1053.88
600.287	1050.11
600.706	1046.77
601.126	1039.08
601.545	1038.69
601.965	1037.68
602.384	1033.12
602.803	1034.72
603.222	1030.91
603.641	1024.81
604.061	1022.36
604.48	1018.88
604.898	1023.53
605.317	1026.94
605.736	1028.31
606.155	1025.84
606.574	1018.05
606.992	1020.93
607.411	1018.25
607.829	1011.08
608.248	1008.89
608.666	1006.99
609.085	1006.63
609.503	999.83
609.921	995.01
610.339	996.14
610.758	994.92
611.176	991.39
611.594	985.79
612.012	982.08
612.43	984.69
612.847	988.57
613.265	988.73
613.683	991.14
614.101	992.41
614.518	988.76
614.936	981.29
615.353	969.95
615.771	967.78
616.188	966.92
616.606	964.87
617.023	959.66
617.44	949.78
617.857	943.63
618.274	937.41
618.691	933.05
619.108	925.65
619.525	920.98
619.942	925.89
620.359	927.33
620.776	923.81
621.192	920.39
621.609	918.69
622.026	922.91
622.442	928.58
622.859	930.97
623.275	926.25
623.691	930.9
624.108	939.32
624.524	949.32
624.94	949.72
625.356	956.85
625.772	966.56
626.188	975.1
626.604	975.76
627.02	972.28
627.436	970.83
627.852	976.24
628.268	985.71
628.683	978.64
629.099	972.79
629.514	969.43
629.93	972.92
630.345	975.72
630.761	972.77
631.176	975.52
631.591	970.12
632.007	965.3
632.422	962.14
632.837	952.56
633.252	950.31
633.667	941.8
634.082	933.91
634.497	923.03
634.911	907.46
635.326	903.53
635.741	890.12
636.155	882.46
636.57	881.77
636.984	880.42
637.399	880.12
637.813	878.06
638.228	876.25
638.642	878.61
639.056	869.58
639.47	869.46
639.884	863.18
640.298	859.01
640.712	857.5
641.126	849.37
641.54	841.43
641.954	838.05
642.368	829.99
642.781	825.52
643.195	812.52
643.609	813.94
644.022	809.93
644.436	806.6
644.849	797.86
645.262	788.83
645.676	789.61
646.089	787.51
646.502	777.17
646.915	773.95
647.328	761.91
647.741	761.06
648.154	751.94
648.567	750.86
648.98	742.42
649.393	742.44
649.805	739.51
650.218	734.08
650.631	723.89
651.043	719.44
651.456	714.79
651.868	715.37
652.28	727.02
652.693	736.57
653.105	741.06
653.517	747.31
653.929	748.08
654.341	753.08
654.753	745.27
655.165	749.92
655.577	748.89
655.989	746.45
656.401	741.3
656.813	717.62
657.224	703.84
657.636	683.01
658.047	671.7
658.459	658.98
658.87	655.62
659.282	649.52
659.693	636.84
660.104	628.05
660.515	619.83
660.926	619.31
661.338	618.75
661.749	616.12
662.159	612.53
662.57	610.82
662.981	608.99
663.392	605
663.803	608.61
664.213	608.74
664.624	607.75
665.035	612.3
665.445	605.33
665.855	602.8
666.266	599.86
666.676	600.13
667.086	595.88
667.497	598.64
667.907	595.12
668.317	590.74
668.727	589.5
669.137	591.56
669.547	590.67
669.956	593.46
670.366	595.41
670.776	597.43
671.186	601.88
671.595	605.47
672.005	608.69
672.414	609.82
672.824	608.63
673.233	613.13
673.642	616.39
674.052	620.63
674.461	623.25
674.87	627.89
675.279	626.61
675.688	628.66
676.097	630.99
676.506	629.5
676.915	640.93
677.323	644.25
677.732	643.39
678.141	643.31
678.549	635.48
678.958	635.02
679.366	634.62
679.775	638.53
680.183	647.04
680.592	650.86
681	653.68
681.408	648.07
681.816	653.68
682.224	660.51
682.632	666.76
683.04	688.56
683.448	706.09
683.856	728.64
684.264	754.86
684.671	776.87
685.079	805.02
685.487	835.48
685.894	878.94
686.302	912.76
686.709	937.73
687.116	969.79
687.524	994.94
687.931	1016.5
688.338	1031.39
688.745	1044.07
689.152	1059.32
689.559	1084.82
689.966	1111.81
690.373	1120.36
690.78	1146.32
691.187	1188.51
691.593	1221.09
692	1247.36
692.407	1290.37
692.813	1344.76
693.22	1387.74
693.626	1433.93
694.032	1470.46
694.439	1527.16
694.845	1574.23
695.251	1632.06
695.657	1685.34
696.063	1763.58
696.469	1825.31
696.875	1882.08
697.281	1918.59
697.687	1962.62
698.093	2000.67
698.498	2068.09
698.904	2123.31
699.31	2202.77
