Data from C_1_DIV_WI_4N_Splice17_11-48-00-446.txt Node
Date: Sat Mar 14 11:48:00 EDT 2020
User: sa697716
Spectrometer: FLMS03696
Trigger mode: 0
Integration Time (sec): 3.180400E-1
Scans to average: 20
Electric dark correction enabled: true
Nonlinearity correction enabled: true
Boxcar width: 5
XAxis mode: Wavelengths
Number of Pixels in Spectrum: 2048
>>>>>Begin Spectral Data<<<<<
187.83	-217170.38
188.298	1575.79
188.766	886.4
189.233	782.22
189.701	1086.33
190.169	1528.63
190.636	561.21
191.104	467.49
191.571	59.56
192.039	-71.94
192.506	-74.18
192.974	404
193.441	-940.81
193.908	-357.96
194.375	-60.89
194.842	-20.49
195.31	110.38
195.777	147.64
196.244	365.84
196.711	473.04
197.177	603.35
197.644	875.25
198.111	1536.55
198.578	2176.37
199.045	1739.72
199.511	2839.7
199.978	3328.3
200.445	2786.81
200.911	3064.95
201.378	3407.71
201.844	3085.15
202.31	5318.61
202.777	5571.08
203.243	3087.68
203.709	2986.66
204.176	3593.09
204.642	2966.1
205.108	2768.66
205.574	2263.9
206.04	2090.85
206.506	1966.1
206.972	1872.95
207.438	1794.5
207.903	2050.28
208.369	1798.61
208.835	1774.9
209.301	1861.28
209.766	1914.2
210.232	1910.52
210.697	2400.54
211.163	3000.45
211.628	4592.63
212.094	3884.47
212.559	4804.7
213.024	3016.02
213.49	3704.14
213.955	3638.33
214.42	3615.37
214.885	3384.9
215.35	3268.67
215.815	3128.57
216.28	3363.97
216.745	2795.85
217.21	3072.09
217.675	2914.89
218.14	3374.56
218.604	3895.46
219.069	4603.16
219.534	4936.45
219.998	5903.19
220.463	7328.75
220.927	9325.78
221.392	8933.06
221.856	9160.41
222.32	11764.88
222.785	14666.79
223.249	18631.95
223.713	20967.26
224.177	21060.97
224.642	27187.02
225.106	33639.25
225.57	36966.38
226.034	27486.04
226.497	41916.19
226.961	37904.92
227.425	44115.75
227.889	49129.63
228.353	49193.88
228.816	101750.52
229.28	97479.93
229.744	82343.49
230.207	49998.13
230.671	49174.22
231.134	81590.78
231.597	94148.77
232.061	94325.97
232.524	92183.96
232.987	63477.25
233.45	57094.36
233.914	51220.78
234.377	52589.34
234.84	48137.04
235.303	56792.82
235.766	63334.27
236.229	65420.37
236.691	41197.52
237.154	46272.15
237.617	34757.38
238.08	35566.31
238.542	41649.18
239.005	29728.88
239.468	29449.39
239.93	27730.43
240.393	25180.18
240.855	22096.05
241.317	22608.03
241.78	27500.97
242.242	28382.56
242.704	30597.79
243.166	26610.9
243.629	24096.72
244.091	27761.07
244.553	30391.04
245.015	32650.51
245.477	42222.78
245.939	61843.17
246.4	65568.16
246.862	63675.45
247.324	59996.05
247.786	67173.64
248.247	88097.13
248.709	91110.9
249.17	68073.33
249.632	64049.19
250.093	74124.16
250.555	63945.42
251.016	38978.55
251.477	36946.99
251.939	39841.19
252.4	41778.26
252.861	49601.2
253.322	46039.74
253.783	54745.36
254.244	70975.62
254.705	55993.64
255.166	49747.69
255.627	48985.57
256.088	69003.94
256.549	73249.58
257.009	63071.92
257.47	76513.78
257.931	62345.98
258.391	46726.37
258.852	48141.17
259.312	50484.87
259.773	62335.1
260.233	52637.24
260.694	44364.48
261.154	50354.48
261.614	40374.15
262.074	36101.56
262.534	37468.18
262.994	35266.67
263.455	47026.61
263.915	39607.25
264.374	37299.32
264.834	40729.87
265.294	45187.06
265.754	46771.69
266.214	44277.44
266.673	41490.16
267.133	52377.65
267.593	51969.42
268.052	63616.12
268.512	55291.17
268.971	66524.74
269.431	72877.59
269.89	65214.1
270.349	97659.04
270.809	108881.16
271.268	97779.59
271.727	219375.05
272.186	141917.46
272.645	106411.81
273.104	76740.64
273.563	110990.65
274.022	87357.93
274.481	74244.85
274.94	57138.6
275.399	42468.42
275.857	49414.68
276.316	66843.68
276.775	59398.14
277.233	58467.28
277.692	54614.23
278.15	61703.52
278.609	63407.39
279.067	58620.9
279.525	54361.74
279.984	70158.33
280.442	84157.71
280.9	82775.96
281.358	54332.13
281.816	50568.93
282.274	49430.48
282.732	51110.36
283.19	51333.53
283.648	44284.21
284.106	47155.18
284.564	47952.46
285.021	44419.73
285.479	33091.75
285.937	30120.17
286.394	26415.34
286.852	27179.04
287.309	28552.24
287.767	27499.34
288.224	26109.93
288.682	28601.52
289.139	31362.08
289.596	28657.2
290.053	29746.51
290.511	37506.39
290.968	45446.56
291.425	61585.11
291.882	51109.37
292.339	44422.86
292.796	44082.7
293.252	41546.4
293.709	32948.56
294.166	29501.56
294.623	32590.72
295.079	31262.15
295.536	31375.93
295.992	28423.71
296.449	28117.13
296.905	29221.67
297.362	27981.58
297.818	29412.87
298.274	30435.24
298.731	31035.57
299.187	30678.19
299.643	32900.64
300.099	39733.74
300.555	43532.15
301.011	36377.97
301.467	34956.75
301.923	40907.46
302.379	39921.81
302.835	39221.01
303.291	39258.95
303.746	44613.58
304.202	56314.16
304.658	56496.01
305.113	37984.47
305.569	37185.13
306.024	39610.79
306.479	37730.58
306.935	31742.23
307.39	34654.13
307.845	31925.26
308.301	32035.33
308.756	31214.85
309.211	30037.86
309.666	30749.53
310.121	38086.94
310.576	38640.9
311.031	38279.1
311.486	43786.49
311.94	43769.48
312.395	58448.49
312.85	109784.51
313.305	540206.01
313.759	2785149.07
314.214	201516.12
314.668	159504.62
315.123	133995.79
315.577	47930.86
316.032	42651.35
316.486	53349.58
316.94	41974.5
317.394	29187.36
317.849	22660.71
318.303	21435.38
318.757	20222.17
319.211	22329.21
319.665	19515.12
320.119	19744.91
320.572	28338.28
321.026	26385.51
321.48	21964
321.934	23951.22
322.387	24000.76
322.841	25886.81
323.295	23159.4
323.748	26685.08
324.202	27029.34
324.655	32419.44
325.108	45151.51
325.562	31817.72
326.015	37849
326.468	28543.18
326.921	31879.88
327.374	29654.88
327.827	30839.85
328.28	34934.6
328.733	23355.45
329.186	20527.23
329.639	19542.78
330.092	16462.28
330.545	15659.79
330.997	15753.24
331.45	17186.25
331.903	20098.06
332.355	34575.99
332.808	33566.34
333.26	27682.58
333.713	30043.96
334.165	30285.18
334.617	40426.82
335.069	32694.67
335.522	59134.96
335.974	65442.83
336.426	59800.17
336.878	41491.62
337.33	21005.93
337.782	20522.96
338.234	25685.76
338.686	30696.08
339.137	36305.46
339.589	34198.73
340.041	26763.39
340.493	22974.78
340.944	23504.19
341.396	25303.7
341.847	21223.44
342.299	24988.56
342.75	30458.22
343.201	26613.2
343.653	30617.47
344.104	37582.75
344.555	29546.59
345.006	46036.33
345.457	35172.23
345.908	27962.89
346.359	26261.85
346.81	21395.38
347.261	22574.88
347.712	22191.26
348.163	23775.83
348.613	24003.23
349.064	22404.45
349.515	19606.4
349.965	20059.06
350.416	24151.41
350.866	26492.13
351.317	30000.17
351.767	49632.12
352.217	62639.32
352.668	51965.99
353.118	47573.33
353.568	45893.14
354.018	36228.56
354.468	38156
354.918	27382.5
355.368	23935.42
355.818	33796.3
356.268	97283.83
356.718	406732.78
357.168	101213.15
357.617	50841.36
358.067	56658.44
358.517	53083.18
358.966	62259.49
359.416	69783.41
359.865	75313.72
360.315	89736.47
360.764	41856.95
361.213	23392.62
361.663	22174.09
362.112	27345.17
362.561	44095.03
363.01	33176.42
363.459	27913.08
363.908	30171.28
364.357	25548.6
364.806	43231.39
365.255	29724.71
365.703	27205.52
366.152	27239.58
366.601	22079.91
367.05	17919.15
367.498	16306.12
367.947	17046.24
368.395	17732.94
368.844	15712.87
369.292	19018.93
369.74	13136.42
370.189	20141.86
370.637	23596.12
371.085	20379.62
371.533	24856.57
371.981	23932.05
372.429	22780.68
372.877	23716.6
373.325	19883.54
373.773	20333
374.221	18099.8
374.669	22466.41
375.116	19475.64
375.564	19700.96
376.012	22065.97
376.459	18212.84
376.907	21854.77
377.354	26528.83
377.801	24782.11
378.249	28504.16
378.696	36488.41
379.143	44410.51
379.591	47525.2
380.038	80502.01
380.485	58253.32
380.932	63050.78
381.379	57736.3
381.826	42634.83
382.273	30374.8
382.72	26663.67
383.166	26059.88
383.613	16958.62
384.06	15295.83
384.506	17723.06
384.953	13059.84
385.4	13208.55
385.846	11606.9
386.292	11365.18
386.739	11129.32
387.185	11037.62
387.631	11059.2
388.078	10737.71
388.524	11498.18
388.97	10637.15
389.416	8877.8
389.862	9443.49
390.308	8955.92
390.754	9099.67
391.2	9882.17
391.645	10131.45
392.091	9661.17
392.537	9335.33
392.983	9363.85
393.428	9180.37
393.874	9835.58
394.319	9844.02
394.765	9318.04
395.21	9557.75
395.655	8943.24
396.101	8364.42
396.546	7535.32
396.991	7596.46
397.436	7045.36
397.881	6791.22
398.326	6439.62
398.771	6082.54
399.216	5327.19
399.661	4785.68
400.106	4756.07
400.551	4858.33
400.995	4344.02
401.44	4284.6
401.885	4021.98
402.329	4052.93
402.774	3879.63
403.218	3740.44
403.663	3591.27
404.107	3673.31
404.551	3695.06
404.995	3383.39
405.44	3258.03
405.884	3297.54
406.328	3189.23
406.772	3173.38
407.216	2878.8
407.66	2780.27
408.104	2639.59
408.547	2467.23
408.991	2384.38
409.435	2290.13
409.879	2251.44
410.322	2214.74
410.766	2134.62
411.209	2026.12
411.653	1941.07
412.096	1898.37
412.54	1893.48
412.983	1873.44
413.426	1875.38
413.869	1869.52
414.312	1830.39
414.756	1759.67
415.199	1675.36
415.642	1625.41
416.085	1623.48
416.527	1609.69
416.97	1632.26
417.413	1545.22
417.856	1527.59
418.298	1510.41
418.741	1500.23
419.184	1495.94
419.626	1555.89
420.069	1554.98
420.511	1558.21
420.953	1521.14
421.396	1502.58
421.838	1464.5
422.28	1494.05
422.722	1499.15
423.164	1516.14
423.606	1489.66
424.048	1483.96
424.49	1409.25
424.932	1399.69
425.374	1379.01
425.816	1404.16
426.258	1431.41
426.699	1445.42
427.141	1422.29
427.582	1442.99
428.024	1434.12
428.465	1425.17
428.907	1387.53
429.348	1371.21
429.789	1369.82
430.231	1341.25
430.672	1353.77
431.113	1320.36
431.554	1301.25
431.995	1271.57
432.436	1224.38
432.877	1197.71
433.318	1175.32
433.759	1170.02
434.2	1170
434.64	1156.99
435.081	1159.6
435.522	1100.5
435.962	1062.35
436.403	1038.73
436.843	1052.61
437.284	1031.32
437.724	1005
438.164	1009.7
438.604	985.98
439.045	947.69
439.485	907.28
439.925	888.41
440.365	867.62
440.805	855.31
441.245	843.83
441.685	812.36
442.125	806.33
442.564	809.89
443.004	788.37
443.444	787.55
443.883	788.59
444.323	783.35
444.762	784.67
445.202	793.07
445.641	804.51
446.081	800.12
446.52	805.39
446.959	796.15
447.398	775.04
447.837	766.85
448.276	751.23
448.716	757.83
449.154	762.87
449.593	742.61
450.032	738.36
450.471	725.18
450.91	724.49
451.349	721.68
451.787	716.82
452.226	726.95
452.664	725.31
453.103	726.59
453.541	723.34
453.98	722.08
454.418	727.11
454.856	716.47
455.295	713.67
455.733	718.68
456.171	722.48
456.609	724.77
457.047	724.9
457.485	734.53
457.923	735.66
458.361	725.97
458.798	727.93
459.236	727.66
459.674	731.43
460.111	735.81
460.549	728.88
460.987	726.33
461.424	723.26
461.862	720.61
462.299	710.81
462.736	708.96
463.173	712.4
463.611	704.73
464.048	702.42
464.485	708.9
464.922	703.07
465.359	698.49
465.796	687.27
466.233	682.17
466.67	675.15
467.106	672.66
467.543	667.08
467.98	656.98
468.416	640.42
468.853	634.73
469.29	616.07
469.726	608.44
470.162	592.8
470.599	586.84
471.035	581.34
471.471	566.64
471.907	562.93
472.344	559.02
472.78	560.46
473.216	565.63
473.652	557.98
474.088	554.49
474.523	551.08
474.959	555.32
475.395	548.22
475.831	544
476.266	546.25
476.702	543.42
477.138	536.04
477.573	533.3
478.008	530.09
478.444	530.8
478.879	535.47
479.314	537.89
479.75	537.23
480.185	539.77
480.62	542.82
481.055	544.31
481.49	547.74
481.925	555.93
482.36	565.57
482.795	580.52
483.229	596.12
483.664	607.37
484.099	608.52
484.534	616.71
484.968	621.65
485.403	623.86
485.837	622.9
486.271	621.28
486.706	620.48
487.14	612.44
487.574	603.02
488.009	596.09
488.443	589.99
488.877	595.35
489.311	595.9
489.745	601.9
490.179	606.25
490.613	616.26
491.046	619.98
491.48	623.56
491.914	622.57
492.348	625.89
492.781	628.58
493.215	628.86
493.648	628.42
494.082	631.8
494.515	629.85
494.948	634.29
495.382	636.56
495.815	638.66
496.248	640.94
496.681	650.95
497.114	658.61
497.547	665.82
497.98	674.91
498.413	678.41
498.846	684.75
499.279	690.55
499.711	692.52
500.144	692.62
500.577	699.78
501.009	707.23
501.442	713.16
501.874	712.41
502.306	711.47
502.739	716.46
503.171	726.48
503.603	727.35
504.036	733.48
504.468	737.01
504.9	744.73
505.332	747.65
505.764	750.02
506.196	753.61
506.627	763.6
507.059	772.8
507.491	777.95
507.923	774.77
508.354	785.48
508.786	792.46
509.217	805.68
509.649	815.81
510.08	831.16
510.512	843.55
510.943	856.28
511.374	865.29
511.805	881.57
512.237	897.22
512.668	923.67
513.099	946.26
513.53	969.12
513.961	985.55
514.391	1011.89
514.822	1038.98
515.253	1069.02
515.684	1089.37
516.114	1113.64
516.545	1132.24
516.975	1154.11
517.406	1169.37
517.836	1172.15
518.267	1178.46
518.697	1195.11
519.127	1199.88
519.558	1207.97
519.988	1211.46
520.418	1221.79
520.848	1237.18
521.278	1246
521.708	1252.98
522.138	1265.67
522.567	1293.41
522.997	1317.65
523.427	1331.58
523.857	1348.52
524.286	1357.99
524.716	1372.7
525.145	1390
525.575	1402.17
526.004	1415.95
526.433	1422.04
526.863	1423.61
527.292	1416.31
527.721	1421.05
528.15	1427.74
528.579	1429.41
529.008	1440.41
529.437	1461.28
529.866	1474.13
530.295	1489.12
530.724	1501.15
531.152	1525.37
531.581	1538.35
532.01	1554.29
532.438	1562.53
532.867	1575.83
533.295	1592.5
533.723	1598.2
534.152	1597.26
534.58	1598.22
535.008	1585.82
535.436	1588.71
535.865	1595.49
536.293	1609.46
536.721	1624.48
537.149	1647.51
537.576	1650.58
538.004	1662.5
538.432	1669.67
538.86	1668.17
539.287	1674.54
539.715	1687.02
540.143	1689.4
540.57	1688.07
540.998	1685
541.425	1665.66
541.852	1647.77
542.28	1647.23
542.707	1632.15
543.134	1620.37
543.561	1618.04
543.988	1612.39
544.415	1611.83
544.842	1606.12
545.269	1599.01
545.696	1600.12
546.123	1609.83
546.549	1599.12
546.976	1587.61
547.403	1587.51
547.829	1589.15
548.256	1590.14
548.682	1585.22
549.108	1577.73
549.535	1577.3
549.961	1577.85
550.387	1565.26
550.813	1561.01
551.24	1566.5
551.666	1565.34
552.092	1556.13
552.518	1549.63
552.943	1543.28
553.369	1548.84
553.795	1552.66
554.221	1553.64
554.646	1550.58
555.072	1558.67
555.498	1561.44
555.923	1568.36
556.349	1580.69
556.774	1586.73
557.199	1585.87
557.625	1589.33
558.05	1581.85
558.475	1589.23
558.9	1585.55
559.325	1576.7
559.75	1569.72
560.175	1561.6
560.6	1553.84
561.025	1549.97
561.449	1548.43
561.874	1551.34
562.299	1554.05
562.723	1559.77
563.148	1549.67
563.572	1551.42
563.997	1558.28
564.421	1560.8
564.846	1559.44
565.27	1560.36
565.694	1556.32
566.118	1564.93
566.542	1569.02
566.966	1560.49
567.39	1554.37
567.814	1543.13
568.238	1539.85
568.662	1541.72
569.086	1541.77
569.509	1546.28
569.933	1532.03
570.357	1524.2
570.78	1504.39
571.204	1491.55
571.627	1481.7
572.05	1477.48
572.474	1475.54
572.897	1463.55
573.32	1455.71
573.743	1446.19
574.166	1428.2
574.589	1426.79
575.012	1418.05
575.435	1415.2
575.858	1405.96
576.281	1394.64
576.704	1380.4
577.126	1368.37
577.549	1358.74
577.972	1348.4
578.394	1337.74
578.817	1331.64
579.239	1314.44
579.661	1303.23
580.084	1289.57
580.506	1277.99
580.928	1272.76
581.35	1262.89
581.772	1258.08
582.194	1245.08
582.616	1233.65
583.038	1220.95
583.46	1211.05
583.882	1207.56
584.303	1208.92
584.725	1203.34
585.147	1204.04
585.568	1210.61
585.99	1219.34
586.411	1223.25
586.833	1234.75
587.254	1234.03
587.675	1244.65
588.096	1253.23
588.518	1246.77
588.939	1232.43
589.36	1230.76
589.781	1220.5
590.202	1198.07
590.623	1189.12
591.043	1186.33
591.464	1175.2
591.885	1171.43
592.305	1165.78
592.726	1154.12
593.147	1155.3
593.567	1151.39
593.987	1144.88
594.408	1140.96
594.828	1139.96
595.248	1135.03
595.669	1120.61
596.089	1114.02
596.509	1109.46
596.929	1098.76
597.349	1098.6
597.769	1091.33
598.189	1085.24
598.608	1084.85
599.028	1085.44
599.448	1083.65
599.867	1073.01
600.287	1068.73
600.706	1065.82
601.126	1057.83
601.545	1056.12
601.965	1054.42
602.384	1048.43
602.803	1050.22
603.222	1046.07
603.641	1040.69
604.061	1038.61
604.48	1035.66
604.898	1041.14
605.317	1043.69
605.736	1044.58
606.155	1042.62
606.574	1035.32
606.992	1039.21
607.411	1034.69
607.829	1028.18
608.248	1024.78
608.666	1021.79
609.085	1021.37
609.503	1014.86
609.921	1010.03
610.339	1010.73
610.758	1009.35
611.176	1005.53
611.594	998.96
612.012	996.9
612.43	999.8
612.847	1005.31
613.265	1006.34
613.683	1009.72
614.101	1011.25
614.518	1007.75
614.936	999.7
615.353	988.47
615.771	986.16
616.188	985.48
616.606	982.31
617.023	976.47
617.44	964.75
617.857	959.31
618.274	952.04
618.691	946.06
619.108	938.84
619.525	933.89
619.942	938.82
620.359	940.51
620.776	936.47
621.192	932.95
621.609	930.89
622.026	935.98
622.442	938.96
622.859	941.16
623.275	935.53
623.691	939.75
624.108	949.2
624.524	959.41
624.94	959.56
625.356	967.47
625.772	976.86
626.188	984.71
626.604	986.01
627.02	983.56
627.436	982.61
627.852	988.01
628.268	996.42
628.683	989.01
629.099	982.41
629.514	978.8
629.93	980.53
630.345	983.22
630.761	980.31
631.176	981.86
631.591	977.21
632.007	972.03
632.422	969.97
632.837	960.52
633.252	957.97
633.667	950.04
634.082	942.09
634.497	932.42
634.911	917.81
635.326	913.79
635.741	900.14
636.155	891.59
636.57	891.17
636.984	890.14
637.399	890.6
637.813	889.31
638.228	887.71
638.642	890.29
639.056	881.43
639.47	880.11
639.884	874.93
640.298	870.04
640.712	869.35
641.126	859.68
641.54	853.11
641.954	848.31
642.368	838.85
642.781	832.41
643.195	820.03
643.609	820.49
644.022	816.42
644.436	812.78
644.849	804.19
645.262	794.5
645.676	795.57
646.089	791.58
646.502	783.04
646.915	780.03
647.328	767.79
647.741	767.06
648.154	758.75
648.567	757.66
648.98	749.67
649.393	750.28
649.805	749.22
650.218	743.98
650.631	733.4
651.043	729.43
651.456	725.68
651.868	728.06
652.28	740.09
652.693	749.35
653.105	753.89
653.517	760.52
653.929	761.53
654.341	766.1
654.753	758.6
655.165	764.25
655.577	763.08
655.989	760.95
656.401	755.59
656.813	730.34
657.224	717.96
657.636	699.22
658.047	687.6
658.459	674.38
658.87	669.12
659.282	661.72
659.693	648.43
660.104	639.02
660.515	629.99
660.926	628.74
661.338	628.23
661.749	624.23
662.159	618.9
662.57	617.13
662.981	616.85
663.392	612.23
663.803	618.21
664.213	617.58
664.624	615.21
665.035	620.68
665.445	613.73
665.855	609.33
666.266	605.5
666.676	606.01
667.086	600.65
667.497	601.48
667.907	599.17
668.317	592.15
668.727	592
669.137	595.65
669.547	594.68
669.956	597.12
670.366	601.16
670.776	603.97
671.186	608.06
671.595	611.76
672.005	614.87
672.414	615.73
672.824	616.56
673.233	619.9
673.642	622.02
674.052	624.84
674.461	628.21
674.87	631.94
675.279	630.54
675.688	632.13
676.097	635.24
676.506	633.73
676.915	646.04
677.323	647.78
677.732	647.09
678.141	646.49
678.549	639.41
678.958	638.44
679.366	637.93
679.775	641.77
680.183	650.48
680.592	653.27
681	657.73
681.408	651.47
681.816	657.78
682.224	663.16
682.632	670.52
683.04	691.71
683.448	709.49
683.856	731.25
684.264	757.13
684.671	779.48
685.079	807.27
685.487	836.13
685.894	879.72
686.302	912.02
686.709	939.1
687.116	971.5
687.524	995.45
687.931	1013.83
688.338	1029.35
688.745	1041.49
689.152	1057.6
689.559	1082.35
689.966	1107.75
690.373	1116.73
690.78	1142.13
691.187	1183.98
691.593	1213.84
692	1242.24
692.407	1287.37
692.813	1343.94
693.22	1388.96
693.626	1433.55
694.032	1472.38
694.439	1532.96
694.845	1581.7
695.251	1644.43
695.657	1701.03
696.063	1784.29
696.469	1849.23
696.875	1911.25
697.281	1949.95
697.687	1996.52
698.093	2040.94
698.498	2113.53
698.904	2172.85
