Data from C_1_DEC_CT_2N_Splice17_11-46-14-097.txt Node
Date: Sat Mar 14 11:46:14 EDT 2020
User: sa697716
Spectrometer: FLMS03696
Trigger mode: 0
Integration Time (sec): 3.180400E-1
Scans to average: 20
Electric dark correction enabled: true
Nonlinearity correction enabled: true
Boxcar width: 5
XAxis mode: Wavelengths
Number of Pixels in Spectrum: 2048
>>>>>Begin Spectral Data<<<<<
187.83	-168911.4
188.298	1390.59
188.766	759.61
189.233	669.48
189.701	1033
190.169	1358.53
190.636	508.41
191.104	469.82
191.571	75.13
192.039	-13.87
192.506	-16.33
192.974	454.02
193.441	-496.95
193.908	-69.48
194.375	-22.62
194.842	78.23
195.31	94.29
195.777	145.84
196.244	269.15
196.711	147.15
197.177	142.58
197.644	113.12
198.111	205.29
198.578	216.72
199.045	156.23
199.511	209.01
199.978	165.86
200.445	168.24
200.911	142.79
201.378	101.65
201.844	118.84
202.31	139.43
202.777	177.67
203.243	88.45
203.709	102.85
204.176	94.05
204.642	103.07
205.108	126.62
205.574	89.43
206.04	52.35
206.506	47.69
206.972	37.36
207.438	48
207.903	44.51
208.369	50.63
208.835	57
209.301	71.28
209.766	55.13
210.232	49.33
210.697	39.01
211.163	36.11
211.628	6.08
212.094	14.99
212.559	86.27
213.024	73.94
213.49	113.19
213.955	88
214.42	40.84
214.885	38.24
215.35	39.25
215.815	135.22
216.28	164.37
216.745	150.67
217.21	190.85
217.675	136.71
218.14	146.22
218.604	128.27
219.069	143.98
219.534	177.61
219.998	174.93
220.463	181.72
220.927	104.15
221.392	89.77
221.856	87.55
222.32	26.65
222.785	38
223.249	7.95
223.713	-3.67
224.177	-1.87
224.642	-70.41
225.106	-89.36
225.57	-101.29
226.034	0.33
226.497	-4.87
226.961	24.65
227.425	116.04
227.889	92.1
228.353	93.29
228.816	171.82
229.28	169.14
229.744	142.76
230.207	143.43
230.671	158.35
231.134	112.51
231.597	203.86
232.061	100.46
232.524	-41.56
232.987	-6.43
233.45	28.09
233.914	11.19
234.377	-25.82
234.84	-19.69
235.303	-48.24
235.766	-69.88
236.229	-85.71
236.691	-86.3
237.154	-104.68
237.617	-24.1
238.08	-43.2
238.542	-69.54
239.005	-28.02
239.468	-9.81
239.93	-7.84
240.393	-3.61
240.855	1.38
241.317	-12
241.78	-35.33
242.242	-8.74
242.704	24.12
243.166	41.16
243.629	75.85
244.091	86.39
244.553	80.91
245.015	117.05
245.477	136.52
245.939	156.1
246.4	196.47
246.862	157.02
247.324	113.83
247.786	21.43
248.247	-40.91
248.709	-195.56
249.17	-145.06
249.632	-60.01
250.093	-21.65
250.555	-5.67
251.016	44.83
251.477	56
251.939	100.22
252.4	101.36
252.861	111.28
253.322	119.81
253.783	138.15
254.244	143.57
254.705	81.34
255.166	1.01
255.627	-7.41
256.088	39.22
256.549	43.04
257.009	9.25
257.47	3.1
257.931	-23.22
258.391	3.37
258.852	-2.05
259.312	1.45
259.773	-8.96
260.233	60.82
260.694	85.88
261.154	44.13
261.614	77.65
262.074	66.53
262.534	77.12
262.994	87.6
263.455	88.11
263.915	99.94
264.374	102.95
264.834	106.69
265.294	83.84
265.754	89.27
266.214	95.5
266.673	84.54
267.133	92.67
267.593	80.04
268.052	113.55
268.512	86.36
268.971	156.84
269.431	172.76
269.89	154.44
270.349	219.18
270.809	228.17
271.268	192.89
271.727	192.94
272.186	156.39
272.645	94.11
273.104	35.07
273.563	81.57
274.022	-63.85
274.481	-33.29
274.94	-16.14
275.399	-26.21
275.857	-50.84
276.316	-90.81
276.775	-62.02
277.233	-50.26
277.692	0.6
278.15	37.79
278.609	73.66
279.067	92
279.525	102.53
279.984	115.33
280.442	173.86
280.9	248.53
281.358	171.95
281.816	166.21
282.274	162.27
282.732	126.94
283.19	88.13
283.648	64.09
284.106	61.67
284.564	39.2
285.021	54.66
285.479	22.45
285.937	-16.73
286.394	14.55
286.852	8.59
287.309	1.46
287.767	34.77
288.224	57.72
288.682	53.32
289.139	77.74
289.596	77.71
290.053	62.55
290.511	76.08
290.968	96.5
291.425	73.39
291.882	101.17
292.339	106.95
292.796	71.96
293.252	53.55
293.709	73.79
294.166	68.77
294.623	65.35
295.079	60.66
295.536	86.2
295.992	88
296.449	87.02
296.905	115.06
297.362	133.94
297.818	127.2
298.274	161.55
298.731	144.05
299.187	114.99
299.643	123.04
300.099	160.99
300.555	157.29
301.011	133.86
301.467	195.72
301.923	155.81
302.379	140.75
302.835	158.34
303.291	122.76
303.746	128.73
304.202	185.88
304.658	165.67
305.113	120.42
305.569	109.73
306.024	79.8
306.479	-5.8
306.935	27.66
307.39	4.74
307.845	3
308.301	29.83
308.756	23.15
309.211	21.05
309.666	26.97
310.121	50.72
310.576	50.53
311.031	70.71
311.486	65.65
311.94	38.75
312.395	18.39
312.85	-78.63
313.305	-1449.66
313.759	-1809.46
314.214	-13.21
314.668	109.56
315.123	241.51
315.577	138.35
316.032	139.41
316.486	176.72
316.94	187.22
317.394	170.11
317.849	151.86
318.303	134.82
318.757	125.77
319.211	135.62
319.665	97.25
320.119	83.71
320.572	94.96
321.026	109.38
321.48	83.03
321.934	58.74
322.387	34.75
322.841	63.16
323.295	125.98
323.748	84.17
324.202	90.06
324.655	130.76
325.108	225.06
325.562	173.23
326.015	164.88
326.468	148.78
326.921	168.41
327.374	190.08
327.827	193.15
328.28	202.03
328.733	163.2
329.186	144.69
329.639	143.72
330.092	95.33
330.545	97.92
330.997	115.71
331.45	152.58
331.903	189.26
332.355	267.4
332.808	231.61
333.26	160.44
333.713	182.2
334.165	171.17
334.617	189.59
335.069	81.01
335.522	37.66
335.974	-36.17
336.426	-136.89
336.878	-166.06
337.33	-52.02
337.782	-52.76
338.234	-38.37
338.686	-74.66
339.137	-113.76
339.589	-107.52
340.041	-25.36
340.493	-6.53
340.944	-4.46
341.396	-4.05
341.847	32.06
342.299	62.61
342.75	102.71
343.201	47.49
343.653	33.81
344.104	31.73
344.555	33.9
345.006	-12.17
345.457	126.2
345.908	87.72
346.359	112.26
346.81	90.16
347.261	48.77
347.712	34.33
348.163	7.55
348.613	95.75
349.064	105.08
349.515	106.7
349.965	127.58
350.416	87.5
350.866	83.32
351.317	75.66
351.767	134.01
352.217	200.91
352.668	205.34
353.118	233.86
353.568	87.32
354.018	115.76
354.468	102.45
354.918	67.97
355.368	52.41
355.818	100.15
356.268	121.45
356.718	1010.41
357.168	364.33
357.617	131.39
358.067	72.26
358.517	59.36
358.966	102.52
359.416	190.86
359.865	260.03
360.315	231.73
360.764	165.78
361.213	113.51
361.663	40.54
362.112	-3.23
362.561	-29.37
363.01	21.2
363.459	14.7
363.908	-68.19
364.357	-11.4
364.806	-72.76
365.255	-34.21
365.703	-49.54
366.152	-44.59
366.601	23.24
367.05	49.85
367.498	63.74
367.947	43
368.395	47
368.844	76.37
369.292	0.57
369.74	19.37
370.189	10.37
370.637	24.06
371.085	14.31
371.533	-34.05
371.981	-66.35
372.429	-32.56
372.877	-23.67
373.325	-13.62
373.773	-52.86
374.221	-23.27
374.669	-62.78
375.116	-44.63
375.564	-79.56
376.012	-104.34
376.459	-85.16
376.907	-106.24
377.354	-165.96
377.801	-139.98
378.249	-148.34
378.696	-156.84
379.143	-175.87
379.591	-211.84
380.038	-367.56
380.485	-157.18
380.932	-175.75
381.379	31.69
381.826	97.79
382.273	79.57
382.72	53.39
383.166	71.46
383.613	46.42
384.06	28.31
384.506	59.17
384.953	50.31
385.4	28.57
385.846	27.73
386.292	-11.31
386.739	-31.8
387.185	-52.36
387.631	-44.64
388.078	-22.23
388.524	-30.81
388.97	-16.11
389.416	-14.44
389.862	-9.44
390.308	-3.2
390.754	3.58
391.2	6.41
391.645	0.13
392.091	45.96
392.537	53.55
392.983	28.06
393.428	62.91
393.874	51.93
394.319	72.3
394.765	80.08
395.21	61.92
395.655	61.4
396.101	61.82
396.546	69.82
396.991	43.6
397.436	36.6
397.881	34.32
398.326	11
398.771	25.14
399.216	13.49
399.661	0.66
400.106	13.82
400.551	17.34
400.995	16.5
401.44	17.24
401.885	18
402.329	19.74
402.774	19.97
403.218	31.66
403.663	26.72
404.107	30.06
404.551	35.29
404.995	31.72
405.44	25.44
405.884	21.78
406.328	13.28
406.772	13.47
407.216	12.2
407.66	9.49
408.104	-0.43
408.547	-2.94
408.991	-4.79
409.435	-6.84
409.879	-4.28
410.322	-4.06
410.766	-1.26
411.209	3.52
411.653	3.51
412.096	7.97
412.54	8.51
412.983	10.01
413.426	16.08
413.869	14.58
414.312	19.92
414.756	16.12
415.199	15.93
415.642	18.38
416.085	17.56
416.527	15.47
416.97	11.09
417.413	11.15
417.856	8.62
418.298	6.15
418.741	5.11
419.184	-0.52
419.626	-4.39
420.069	-4.24
420.511	-3.09
420.953	1.3
421.396	2.49
421.838	-0.7
422.28	-0.22
422.722	1.4
423.164	-2.16
423.606	-0.34
424.048	0.07
424.49	3.04
424.932	2.3
425.374	-0.98
425.816	-5.33
426.258	-7.34
426.699	-3.96
427.141	-1.67
427.582	-4.38
428.024	-3.41
428.465	-7.32
428.907	-8.94
429.348	-9.47
429.789	-7.23
430.231	-3.67
430.672	-2.58
431.113	-1.04
431.554	-0.69
431.995	-2.84
432.436	3.11
432.877	4.5
433.318	8.93
433.759	9.71
434.2	9.96
434.64	8.68
435.081	6.94
435.522	7.31
435.962	5.44
436.403	6.94
436.843	5.85
437.284	3.21
437.724	0.47
438.164	-3.1
438.604	-2.72
439.045	-0.88
439.485	0.02
439.925	-0.33
440.365	-1.71
440.805	-1.4
441.245	-0.33
441.685	0.47
442.125	-1.99
442.564	-1.8
443.004	-0.48
443.444	-0.02
443.883	0.34
444.323	-0.02
444.762	-2.54
445.202	-3.04
445.641	-0.55
446.081	-3.84
446.52	-4.17
446.959	-0.87
447.398	1.21
447.837	1.78
448.276	0.63
448.716	1.4
449.154	-1.97
449.593	0.28
450.032	0.79
450.471	-1.69
450.91	-2.13
451.349	-0.64
451.787	-3.57
452.226	-5.04
452.664	-5.45
453.103	-4.66
453.541	-6.36
453.98	-1.98
454.418	-1.56
454.856	-0.08
455.295	0.73
455.733	1.81
456.171	-0.03
456.609	2.73
457.047	3.84
457.485	5.46
457.923	6.13
458.361	5.44
458.798	2.5
459.236	1.15
459.674	-0.26
460.111	-0.8
460.549	-0.94
460.987	-0.84
461.424	-1.9
461.862	-2.76
462.299	-2.62
462.736	-1.53
463.173	-1.05
463.611	2.8
464.048	3.65
464.485	3.97
464.922	3.2
465.359	2.73
465.796	12.03
466.233	13.53
466.67	16.8
467.106	17.39
467.543	15.59
467.98	14.92
468.416	12.56
468.853	12.4
469.29	12.29
469.726	13.47
470.162	13.12
470.599	4.75
471.035	2.93
471.471	1.64
471.907	-0.67
472.344	-1
472.78	-0.58
473.216	-1.01
473.652	-1.57
474.088	-2.7
474.523	-2.66
474.959	-2.9
475.395	-2.49
475.831	-2.23
476.266	-3.23
476.702	-3.23
477.138	-2.77
477.573	-2.58
478.008	-1.77
478.444	-1.2
478.879	0.63
479.314	1.48
479.75	1.41
480.185	1.46
480.62	0.78
481.055	0.8
481.49	1.93
481.925	2.53
482.36	4.19
482.795	2.71
483.229	2.28
483.664	1.95
484.099	0.9
484.534	1.94
484.968	2.21
485.403	2.11
485.837	1.33
486.271	0.42
486.706	-0.16
487.14	-1.98
487.574	-0.99
488.009	-1.18
488.443	-1.83
488.877	-0.6
489.311	-1.27
489.745	-0.97
490.179	0.11
490.613	2.41
491.046	2.18
491.48	2.4
491.914	3.24
492.348	3.04
492.781	3.44
493.215	3.52
493.648	2.02
494.082	2.51
494.515	2.39
494.948	2.65
495.382	0.4
495.815	1.34
496.248	1.45
496.681	0.4
497.114	-0.47
497.547	-0.03
497.98	0.9
498.413	2.74
498.846	2.78
499.279	2.37
499.711	1.71
500.144	2.28
500.577	2.59
501.009	2.24
501.442	3.4
501.874	4.73
502.306	4.19
502.739	6.91
503.171	5.93
503.603	5.9
504.036	5.93
504.468	6.03
504.9	5.93
505.332	5.57
505.764	5.61
506.196	5.29
506.627	5.18
507.059	5.01
507.491	1.52
507.923	1.92
508.354	2.08
508.786	1.97
509.217	2.17
509.649	2.59
510.08	2.24
510.512	2.78
510.943	3.09
511.374	3.19
511.805	3.09
512.237	3.07
512.668	1.48
513.099	0.42
513.53	0.49
513.961	0.6
514.391	0.2
514.822	1.75
515.253	2.42
515.684	1.81
516.114	1.24
516.545	2
516.975	1.66
517.406	2.29
517.836	1.99
518.267	2.15
518.697	3.07
519.127	3.32
519.558	1.85
519.988	0.93
520.418	0.92
520.848	0.38
521.278	-0.38
521.708	23.25
522.138	24.08
522.567	23.77
522.997	23.86
523.427	22.97
523.857	22.84
524.286	22.87
524.716	23.07
525.145	23.58
525.575	24.48
526.004	24.03
526.433	0.76
526.863	-0.13
527.292	1.55
527.721	2.17
528.15	1.98
528.579	2.19
529.008	1.89
529.437	1.01
529.866	0.55
530.295	-0.44
530.724	0.68
531.152	1.06
531.581	2.14
532.01	1.54
532.438	0.74
532.867	0.25
533.295	1
533.723	1.07
534.152	1.23
534.58	1.18
535.008	1.98
535.436	2.83
535.865	2.71
536.293	1.99
536.721	1.16
537.149	1.07
537.576	2.27
538.004	1.75
538.432	1.42
538.86	2.41
539.287	2.22
539.715	2.12
540.143	1
540.57	0.96
540.998	0.56
541.425	2.8
541.852	3.09
542.28	2.13
542.707	1.75
543.134	2.14
543.561	2.22
543.988	2.52
544.415	2.36
544.842	1.97
545.269	2.16
545.696	3.16
546.123	2.1
546.549	1.73
546.976	2.22
547.403	2.13
547.829	1.3
548.256	0.08
548.682	0.11
549.108	1.38
549.535	1.16
549.961	0.48
550.387	-0.02
550.813	1.07
551.24	1.48
551.666	0.94
552.092	1.31
552.518	1.82
552.943	3.16
553.369	3.36
553.795	2.04
554.221	2.6
554.646	3.13
555.072	4.37
555.498	2.49
555.923	1.75
556.349	2.44
556.774	2.01
557.199	1.36
557.625	0.2
558.05	0.53
558.475	1.09
558.9	1.28
559.325	2.89
559.75	2.94
560.175	3.75
560.6	3.66
561.025	2.54
561.449	2.55
561.874	2.8
562.299	3.27
562.723	2.61
563.148	2.87
563.572	1.42
563.997	-0.07
564.421	-1.84
564.846	-2.69
565.27	-2.62
565.694	-2.25
566.118	-2.6
566.542	-0.94
566.966	-0.7
567.39	-0.3
567.814	-0.5
568.238	0.78
568.662	-0.09
569.086	0.61
569.509	0.42
569.933	1.96
570.357	2.41
570.78	2.6
571.204	3.08
571.627	2.89
572.05	2.6
572.474	3.34
572.897	3.62
573.32	4.63
573.743	4.07
574.166	5.55
574.589	4.48
575.012	4.45
575.435	4.32
575.858	3.48
576.281	3.13
576.704	2.29
577.126	1.04
577.549	0.41
577.972	-0.04
578.394	0.4
578.817	2.28
579.239	1.89
579.661	1.97
580.084	3.87
580.506	3.86
580.928	3.41
581.35	4.04
581.772	4.29
582.194	4.39
582.616	3.57
583.038	2.41
583.46	-0.9
583.882	-0.81
584.303	-1.85
584.725	-3.58
585.147	0.69
585.568	1.74
585.99	1.94
586.411	2.67
586.833	3.08
587.254	4.27
587.675	5
588.096	5.58
588.518	6.04
588.939	6.59
589.36	6.84
589.781	1.35
590.202	3.89
590.623	4.35
591.043	2.91
591.464	2.41
591.885	2.57
592.305	2.28
592.726	2.16
593.147	2.13
593.567	2.31
593.987	1.62
594.408	1.44
594.828	-1.86
595.248	-1.77
595.669	-0.03
596.089	0.03
596.509	-0.95
596.929	-0.81
597.349	-0.09
597.769	-0.46
598.189	-0.49
598.608	0.02
599.028	0.62
599.448	0.61
599.867	0.3
600.287	-0.87
600.706	-0.51
601.126	0.37
601.545	1.33
601.965	0.88
602.384	1.11
602.803	1.17
603.222	1.51
603.641	1.02
604.061	1.9
604.48	1.85
604.898	1.82
605.317	1.81
605.736	1.39
606.155	1.68
606.574	1.73
606.992	1.52
607.411	1.81
607.829	0.91
608.248	1.3
608.666	0.2
609.085	0.39
609.503	0.76
609.921	0.8
610.339	0.82
610.758	-0.62
611.176	-0.55
611.594	0.11
612.012	-0.13
612.43	1.37
612.847	0.82
613.265	2.14
613.683	1.9
614.101	1.56
614.518	1.14
614.936	1.46
615.353	2.07
615.771	2.31
616.188	2.53
616.606	2.26
617.023	1.89
617.44	2.03
617.857	0.63
618.274	0.51
618.691	1.25
619.108	1.32
619.525	0.83
619.942	1.34
620.359	0.74
620.776	0.22
621.192	1.2
621.609	1.44
622.026	2.07
622.442	3.14
622.859	2.48
623.275	1.3
623.691	1.15
624.108	1.87
624.524	1.02
624.94	1.24
625.356	1.14
625.772	0.01
626.188	-0.98
626.604	-1.34
627.02	-1.7
627.436	-0.58
627.852	0.71
628.268	1.43
628.683	0.97
629.099	1.21
629.514	0.85
629.93	1.06
630.345	0.9
630.761	0.62
631.176	1.04
631.591	2.75
632.007	3.1
632.422	2.43
632.837	1.42
633.252	2.06
633.667	2.84
634.082	3.45
634.497	4.32
634.911	6.84
635.326	6.69
635.741	7.04
636.155	6.18
636.57	7.1
636.984	7.16
637.399	9.41
637.813	8.77
638.228	8.11
638.642	6.99
639.056	6.32
639.47	5.16
639.884	6.48
640.298	5.79
640.712	5.97
641.126	4.66
641.54	4.4
641.954	1.32
642.368	1.45
642.781	4.1
643.195	5.32
643.609	5.04
644.022	4.83
644.436	3.71
644.849	2.76
645.262	2.25
645.676	1.22
646.089	1.38
646.502	3.13
646.915	2.47
647.328	0.73
647.741	1.57
648.154	2.23
648.567	4.52
648.98	5.25
649.393	6.27
649.805	6.1
650.218	6.4
650.631	6.24
651.043	5.87
651.456	6.33
651.868	5.89
652.28	3.97
652.693	2.1
653.105	0.18
653.517	-0.19
653.929	-0.79
654.341	-0.49
654.753	0.99
655.165	1.47
655.577	1.73
655.989	1.89
656.401	0.7
656.813	3.34
657.224	4.15
657.636	2.73
658.047	3.82
658.459	3.85
658.87	1.93
659.282	0.79
659.693	1.57
660.104	2.69
660.515	2.47
660.926	1.74
661.338	0.02
661.749	-1.14
662.159	-0.41
662.57	-1.37
662.981	-1.45
663.392	-1.58
663.803	-1.16
664.213	-1.57
664.624	-2.8
665.035	-3.25
665.445	-2.01
665.855	-1.24
666.266	1.15
666.676	1.05
667.086	0.21
667.497	0.77
667.907	2.09
668.317	2.34
668.727	4.36
669.137	3.26
669.547	2.83
669.956	1.41
670.366	0.73
670.776	0.19
671.186	-0.35
671.595	0.71
672.005	-0.37
672.414	0.52
672.824	0.23
673.233	-2.97
673.642	-2.05
674.052	-0.06
674.461	1.39
674.87	1.41
675.279	2.09
675.688	1.34
676.097	2.23
676.506	3.18
676.915	2.35
677.323	2.7
677.732	2.95
678.141	2.98
678.549	1.09
678.958	-0.15
679.366	-0.16
679.775	-1.39
680.183	1.51
680.592	0.05
681	-0.35
681.408	-0.52
681.816	-1.51
682.224	-1.73
682.632	-0.11
683.04	0.47
683.448	0.9
683.856	1.49
684.264	2.51
684.671	-0.14
685.079	-0.76
685.487	-0.95
685.894	-1.7
686.302	-2.32
686.709	-2.15
687.116	-3.76
687.524	-1.28
687.931	1.61
688.338	1.18
688.745	-0.09
689.152	-0.22
689.559	0.75
689.966	2.2
690.373	3.46
690.78	4.29
691.187	4.61
691.593	5.58
692	3.8
692.407	2.95
692.813	5.03
693.22	6.05
693.626	5.64
694.032	5.97
694.439	6.35
694.845	5.66
695.251	5.61
695.657	6.26
696.063	4.03
696.469	3.19
696.875	2.6
697.281	1.75
697.687	1.18
698.093	2.25
698.498	1.99
698.904	1.31
699.31	1.46
699.715	4.42
700.12	3.93
700.526	5.6
700.931	5.64
701.337	6.73
701.742	6.9
702.147	6.34
702.552	6.06
702.957	5.08
703.362	4.86
703.767	5.17
704.172	1.73
704.577	1.02
704.981	-0.68
705.386	0.47
705.791	-0.58
706.195	-3.05
706.6	-2.65
707.004	-3.65
707.408	-3.12
707.813	-2.15
708.217	-1.74
708.621	-0.58
709.025	-1.13
709.43	1.15
709.834	1.18
710.237	0.87
710.641	2.09
711.045	2.51
711.449	3.35
711.853	7.07
712.256	5.21
712.66	4.65
713.064	3.97
713.467	6.01
713.87	4.41
714.274	4.78
714.677	5.73
715.08	5.78
715.484	5.33
715.887	8.87
716.29	4.98
716.693	7.4
717.096	8.22
717.499	8.72
717.901	7.79
718.304	7.34
718.707	5.67
719.109	5.04
719.512	3.79
719.915	7.81
720.317	5.19
720.719	3.74
721.122	1.51
721.524	1.42
721.926	5.81
722.328	5.83
722.731	6.27
723.133	6.67
723.535	6.6
723.937	7.24
724.338	6.66
724.74	7.57
725.142	66.19
725.544	71.47
725.945	84.96
726.347	80.17
726.748	80.28
727.15	81.86
727.551	85.34
727.952	83.05
728.354	81.72
728.755	80.74
729.156	79.22
729.557	23.15
729.958	18.21
730.359	5.78
730.76	6.66
731.161	6.04
731.562	4.04
731.962	0.78
732.363	2.05
732.763	2.44
733.164	-0.38
733.564	0.32
733.965	1.27
734.365	2.15
734.766	1.08
735.166	0.38
735.566	2.2
735.966	3.62
736.366	4.08
736.766	4.48
737.166	4.33
737.566	4.95
737.966	5.09
738.365	5.35
738.765	6.25
739.165	6.41
739.564	6.22
739.964	4.67
740.363	3.46
740.763	2.12
741.162	3.15
741.561	3.44
741.96	3.86
742.36	2.67
742.759	2.22
743.158	-0.62
743.557	-0.87
743.955	-1.43
744.354	-2.06
744.753	-3.22
745.152	-2.01
745.55	-4.48
745.949	-4.22
746.348	-4.44
746.746	-5.65
747.144	-2.14
747.543	-1.54
747.941	-2.61
748.339	-2.46
748.737	-0.71
749.136	1.6
749.534	-0.16
749.932	2.87
750.33	2.37
750.727	1.48
751.125	3.46
751.523	1.24
751.921	4.79
752.318	6.76
752.716	8.52
753.113	7.25
753.511	6.31
753.908	8.43
754.305	12.14
754.703	13.38
755.1	14.34
755.497	13.81
755.894	12.46
756.291	10.49
756.688	9.73
757.085	8.7
757.482	9.99
757.878	12.75
758.275	12.74
758.672	3.29
759.068	0.97
759.465	-2.39
759.861	-4.19
760.258	-8.11
760.654	-9.73
761.05	-4.82
761.447	-5.57
761.843	-5.81
762.239	-6.19
762.635	-8.71
763.031	-8.74
763.427	-7.54
763.822	-3.73
764.218	-4.83
764.614	-1.03
765.01	-2.97
765.405	-4.72
765.801	-2.9
766.196	-3.99
766.592	-5.92
766.987	-3.99
767.382	-2.49
767.778	-2.92
768.173	-2.87
768.568	-2.35
768.963	-1.59
769.358	-1.2
769.753	-0.68
770.148	-0.67
770.542	-0.01
770.937	-0.35
771.332	-0.39
771.726	-1.68
