Data from C_1_HIR_IL_4N_Splice17_11-52-09-768.txt Node
Date: Sat Mar 14 11:52:09 EDT 2020
User: sa697716
Spectrometer: FLMS03696
Trigger mode: 0
Integration Time (sec): 3.180400E-1
Scans to average: 20
Electric dark correction enabled: true
Nonlinearity correction enabled: true
Boxcar width: 5
XAxis mode: Wavelengths
Number of Pixels in Spectrum: 2048
>>>>>Begin Spectral Data<<<<<
187.83	-184101.74
188.298	1457.43
188.766	842.1
189.233	783.39
189.701	1060.91
190.169	1423.21
190.636	443.21
191.104	357.68
191.571	14
192.039	-101.37
192.506	-84.24
192.974	533.26
193.441	-724.83
193.908	-141.36
194.375	-22.36
194.842	21.91
195.31	119.45
195.777	131.32
196.244	364.68
196.711	474.43
197.177	611.61
197.644	881.07
198.111	1552.63
198.578	2127.71
199.045	1710.06
199.511	2824.47
199.978	3310.38
200.445	2765.71
200.911	3079.07
201.378	3461.74
201.844	3159.17
202.31	5355.02
202.777	5559.23
203.243	3089.15
203.709	2974.9
204.176	3540.91
204.642	2929.03
205.108	2727.02
205.574	2241.24
206.04	2064.98
206.506	1920.42
206.972	1807.84
207.438	1753.82
207.903	2009.61
208.369	1779.68
208.835	1777.1
209.301	1862.57
209.766	1902.64
210.232	1900.09
210.697	2365.46
211.163	2907.42
211.628	4420.39
212.094	3709.59
212.559	4536.63
213.024	2815.69
213.49	3404.89
213.955	3300.45
214.42	3241.86
214.885	3014.29
215.35	2888.02
215.815	2764.02
216.28	2924.18
216.745	2390.85
217.21	2594.08
217.675	2381.45
218.14	2693.22
218.604	3008.3
219.069	3461.02
219.534	3629.1
219.998	4226.61
220.463	5120.19
220.927	6327.15
221.392	5977.02
221.856	6055.91
222.32	7636.36
222.785	9487.55
223.249	11973.59
223.713	13409.6
224.177	13393.79
224.642	17251.16
225.106	21306.04
225.57	23347.42
226.034	17409.37
226.497	26525.46
226.961	24013.4
227.425	28072.11
227.889	31155.48
228.353	31199.98
228.816	64564.31
229.28	61964.11
229.744	52320.87
230.207	31826.65
230.671	31418.96
231.134	52123.9
231.597	60282.33
232.061	60377.58
232.524	59028.58
232.987	40784.98
233.45	36778.96
233.914	33066.08
234.377	33954.24
234.84	31140.59
235.303	36839.15
235.766	41133.81
236.229	42550.42
236.691	26826.25
237.154	30212.58
237.617	22743.95
238.08	23332.49
238.542	27352.82
239.005	19583.73
239.468	19466.66
239.93	18373.03
240.393	16716.42
240.855	14691.77
241.317	15071.6
241.78	18376.98
242.242	19030.67
242.704	20567.4
243.166	17923.51
243.629	16284.03
244.091	18776.86
244.553	20613.22
245.015	22199.25
245.477	28748.7
245.939	42237.74
246.4	44892.58
246.862	43675.48
247.324	41200.7
247.786	46199.16
248.247	60717.39
248.709	62852.43
249.17	47088.44
249.632	44371.43
250.093	51442.14
250.555	44536.83
251.016	27178.17
251.477	25819.36
251.939	27937.29
252.4	29342.61
252.861	34936.56
253.322	32494.36
253.783	38715.07
254.244	50305.28
254.705	39723.6
255.166	35371.68
255.627	34799.77
256.088	49096.01
256.549	52135.58
257.009	44872.68
257.47	54512.39
257.931	44410.05
258.391	33304.32
258.852	34358.06
259.312	36058.62
259.773	44619.23
260.233	37736.79
260.694	31878.39
261.154	36232.27
261.614	29095.78
262.074	26071.64
262.534	27115.19
262.994	25582.37
263.455	34113.05
263.915	28751.57
264.374	27080.94
264.834	29580.83
265.294	32812.38
265.754	33970.47
266.214	32167.4
266.673	30169.83
267.133	38080.67
267.593	37793.98
268.052	46255.17
268.512	40273.09
268.971	48537.53
269.431	53286.07
269.89	47737.38
270.349	71640.67
270.809	80030.47
271.268	71988.92
271.727	161567.62
272.186	104650.5
272.645	78575.34
273.104	56746.76
273.563	82181.31
274.022	64722.97
274.481	55000.34
274.94	42374.19
275.399	31526.26
275.857	36739.38
276.316	49692.77
276.775	44255.95
277.233	43601.07
277.692	40757.4
278.15	46094.42
278.609	47419.06
279.067	43911.6
279.525	40831.88
279.984	52751.5
280.442	63311.65
280.9	62315.14
281.358	41001.27
281.816	38200.52
282.274	37432.12
282.732	38736.01
283.19	38944.62
283.648	33670.45
284.106	35875.71
284.564	36507.46
285.021	33861.24
285.479	25232.02
285.937	22959.58
286.394	20152.73
286.852	20744.01
287.309	21833.89
287.767	21093.3
288.224	20080.41
288.682	22030.03
289.139	24202.68
289.596	22164.64
290.053	23064.19
290.511	29161.38
290.968	35451.55
291.425	48175.33
291.882	40109.59
292.339	34896.46
292.796	34684.31
293.252	32698.38
293.709	25956.04
294.166	23273.41
294.623	25703.71
295.079	24686.79
295.536	24805.81
295.992	22503.45
296.449	22252.29
296.905	23135.56
297.362	22198.96
297.818	23357.22
298.274	24228.12
298.731	24726.2
299.187	24472.22
299.643	26313.04
300.099	31833.59
300.555	34936.2
301.011	29240.28
301.467	28191.27
301.923	33065.47
302.379	32301.18
302.835	31744.63
303.291	31827.03
303.746	36251.99
304.202	45812.19
304.658	45984.92
305.113	30955.02
305.569	30349.31
306.024	32336.19
306.479	30823.63
306.935	25981.48
307.39	28399.86
307.845	26206.54
308.301	26360.28
308.756	25680.34
309.211	24753.19
309.666	25378.92
310.121	31463.56
310.576	31960.93
311.031	31763.03
311.486	36400.42
311.94	36383.92
312.395	48625.31
312.85	91470.23
313.305	449413.18
313.759	2324671.4
314.214	168543.95
314.668	133710.45
315.123	112618.31
315.577	40330.59
316.032	35863.12
316.486	44930.18
316.94	35452.82
317.394	24691.52
317.849	19190.41
318.303	18201.47
318.757	17201.97
319.211	19015.73
319.665	16656.83
320.119	16864.31
320.572	24211.36
321.026	22607.2
321.48	18826.82
321.934	20550.44
322.387	20597.44
322.841	22281.36
323.295	20014.3
323.748	23067
324.202	23425.32
324.655	28134.92
325.108	39285.1
325.562	27770.36
326.015	33051.64
326.468	25028.04
326.921	27991.06
327.374	26136.33
327.827	27223.92
328.28	30807.04
328.733	20629.03
329.186	18160.16
329.639	17291.31
330.092	14573.56
330.545	13884.06
330.997	14001.56
331.45	15276.06
331.903	17894.87
332.355	30787.84
332.808	29900.36
333.26	24706.94
333.713	26834.29
334.165	27031.76
334.617	36127.69
335.069	29262.59
335.522	52924.45
335.974	58593.28
336.426	53593.01
336.878	37160.87
337.33	18847.72
337.782	18410.2
338.234	23073.08
338.686	27649.26
339.137	32732.78
339.589	30843.07
340.041	24167.25
340.493	20785.33
340.944	21294.29
341.396	22905.95
341.847	19235.26
342.299	22699.87
342.75	27675.14
343.201	24186.41
343.653	27800.99
344.104	34178.45
344.555	26902.54
345.006	41921.69
345.457	32081.33
345.908	25523.11
346.359	24038.51
346.81	19598.24
347.261	20648.58
347.712	20363.6
348.163	21820.47
348.613	22062.4
349.064	20628.25
349.515	18071.99
349.965	18541.58
350.416	22354.71
350.866	24532.53
351.317	27766.9
351.767	45978.58
352.217	58115.8
352.668	48263.92
353.118	44196.77
353.568	42699.16
354.018	33707.5
354.468	35521.69
354.918	25450.35
355.368	22269.3
355.818	31454.44
356.268	90470.25
356.718	378477.34
357.168	94211.2
357.617	47284.85
358.067	52723.28
358.517	49367.32
358.966	57906.03
359.416	64958.09
359.865	70273.01
360.315	83626.96
360.764	39033.96
361.213	21869.44
361.663	20766.16
362.112	25664.18
362.561	41432.29
363.01	31216.03
363.459	26310.41
363.908	28483.62
364.357	24170.95
364.806	40814.06
365.255	28084.16
365.703	25746.35
366.152	25784.12
366.601	20894.18
367.05	16928.11
367.498	15399.31
367.947	16089.33
368.395	16725.62
368.844	14811.32
369.292	17888.58
369.74	12346.05
370.189	18908.56
370.637	22154.55
371.085	19139.85
371.533	23325.11
371.981	22531.52
372.429	21462.83
372.877	22421.22
373.325	18790.42
373.773	19222.1
374.221	17150.87
374.669	21313.15
375.116	18458.15
375.564	18655.15
376.012	20900.67
376.459	17272.48
376.907	20683.46
377.354	25083.79
377.801	23415.03
378.249	26941.3
378.696	34430.06
379.143	41765.05
379.591	44708.25
380.038	75893.35
380.485	54944.69
380.932	59442.42
381.379	54427.26
381.826	40159.32
382.273	28610.95
382.72	25050.64
383.166	24488.91
383.613	15920.92
384.06	14392.17
384.506	16683.44
384.953	12282.84
385.4	12398.23
385.846	10885.19
386.292	10636.11
386.739	10428.8
387.185	10326.01
387.631	10330.21
388.078	10009.3
388.524	10711.89
388.97	9888.66
389.416	8238.81
389.862	8756.48
390.308	8285.9
390.754	8403.01
391.2	9121.69
391.645	9330.62
392.091	8908.71
392.537	8616.65
392.983	8648.52
393.428	8481.64
393.874	9099.68
394.319	9126.63
394.765	8622.85
395.21	8870
395.655	8308.79
396.101	7766.88
396.546	6985.29
396.991	7036.72
397.436	6521.72
397.881	6284.81
398.326	5954.25
398.771	5603.86
399.216	4890.02
399.661	4397.24
400.106	4367.98
400.551	4456.75
400.995	3982.57
401.44	3931.4
401.885	3689.76
402.329	3718.71
402.774	3555.51
403.218	3427.5
403.663	3292.91
404.107	3372.66
404.551	3384.42
404.995	3090.11
405.44	2974.89
405.884	3016.44
406.328	2911.28
406.772	2893.53
407.216	2624.79
407.66	2531.44
408.104	2397.42
408.547	2243.02
408.991	2166.84
409.435	2081.86
409.879	2050.56
410.322	2012.47
410.766	1934.36
411.209	1832.34
411.653	1754.08
412.096	1717.13
412.54	1711.86
412.983	1697.12
413.426	1696.35
413.869	1688.2
414.312	1653.51
414.756	1587.51
415.199	1511.66
415.642	1466.83
416.085	1467.05
416.527	1452.02
416.97	1469.49
417.413	1390.74
417.856	1372.47
418.298	1355.51
418.741	1344.16
419.184	1341.15
419.626	1394.31
420.069	1394.96
420.511	1399.03
420.953	1366.88
421.396	1353.63
421.838	1316.23
422.28	1346.82
422.722	1353.06
423.164	1369.97
423.606	1346.92
424.048	1339.61
424.49	1272.92
424.932	1264.3
425.374	1247.06
425.816	1267.07
426.258	1288.11
426.699	1302.98
427.141	1281.03
427.582	1298.5
428.024	1288.47
428.465	1278.23
428.907	1245.32
429.348	1229.77
429.789	1225.41
430.231	1195.86
430.672	1209.37
431.113	1179.57
431.554	1160.22
431.995	1128.63
432.436	1084.8
432.877	1058.83
433.318	1038.26
433.759	1031.06
434.2	1029.52
434.64	1018.91
435.081	1021.67
435.522	970.26
435.962	934.36
436.403	913.46
436.843	925.48
437.284	906.87
437.724	884.43
438.164	887.02
438.604	869.89
439.045	834.86
439.485	800.02
439.925	782.06
440.365	760.23
440.805	749.4
441.245	737.75
441.685	710.02
442.125	701.01
442.564	703.61
443.004	686.2
443.444	679.9
443.883	679.82
444.323	673.07
444.762	672.54
445.202	680.48
445.641	690.24
446.081	684.28
446.52	687.78
446.959	681.93
447.398	663.51
447.837	653.78
448.276	642.01
448.716	646.1
449.154	649.7
449.593	633.19
450.032	629.97
450.471	617.57
450.91	616.38
451.349	613.51
451.787	609.1
452.226	617.83
452.664	616.97
453.103	616.02
453.541	613.18
453.98	611.56
454.418	613.48
454.856	602.92
455.295	601.34
455.733	605.91
456.171	607.64
456.609	609.55
457.047	606.92
457.485	614.98
457.923	617.02
458.361	609.06
458.798	610.38
459.236	609.4
459.674	612.96
460.111	615.1
460.549	608.21
460.987	606.66
461.424	603.79
461.862	601.7
462.299	592.84
462.736	590.38
463.173	592.19
463.611	586.46
464.048	585.42
464.485	590.62
464.922	585.55
465.359	583.54
465.796	576.19
466.233	571.01
466.67	566.29
467.106	565.54
467.543	560.22
467.98	552.78
468.416	539.3
468.853	534.59
469.29	517.68
469.726	512.26
470.162	497.72
470.599	491.57
471.035	487.21
471.471	474.8
471.907	471.68
472.344	469.22
472.78	469.57
473.216	474.16
473.652	467.61
474.088	466.29
474.523	463.97
474.959	468.82
475.395	463.42
475.831	459.78
476.266	461.13
476.702	458.01
477.138	452.68
477.573	451.02
478.008	447.84
478.444	450.13
478.879	452.64
479.314	453.33
479.75	451.93
480.185	453.95
480.62	456.93
481.055	458.51
481.49	461.14
481.925	465.99
482.36	473.84
482.795	486.04
483.229	498.15
483.664	508.98
484.099	510.03
484.534	517.5
484.968	521.34
485.403	523.02
485.837	522.78
486.271	522.2
486.706	523.33
487.14	516.47
487.574	508.57
488.009	502.93
488.443	498.27
488.877	503.87
489.311	504.55
489.745	509.72
490.179	513.41
490.613	521.86
491.046	524.98
491.48	527.63
491.914	527.79
492.348	530.4
492.781	533.41
493.215	533.35
493.648	533.61
494.082	537.59
494.515	537.46
494.948	543.13
495.382	545.73
495.815	548.62
496.248	552.71
496.681	562.1
497.114	570.4
497.547	577.44
497.98	587.81
498.413	591.83
498.846	598.4
499.279	605.07
499.711	607.81
500.144	610.42
500.577	618.55
501.009	626.61
501.442	634.51
501.874	636.33
502.306	638.15
502.739	643.88
503.171	655.11
503.603	658.13
504.036	665.07
504.468	670.47
504.9	680.25
505.332	686.43
505.764	690.85
506.196	696.43
506.627	708.18
507.059	719.37
507.491	726.6
507.923	727.43
508.354	740.19
508.786	750.29
509.217	765.71
509.649	778.2
510.08	794.93
510.512	810.23
510.943	824.26
511.374	835.64
511.805	853.25
512.237	871.92
512.668	899.85
513.099	925.37
513.53	950.98
513.961	970.59
514.391	999.48
514.822	1030.01
515.253	1062.33
515.684	1086.66
516.114	1114.39
516.545	1136.47
516.975	1162.05
517.406	1181.37
517.836	1187.61
518.267	1196.36
518.697	1217.05
519.127	1225.4
519.558	1236
519.988	1243.36
520.418	1257.32
520.848	1277.07
521.278	1288.82
521.708	1309.33
522.138	1324.25
522.567	1354.54
522.997	1380.18
523.427	1396.57
523.857	1415.21
524.286	1426.71
524.716	1443.55
525.145	1463.61
525.575	1476.73
526.004	1492.11
526.433	1488.35
526.863	1491.14
527.292	1484.79
527.721	1492.83
528.15	1501.2
528.579	1503.4
529.008	1516.36
529.437	1539.1
529.866	1552.72
530.295	1568.78
530.724	1583.45
531.152	1610.57
531.581	1625.39
532.01	1642.41
532.438	1651.99
532.867	1665.6
533.295	1684.46
533.723	1690.88
534.152	1690.01
534.58	1690.65
535.008	1678.74
535.436	1681.21
535.865	1688.21
536.293	1702.91
536.721	1719.97
537.149	1744.36
537.576	1747.4
538.004	1759.74
538.432	1767.99
538.86	1767.66
539.287	1775.56
539.715	1788.93
540.143	1792.54
540.57	1791.08
540.998	1787.13
541.425	1765.75
541.852	1746.46
542.28	1746.78
542.707	1732.12
543.134	1719.94
543.561	1716
543.988	1709.97
544.415	1708.91
544.842	1703.95
545.269	1695.9
545.696	1697.52
546.123	1709.16
546.549	1699.49
546.976	1686.12
547.403	1685.69
547.829	1686.51
548.256	1688.14
548.682	1683.19
549.108	1676.61
549.535	1674.97
549.961	1677.43
550.387	1664.85
550.813	1660.06
551.24	1665.45
551.666	1665.88
552.092	1656.15
552.518	1649.78
552.943	1643.01
553.369	1649
553.795	1653.12
554.221	1652.73
554.646	1647.96
555.072	1656.99
555.498	1659.66
555.923	1665.86
556.349	1678.99
556.774	1685.21
557.199	1685.18
557.625	1689.95
558.05	1682.66
558.475	1690.32
558.9	1688.19
559.325	1679.8
559.75	1671.71
560.175	1664.19
560.6	1657.63
561.025	1651.96
561.449	1651.25
561.874	1653.39
562.299	1654.53
562.723	1658.53
563.148	1646.33
563.572	1646.87
563.997	1652.53
564.421	1654.34
564.846	1651.59
565.27	1650.68
565.694	1645.91
566.118	1652.34
566.542	1656.11
566.966	1647.08
567.39	1640.78
567.814	1628.21
568.238	1624.73
568.662	1626.26
569.086	1625.41
569.509	1628.18
569.933	1612.13
570.357	1603.09
570.78	1582.34
571.204	1567.38
571.627	1555.36
572.05	1550.22
572.474	1546.22
572.897	1531.84
573.32	1521.93
573.743	1509.9
574.166	1491.03
574.589	1487.75
575.012	1478.64
575.435	1474.37
575.858	1463.9
576.281	1451.09
576.704	1434.64
577.126	1421.51
577.549	1409.81
577.972	1398.46
578.394	1387.94
578.817	1380.11
579.239	1361.51
579.661	1347.74
580.084	1331.83
580.506	1317.35
580.928	1310.88
581.35	1299.54
581.772	1293.77
582.194	1280.91
582.616	1268.47
583.038	1255.15
583.46	1243.83
583.882	1238.48
584.303	1239.27
584.725	1233.53
585.147	1234.64
585.568	1242.16
585.99	1250.65
586.411	1255.55
586.833	1265.24
587.254	1264.57
587.675	1273.69
588.096	1281.3
588.518	1276.81
588.939	1262.21
589.36	1259.47
589.781	1248.72
590.202	1225.43
590.623	1216.01
591.043	1212.38
591.464	1200.98
591.885	1197.09
592.305	1190.89
592.726	1180.04
593.147	1180
593.567	1176.28
593.987	1169.75
594.408	1165
594.828	1162.55
595.248	1157.21
595.669	1141.9
596.089	1135.98
596.509	1130.53
596.929	1119.63
597.349	1119.47
597.769	1110.54
598.189	1104.33
598.608	1104.33
599.028	1106.13
599.448	1105.66
599.867	1095.44
600.287	1090.75
600.706	1087.29
601.126	1078.08
601.545	1076.41
601.965	1075.01
602.384	1070.09
602.803	1071.07
603.222	1066.91
603.641	1060.82
604.061	1056.56
604.48	1052.51
604.898	1058
605.317	1060.53
605.736	1061.2
606.155	1058.05
606.574	1049.13
606.992	1052.87
607.411	1048.23
607.829	1039.63
608.248	1034.7
608.666	1031.55
609.085	1030.53
609.503	1021.98
609.921	1016.08
610.339	1016.32
610.758	1013.62
611.176	1008.5
611.594	999
612.012	995.21
612.43	996.9
612.847	1000.38
613.265	1000.03
613.683	1001.37
614.101	1001.14
614.518	996.07
614.936	986.82
615.353	975.38
615.771	972.85
616.188	972.59
616.606	968.06
617.023	961.87
617.44	950.72
617.857	944.68
618.274	937.2
618.691	932.25
619.108	924.79
619.525	920.51
619.942	923.75
620.359	924.24
620.776	919.31
621.192	915.49
621.609	913.39
622.026	917.64
622.442	921.34
622.859	923.08
623.275	917.57
623.691	921.49
624.108	928.35
624.524	938.87
624.94	939.19
625.356	946.36
625.772	956.01
626.188	963.64
626.604	963.7
627.02	959.33
627.436	957.92
627.852	962.6
628.268	970.85
628.683	965.07
629.099	959.18
629.514	955.54
629.93	958.16
630.345	961.5
630.761	959.15
631.176	962.72
631.591	959.41
632.007	954.16
632.422	952.06
632.837	942.42
633.252	939.47
633.667	930.53
634.082	922.64
634.497	912.44
634.911	897.06
635.326	893.19
635.741	878.83
636.155	869.35
636.57	869.46
636.984	868.21
637.399	869.33
637.813	867.65
638.228	865.9
638.642	866.56
639.056	857.07
639.47	855.72
639.884	847.7
640.298	842.58
640.712	840.08
641.126	829.99
641.54	822.69
641.954	816.18
642.368	806.43
642.781	800.38
643.195	787.79
643.609	788.5
644.022	784
644.436	780.99
644.849	770.86
645.262	762.68
645.676	763.04
646.089	758.56
646.502	749.67
646.915	744.72
647.328	731.81
647.741	730.35
648.154	720.34
648.567	717.83
648.98	707.46
649.393	707.48
649.805	705.1
650.218	700.13
650.631	689.68
651.043	684.34
651.456	680.77
651.868	681.08
652.28	691.72
652.693	700.61
653.105	704.11
653.517	711.15
653.929	710.94
654.341	714.92
654.753	706.98
655.165	711.44
655.577	710.03
655.989	709.02
656.401	704.06
656.813	681.1
657.224	667.49
657.636	649.1
658.047	638.62
658.459	626.42
658.87	619.4
659.282	611.23
659.693	597.55
660.104	588.19
660.515	578.26
660.926	577
661.338	575.37
661.749	572.01
662.159	567.46
662.57	564.25
662.981	562.73
663.392	559.76
663.803	563.81
664.213	563.84
664.624	562.41
665.035	566.43
665.445	559.07
665.855	555.66
666.266	552.07
666.676	550.77
667.086	546.39
667.497	547.57
667.907	545.02
668.317	540.05
668.727	540.3
669.137	541.83
669.547	541.48
669.956	544.85
670.366	547.57
670.776	551.17
671.186	556.2
671.595	559.85
672.005	562.96
672.414	563.97
672.824	564.15
673.233	566.61
673.642	570.19
674.052	572.46
674.461	574.83
674.87	580.26
675.279	578.45
675.688	579.52
676.097	580.73
676.506	579.13
676.915	589.53
677.323	591.92
677.732	591.55
678.141	591.04
678.549	584.45
678.958	584.49
679.366	582.55
679.775	585.53
680.183	593.92
680.592	598.49
681	602.65
681.408	596.87
681.816	600.62
682.224	606.32
682.632	612.63
683.04	632.8
683.448	648.41
683.856	668.94
684.264	692.91
684.671	712.21
685.079	736.81
685.487	762.9
685.894	804.11
686.302	835.85
686.709	860.65
687.116	890.98
687.524	914.77
687.931	934.74
688.338	951.74
688.745	966.25
689.152	984.08
689.559	1012.65
689.966	1042.45
690.373	1055.75
690.78	1085.86
691.187	1131.97
691.593	1167.68
692	1200.87
692.407	1249.73
692.813	1311.14
693.22	1362.08
693.626	1416.14
694.032	1461.26
694.439	1528.01
694.845	1581.84
695.251	1649.68
695.657	1712.34
696.063	1802.99
696.469	1875.84
696.875	1947.52
697.281	1993.33
697.687	2048.25
698.093	2096.91
698.498	2175.82
698.904	2242.5
699.31	2336.59
