Data from C_1_DIV_PA_2N_Splice17_12-01-04-029.txt Node
Date: Sat Mar 14 12:01:04 EDT 2020
User: sa697716
Spectrometer: FLMS03696
Trigger mode: 0
Integration Time (sec): 3.180400E-1
Scans to average: 20
Electric dark correction enabled: true
Nonlinearity correction enabled: true
Boxcar width: 5
XAxis mode: Wavelengths
Number of Pixels in Spectrum: 2048
>>>>>Begin Spectral Data<<<<<
187.83	-277581.31
188.298	2026.88
188.766	1078
189.233	963.27
189.701	1390.67
190.169	1794.24
190.636	668.06
191.104	502.78
191.571	35.63
192.039	-109.95
192.506	-122.6
192.974	292.22
193.441	-385.43
193.908	-2.36
194.375	26.41
194.842	41.26
195.31	12.23
195.777	111.21
196.244	326.86
196.711	459.91
197.177	607.89
197.644	877.87
198.111	1537.52
198.578	2156.9
199.045	1751.01
199.511	2879.73
199.978	3437.79
200.445	2920.87
200.911	3267.81
201.378	3667.58
201.844	3322.87
202.31	5737.81
202.777	6015.19
203.243	3352.8
203.709	3207.58
204.176	3807.56
204.642	3144.3
205.108	2912.29
205.574	2389.06
206.04	2189.42
206.506	2041.2
206.972	1921.14
207.438	1843.43
207.903	2090.51
208.369	1823.9
208.835	1822.73
209.301	1919.85
209.766	1970.98
210.232	1952.31
210.697	2416.27
211.163	2967.36
211.628	4482.78
212.094	3782.25
212.559	4635.86
213.024	2876.79
213.49	3496.93
213.955	3406.27
214.42	3312.15
214.885	3072.53
215.35	2963.21
215.815	2816.39
216.28	2979.08
216.745	2425.57
217.21	2606.57
217.675	2373.28
218.14	2655.53
218.604	2968.21
219.069	3361.12
219.534	3499.48
219.998	4055.19
220.463	4895.28
220.927	6054.01
221.392	5696.44
221.856	5765.3
222.32	7260.35
222.785	8997.86
223.249	11343.16
223.713	12681.04
224.177	12695.49
224.642	16338.54
225.106	20177.72
225.57	22109.23
226.034	16486.92
226.497	25132.45
226.961	22733.42
227.425	26524.38
227.889	29449.43
228.353	29528.89
228.816	61088.76
229.28	58628.05
229.744	49584.39
230.207	30216.21
230.671	29771.28
231.134	49315.24
231.597	57072.43
232.061	57223.65
232.524	56001.21
232.987	38689.95
233.45	34939.8
233.914	31430.64
234.377	32332.64
234.84	29675.86
235.303	35087.44
235.766	39335.46
236.229	40768.88
236.691	25736.37
237.154	29000.14
237.617	21861.06
238.08	22447.38
238.542	26309.94
239.005	18854.47
239.468	18736.44
239.93	17695.79
240.393	16111.08
240.855	14154.14
241.317	14519.52
241.78	17679.77
242.242	18302.7
242.704	19802.23
243.166	17280.13
243.629	15711.45
244.091	18144.93
244.553	19911.67
245.015	21422.87
245.477	27768.73
245.939	40778.42
246.4	43313.96
246.862	42179.83
247.324	39854.97
247.786	44628.01
248.247	58518.32
248.709	60581.18
249.17	45342.41
249.632	42805.65
250.093	49694.69
250.555	42960.75
251.016	26220.62
251.477	24930.98
251.939	26959.64
252.4	28312.94
252.861	33742.48
253.322	31449.69
253.783	37492.23
254.244	48648.38
254.705	38364.96
255.166	34175.52
255.627	33677.48
256.088	47510.66
256.549	50472.57
257.009	43512.89
257.47	52850.41
257.931	43050.78
258.391	32263.64
258.852	33254.42
259.312	34927.89
259.773	43180.56
260.233	36483.05
260.694	30791.73
261.154	34979.03
261.614	28067.5
262.074	25101.81
262.534	26082
262.994	24596.48
263.455	32799.76
263.915	27656.15
264.374	26060.86
264.834	28467.49
265.294	31575.08
265.754	32721.5
266.214	31005.8
266.673	29112.05
267.133	36771.78
267.593	36502.73
268.052	44698.43
268.512	38877.1
268.971	46861.98
269.431	51390.95
269.89	46065.82
270.349	69099.23
270.809	77081.32
271.268	69296.55
271.727	155464.61
272.186	100673.39
272.645	75607.47
273.104	54543.1
273.563	79072.99
274.022	62267.79
274.481	52962.24
274.94	40811.85
275.399	30357.5
275.857	35371.66
276.316	47852.42
276.775	42599.2
277.233	41941.15
277.692	39231.54
278.15	44446.95
278.609	45736.01
279.067	42341.1
279.525	39371.83
279.984	50865.54
280.442	61140.89
280.9	60240.97
281.358	39676.48
281.816	36988.02
282.274	36288.68
282.732	37540.16
283.19	37743.44
283.648	32601.21
284.106	34761.82
284.564	35385.9
285.021	32842.14
285.479	24494.4
285.937	22305.27
286.394	19574.84
286.852	20174.18
287.309	21227.24
287.767	20536.07
288.224	19523.23
288.682	21425.72
289.139	23538.5
289.596	21564.77
290.053	22449.06
290.511	28395.67
290.968	34506.59
291.425	46902.98
291.882	39061.31
292.339	34007.61
292.796	33768.86
293.252	31865.07
293.709	25362.01
294.166	22751.61
294.623	25192.82
295.079	24210.07
295.536	24353.63
295.992	22133.93
296.449	21915.61
296.905	22809.4
297.362	21899.36
297.818	23071.82
298.274	23962.33
298.731	24439.47
299.187	24225.34
299.643	26017.07
300.099	31482.51
300.555	34550.72
301.011	28902.58
301.467	27878.39
301.923	32691.97
302.379	31969.95
302.835	31432.32
303.291	31527.11
303.746	35934.93
304.202	45480.34
304.658	45724.51
305.113	30817.69
305.569	30227.49
306.024	32298.93
306.479	30797.78
306.935	25963.79
307.39	28416.09
307.845	26288.44
308.301	26486.07
308.756	25848.5
309.211	24910.01
309.666	25560.13
310.121	31732.44
310.576	32254.64
311.031	32001.9
311.486	36717.22
311.94	36738.09
312.395	49165.38
312.85	92402.75
313.305	454510.76
313.759	2352468.9
314.214	170425.28
314.668	135173.43
315.123	113749.82
315.577	40783.07
316.032	36299.04
316.486	45500.56
316.94	35884.5
317.394	24988.39
317.849	19444.67
318.303	18419.59
318.757	17395.55
319.211	19259.02
319.665	16862.47
320.119	17090.55
320.572	24527.53
321.026	22942.93
321.48	19102.28
321.934	20881.85
322.387	20955.61
322.841	22646.8
323.295	20342.12
323.748	23471.62
324.202	23806.21
324.655	28638.42
325.108	39986.28
325.562	28270.53
326.015	33585.47
326.468	25408.27
326.921	28439.77
327.374	26507.28
327.827	27574.3
328.28	31226.73
328.733	20918.65
329.186	18425.66
329.639	17547.98
330.092	14814.1
330.545	14129
330.997	14279.47
331.45	15609.13
331.903	18282.22
332.355	31519.03
332.808	30673.93
333.26	25347.97
333.713	27533.56
334.165	27750.38
334.617	37075.5
335.069	29982.65
335.522	54219.89
335.974	59974.86
336.426	54855.1
336.878	38046.26
337.33	19296.23
337.782	18867.7
338.234	23656.3
338.686	28318.15
339.137	33526.79
339.589	31619.12
340.041	24782.78
340.493	21294.55
340.944	21806.39
341.396	23506.83
341.847	19755.43
342.299	23314.34
342.75	28443.23
343.201	24893.91
343.653	28613.8
344.104	35241.67
344.555	27751.33
345.006	43256.68
345.457	33155.77
345.908	26388.39
346.359	24809.03
346.81	20224.42
347.261	21330.58
347.712	21035.52
348.163	22559.03
348.613	22867.47
349.064	21359.97
349.515	18708.07
349.965	19174.43
350.416	23102.93
350.866	25353
351.317	28714.16
351.767	47576.2
352.217	60149.81
352.668	49926.24
353.118	45720.18
353.568	44149.35
354.018	34925
354.468	36842.72
354.918	26472.84
355.368	23178.01
355.818	32787.6
356.268	94479.87
356.718	395859.87
357.168	98662.92
357.617	49636.49
358.067	55290.2
358.517	51756.96
358.966	60710.77
359.416	68074.31
359.865	73701.54
360.315	87814.67
360.764	41055.71
361.213	23011.68
361.663	21838.44
362.112	26957.64
362.561	43543.98
363.01	32887.17
363.459	27759.32
363.908	30124.55
364.357	25606.59
364.806	43330.3
365.255	29844.74
365.703	27373.09
366.152	27456.54
366.601	22310.43
367.05	18154.82
367.498	16502.33
367.947	17286.64
368.395	18004.49
368.844	15963.19
369.292	19324.58
369.74	13372.03
370.189	20546.22
370.637	24109.61
371.085	20832.82
371.533	25367.5
371.981	24478.88
372.429	23403.56
372.877	24423.28
373.325	20513.99
373.773	20975.9
374.221	18711.34
374.669	23253.38
375.116	20169.38
375.564	20407.48
376.012	22901.44
376.459	18939.76
376.907	22722.19
377.354	27568.89
377.801	25742.01
378.249	29628.43
378.696	37934.47
379.143	46065.31
379.591	49282.84
380.038	83360.51
380.485	60410.98
380.932	65454.38
381.379	59995.63
381.826	44186.31
382.273	31514.42
382.72	27694.92
383.166	27079.77
383.613	17608.8
384.06	15920.2
384.506	18462.03
384.953	13605.57
385.4	13721.24
385.846	12044.79
386.292	11790.4
386.739	11585.76
387.185	11483.74
387.631	11512.66
388.078	11173.32
388.524	11984.1
388.97	11085.91
389.416	9248.49
389.862	9852.7
390.308	9372.72
390.754	9520.28
391.2	10354.58
391.645	10622.79
392.091	10137.07
392.537	9812.71
392.983	9857.91
393.428	9689.17
393.874	10399.3
394.319	10451.3
394.765	9913.66
395.21	10186.78
395.655	9564.86
396.101	8959.11
396.546	8084.34
396.991	8179.06
397.436	7597.69
397.881	7352.88
398.326	6979.94
398.771	6605.18
399.216	5784.31
399.661	5218.62
400.106	5200.81
400.551	5325.58
400.995	4780.28
401.44	4732.28
401.885	4459.02
402.329	4509.81
402.774	4327.28
403.218	4187.42
403.663	4040.84
404.107	4157.2
404.551	4193.98
404.995	3856.87
405.44	3733.43
405.884	3797.68
406.328	3688.55
406.772	3685.24
407.216	3359.47
407.66	3257.49
408.104	3110.04
408.547	2922.28
408.991	2836.73
409.435	2734.26
409.879	2699.54
410.322	2661.9
410.766	2575.74
411.209	2450.09
411.653	2356.66
412.096	2312.84
412.54	2315.03
412.983	2297.64
413.426	2301.96
413.869	2302.96
414.312	2262.37
414.756	2182.77
415.199	2088.88
415.642	2028.57
416.085	2033.03
416.527	2022.5
416.97	2056.65
417.413	1954.85
417.856	1939.37
418.298	1924.1
418.741	1911.69
419.184	1913.24
419.626	1995.46
420.069	1995.65
420.511	2010.51
420.953	1969.83
421.396	1951.88
421.838	1907.21
422.28	1950.86
422.722	1958.92
423.164	1986.5
423.606	1958.51
424.048	1960.32
424.49	1866.21
424.932	1860.38
425.374	1838.65
425.816	1873.34
426.258	1910.8
426.699	1929.75
427.141	1906.03
427.582	1940.93
428.024	1937.06
428.465	1928.61
428.907	1879.56
429.348	1860.43
429.789	1862
430.231	1822.31
430.672	1848.11
431.113	1806.12
431.554	1781.42
431.995	1737.89
432.436	1671.29
432.877	1631.63
433.318	1600.99
433.759	1592.93
434.2	1591.97
434.64	1572.55
435.081	1575.48
435.522	1492.92
435.962	1435.66
436.403	1404.53
436.843	1423.53
437.284	1396.98
437.724	1359.42
438.164	1364.78
438.604	1334.78
439.045	1281.95
439.485	1227.48
439.925	1200.14
440.365	1169.38
440.805	1154.06
441.245	1136.93
441.685	1092.65
442.125	1083.66
442.564	1090.25
443.004	1062.35
443.444	1057.77
443.883	1058.53
444.323	1051.51
444.762	1054.75
445.202	1066.97
445.641	1082.83
446.081	1076.95
446.52	1084.43
446.959	1069.45
447.398	1038.73
447.837	1024.67
448.276	1005.33
448.716	1011.8
449.154	1018.65
449.593	989.23
450.032	983.05
450.471	965.03
450.91	962.12
451.349	956.92
451.787	952
452.226	965.11
452.664	963.36
453.103	962.39
453.541	958.48
453.98	952.64
454.418	958.8
454.856	941.87
455.295	937.19
455.733	943.45
456.171	947.96
456.609	948.85
457.047	948.36
457.485	959.02
457.923	960.58
458.361	947.66
458.798	950.7
459.236	948.01
459.674	954.62
460.111	960.49
460.549	951.76
460.987	949.09
461.424	946.16
461.862	942.18
462.299	930.43
462.736	928.11
463.173	932.19
463.611	921.98
464.048	920.39
464.485	928.09
464.922	919.22
465.359	915.18
465.796	898.53
466.233	891.35
466.67	881.78
467.106	878.93
467.543	870.14
467.98	857.86
468.416	836.76
468.853	829.85
469.29	805.04
469.726	796.24
470.162	774.93
470.599	767.12
471.035	759.51
471.471	742.6
471.907	737.42
472.344	732.95
472.78	734.02
473.216	742.5
473.652	732.44
474.088	729.31
474.523	725.46
474.959	730.29
475.395	722.41
475.831	717.13
476.266	717.68
476.702	714.25
477.138	704.76
477.573	701.51
478.008	696.61
478.444	697.66
478.879	701.31
479.314	702.65
479.75	701.2
480.185	704.65
480.62	709.07
481.055	712.34
481.49	716.16
481.925	725.6
482.36	736.8
482.795	757.37
483.229	777.73
483.664	794.2
484.099	797.37
484.534	807.9
484.968	813.36
485.403	814.64
485.837	812.81
486.271	809.88
486.706	809.4
487.14	799.62
487.574	784.49
488.009	775.29
488.443	766.73
488.877	770.58
489.311	771.19
489.745	778.1
490.179	783.06
490.613	793.85
491.046	797.19
491.48	799.21
491.914	796.09
492.348	797.97
492.781	798.98
493.215	796.66
493.648	794.88
494.082	796.34
494.515	791.49
494.948	794
495.382	794.26
495.815	793.91
496.248	793.85
496.681	801.49
497.114	807.67
497.547	811.8
497.98	817.82
498.413	816.57
498.846	818.85
499.279	819.74
499.711	816.58
500.144	810.77
500.577	812.37
501.009	814.95
501.442	815.98
501.874	808.43
502.306	801.18
502.739	799.22
503.171	803.11
503.603	796.66
504.036	794.98
504.468	790.06
504.9	790
505.332	786.04
505.764	779.37
506.196	774.15
506.627	775.17
507.059	775.5
507.491	771.97
507.923	759.97
508.354	760.38
508.786	758.01
509.217	761.05
509.649	761.28
510.08	764.32
510.512	766.08
510.943	766.32
511.374	763.77
511.805	767.22
512.237	769.66
512.668	781.24
513.099	788.96
513.53	796.6
513.961	799.5
514.391	810.09
514.822	821.27
515.253	834.3
515.684	841
516.114	849.77
516.545	853.65
516.975	859.84
517.406	861.2
517.836	853.9
518.267	850.95
518.697	854.99
519.127	850.01
519.558	847.6
519.988	842.45
520.418	841.39
520.848	845.15
521.278	844.28
521.708	865.8
522.138	868.76
522.567	881.69
522.997	890.73
523.427	894.63
523.857	900.83
524.286	902.92
524.716	908.49
525.145	916.1
525.575	919.48
526.004	924.29
526.433	901.6
526.863	899.87
527.292	893.66
527.721	895.55
528.15	897.13
528.579	896.15
529.008	901.33
529.437	911.65
529.866	917.18
530.295	925.15
530.724	931.58
531.152	943.88
531.581	950.57
532.01	959.05
532.438	962.23
532.867	969.22
533.295	979.43
533.723	981.24
534.152	980.26
534.58	980.14
535.008	972.04
535.436	973.43
535.865	978.43
536.293	986.12
536.721	994.24
537.149	1008.05
537.576	1010.17
538.004	1016.26
538.432	1020.18
538.86	1019.19
539.287	1023.57
539.715	1031.26
540.143	1031.35
540.57	1029.09
540.998	1026.38
541.425	1014.72
541.852	1003.93
542.28	1002.12
542.707	992.87
543.134	985.55
543.561	982.55
543.988	977.92
544.415	977.38
544.842	974.57
545.269	971.05
545.696	972.41
546.123	978.58
546.549	972.04
546.976	965.6
547.403	964.43
547.829	965.2
548.256	966.29
548.682	964.42
549.108	960.4
549.535	960.18
549.961	960.07
550.387	952.21
550.813	948.82
551.24	952.27
551.666	951.65
552.092	945.99
552.518	941.96
552.943	939.01
553.369	942.57
553.795	944.06
554.221	944
554.646	941.45
555.072	947.64
555.498	949.27
555.923	953.19
556.349	961.31
556.774	966.47
557.199	966.33
557.625	967.57
558.05	964.17
558.475	968.97
558.9	967.82
559.325	963.96
559.75	958.9
560.175	955.11
560.6	950.63
561.025	947.66
561.449	947.03
561.874	949.14
562.299	951.87
562.723	954.73
563.148	949.04
563.572	950.35
563.997	954.82
564.421	957.12
564.846	956.87
565.27	959.45
565.694	958.77
566.118	963.66
566.542	968.04
566.966	963.6
567.39	960.33
567.814	955.11
568.238	955.03
568.662	957.49
569.086	958.94
569.509	962.84
569.933	955.07
570.357	950.7
570.78	940.63
571.204	935.33
571.627	931.4
572.05	931.61
572.474	932.29
572.897	926.87
573.32	924.76
573.743	920.3
574.166	912.64
574.589	913.58
575.012	911.43
575.435	912.04
575.858	907.81
576.281	903.52
576.704	895.63
577.126	889.83
577.549	884.97
577.972	879.89
578.394	876.43
578.817	874.6
579.239	865.27
579.661	859.99
580.084	854.16
580.506	848.09
580.928	846.76
581.35	842.78
581.772	841.87
582.194	836.32
582.616	830.86
583.038	824.18
583.46	818.39
583.882	818.07
584.303	819.96
584.725	817.85
585.147	822.57
585.568	829.09
585.99	837.25
586.411	842.27
586.833	851.42
587.254	853.67
587.675	861.92
588.096	870
588.518	868.26
588.939	860.7
589.36	860.83
589.781	853.01
590.202	839.64
590.623	835.4
591.043	834.35
591.464	827.07
591.885	825.55
592.305	822.76
592.726	815.75
593.147	816.71
593.567	813.94
593.987	809.95
594.408	807.65
594.828	805.47
595.248	802.44
595.669	793.66
596.089	790.1
596.509	786.58
596.929	779.47
597.349	780.15
597.769	775.18
598.189	772.86
598.608	773.88
599.028	775.3
599.448	775.18
599.867	768.75
600.287	765.93
600.706	764.85
601.126	760.43
601.545	760.99
601.965	761.05
602.384	758.79
602.803	760.46
603.222	758.6
603.641	755.46
604.061	755.11
604.48	753.8
604.898	759.58
605.317	762.95
605.736	765.37
606.155	765.86
606.574	762.02
606.992	766.49
607.411	766.69
607.829	764.25
608.248	765.05
608.666	765.83
609.085	767.97
609.503	765.61
609.921	765.37
610.339	768.34
610.758	769.81
611.176	769.76
611.594	767.01
612.012	767.29
612.43	771.72
612.847	777.97
613.265	781.29
613.683	786.43
614.101	790.2
614.518	790.4
614.936	787.3
615.353	781.41
615.771	782.94
616.188	785.93
616.606	785.94
617.023	784.69
617.44	777.77
617.857	775.07
618.274	772.01
618.691	770.34
619.108	766.37
619.525	764.89
619.942	769.96
620.359	773.1
620.776	771.63
621.192	770.65
621.609	770.57
622.026	776.72
622.442	782.39
622.859	785.43
623.275	782.03
623.691	785.95
624.108	794.1
624.524	804.41
624.94	805.31
625.356	811.92
625.772	820.78
626.188	828.47
626.604	830.88
627.02	828.96
627.436	827.56
627.852	832.21
628.268	840.9
628.683	835.68
629.099	830.68
629.514	827.51
629.93	830.49
630.345	833.59
630.761	831.66
631.176	833.78
631.591	831.59
632.007	829.91
632.422	829.47
632.837	822.84
633.252	822.96
633.667	818.77
634.082	815.07
634.497	809.06
634.911	799.78
635.326	800.08
635.741	790.93
636.155	786.54
636.57	790.57
636.984	793.15
637.399	798.38
637.813	801.52
638.228	804.86
638.642	811.36
639.056	809.13
639.47	814.32
639.884	813.13
640.298	815.52
640.712	820.49
641.126	818.12
641.54	818.52
641.954	820.78
642.368	819.49
642.781	820.29
643.195	814.11
643.609	821.41
644.022	824.15
644.436	828.24
644.849	826.14
645.262	824.72
645.676	832.61
646.089	836.36
646.502	833.11
646.915	835.06
647.328	828.65
647.741	834.23
648.154	829.72
648.567	832.38
648.98	827.3
649.393	832.63
649.805	833.57
650.218	830.89
650.631	821.81
651.043	820.33
651.456	819.07
651.868	823.19
652.28	840.37
652.693	855.32
653.105	863.92
653.517	875.06
653.929	877.92
654.341	886.45
654.753	879.99
655.165	889.82
655.577	891.9
655.989	892.89
656.401	891.08
656.813	865.49
657.224	853.2
657.636	834.08
658.047	825.7
658.459	815.37
658.87	814.61
659.282	811.53
659.693	800.26
660.104	794.41
660.515	789.8
660.926	795.58
661.338	801.87
661.749	804.52
662.159	804.2
662.57	807.16
662.981	810.17
663.392	810
663.803	821.87
664.213	826.63
664.624	829.01
665.035	838.39
665.445	831.42
665.855	829.31
666.266	827.91
666.676	830.43
667.086	826.29
667.497	832.26
667.907	831.38
668.317	826.83
668.727	827.83
669.137	833.78
669.547	835.62
669.956	843.1
670.366	849.43
670.776	853.62
671.186	861.84
671.595	868.82
672.005	873.76
672.414	874.87
672.824	875.11
673.233	881.61
673.642	884.95
674.052	888.56
674.461	889.68
674.87	895.66
675.279	892.73
675.688	894.84
676.097	896.06
676.506	893.1
676.915	910.51
677.323	912.76
677.732	910.39
678.141	908.68
678.549	895.91
678.958	894.11
679.366	890.64
679.775	893.99
680.183	902.97
680.592	906.6
681	909.48
681.408	895.41
681.816	898.03
682.224	901.17
682.632	904.26
683.04	927.2
683.448	944.64
683.856	965.51
684.264	990.18
684.671	1008.14
685.079	1031.03
685.487	1055.51
685.894	1096.27
686.302	1121.2
686.709	1134
687.116	1150.58
687.524	1156.74
687.931	1154.73
688.338	1147.62
688.745	1134.22
689.152	1124.19
689.559	1123.57
689.966	1119.99
690.373	1100.88
690.78	1096.02
691.187	1107.45
691.593	1107.73
692	1105.28
692.407	1116.06
692.813	1135
693.22	1146.45
693.626	1158.5
694.032	1165.09
694.439	1189.59
694.845	1205.24
695.251	1231.44
695.657	1254.95
696.063	1297.71
696.469	1327.14
696.875	1355.79
697.281	1372.06
697.687	1393.44
698.093	1413.1
698.498	1455.29
698.904	1489.47
699.31	1540.31
699.715	1581.45
700.12	1638.94
700.526	1658.17
700.931	1708.25
701.337	1749.12
701.742	1780.62
702.147	1844.3
702.552	1879.13
702.957	1929.88
703.362	1958.24
703.767	1994.56
704.172	2036.83
