Data from C_1_DEC_NC_4N_Splice17_11-43-51-133.txt Node
Date: Sat Mar 14 11:43:51 EDT 2020
User: sa697716
Spectrometer: FLMS03696
Trigger mode: 0
Integration Time (sec): 3.180400E-1
Scans to average: 20
Electric dark correction enabled: true
Nonlinearity correction enabled: true
Boxcar width: 5
XAxis mode: Wavelengths
Number of Pixels in Spectrum: 2048
>>>>>Begin Spectral Data<<<<<
187.83	-102811.52
188.298	782.93
188.766	516.99
189.233	478.02
189.701	639.33
190.169	841.63
190.636	301.07
191.104	299.99
191.571	36.45
192.039	-102.1
192.506	-97.15
192.974	401.18
193.441	-773.9
193.908	-299.24
194.375	-59.16
194.842	-60.88
195.31	-66.22
195.777	89.58
196.244	354.81
196.711	676.76
197.177	903.29
197.644	1380.16
198.111	2378
198.578	3342
199.045	2680.14
199.511	4394.54
199.978	5157.03
200.445	4283.95
200.911	4752.23
201.378	5357.71
201.844	4712.91
202.31	7977.28
202.777	8186.83
203.243	4468.92
203.709	4229.04
204.176	5003.76
204.642	4073.89
205.108	3779.82
205.574	3101.3
206.04	2834.06
206.506	2633.29
206.972	2501.32
207.438	2395.92
207.903	2716.96
208.369	2386.75
208.835	2337.75
209.301	2418.63
209.766	2460.06
210.232	2386.58
210.697	2914.83
211.163	3549.79
211.628	5299.68
212.094	4358.62
212.559	5232.54
213.024	3201.31
213.49	3807.79
213.955	3680.09
214.42	3568.78
214.885	3274.02
215.35	3111.51
215.815	2907.08
216.28	3006.5
216.745	2368.43
217.21	2434.25
217.675	2118.17
218.14	2225.35
218.604	2283.41
219.069	2373.99
219.534	2275.97
219.998	2417.79
220.463	2667.43
220.927	2967.72
221.392	2543.62
221.856	2375.59
222.32	2749.51
222.785	3158.04
223.249	3716.3
223.713	3926.89
224.177	3738.43
224.642	4538.43
225.106	5298.98
225.57	5498.19
226.034	3961.34
226.497	5800.07
226.961	5054.38
227.425	5771.54
227.889	6180.98
228.353	5941.59
228.816	11827.3
229.28	10971.66
229.744	8937.23
230.207	5335.82
230.671	5138.25
231.134	8232.18
231.597	9286.69
232.061	9038.39
232.524	8500.93
232.987	5749.73
233.45	5111.93
233.914	4520.2
234.377	4515.69
234.84	4071.17
235.303	4708.64
235.766	5186.21
236.229	5262.29
236.691	3277.07
237.154	3653.39
237.617	2749.89
238.08	2795.99
238.542	3230.05
239.005	2325.64
239.468	2308.77
239.93	2170.68
240.393	1967.96
240.855	1724.48
241.317	1748.65
241.78	2104.84
242.242	2181.85
242.704	2366.8
243.166	2044.67
243.629	1871.78
244.091	2130.91
244.553	2320.75
245.015	2506.14
245.477	3199.22
245.939	4621.32
246.4	4905.06
246.862	4711.73
247.324	4378.39
247.786	4806.63
248.247	6229.91
248.709	6309.88
249.17	4673.63
249.632	4470.1
250.093	5200.89
250.555	4509.43
251.016	2779.21
251.477	2630.48
251.939	2858.19
252.4	3002.03
252.861	3567.38
253.322	3364.68
253.783	3985.63
254.244	5181.33
254.705	4037.1
255.166	3530.06
255.627	3462.14
256.088	4870.89
256.549	5171.86
257.009	4406.82
257.47	5298.89
257.931	4267.72
258.391	3171.68
258.852	3250.59
259.312	3366.69
259.773	4093.22
260.233	3475.62
260.694	2913.21
261.154	3256.01
261.614	2611.92
262.074	2303.64
262.534	2400.59
262.994	2258.08
263.455	2936.28
263.915	2461.93
264.374	2288.78
264.834	2475.76
265.294	2673.5
265.754	2751.92
266.214	2573.35
266.673	2386.56
267.133	2982.89
267.593	2883.3
268.052	3499.54
268.512	3037.36
268.971	3676
269.431	4026.2
269.89	3572.08
270.349	5363.96
270.809	5956.6
271.268	5338.2
271.727	11751.79
272.186	7634.78
272.645	5713.23
273.104	4055.1
273.563	5822.23
274.022	4506.29
274.481	3861.7
274.94	2993.58
275.399	2220.97
275.857	2575.83
276.316	3497.88
276.775	3155.94
277.233	3127.34
277.692	2989.27
278.15	3427.5
278.609	3630.26
279.067	3413.9
279.525	3219.5
279.984	4187.68
280.442	5058.89
280.9	5096.59
281.358	3404.23
281.816	3226.61
282.274	3201.2
282.732	3332.37
283.19	3416.24
283.648	2974.58
284.106	3188.35
284.564	3256.06
285.021	3105.64
285.479	2372.69
285.937	2167.92
286.394	1939.3
286.852	1991.87
287.309	2120.54
287.767	2099.43
288.224	2016.05
288.682	2213.46
289.139	2443.5
289.596	2258.37
290.053	2323.12
290.511	2870.09
290.968	3479.4
291.425	4645.47
291.882	3927.87
292.339	3387.18
292.796	3303.19
293.252	3079.21
293.709	2459.02
294.166	2189.76
294.623	2387.93
295.079	2273.84
295.536	2326.04
295.992	2115.46
296.449	2091.92
296.905	2154.2
297.362	2090.15
297.818	2180.26
298.274	2285.66
298.731	2304.66
299.187	2291.69
299.643	2460.68
300.099	2973.63
300.555	3257.49
301.011	2738.03
301.467	2711.23
301.923	3140.75
302.379	3084.35
302.835	3052.83
303.291	3077.58
303.746	3525.44
304.202	4493.99
304.658	4567.3
305.113	3120.81
305.569	3071.01
306.024	3269.9
306.479	3076.48
306.935	2656.87
307.39	2901.6
307.845	2688.03
308.301	2741.34
308.756	2693.8
309.211	2628.06
309.666	2722.47
310.121	3447.38
310.576	3548.75
311.031	3534.8
311.486	4048.06
311.94	4043.04
312.395	5452.34
312.85	10459.46
313.305	51291.25
313.759	271704.64
314.214	19770.85
314.668	15842.97
315.123	13452.21
315.577	4866.06
316.032	4404.77
316.486	5554.63
316.94	4460.57
317.394	3133.42
317.849	2432.51
318.303	2294.05
318.757	2175.3
319.211	2407.22
319.665	2097.67
320.119	2091.01
320.572	2970.11
321.026	2767.84
321.48	2316.5
321.934	2498.64
322.387	2488.61
322.841	2696.87
323.295	2460.9
323.748	2786.28
324.202	2829.68
324.655	3432.84
325.108	4915.2
325.562	3503.98
326.015	4165.24
326.468	3175.26
326.921	3580.01
327.374	3399.51
327.827	3589.52
328.28	4076.47
328.733	2789.14
329.186	2479.47
329.639	2370.65
330.092	1992.77
330.545	1922.25
330.997	1966.33
331.45	2177.14
331.903	2588.02
332.355	4408.7
332.808	4303.54
333.26	3576.64
333.713	3896.62
334.165	3970
334.617	5337.75
335.069	4292.53
335.522	7755.98
335.974	8656.95
336.426	7914.42
336.878	5421.21
337.33	2804.15
337.782	2751.45
338.234	3490.7
338.686	4175.24
339.137	4939.99
339.589	4647.74
340.041	3702.48
340.493	3195.26
340.944	3269.61
341.396	3538.07
341.847	3031.95
342.299	3591.73
342.75	4409.89
343.201	3787.17
343.653	4330.62
344.104	5252.52
344.555	4108.2
345.006	6259.16
345.457	4838.34
345.908	3817.03
346.359	3608.22
346.81	2915.41
347.261	3022.2
347.712	2938.92
348.163	3167.12
348.613	3279.87
349.064	3085.67
349.515	2716.89
349.965	2823.45
350.416	3349.76
350.866	3689.63
351.317	4139.92
351.767	6906.76
352.217	8765.12
352.668	7324.34
353.118	6761.18
353.568	6425.06
354.018	5179.81
354.468	5534.05
354.918	4007.71
355.368	3557.45
355.818	5049.65
356.268	14460.64
356.718	61323.74
357.168	15515.74
357.617	7849.11
358.067	8763.49
358.517	8291.78
358.966	9824.6
359.416	11095.14
359.865	12006.94
360.315	14333.7
360.764	6766.18
361.213	3857.62
361.663	3632.79
362.112	4479.6
362.561	7264.24
363.01	5497.26
363.459	4623.44
363.908	4922.34
364.357	4229.96
364.806	7159.27
365.255	4960.57
365.703	4576
366.152	4615.38
366.601	3779.33
367.05	3096.77
367.498	2836.37
367.947	2962.89
368.395	3087.59
368.844	2790.45
369.292	3328.16
369.74	2318.78
370.189	3529.69
370.637	4135.28
371.085	3603.35
371.533	4376.13
371.981	4218.76
372.429	4073.29
372.877	4278.73
373.325	3644.94
373.773	3704.2
374.221	3325.06
374.669	4143.45
375.116	3637.5
375.564	3690.79
376.012	4107.9
376.459	3444.97
376.907	4165.99
377.354	5021.23
377.801	4754.49
378.249	5555.54
378.696	7180.63
379.143	8825.18
379.591	9576.81
380.038	16355.46
380.485	12116.56
380.932	13535.66
381.379	12883.32
381.826	9932.37
382.273	7405.14
382.72	6819.73
383.166	6995.78
383.613	4839.09
384.06	4653.8
384.506	5774.56
384.953	4595.42
385.4	5024.5
385.846	4811.7
386.292	5181.93
386.739	5621.38
387.185	6219.86
387.631	6951.37
388.078	7577.32
388.524	8995.43
388.97	9096.14
389.416	8149.51
389.862	9128.09
390.308	9075.82
390.754	9742.13
391.2	11356.36
391.645	12668.27
392.091	13180.72
392.537	13795.41
392.983	14735.1
393.428	15158.08
393.874	17106.06
394.319	18403.92
394.765	19109.5
395.21	21704.66
395.655	22315.05
396.101	22584.89
396.546	21773.14
396.991	23445.52
397.436	23097.7
397.881	23769.34
398.326	24195.54
398.771	24371.02
399.216	22646.24
399.661	21451.54
400.106	22205.97
400.551	23510.73
400.995	21751.29
401.44	22092.11
401.885	21198.56
402.329	21808.17
402.774	21223.89
403.218	20724.39
403.663	20309.43
404.107	21191.91
404.551	21683.45
404.995	20288.73
405.44	19967.92
405.884	20675.9
406.328	20395.19
406.772	20687.36
407.216	19190.77
407.66	18953
408.104	18477.44
408.547	17624.87
408.991	17332.41
409.435	16916.12
409.879	16820.05
410.322	16767.64
410.766	16333.83
411.209	15704.55
411.653	15300.5
412.096	15170.01
412.54	15393.55
412.983	15481.46
413.426	15666.5
413.869	15857.2
414.312	15735.53
414.756	15406.66
415.199	14909.07
415.642	14661.24
416.085	14858.81
416.527	14927.64
416.97	15344.22
417.413	14648.31
417.856	14568.6
418.298	14458.55
418.741	14380.43
419.184	14366.21
419.626	15003.67
420.069	14989.51
420.511	15085.08
420.953	14761.03
421.396	14667.57
421.838	14363.66
422.28	14744.34
422.722	14913.66
423.164	15328.11
423.606	15255.82
424.048	15425.8
424.49	14755.27
424.932	14840.63
425.374	14776.48
425.816	15161.33
426.258	15450.58
426.699	15514.6
427.141	15089.6
427.582	15193.29
428.024	15018.02
428.465	14938.76
428.907	14621.44
429.348	14570.88
429.789	14635.42
430.231	14370.83
430.672	14604.17
431.113	14387.18
431.554	14393.09
431.995	14416.65
432.436	14153.55
432.877	14086.35
433.318	13984.46
433.759	14102.71
434.2	14230.65
434.64	14226.4
435.081	14404.64
435.522	13831.18
435.962	13510.64
436.403	13396.75
436.843	13771.65
437.284	13671.8
437.724	13476.76
438.164	13698.74
438.604	13502.34
439.045	13029.26
439.485	12521.66
439.925	12362.03
440.365	12141.43
440.805	12057.35
441.245	11899.13
441.685	11481.31
442.125	11422.67
442.564	11499.93
443.004	11205.48
443.444	11182.24
443.883	11213.72
444.323	11213.85
444.762	11327.14
445.202	11510.57
445.641	11693.56
446.081	11722.05
446.52	11792.15
446.959	11677.8
447.398	11399.87
447.837	11293.4
448.276	11118.25
448.716	11230.88
449.154	11338.61
449.593	10999.51
450.032	10903.66
450.471	10693.99
450.91	10643.97
451.349	10534.77
451.787	10441.34
452.226	10517.27
452.664	10437.57
453.103	10368.24
453.541	10271.57
453.98	10092.01
454.418	10058.32
454.856	9770.72
455.295	9661.46
455.733	9608.25
456.171	9577.79
456.609	9477.01
457.047	9359.91
457.485	9382.85
457.923	9309.4
458.361	9136.35
458.798	9150.47
459.236	9101.63
459.674	9191.3
460.111	9217.28
460.549	9142.22
460.987	9144.85
461.424	9138.62
461.862	9133.51
462.299	9023.74
462.736	9017.14
463.173	9079.75
463.611	8959.52
464.048	8959.84
464.485	9050.64
464.922	9016.55
465.359	9028.68
465.796	8803.34
466.233	8788.42
466.67	8724.41
467.106	8739.55
467.543	8730.61
467.98	8671.85
468.416	8544.24
468.853	8543.36
469.29	8340.93
469.726	8287.46
470.162	8094.37
470.599	8129.88
471.035	8085.28
471.471	7921.45
471.907	7915.93
472.344	7873.98
472.78	7866.48
473.216	7947.72
473.652	7812.96
474.088	7763.29
474.523	7674.43
474.959	7699.33
475.395	7578.54
475.831	7461.57
476.266	7442.32
476.702	7358.14
477.138	7201.98
477.573	7112.64
478.008	7006.23
478.444	6945.6
478.879	6906.36
479.314	6858.72
479.75	6770.41
480.185	6727.77
480.62	6709.78
481.055	6662.22
481.49	6613.62
481.925	6613.54
482.36	6594.89
482.795	6670.18
483.229	6745.15
483.664	6772.77
484.099	6693.15
484.534	6686.14
484.968	6653.11
485.403	6587.95
485.837	6511.74
486.271	6431.37
486.706	6377.27
487.14	6286.3
487.574	6152.04
488.009	6067.08
488.443	5986.27
488.877	5996.62
489.311	5980.55
489.745	6004.96
490.179	6013.56
490.613	6059.42
491.046	6073.35
491.48	6080.84
491.914	6045.2
492.348	6051.06
492.781	6051.46
493.215	6040.61
493.648	6042.69
494.082	6067.22
494.515	6044.69
494.948	6074.38
495.382	6098.75
495.815	6099.73
496.248	6106.98
496.681	6180.21
497.114	6242.05
497.547	6277.47
497.98	6325.93
498.413	6307.1
498.846	6326.21
499.279	6348.26
499.711	6344.19
500.144	6318.72
500.577	6344.77
501.009	6383.83
501.442	6398.91
501.874	6353.66
502.306	6337.71
502.739	6337.41
503.171	6428.08
503.603	6415.59
504.036	6441.65
504.468	6434.73
504.9	6465.67
505.332	6469.47
505.764	6449.13
506.196	6454.51
506.627	6502.76
507.059	6534.03
507.491	6557.35
507.923	6466.83
508.354	6502.23
508.786	6510.17
509.217	6562.19
509.649	6592.8
510.08	6647.83
510.512	6676.33
510.943	6695.97
511.374	6692.58
511.805	6741.03
512.237	6785
512.668	6912.06
513.099	6995.01
513.53	7059.92
513.961	7075.64
514.391	7155.08
514.822	7226.45
515.253	7324.83
515.684	7362.52
516.114	7423.86
516.545	7432.95
516.975	7469.3
517.406	7459.98
517.836	7380.62
518.267	7327.81
518.697	7336.03
519.127	7277.86
519.558	7238.39
519.988	7176.85
520.418	7149.92
520.848	7151.78
521.278	7112.42
521.708	6927.81
522.138	6911.13
522.567	6974.6
522.997	7008.99
523.427	7002.19
523.857	6997.52
524.286	6972.43
524.716	6968.59
525.145	6977.92
525.575	6961.72
526.004	6967.13
526.433	7044.36
526.863	6992.96
527.292	6895.51
527.721	6871.63
528.15	6858.09
528.579	6823.74
529.008	6833.88
529.437	6892.95
529.866	6915.25
530.295	6949.3
530.724	6956.77
531.152	7027
531.581	7043.83
532.01	7083.92
532.438	7088.67
532.867	7119.12
533.295	7165.21
533.723	7163.46
534.152	7132.11
534.58	7108.13
535.008	7028.21
535.436	7017.69
535.865	7032.17
536.293	7076.05
536.721	7124.25
537.149	7205.8
537.576	7203.04
538.004	7246.09
538.432	7271.24
538.86	7258.85
539.287	7287.09
539.715	7338.12
540.143	7358.29
540.57	7352.51
540.998	7350.68
541.425	7262.63
541.852	7199.8
542.28	7207.82
542.707	7163.2
543.134	7123.87
543.561	7121.76
543.988	7106.88
544.415	7124.36
544.842	7120.21
545.269	7104.79
545.696	7122.99
546.123	7199.96
546.549	7173.84
546.976	7134.97
547.403	7143.68
547.829	7168.16
548.256	7196
548.682	7194.69
549.108	7176.08
549.535	7190.42
549.961	7213.36
550.387	7173.36
550.813	7157.64
551.24	7195.74
551.666	7214.53
552.092	7187.39
552.518	7175.92
552.943	7157.68
553.369	7205.15
553.795	7242.42
554.221	7251.6
554.646	7249.63
555.072	7291.73
555.498	7323.49
555.923	7367.93
556.349	7432.6
556.774	7473.66
557.199	7481.22
557.625	7520.76
558.05	7496.61
558.475	7543.15
558.9	7542.69
559.325	7510.06
559.75	7493.57
560.175	7473.66
560.6	7455.1
561.025	7449.55
561.449	7458.26
561.874	7481.83
562.299	7490.19
562.723	7521.95
563.148	7474.49
563.572	7488.15
563.997	7526.56
564.421	7546.38
564.846	7541.97
565.27	7542.57
565.694	7525.96
566.118	7555.09
566.542	7570.32
566.966	7532.5
567.39	7494.31
567.814	7436.81
568.238	7425.71
568.662	7439.67
569.086	7443.27
569.509	7476.96
569.933	7417.57
570.357	7404.56
570.78	7339.82
571.204	7304.89
571.627	7292.79
572.05	7324.93
572.474	7363.68
572.897	7362.17
573.32	7378.93
573.743	7398.76
574.166	7371.64
574.589	7437.08
575.012	7461.26
575.435	7523.85
575.858	7551.67
576.281	7570.26
576.704	7568.28
577.126	7584.79
577.549	7598.02
577.972	7623.93
578.394	7637.97
578.817	7658.22
579.239	7635.03
579.661	7631.91
580.084	7606.37
580.506	7605.48
580.928	7647.71
581.35	7652.57
581.772	7684.42
582.194	7669.39
582.616	7651.61
583.038	7632.01
583.46	7634.94
583.882	7657.72
584.303	7724.37
584.725	7750.62
585.147	7761.71
585.568	7831.75
585.99	7899.38
586.411	7937.13
586.833	8016.96
587.254	8033.2
587.675	8118.99
588.096	8198.25
588.518	8184.82
588.939	8107.39
589.36	8105.96
589.781	8101.5
590.202	7954.99
590.623	7937.22
591.043	7952.4
591.464	7904.69
591.885	7894.54
592.305	7870.11
592.726	7798.29
593.147	7798.27
593.567	7764.04
593.987	7714.1
594.408	7673.31
594.828	7665.49
595.248	7606.15
595.669	7477.02
596.089	7413.62
596.509	7358.37
596.929	7254.81
597.349	7225.64
597.769	7140.89
598.189	7069.45
598.608	7040.56
599.028	7010.66
599.448	6977.12
599.867	6886.1
600.287	6845.34
600.706	6794.38
601.126	6717.18
601.545	6686.96
601.965	6663.88
602.384	6624.93
602.803	6630.45
603.222	6594.84
603.641	6560.59
604.061	6535.99
604.48	6519.81
604.898	6560.91
605.317	6594.6
605.736	6614.71
606.155	6609.93
606.574	6576.92
606.992	6616.04
607.411	6605.75
607.829	6590.66
608.248	6596.62
608.666	6610.88
609.085	6627.46
609.503	6606.21
609.921	6595.66
610.339	6627.81
610.758	6651.06
611.176	6651.53
611.594	6629.83
612.012	6638.94
612.43	6671.55
612.847	6724.85
613.265	6740.44
613.683	6783.78
614.101	6810.84
614.518	6818.74
614.936	6792.23
615.353	6739.88
615.771	6745.95
616.188	6770.95
616.606	6776.1
617.023	6766.99
617.44	6717.11
617.857	6715.04
618.274	6696.19
618.691	6683.19
619.108	6652.74
619.525	6637.18
619.942	6681.42
620.359	6704.81
620.776	6685.54
621.192	6663.93
621.609	6652.85
622.026	6683.82
622.442	6711.39
622.859	6727.9
623.275	6691.36
623.691	6720.59
624.108	6780.8
624.524	6859.3
624.94	6857.31
625.356	6907
625.772	6979.46
626.188	7043.82
626.604	7051.63
627.02	7029.64
627.436	7016.01
627.852	7045.94
628.268	7103.7
628.683	7057.62
629.099	7012.71
629.514	6998.13
629.93	7027.88
630.345	7061.43
630.761	7051.32
631.176	7083.18
631.591	7056.57
632.007	7039.25
632.422	7056.03
632.837	7017.76
633.252	7018.55
633.667	6987.9
634.082	6960.12
634.497	6912.88
634.911	6824.84
635.326	6835.62
635.741	6774.12
636.155	6760.1
636.57	6794.06
636.984	6823.69
637.399	6859.9
637.813	6901.2
638.228	6932.56
638.642	6998.5
639.056	6982.68
639.47	7033.86
639.884	7027.84
640.298	7036.04
640.712	7072.22
641.126	7051.58
641.54	7057.16
641.954	7093.45
642.368	7067.54
642.781	7054.14
643.195	6996.92
643.609	7046.86
644.022	7058.6
644.436	7080.26
644.849	7052.61
645.262	7024.55
645.676	7083.04
646.089	7085.29
646.502	7012.5
646.915	7017.84
647.328	6962.39
647.741	6985.11
648.154	6939
648.567	6934.83
648.98	6875.78
649.393	6914.16
649.805	6924.64
650.218	6907.36
650.631	6826.35
651.043	6821.34
651.456	6805.46
651.868	6834.67
652.28	6972.38
652.693	7070.8
653.105	7119.97
653.517	7173.56
653.929	7159.15
654.341	7192.53
654.753	7107.41
655.165	7172.21
655.577	7177.34
655.989	7182.41
656.401	7172.61
656.813	6955.86
657.224	6877.93
657.636	6764.5
658.047	6716.46
658.459	6660.85
658.87	6682.55
659.282	6675.26
659.693	6577.36
660.104	6523.81
660.515	6478.48
660.926	6517.45
661.338	6557.13
661.749	6565.46
662.159	6534.13
662.57	6561.92
662.981	6574.71
663.392	6559
663.803	6635.17
664.213	6668.6
664.624	6686.11
665.035	6755.81
665.445	6687.19
665.855	6657.27
666.266	6614.88
666.676	6630.33
667.086	6581.37
667.497	6594.35
667.907	6562.45
668.317	6502.81
668.727	6457.25
669.137	6479.11
669.547	6466.98
669.956	6499.25
670.366	6521.81
670.776	6539.08
671.186	6578.88
671.595	6602.61
672.005	6637.19
672.414	6619.83
672.824	6591.85
673.233	6657.51
673.642	6663.87
674.052	6669.67
674.461	6664.22
674.87	6697.82
675.279	6654.63
675.688	6663.76
676.097	6650.38
676.506	6602.49
676.915	6714.81
677.323	6724.93
677.732	6691.41
678.141	6674.23
678.549	6577.09
678.958	6560.34
679.366	6536.61
679.775	6571.24
680.183	6601.59
680.592	6626.17
681	6641.97
681.408	6543.94
681.816	6564.25
682.224	6593.04
682.632	6598.49
683.04	6763.82
683.448	6868.24
683.856	6985.01
684.264	7110.08
684.671	7221.81
685.079	7363.29
685.487	7516.54
685.894	7776.78
686.302	7938.05
686.709	8003.61
687.116	8111.45
687.524	8136.54
687.931	8126.28
688.338	8099
688.745	8058.73
689.152	8025.95
689.559	8042.6
689.966	8031.9
690.373	7898.09
690.78	7860.39
691.187	7929.8
691.593	7913.17
692	7866.16
692.407	7906.27
692.813	7990.15
693.22	8014.96
693.626	8061.82
694.032	8048.01
694.439	8148.81
694.845	8191.34
695.251	8292.68
695.657	8356.49
696.063	8544.1
