Data from C_1_HIR_WI_4N_Splice17_11-41-52-409.txt Node
Date: Sat Mar 14 11:41:52 EDT 2020
User: sa697716
Spectrometer: FLMS03696
Trigger mode: 0
Integration Time (sec): 3.180400E-1
Scans to average: 20
Electric dark correction enabled: true
Nonlinearity correction enabled: true
Boxcar width: 5
XAxis mode: Wavelengths
Number of Pixels in Spectrum: 2048
>>>>>Begin Spectral Data<<<<<
187.83	-188015.65
188.298	1386.2
188.766	847.76
189.233	703.81
189.701	1003.44
190.169	1372.45
190.636	518.94
191.104	390.15
191.571	17.33
192.039	-47.19
192.506	-54.87
192.974	314.86
193.441	-626.54
193.908	-86.23
194.375	-52.36
194.842	39.55
195.31	93.17
195.777	143.55
196.244	251.04
196.711	126.55
197.177	110.63
197.644	78.94
198.111	110.98
198.578	150.17
199.045	119.95
199.511	143.05
199.978	81.17
200.445	81.02
200.911	50.4
201.378	-25.84
201.844	15.18
202.31	-15.16
202.777	-1.82
203.243	2.89
203.709	-22.31
204.176	-57.01
204.642	-41.17
205.108	-22.92
205.574	-31.58
206.04	-53.88
206.506	-56.42
206.972	-72.08
207.438	-79.77
207.903	-105.1
208.369	-73.69
208.835	-48.99
209.301	-45.78
209.766	-70.89
210.232	-70.99
210.697	-107.88
211.163	-170.78
211.628	-296.72
212.094	-227.57
212.559	-163.14
213.024	-77.01
213.49	-76.84
213.955	-77.81
214.42	-96.04
214.885	-65.87
215.35	-44.03
215.815	47.16
216.28	88.67
216.745	85.58
217.21	124.7
217.675	59.78
218.14	63.2
218.604	39.55
219.069	41.24
219.534	66.77
219.998	52.11
220.463	43.02
220.927	-39.26
221.392	-43.58
221.856	-34.72
222.32	-117.71
222.785	-96.82
223.249	-139.22
223.713	-154.71
224.177	-152.93
224.642	-271.84
225.106	-350.62
225.57	-419.59
226.034	-253.83
226.497	-367.63
226.961	-270.05
227.425	-232.65
227.889	-282.29
228.353	-277.73
228.816	-601.5
229.28	-480.44
229.744	-364.96
230.207	-112.94
230.671	-77.11
231.134	-234.94
231.597	-203.62
232.061	-269.1
232.524	-359.04
232.987	-232.12
233.45	-172.5
233.914	-163
234.377	-247.49
234.84	-218.05
235.303	-313.92
235.766	-333.52
236.229	-350.49
236.691	-246.7
237.154	-289.16
237.617	-186.99
238.08	-205.32
238.542	-258.81
239.005	-157.45
239.468	-136.85
239.93	-129.05
240.393	-100.34
240.855	-94.48
241.317	-105.01
241.78	-142.43
242.242	-132.36
242.704	-103.84
243.166	-76.16
243.629	-30.27
244.091	-36.65
244.553	-44.51
245.015	-38.41
245.477	-80.65
245.939	-125.81
246.4	-103.2
246.862	-121.17
247.324	-118.32
247.786	-205.92
248.247	-287.17
248.709	-439.91
249.17	-300.04
249.632	-226.11
250.093	-175.62
250.555	-130.03
251.016	-40.34
251.477	-40.72
251.939	-20.6
252.4	-34.83
252.861	-57.63
253.322	-45.12
253.783	-69.78
254.244	-135.74
254.705	-134.87
255.166	-164.28
255.627	-174.46
256.088	-250.46
256.549	-286.08
257.009	-250.7
257.47	-338.4
257.931	-310.33
258.391	-203.76
258.852	-192.98
259.312	-207.86
259.773	-273.39
260.233	-182.71
260.694	-100.01
261.154	-134.86
261.614	-32.27
262.074	-24.33
262.534	-3.5
262.994	29.46
263.455	8.54
263.915	17.35
264.374	16.03
264.834	27.43
265.294	-8.93
265.754	-39.03
266.214	-38.11
266.673	-56.43
267.133	-106.79
267.593	-122.97
268.052	-159.59
268.512	-149.48
268.971	-105.4
269.431	-101.08
269.89	-87.99
270.349	-106.01
270.809	-75.68
271.268	-38.95
271.727	-297.18
272.186	-135.87
272.645	-70.68
273.104	-79.45
273.563	-123.19
274.022	-222.81
274.481	-142.44
274.94	-108.75
275.399	-96.34
275.857	-143.11
276.316	-244.71
276.775	-188.56
277.233	-180.29
277.692	-140.6
278.15	-149.73
278.609	-102.92
279.067	-91.49
279.525	-75.13
279.984	-119.1
280.442	-147.18
280.9	-60.75
281.358	-15.27
281.816	-7.35
282.274	-5.95
282.732	-82.36
283.19	-90.18
283.648	-115.04
284.106	-137.58
284.564	-191.31
285.021	-166.09
285.479	-126.02
285.937	-156.35
286.394	-118.39
286.852	-126.49
287.309	-145.56
287.767	-79.73
288.224	-56.72
288.682	-63.3
289.139	-40.42
289.596	-7.87
290.053	-24.35
290.511	-37.48
290.968	-24.92
291.425	-106.39
291.882	-40.58
292.339	-12.7
292.796	-58.37
293.252	-67.39
293.709	-8.07
294.166	-21.64
294.623	-54.03
295.079	-48.33
295.536	-28.72
295.992	-21.42
296.449	-7.17
296.905	-9.78
297.362	27.84
297.818	23.81
298.274	43.76
298.731	10.83
299.187	23.63
299.643	32.24
300.099	40.5
300.555	23.05
301.011	28.85
301.467	94.5
301.923	62.59
302.379	25.59
302.835	16.12
303.291	-0.07
303.746	6.5
304.202	-7.25
304.658	-20.46
305.113	-19.44
305.569	-2.93
306.024	-39.27
306.479	-116.57
306.935	-58.86
307.39	-82.76
307.845	-69.95
308.301	-66.99
308.756	-88.48
309.211	-86.74
309.666	-109.3
310.121	-91.4
310.576	-119.21
311.031	-112.93
311.486	-170.09
311.94	-235.63
312.395	-376.43
312.85	-865.74
313.305	-5193.25
313.759	-20450.96
314.214	-1489.84
314.668	-1043.86
315.123	-839.19
315.577	-253
316.032	-225.35
316.486	-274.36
316.94	-176.24
317.394	-89.22
317.849	-38.21
318.303	-29.9
318.757	-43.39
319.211	-50.12
319.665	-26.08
320.119	-20.72
320.572	-65.42
321.026	-29.49
321.48	-13.73
321.934	-45.18
322.387	-49.16
322.841	-39.65
323.295	21.11
323.748	-15.54
324.202	-4.49
324.655	-17.28
325.108	-11.25
325.562	34.32
326.015	-17.14
326.468	-23.39
326.921	-26.46
327.374	11.91
327.827	47.06
328.28	28.92
328.733	41.59
329.186	24.12
329.639	21.35
330.092	-1.9
330.545	-1.3
330.997	15.14
331.45	52.97
331.903	86.67
332.355	82.11
332.808	23.06
333.26	-7.21
333.713	8.12
334.165	-0.79
334.617	-45.7
335.069	-88.9
335.522	-258.16
335.974	-363.07
336.426	-428.54
336.878	-370.54
337.33	-167.54
337.782	-173.97
338.234	-176.4
338.686	-242.79
339.137	-260.58
339.589	-221.77
340.041	-138.6
340.493	-114.92
340.944	-91.4
341.396	-104.28
341.847	-50.79
342.299	-26.26
342.75	31.75
343.201	-32.78
343.653	-70.23
344.104	-111.68
344.555	-105.89
345.006	-271.15
345.457	-98.77
345.908	-89.93
346.359	-49.59
346.81	-44.87
347.261	-79.36
347.712	-125.61
348.163	-124.74
348.613	-57.79
349.064	-52.55
349.515	-33.39
349.965	19.87
350.416	-27.44
350.866	-67.69
351.317	-104.93
351.767	-181.28
352.217	-280.37
352.668	-195.25
353.118	-177.08
353.568	-298.26
354.018	-215.07
354.468	-183.78
354.918	-152.38
355.368	-130.51
355.818	-142.49
356.268	-542.31
356.718	-1443.3
357.168	-204.22
357.617	-125.95
358.067	-212.45
358.517	-198.26
358.966	-181.27
359.416	-213.33
359.865	-231.47
360.315	-411.81
360.764	-189.05
361.213	-97.02
361.663	-162.94
362.112	-242.05
362.561	-406.23
363.01	-272.83
363.459	-195.77
363.908	-235.75
364.357	-175.7
364.806	-342.56
365.255	-197.28
365.703	-136.44
366.152	-149.34
366.601	-92.91
367.05	-37
367.498	-16.29
367.947	-47.13
368.395	-52.8
368.844	-44.16
369.292	-109.89
369.74	-50.65
370.189	-104.84
370.637	-140.72
371.085	-100.46
371.533	-152.78
371.981	-190.91
372.429	-143.46
372.877	-122.92
373.325	-103.28
373.773	-127.21
374.221	-117.85
374.669	-156.83
375.116	-145.29
375.564	-147.88
376.012	-153.35
376.459	-102.85
376.907	-110.7
377.354	-173.76
377.801	-148.44
378.249	-154.32
378.696	-166.27
379.143	-198.32
379.591	-232.89
380.038	-314.03
380.485	-225.31
380.932	-320.99
381.379	-126.7
381.826	-41.94
382.273	-64.26
382.72	-73.41
383.166	-36.76
383.613	-26.5
384.06	-7.11
384.506	-14.2
384.953	-7.98
385.4	-14.45
385.846	-17.39
386.292	-54.57
386.739	-76.47
387.185	-83.01
387.631	-72.85
388.078	-60.93
388.524	-66.13
388.97	-56.42
389.416	-40.92
389.862	-43.37
390.308	-37.45
390.754	-25.26
391.2	-30.53
391.645	-35.57
392.091	9.61
392.537	20.21
392.983	-0.71
393.428	30.3
393.874	25.18
394.319	46.01
394.765	71.55
395.21	56.45
395.655	52.78
396.101	55.25
396.546	56.39
396.991	35.53
397.436	29.91
397.881	24.45
398.326	2.25
398.771	8.28
399.216	-5.15
399.661	-19.47
400.106	-9.84
400.551	-6.14
400.995	-2.98
401.44	0.34
401.885	4.31
402.329	1.13
402.774	6.76
403.218	22.24
403.663	20.35
404.107	25.6
404.551	34.53
404.995	31.76
405.44	20.19
405.884	17.03
406.328	10.76
406.772	5
407.216	6.89
407.66	3.49
408.104	-9.4
408.547	-8.45
408.991	-9.44
409.435	-12.16
409.879	-9.54
410.322	-3.83
410.766	-1.67
411.209	3.19
411.653	2.93
412.096	6.7
412.54	4.87
412.983	6.19
413.426	9.02
413.869	8.14
414.312	10.47
414.756	8.26
415.199	8.49
415.642	11.02
416.085	10.78
416.527	8.6
416.97	4.37
417.413	7.03
417.856	5.51
418.298	4.28
418.741	3.2
419.184	0.62
419.626	-4.17
420.069	-6.7
420.511	-6.45
420.953	-5.97
421.396	-2.86
421.838	-1.92
422.28	-2.52
422.722	0.9
423.164	-2.33
423.606	-3.15
424.048	-3.56
424.49	0.12
424.932	0.47
425.374	-1.97
425.816	-3.75
426.258	-4.8
426.699	-5.05
427.141	-0.54
427.582	-2.4
428.024	-2.71
428.465	-4.29
428.907	-4.6
429.348	-7.06
429.789	-5.66
430.231	-1.43
430.672	0.14
431.113	1.24
431.554	-1.26
431.995	-5.85
432.436	-3.17
432.877	-1.18
433.318	3.95
433.759	4.4
434.2	5.6
434.64	4.95
435.081	2.77
435.522	2.1
435.962	3.1
436.403	5.42
436.843	3.95
437.284	1.6
437.724	-0.19
438.164	-5.71
438.604	-6.16
439.045	-3.4
439.485	0.27
439.925	-0.24
440.365	0.72
440.805	-0.51
441.245	2.43
441.685	4.22
442.125	3.96
442.564	2.78
443.004	5.22
443.444	4.5
443.883	3.79
444.323	-1.25
444.762	-4.73
445.202	-7.31
445.641	-5.5
446.081	-9.19
446.52	-9.84
446.959	-8.1
447.398	-5.49
447.837	-4.5
448.276	-4.39
448.716	-4.32
449.154	-4.31
449.593	-1.28
450.032	0.01
450.471	-1.61
450.91	-1.73
451.349	0.93
451.787	-0.07
452.226	-2.55
452.664	-3.73
453.103	-3.61
453.541	-4.94
453.98	-0.73
454.418	-1.8
454.856	-0.38
455.295	-1.16
455.733	-0.52
456.171	-1.86
456.609	-0.6
457.047	1.66
457.485	2.81
457.923	4.54
458.361	3.44
458.798	1.43
459.236	1.65
459.674	-0.22
460.111	1.76
460.549	1.31
460.987	-0.33
461.424	-2.08
461.862	-1.61
462.299	-1.28
462.736	0.06
463.173	1.88
463.611	5.49
464.048	6.63
464.485	7.55
464.922	6.09
465.359	5.57
465.796	14.05
466.233	16.39
466.67	18.24
467.106	19.96
467.543	17.55
467.98	16.08
468.416	13.52
468.853	11.39
469.29	11.41
469.726	10.9
470.162	10.84
470.599	3.91
471.035	1.72
471.471	-0.52
471.907	-4.07
472.344	-5.25
472.78	-3.56
473.216	-5.75
473.652	-3.79
474.088	-5
474.523	-4.7
474.959	-4.97
475.395	-4.28
475.831	-2.86
476.266	-2.46
476.702	-2.08
477.138	-0.47
477.573	-0.62
478.008	0.62
478.444	0.9
478.879	2.75
479.314	3.13
479.75	3.98
480.185	3.08
480.62	2.07
481.055	1.75
481.49	3.51
481.925	3.27
482.36	4.42
482.795	3.21
483.229	1.76
483.664	0.83
484.099	1.25
484.534	1.52
484.968	3.19
485.403	3.02
485.837	2.39
486.271	1.75
486.706	1.93
487.14	0.9
487.574	2
488.009	2.31
488.443	2.38
488.877	2.66
489.311	1.69
489.745	1.08
490.179	2.01
490.613	4.07
491.046	3.32
491.48	2.89
491.914	3.01
492.348	2.5
492.781	3.08
493.215	2.9
493.648	2.04
494.082	2.72
494.515	2.93
494.948	2.94
495.382	1.15
495.815	1.7
496.248	2.08
496.681	1.58
497.114	1.3
497.547	1.22
497.98	2.29
498.413	4.32
498.846	4.24
499.279	3.77
499.711	3.09
500.144	2.7
500.577	3.6
501.009	3.27
501.442	4.33
501.874	5.1
502.306	5.04
502.739	7.14
503.171	6.18
503.603	6.33
504.036	5.53
504.468	5.71
504.9	6.29
505.332	5.58
505.764	6.15
506.196	5.65
506.627	5.58
507.059	5.49
507.491	2.55
507.923	2.72
508.354	3.35
508.786	4.14
509.217	4.49
509.649	5.07
510.08	4.92
510.512	5.53
510.943	5.48
511.374	6.08
511.805	5.48
512.237	5.62
512.668	5.17
513.099	3.73
513.53	3.63
513.961	3.85
514.391	3.26
514.822	4.8
515.253	4.94
515.684	5.23
516.114	5.07
516.545	6.13
516.975	6.04
517.406	5.44
517.836	6.2
518.267	6.71
518.697	7.18
519.127	7.79
519.558	6.43
519.988	5.37
520.418	4.66
520.848	3.99
521.278	3.11
521.708	35.54
522.138	37.32
522.567	36.65
522.997	36.63
523.427	36.03
523.857	36.13
524.286	36.04
524.716	36.83
525.145	37.61
525.575	38.43
526.004	38.95
526.433	7.5
526.863	5.93
527.292	7.41
527.721	8.12
528.15	8.72
528.579	8.6
529.008	8.93
529.437	7.84
529.866	7.57
530.295	6.89
530.724	7.63
531.152	7.63
531.581	8.76
532.01	8.07
532.438	7.18
532.867	6.19
533.295	6.45
533.723	6.25
534.152	6.83
534.58	7.04
535.008	7.28
535.436	7.75
535.865	7.45
536.293	6.19
536.721	6.11
537.149	6.56
537.576	7.63
538.004	7.69
538.432	7.26
538.86	7.71
539.287	7.63
539.715	7.73
540.143	6.49
540.57	7.1
540.998	7.41
541.425	9.26
541.852	9.07
542.28	8.8
542.707	8.69
543.134	9.1
543.561	9.04
543.988	9.31
544.415	8.87
544.842	8.68
545.269	8.08
545.696	8.65
546.123	7.87
546.549	7.98
546.976	8.13
547.403	8.01
547.829	7.55
548.256	7.03
548.682	6.76
549.108	7.9
549.535	8.03
549.961	7.76
550.387	7.49
550.813	8.4
551.24	8.14
551.666	7.63
552.092	7
552.518	7.1
552.943	7.92
553.369	8.24
553.795	8.05
554.221	8.57
554.646	8.86
555.072	10.12
555.498	8.64
555.923	8.23
556.349	8.02
556.774	8.3
557.199	8.52
557.625	7.76
558.05	7.98
558.475	7.39
558.9	7.37
559.325	7.96
559.75	7.49
560.175	6.73
560.6	7.27
561.025	6.93
561.449	7.13
561.874	7.14
562.299	7.85
562.723	7.11
563.148	7.29
563.572	6.96
563.997	6.5
564.421	5.09
564.846	5.29
565.27	5.43
565.694	6.01
566.118	5.71
566.542	6.16
566.966	6.03
567.39	6.31
567.814	6.52
568.238	6.95
568.662	6.29
569.086	7.02
569.509	6.55
569.933	7.28
570.357	7
570.78	7.41
571.204	8.39
571.627	8.17
572.05	8.35
572.474	9.03
572.897	9.17
573.32	9.82
573.743	9.16
574.166	10.4
574.589	9.11
575.012	9.07
575.435	8.59
575.858	7.9
576.281	7.89
576.704	7.12
577.126	5.86
577.549	4.8
577.972	4.4
578.394	4.83
578.817	6.44
579.239	6.66
579.661	7.42
580.084	9.19
580.506	8.62
580.928	8.26
581.35	9.19
581.772	9.91
582.194	10.42
582.616	10.02
583.038	8.74
583.46	6.69
583.882	6.84
584.303	5.08
584.725	3.43
585.147	8.08
585.568	8.72
585.99	8.61
586.411	8.89
586.833	8.84
587.254	9.87
587.675	9.89
588.096	9.47
588.518	9.38
588.939	10.14
589.36	10.87
589.781	5.06
590.202	6.96
590.623	6.28
591.043	5.43
591.464	5.16
591.885	5.29
592.305	5.79
592.726	4.83
593.147	4.98
593.567	5.23
593.987	4.67
594.408	4.84
594.828	2.1
595.248	3.07
595.669	4.14
596.089	4.3
596.509	3.15
596.929	3.05
597.349	4.4
597.769	4.01
598.189	4.12
598.608	3.92
599.028	3.85
599.448	3.7
599.867	2.87
600.287	1.86
600.706	2.46
601.126	3.14
601.545	3.92
601.965	3.82
602.384	3.96
602.803	3.61
603.222	4.01
603.641	3.9
604.061	4.24
604.48	3.88
604.898	3.83
605.317	3.09
605.736	2.5
606.155	2.74
606.574	2.43
606.992	2.24
607.411	2.36
607.829	1.55
608.248	1.59
608.666	1.04
609.085	1.78
609.503	1.63
609.921	2.52
610.339	2.59
610.758	1.75
611.176	2.04
611.594	2.87
612.012	2.96
612.43	3.98
612.847	3.99
613.265	5.87
613.683	5.31
614.101	5.31
614.518	3.78
614.936	3.85
615.353	4.66
615.771	4.51
616.188	4.07
616.606	3.82
617.023	3.35
617.44	3.76
617.857	1.55
618.274	1.62
618.691	2.19
619.108	2.72
619.525	2.61
619.942	2.82
620.359	2.76
620.776	2.5
621.192	3.33
621.609	3.97
622.026	4.01
622.442	4.58
622.859	4.24
623.275	3.91
623.691	4.3
624.108	4.57
624.524	3.31
624.94	3.35
625.356	3.07
625.772	2.09
626.188	1.28
626.604	0.72
627.02	1.18
627.436	1.64
627.852	3.05
628.268	3.77
628.683	3.56
629.099	4.4
629.514	4
629.93	3.58
630.345	3.57
630.761	3.25
631.176	3.64
631.591	5.09
632.007	5.62
632.422	3.29
632.837	1.28
633.252	2.05
633.667	1.89
634.082	2.16
634.497	3.98
634.911	6.29
635.326	6.82
635.741	6.9
636.155	5.52
636.57	5.47
636.984	6.16
637.399	8.12
637.813	7.58
638.228	7.58
638.642	7.06
639.056	5.87
639.47	4.1
639.884	3.69
640.298	3.3
640.712	3.92
641.126	4.1
641.54	3.76
641.954	1.35
642.368	1.46
642.781	3.84
643.195	4.25
643.609	4.69
644.022	4.31
644.436	3.98
644.849	3.85
645.262	2.98
645.676	2.05
646.089	2.05
646.502	4.01
646.915	2.83
647.328	1.42
647.741	1.04
648.154	1.49
648.567	4.03
648.98	4.89
649.393	4.85
649.805	5.19
650.218	5.32
650.631	6.09
651.043	6.24
651.456	7.38
651.868	6.28
652.28	5.6
652.693	3.69
653.105	2.27
653.517	1.39
653.929	0.78
654.341	0.49
654.753	1.03
655.165	0.52
655.577	0.32
655.989	0.91
656.401	-0.07
656.813	2.31
657.224	3.15
657.636	1.62
658.047	3.14
658.459	3.73
658.87	2.9
659.282	2.5
659.693	3.43
660.104	3.17
660.515	2.27
660.926	2.29
661.338	1.14
661.749	0.83
662.159	2.18
662.57	0.74
662.981	1.09
663.392	1.38
663.803	1.36
664.213	0.32
664.624	0.09
665.035	-0.95
665.445	-0.8
665.855	0.12
666.266	1.24
666.676	1.04
667.086	0.88
667.497	0.37
667.907	0.17
668.317	-1.08
668.727	2.45
669.137	1.23
669.547	1.89
669.956	1.22
670.366	0.24
670.776	0.5
671.186	-0.33
671.595	0.48
672.005	-0.29
672.414	0.83
672.824	2.39
673.233	-1.13
673.642	-0.11
674.052	0.53
674.461	2.52
674.87	3.15
675.279	3.16
675.688	1.95
676.097	2.52
676.506	3.25
676.915	1.7
677.323	1.26
677.732	1.52
678.141	1.41
678.549	1.46
678.958	-0.47
679.366	-1.64
679.775	-3.48
680.183	-1.37
680.592	-2.4
681	-2.61
681.408	-1.38
681.816	-1.03
682.224	-1.67
682.632	0.1
683.04	-0.62
683.448	-0.21
683.856	0.99
684.264	1.54
684.671	0.06
685.079	-0.72
685.487	-1.26
685.894	-2.33
686.302	-3.66
686.709	-3.22
687.116	-5.65
687.524	-4.65
687.931	-2.98
688.338	-3.42
688.745	-3.45
689.152	-3.15
689.559	-2.32
689.966	0.31
690.373	1.55
690.78	2.97
691.187	3.63
691.593	5.86
692	5.52
692.407	5.71
692.813	7.7
693.22	8.75
693.626	7.88
694.032	8.54
694.439	8.35
694.845	7.67
695.251	6.53
695.657	5.9
696.063	4.22
696.469	3.77
696.875	3.69
697.281	2.67
697.687	1.93
698.093	3.12
698.498	3.1
698.904	1.23
699.31	1.22
699.715	4.38
700.12	4.64
700.526	4.62
700.931	5.05
701.337	5.44
701.742	6.32
702.147	6.6
702.552	6.9
702.957	5.9
703.362	6.51
703.767	6.51
704.172	4.34
704.577	4.52
704.981	3.02
705.386	3.66
705.791	3.03
706.195	1.43
706.6	1.11
707.004	0.14
707.408	-0.13
707.813	0.78
708.217	1.87
708.621	1.3
709.025	1.11
709.43	4.41
709.834	4.12
710.237	4.74
710.641	5.7
711.045	7.09
711.449	8.36
711.853	12.56
712.256	11.59
712.66	11.13
713.064	11.92
713.467	13.22
713.87	12.61
714.274	13.48
714.677	13.77
715.08	14.06
715.484	13.82
715.887	16
716.29	12.46
716.693	14.74
717.096	15.36
717.499	14.88
717.901	12.32
718.304	11.32
718.707	10.86
719.109	10.14
719.512	8.45
719.915	10.9
720.317	8.82
720.719	8.04
721.122	5.79
721.524	5.74
721.926	11.33
722.328	12.51
722.731	12.01
723.133	12.48
723.535	12.32
723.937	12.17
724.338	11.02
724.74	13.21
725.142	65.8
725.544	71.53
725.945	83.91
726.347	78.84
726.748	79.2
727.15	80.78
727.551	83.04
727.952	81.42
728.354	80.96
728.755	80.66
729.156	78.1
729.557	27.27
729.958	22.71
730.359	10.85
730.76	11.48
731.161	11.36
731.562	10
731.962	7.18
732.363	8.81
732.763	9.69
733.164	6.95
733.564	7.41
733.965	9.62
734.365	9.96
734.766	10.28
735.166	9.3
735.566	9.6
735.966	10.68
736.366	11.3
736.766	11.88
737.166	11.29
737.566	11.94
737.966	11.59
738.365	11.2
738.765	12.41
739.165	12.18
739.564	13.1
739.964	11.7
740.363	10.3
740.763	9.24
741.162	9.67
741.561	9.69
741.96	10.98
742.36	10.77
742.759	10.07
743.158	7.5
743.557	6.91
743.955	6.48
744.354	6.35
744.753	6.48
745.152	7.5
745.55	5.71
745.949	5.51
746.348	5.02
746.746	4.27
747.144	6.55
747.543	7.31
747.941	6.09
748.339	6.29
748.737	8.94
749.136	9.83
749.534	8.8
749.932	10.65
750.33	11.27
750.727	10.64
751.125	11.6
751.523	10.1
751.921	13.66
752.318	15.61
752.716	17.3
753.113	16.55
753.511	16.01
753.908	16.28
754.305	20.16
754.703	20.88
755.1	22.06
755.497	22.42
755.894	22.48
756.291	20.4
756.688	20.12
757.085	18.52
757.482	18.88
757.878	20.44
758.275	21.88
758.672	12.72
759.068	10.74
759.465	8.54
759.861	7.61
760.258	6.33
760.654	3.29
761.05	8.19
761.447	7.53
761.843	8.25
762.239	8.98
762.635	6.3
763.031	5.91
763.427	7.34
763.822	8.34
764.218	7.08
