Data from C_1_DIV_OH_2N_Splice17_11-50-11-043.txt Node
Date: Sat Mar 14 11:50:11 EDT 2020
User: sa697716
Spectrometer: FLMS03696
Trigger mode: 0
Integration Time (sec): 3.180400E-1
Scans to average: 20
Electric dark correction enabled: true
Nonlinearity correction enabled: true
Boxcar width: 5
XAxis mode: Wavelengths
Number of Pixels in Spectrum: 2048
>>>>>Begin Spectral Data<<<<<
187.83	-316507.25
188.298	2270.51
188.766	1180.6
189.233	1029.1
189.701	1467.73
190.169	1972.88
190.636	705.47
191.104	526.98
191.571	77.17
192.039	-63.63
192.506	-97.43
192.974	290.25
193.441	-545.74
193.908	-122.7
194.375	-57.46
194.842	-15.99
195.31	12.23
195.777	91.43
196.244	283.81
196.711	473.72
197.177	650.15
197.644	999.87
198.111	1724.92
198.578	2460.99
199.045	1972.91
199.511	3237.13
199.978	3824.98
200.445	3238.46
200.911	3615.24
201.378	4092.51
201.844	3682.16
202.31	6274.79
202.777	6508.87
203.243	3621.78
203.709	3445.2
204.176	4137.95
204.642	3420.03
205.108	3210.76
205.574	2638.81
206.04	2424.92
206.506	2287.68
206.972	2182.17
207.438	2121.66
207.903	2407.54
208.369	2126.38
208.835	2118.07
209.301	2210.72
209.766	2293.32
210.232	2253.46
210.697	2820.91
211.163	3527.54
211.628	5369.88
212.094	4546.68
212.559	5600.23
213.024	3528.27
213.49	4321.32
213.955	4272.91
214.42	4265.79
214.885	3980.12
215.35	3869.34
215.815	3686.12
216.28	3943.41
216.745	3270.2
217.21	3596.47
217.675	3425.39
218.14	3957.02
218.604	4594.17
219.069	5412.96
219.534	5812.47
219.998	6974.95
220.463	8692.49
220.927	11081.31
221.392	10647.81
221.856	10927.55
222.32	14024.92
222.785	17476.83
223.249	22242.79
223.713	25017.89
224.177	25198.16
224.642	32574.47
225.106	40273.79
225.57	44171.24
226.034	32854.87
226.497	50114.29
226.961	45295.56
227.425	52789.48
227.889	58794.4
228.353	58931.69
228.816	121865.56
229.28	116573.62
229.744	98520.22
230.207	59845.45
230.671	58934.13
231.134	97778.57
231.597	112761.08
232.061	113043.63
232.524	110453.93
232.987	76100.99
233.45	68457.79
233.914	61453.94
234.377	63074.75
234.84	57720.49
235.303	68162.82
235.766	76103.33
236.229	78651.43
236.691	49600.96
237.154	55714.22
237.617	41861.14
238.08	42857.41
238.542	50204.72
239.005	35882.61
239.468	35601.09
239.93	33540.51
240.393	30470.93
240.855	26736.89
241.317	27381.78
241.78	33327.34
242.242	34432.25
242.704	37114.64
243.166	32272.86
243.629	29218.67
244.091	33611.39
244.553	36830.51
245.015	39536.08
245.477	51166.87
245.939	75039.08
246.4	79551.21
246.862	77307.6
247.324	72872.82
247.786	81627.05
248.247	107134.48
248.709	110888.94
249.17	82947.65
249.632	78041.27
250.093	90430.71
250.555	78054.26
251.016	47520.93
251.477	45063.54
251.939	48552.94
252.4	50894.64
252.861	60524.88
253.322	56226.44
253.783	66908.38
254.244	86858.37
254.705	68543.72
255.166	60994.37
255.627	59985.04
256.088	84542.19
256.549	89831.89
257.009	77389.36
257.47	93966.8
257.931	76531
258.391	57379.09
258.852	59144.39
259.312	61970.86
259.773	76575.9
260.233	64641.6
260.694	54545.92
261.154	61907.41
261.614	49624.57
262.074	44405.51
262.534	46132.92
262.994	43479.98
263.455	57930.62
263.915	48774.09
264.374	45968.21
264.834	50142.66
265.294	55645.91
265.754	57643.38
266.214	54571.14
266.673	51180.81
267.133	64609.14
267.593	64153.01
268.052	78500.5
268.512	68321.84
268.971	82302.51
269.431	90138.09
269.89	80761.99
270.349	120994.61
270.809	134838.79
271.268	121217.15
271.727	271830.67
272.186	176041.14
272.645	131922.68
273.104	95250.09
273.563	137852.17
274.022	108555.56
274.481	92341.44
274.94	71073.36
275.399	52872.11
275.857	61600.74
276.316	83378.84
276.775	74157.58
277.233	72943.6
277.692	68181.17
278.15	77044.47
278.609	79157.7
279.067	73233.92
279.525	67966.81
279.984	87869.26
280.442	105417.65
280.9	103719.05
281.358	68143.88
281.816	63516.04
282.274	62223.99
282.732	64363.91
283.19	64623.71
283.648	55762.81
284.106	59378.7
284.564	60410.45
285.021	55903.65
285.479	41657.57
285.937	37920.04
286.394	33219.51
286.852	34167.84
287.309	35858.58
287.767	34572.17
288.224	32834.36
288.682	35983.76
289.139	39429.84
289.596	36005.76
290.053	37419.31
290.511	47210.32
290.968	57208.52
291.425	77675.92
291.882	64515.29
292.339	56093.94
292.796	55665.47
293.252	52493.67
293.709	41616.75
294.166	37273.53
294.623	41205.25
295.079	39570.87
295.536	39689.33
295.992	35998.66
296.449	35562.09
296.905	36926.47
297.362	35377.39
297.818	37209.35
298.274	38535.79
298.731	39330.41
299.187	38936.33
299.643	41787.33
300.099	50438.01
300.555	55336.92
301.011	46233.09
301.467	44464.81
301.923	52114.25
302.379	50869.97
302.835	49940.23
303.291	49998.41
303.746	56874.58
304.202	71799.78
304.658	72063.93
305.113	48453.53
305.569	47427.22
306.024	50531.7
306.479	48172.59
306.935	40537.99
307.39	44264.31
307.845	40860.95
308.301	41026.41
308.756	39963.46
309.211	38453.08
309.666	39360.72
310.121	48762.13
310.576	49479.96
311.031	49049.03
311.486	56163.56
311.94	56076.33
312.395	74914.35
312.85	140673.86
313.305	691604.57
313.759	3570607.42
314.214	258491.07
314.668	204667.54
315.123	171912.57
315.577	61541.59
316.032	54684.23
316.486	68431.94
316.94	53883.68
317.394	37512.06
317.849	29109.68
318.303	27549.45
318.757	25947.75
319.211	28657.82
319.665	25095.69
320.119	25398.14
320.572	36460.89
321.026	34015.8
321.48	28310.67
321.934	30938.58
322.387	30995.41
322.841	33466.79
323.295	30018.06
323.748	34691.79
324.202	35165.18
324.655	42182.08
325.108	58837.98
325.562	41498.74
326.015	49346.47
326.468	37279.34
326.921	41665.41
327.374	38786.24
327.827	40324.97
328.28	45676.22
328.733	30521.02
329.186	26861
329.639	25584.49
330.092	21567.36
330.545	20534.03
330.997	20703.1
331.45	22595.05
331.903	26426.66
332.355	45566.26
332.808	44316.95
333.26	36598.42
333.713	39712.56
334.165	39999.85
334.617	53478.15
335.069	43296.7
335.522	78339.37
335.974	86741.71
336.426	79326.17
336.878	55044.09
337.33	27841.05
337.782	27162.69
338.234	33930.01
338.686	40640.46
339.137	48052.19
339.589	45230.03
340.041	35418.83
340.493	30407.65
340.944	31111.66
341.396	33477.12
341.847	28137.89
342.299	33184.75
342.75	40444.21
343.201	35410.31
343.653	40697.87
344.104	50079.92
344.555	39400.53
345.006	61442.24
345.457	46953.34
345.908	37324.18
346.359	35078.01
346.81	28565.64
347.261	30120.05
347.712	29699.73
348.163	31852.06
348.613	32189.95
349.064	30054.92
349.515	26291.13
349.965	26908.68
350.416	32448.18
350.866	35656.4
351.317	40340.39
351.767	66718.99
352.217	84272.92
352.668	69904.29
353.118	63977.98
353.568	61801.55
354.018	48813.27
354.468	51468.49
354.918	36901.08
355.368	32319.94
355.818	45651.65
356.268	131484.35
356.718	549838.51
357.168	136708.64
357.617	68664.58
358.067	76396.72
358.517	71497.18
358.966	83817.35
359.416	93869.45
359.865	101563.85
360.315	120927.06
360.764	56401.33
361.213	31560.98
361.663	29935.79
362.112	36989.28
362.561	59759.29
363.01	45040.38
363.459	37939.58
363.908	41099.95
364.357	34878.24
364.806	58948.47
365.255	40507.65
365.703	37049.16
366.152	37089.91
366.601	30032.81
367.05	24351.09
367.498	22091.03
367.947	23103.02
368.395	24034.96
368.844	21250.01
369.292	25698.75
369.74	17713.25
370.189	27119.75
370.637	31828.4
371.085	27443.95
371.533	33456.93
371.981	32292.38
372.429	30766.03
372.877	32065.25
373.325	26832.31
373.773	27371.47
374.221	24355.09
374.669	30202.49
375.116	26092.97
375.564	26246.43
376.012	29361.1
376.459	24179.96
376.907	28890.13
377.354	34941.03
377.801	32507.71
378.249	37319.61
378.696	47628.84
379.143	57619.64
379.591	61474.28
380.038	103843.69
380.485	75059.21
380.932	81050.8
381.379	73952.62
381.826	54344.28
382.273	38627.69
382.72	33796.18
383.166	32886.14
383.613	21316.46
384.06	19207.75
384.506	22190.87
384.953	16312.92
385.4	16428.96
385.846	14397.61
386.292	14061.31
386.739	13770.17
387.185	13629.13
387.631	13618.55
388.078	13187.29
388.524	14115.58
388.97	13023.9
389.416	10850.91
389.862	11513.13
390.308	10912.55
390.754	11061.99
391.2	12000.41
391.645	12268.8
392.091	11673
392.537	11269.15
392.983	11295.24
393.428	11056.88
393.874	11842.52
394.319	11866.05
394.765	11235.33
395.21	11524.6
395.655	10796.26
396.101	10083.77
396.546	9085.41
396.991	9180.8
397.436	8508.5
397.881	8204.5
398.326	7785.49
398.771	7340.54
399.216	6413.77
399.661	5772.66
400.106	5737.18
400.551	5860.07
400.995	5253.6
401.44	5183.45
401.885	4861.78
402.329	4903.83
402.774	4694.63
403.218	4521.15
403.663	4350.63
404.107	4456.97
404.551	4479.2
404.995	4096.74
405.44	3943.86
405.884	3998.27
406.328	3867.93
406.772	3850.74
407.216	3503.9
407.66	3384.7
408.104	3217.02
408.547	3009.91
408.991	2909.44
409.435	2792.91
409.879	2752.12
410.322	2708.17
410.766	2606.89
411.209	2472.69
411.653	2365.3
412.096	2312.64
412.54	2313.12
412.983	2290.41
413.426	2290.52
413.869	2290.77
414.312	2245.31
414.756	2160.36
415.199	2058.77
415.642	1996.34
416.085	1996.23
416.527	1985.41
416.97	2011.99
417.413	1904.65
417.856	1886.11
418.298	1865.16
418.741	1852.35
419.184	1848.61
419.626	1930.74
420.069	1931.41
420.511	1942.01
420.953	1898.48
421.396	1878.89
421.838	1835.09
422.28	1876.34
422.722	1884.51
423.164	1910.78
423.606	1875.23
424.048	1872.54
424.49	1774.88
424.932	1766.3
425.374	1743.62
425.816	1776.91
426.258	1812.83
426.699	1833.56
427.141	1805.28
427.582	1836.46
428.024	1831.7
428.465	1824
428.907	1783.98
429.348	1765.68
429.789	1765.64
430.231	1726.22
430.672	1749.19
431.113	1707.84
431.554	1684.27
431.995	1646.25
432.436	1585.51
432.877	1548.56
433.318	1521.82
433.759	1514.3
434.2	1515.22
434.64	1502.08
435.081	1510.08
435.522	1432.02
435.962	1382.74
436.403	1351.51
436.843	1374.16
437.284	1350.71
437.724	1319.04
438.164	1326.05
438.604	1298.69
439.045	1249.23
439.485	1198.37
439.925	1174.29
440.365	1147.89
440.805	1133.21
441.245	1119.98
441.685	1077.37
442.125	1070.13
442.564	1080.48
443.004	1056.89
443.444	1055.23
443.883	1059.24
444.323	1054.68
444.762	1060.7
445.202	1078.11
445.641	1098.87
446.081	1095.56
446.52	1106.41
446.959	1095.93
447.398	1069.23
447.837	1059.21
448.276	1043.51
448.716	1056.53
449.154	1068.37
449.593	1045.77
450.032	1042.75
450.471	1026.55
450.91	1032.75
451.349	1032.45
451.787	1031.3
452.226	1049.39
452.664	1050.39
453.103	1054.47
453.541	1053.77
453.98	1051.67
454.418	1059.06
454.856	1042.34
455.295	1042.56
455.733	1049.76
456.171	1057.75
456.609	1060.96
457.047	1061.15
457.485	1077.84
457.923	1078.56
458.361	1066.02
458.798	1071.43
459.236	1069.95
459.674	1081.23
460.111	1086.29
460.549	1075.04
460.987	1072.76
461.424	1069.31
461.862	1065.42
462.299	1050.66
462.736	1051.3
463.173	1054.85
463.611	1041.09
464.048	1037.8
464.485	1045.45
464.922	1037.08
465.359	1032.48
465.796	1011.63
466.233	1003.13
466.67	992.28
467.106	987.24
467.543	978.38
467.98	967.02
468.416	944.34
468.853	939.15
469.29	911.09
469.726	901.78
470.162	879.24
470.599	874.49
471.035	868.36
471.471	848.82
471.907	846.12
472.344	840.77
472.78	842.06
473.216	852.93
473.652	842.03
474.088	840.17
474.523	836.33
474.959	844.46
475.395	836.1
475.831	830.88
476.266	834.46
476.702	832.27
477.138	822.63
477.573	819.74
478.008	815.39
478.444	817.05
478.879	823.82
479.314	826.95
479.75	825.58
480.185	829.57
480.62	836.34
481.055	841.19
481.49	847.3
481.925	860.38
482.36	874.4
482.795	900.16
483.229	926.29
483.664	945.96
484.099	950.9
484.534	966.36
484.968	976.45
485.403	980.92
485.837	980.64
486.271	979.86
486.706	982.74
487.14	974.01
487.574	959.87
488.009	952.22
488.443	946.44
488.877	957.17
489.311	962.18
489.745	974.83
490.179	984.2
490.613	1002.63
491.046	1012.1
491.48	1019.08
491.914	1021.22
492.348	1030.09
492.781	1037.8
493.215	1040.72
493.648	1043.8
494.082	1051.93
494.515	1053.65
494.948	1066.3
495.382	1076.64
495.815	1085.21
496.248	1095.14
496.681	1117.35
497.114	1136.5
497.547	1154.47
497.98	1174.94
498.413	1185.56
498.846	1203.12
499.279	1218.77
499.711	1228.8
500.144	1233.61
500.577	1250.91
501.009	1271.8
501.442	1286.78
501.874	1290.96
502.306	1295.64
502.739	1308.07
503.171	1333.33
503.603	1341.39
504.036	1357.96
504.468	1369.43
504.9	1389.55
505.332	1403.31
505.764	1410.1
506.196	1423.71
506.627	1446.58
507.059	1469.17
507.491	1487.14
507.923	1484.64
508.354	1508.02
508.786	1525.35
509.217	1552.49
509.649	1575.46
510.08	1604.73
510.512	1631.25
510.943	1654.69
511.374	1673.28
511.805	1703.39
512.237	1733.04
512.668	1783.46
513.099	1826.18
513.53	1867.65
513.961	1899.13
514.391	1948.22
514.822	1996.95
515.253	2049.92
515.684	2087.44
516.114	2131.7
516.545	2162.18
516.975	2198.7
517.406	2223.59
517.836	2223.48
518.267	2229.66
518.697	2253.82
519.127	2256.7
519.558	2265.19
519.988	2268.9
520.418	2281.08
520.848	2303.97
521.278	2314.75
521.708	2312.77
522.138	2328.36
522.567	2373.28
522.997	2408.69
523.427	2429.64
523.857	2452.49
524.286	2465.44
524.716	2483.79
525.145	2509.73
525.575	2522.37
526.004	2540.67
526.433	2553.42
526.863	2550.76
527.292	2529.55
527.721	2534.2
528.15	2538.25
528.579	2534.85
529.008	2547.09
529.437	2578.91
529.866	2596.45
530.295	2620.35
530.724	2636.64
531.152	2674.11
531.581	2692.85
532.01	2718.31
532.438	2730.04
532.867	2751.29
533.295	2777.88
533.723	2785.22
534.152	2779.89
534.58	2776.65
535.008	2751.13
535.436	2751.24
535.865	2761.64
536.293	2783.41
536.721	2806.54
537.149	2844.05
537.576	2846.42
538.004	2863.78
538.432	2876.25
538.86	2873.29
539.287	2884.89
539.715	2905.79
540.143	2910.12
540.57	2904.7
540.998	2897.41
541.425	2861.13
541.852	2828.88
542.28	2825.62
542.707	2801.03
543.134	2778.24
543.561	2772.15
543.988	2759.26
544.415	2757.23
544.842	2748.02
545.269	2734.04
545.696	2735.72
546.123	2753.94
546.549	2735.29
546.976	2715.85
547.403	2712.52
547.829	2714.52
548.256	2716.06
548.682	2709.81
549.108	2696.07
549.535	2694.36
549.961	2697.82
550.387	2676.95
550.813	2667.97
551.24	2677.25
551.666	2677.41
552.092	2662.47
552.518	2650.47
552.943	2639.04
553.369	2649.6
553.795	2656.15
554.221	2656.94
554.646	2650.64
555.072	2665.44
555.498	2674.2
555.923	2687.08
556.349	2708.29
556.774	2721.63
557.199	2726.09
557.625	2735.42
558.05	2725.21
558.475	2741.81
558.9	2739.96
559.325	2727.31
559.75	2717.69
560.175	2705.85
560.6	2696.03
561.025	2693.47
561.449	2695.64
561.874	2703.63
562.299	2711
562.723	2723.62
563.148	2710.46
563.572	2718.61
563.997	2733.66
564.421	2744.85
564.846	2748
565.27	2757.28
565.694	2756.08
566.118	2775.36
566.542	2787.89
566.966	2780.64
567.39	2776.09
567.814	2761.71
568.238	2762.09
568.662	2775.26
569.086	2780.43
569.509	2795.24
569.933	2772.49
570.357	2764.48
570.78	2735.56
571.204	2717.59
571.627	2705.64
572.05	2704.52
572.474	2705.48
572.897	2690.55
573.32	2679.55
573.743	2667.62
574.166	2639.7
574.589	2642.33
575.012	2631.35
575.435	2631.17
575.858	2619.17
576.281	2600.97
576.704	2579
577.126	2562.13
577.549	2545.49
577.972	2530.44
578.394	2512.94
578.817	2501.31
579.239	2473.24
579.661	2451.07
580.084	2425.71
580.506	2404.89
580.928	2400.79
581.35	2382.61
581.772	2375.91
582.194	2354.28
582.616	2335.29
583.038	2315.11
583.46	2301.13
583.882	2295.16
584.303	2304.11
584.725	2298.94
585.147	2298.51
585.568	2313.59
585.99	2333.3
586.411	2343.11
586.833	2366.99
587.254	2370.22
587.675	2393.9
588.096	2412.38
588.518	2404.47
588.939	2378.88
589.36	2375.04
589.781	2364.87
590.202	2319.86
590.623	2306.77
591.043	2304.04
591.464	2284.87
591.885	2279.31
592.305	2269.14
592.726	2248.44
593.147	2251.23
593.567	2243.78
593.987	2233
594.408	2225.27
594.828	2224.25
595.248	2213.39
595.669	2184.31
596.089	2173.03
596.509	2164.05
596.929	2144.55
597.349	2145.05
597.769	2130.53
598.189	2120.26
598.608	2122.63
599.028	2125.54
599.448	2126.57
599.867	2110.07
600.287	2104.45
600.706	2097.15
601.126	2082.85
601.545	2080.9
601.965	2080.44
602.384	2072.89
602.803	2077.48
603.222	2070.18
603.641	2060.9
604.061	2054.81
604.48	2049.06
604.898	2062.42
605.317	2070.95
605.736	2072.8
606.155	2068.46
606.574	2055.51
606.992	2065.15
607.411	2059.22
607.829	2047.76
608.248	2043.38
608.666	2042.46
609.085	2042.05
609.503	2028.6
609.921	2020.38
610.339	2025.59
610.758	2026.22
611.176	2020.04
611.594	2006.75
612.012	2003.52
612.43	2008.98
612.847	2019.14
613.265	2019.1
613.683	2025.73
614.101	2030.55
614.518	2026.27
614.936	2011.97
615.353	1989.94
615.771	1985.28
616.188	1985.89
616.606	1979.55
617.023	1969.76
617.44	1948.7
617.857	1940.73
618.274	1927.83
618.691	1916.92
619.108	1901.97
619.525	1892.36
619.942	1901.21
620.359	1905.06
620.776	1896.62
621.192	1889.93
621.609	1886.07
622.026	1895.42
622.442	1902.35
622.859	1908.63
623.275	1898.45
623.691	1908.02
624.108	1924.87
624.524	1948.92
624.94	1949.58
625.356	1965.7
625.772	1987.58
626.188	2007.48
626.604	2011.12
627.02	2004.93
627.436	2001.51
627.852	2011.34
628.268	2029.31
628.683	2016.72
629.099	2002.21
629.514	1997.59
629.93	2002.99
630.345	2008.68
630.761	2002.21
631.176	2007.3
631.591	1996.98
632.007	1986.11
632.422	1984.87
632.837	1967.57
633.252	1962.75
633.667	1946.35
634.082	1930.1
634.497	1909.95
634.911	1878.51
635.326	1871.55
635.741	1843.86
636.155	1829.66
636.57	1830.82
636.984	1828.96
637.399	1829.21
637.813	1828.31
638.228	1826.33
638.642	1831.63
639.056	1815.05
639.47	1815.9
639.884	1802.32
640.298	1792.18
640.712	1788.71
641.126	1769.43
641.54	1755.73
641.954	1748.93
642.368	1729.19
642.781	1715.91
643.195	1688.23
643.609	1687.16
644.022	1676.6
644.436	1670.7
644.849	1653.58
645.262	1636.49
645.676	1640.4
646.089	1631.43
646.502	1607.12
646.915	1600.22
647.328	1575.57
647.741	1572.96
648.154	1554.89
648.567	1549.57
648.98	1529.07
649.393	1528.98
649.805	1522.63
650.218	1510.03
650.631	1487.78
651.043	1478.98
651.456	1468.1
651.868	1468.28
652.28	1493.26
652.693	1513.49
653.105	1523.65
653.517	1538.46
653.929	1537.59
654.341	1544.55
654.753	1525.87
655.165	1533.76
655.577	1529.64
655.989	1522.59
656.401	1511.02
656.813	1455.63
657.224	1424.87
657.636	1383.6
658.047	1354.87
658.459	1326.56
658.87	1314.81
659.282	1297.35
659.693	1265.19
660.104	1243.2
660.515	1223.11
660.926	1219.34
661.338	1215.74
661.749	1206.15
662.159	1189.96
662.57	1183.87
662.981	1175.07
663.392	1162.5
663.803	1165.4
664.213	1160.79
664.624	1152.83
665.035	1155.32
665.445	1133.98
665.855	1120.74
666.266	1105.85
666.676	1102.64
667.086	1086.93
667.497	1084.21
667.907	1074.55
668.317	1061.88
668.727	1054.19
669.137	1053.49
669.547	1048.76
669.956	1053.01
670.366	1055.08
670.776	1058.33
671.186	1062.57
671.595	1067.71
672.005	1073.14
672.414	1070.61
672.824	1066.32
673.233	1074.12
673.642	1075.97
674.052	1079.92
674.461	1080.02
674.87	1085.9
675.279	1079.88
675.688	1080.76
676.097	1080.7
676.506	1074.63
676.915	1094.12
677.323	1098.31
677.732	1095.57
678.141	1096.78
678.549	1082.78
678.958	1082.78
679.366	1082.47
679.775	1091.17
680.183	1105.32
680.592	1115.26
681	1125.6
681.408	1118.12
681.816	1130.47
682.224	1143.91
682.632	1158.33
683.04	1202.44
683.448	1239.03
683.856	1283.82
684.264	1335.72
684.671	1385.04
685.079	1444.68
685.487	1508.05
685.894	1598.51
686.302	1673.76
686.709	1736.31
687.116	1809.86
687.524	1866.85
687.931	1918.17
688.338	1961.76
688.745	1999.2
689.152	2041.9
689.559	2098.53
689.966	2154.51
690.373	2181.43
