Data from C_1_DEC_NC_4N_Splice17_11-44-17-843.txt Node
Date: Sat Mar 14 11:44:17 EDT 2020
User: sa697716
Spectrometer: FLMS03696
Trigger mode: 0
Integration Time (sec): 3.180400E-1
Scans to average: 20
Electric dark correction enabled: true
Nonlinearity correction enabled: true
Boxcar width: 5
XAxis mode: Wavelengths
Number of Pixels in Spectrum: 2048
>>>>>Begin Spectral Data<<<<<
187.83	-198656.31
188.298	1487.46
188.766	772.85
189.233	680.55
189.701	986.02
190.169	1400.85
190.636	472.71
191.104	329.04
191.571	6.53
192.039	-37.73
192.506	-80.61
192.974	281.46
193.441	-327.43
193.908	-160.49
194.375	-60.27
194.842	-27.05
195.31	-49.46
195.777	62.29
196.244	177.16
196.711	105.46
197.177	99.19
197.644	62.28
198.111	92.39
198.578	73.37
199.045	38.1
199.511	24.94
199.978	-31.53
200.445	14.87
200.911	-37.2
201.378	-130.49
201.844	-94.34
202.31	-208.35
202.777	-206.1
203.243	-131.77
203.709	-116.62
204.176	-101.64
204.642	-75.35
205.108	-26.03
205.574	-30.48
206.04	-47.03
206.506	-53.31
206.972	-87.47
207.438	-86.38
207.903	-112.92
208.369	-75.07
208.835	-59.69
209.301	-72.08
209.766	-83.59
210.232	-108.55
210.697	-133.75
211.163	-203.45
211.628	-321.46
212.094	-199.48
212.559	-127
213.024	-65.84
213.49	-80.12
213.955	-83.83
214.42	-113.35
214.885	-98.36
215.35	-83.36
215.815	-1.27
216.28	40.9
216.745	49.13
217.21	71.2
217.675	18.86
218.14	24.43
218.604	10.58
219.069	2.92
219.534	48.75
219.998	30.01
220.463	39.69
220.927	-44.56
221.392	-23.77
221.856	-25.21
222.32	-89.39
222.785	-82.98
223.249	-99.83
223.713	-98.89
224.177	-83.72
224.642	-209.54
225.106	-219.25
225.57	-256.89
226.034	-110.11
226.497	-182.8
226.961	-89.62
227.425	-35.49
227.889	-80.01
228.353	-146.65
228.816	-362.48
229.28	-278.09
229.744	-140.64
230.207	-23.44
230.671	-21.8
231.134	-210.81
231.597	-184.9
232.061	-318.12
232.524	-378.28
232.987	-237.51
233.45	-123.46
233.914	-115.45
234.377	-177.82
234.84	-169.87
235.303	-272.72
235.766	-262.71
236.229	-259.17
236.691	-186.73
237.154	-224.38
237.617	-147.94
238.08	-166.58
238.542	-215.97
239.005	-121.31
239.468	-103.91
239.93	-98.2
240.393	-75.35
240.855	-76.64
241.317	-83.69
241.78	-135.77
242.242	-110.91
242.704	-88.5
243.166	-58.27
243.629	-25.13
244.091	-51.41
244.553	-71.09
245.015	-55.34
245.477	-79.71
245.939	-116.61
246.4	-119.72
246.862	-82.54
247.324	-98.2
247.786	-143.58
248.247	-274.23
248.709	-399.75
249.17	-242.84
249.632	-115.93
250.093	-88.3
250.555	-74.71
251.016	-20.05
251.477	-11.13
251.939	0.33
252.4	-9.6
252.861	-53.7
253.322	-0.72
253.783	-46.74
254.244	-103.69
254.705	-148.79
255.166	-183.87
255.627	-182.53
256.088	-209.28
256.549	-202.87
257.009	-206.26
257.47	-291.09
257.931	-233.23
258.391	-160.94
258.852	-123.78
259.312	-146.67
259.773	-195.7
260.233	-90.19
260.694	-32.44
261.154	-74.69
261.614	-10.26
262.074	-6.66
262.534	26.62
262.994	33.97
263.455	18.49
263.915	28.76
264.374	33.24
264.834	49.94
265.294	11.9
265.754	-2.65
266.214	-6.84
266.673	-30.27
267.133	-52.15
267.593	-82.39
268.052	-77.86
268.512	-85.63
268.971	-70.32
269.431	-63.3
269.89	-71.29
270.349	-89.5
270.809	-99.2
271.268	-92.12
271.727	-371.01
272.186	-192.91
272.645	-130.41
273.104	-157.57
273.563	-219.64
274.022	-257.08
274.481	-187.77
274.94	-117.58
275.399	-104.72
275.857	-153.57
276.316	-239.81
276.775	-210.49
277.233	-203.22
277.692	-151.85
278.15	-126.27
278.609	-69.54
279.067	-67.51
279.525	-50.99
279.984	-115.29
280.442	-113.27
280.9	6.49
281.358	26.13
281.816	52.08
282.274	39.87
282.732	-4.26
283.19	-49.16
283.648	-82.3
284.106	-77.84
284.564	-111.83
285.021	-72.45
285.479	-73.79
285.937	-117.79
286.394	-93.08
286.852	-117.78
287.309	-128.11
287.767	-91.8
288.224	-72.2
288.682	-77.54
289.139	-75.88
289.596	-63.88
290.053	-91.46
290.511	-117.23
290.968	-120.88
291.425	-205.21
291.882	-89.28
292.339	-60.66
292.796	-82.65
293.252	-75.36
293.709	-21.73
294.166	-32.54
294.623	-48.06
295.079	-48.82
295.536	-25.8
295.992	-17.4
296.449	5.89
296.905	0.7
297.362	42.64
297.818	37.02
298.274	45.2
298.731	6.24
299.187	19.79
299.643	20.14
300.099	23.97
300.555	20.96
301.011	17.18
301.467	74
301.923	37.54
302.379	-0.02
302.835	-18.24
303.291	-11.73
303.746	-26.08
304.202	-63.78
304.658	-45.2
305.113	0.81
305.569	9.13
306.024	-14.43
306.479	-106.44
306.935	-70.66
307.39	-104.45
307.845	-90.76
308.301	-71.63
308.756	-65.95
309.211	-49.98
309.666	-62.79
310.121	-69.12
310.576	-112.81
311.031	-134.7
311.486	-179.92
311.94	-220.46
312.395	-311.16
312.85	-627.69
313.305	-4282.99
313.759	-17458.18
314.214	-1307.22
314.668	-1029.38
315.123	-842.76
315.577	-236.96
316.032	-162.5
316.486	-200.27
316.94	-90.73
317.394	-30.05
317.849	-9.68
318.303	-16.02
318.757	-13.32
319.211	-4
319.665	-12.13
320.119	-25.76
320.572	-85.12
321.026	-58.15
321.48	-41.45
321.934	-83.28
322.387	-100.81
322.841	-91.93
323.295	-8.7
323.748	-53.46
324.202	-61.59
324.655	-44.3
325.108	60.85
325.562	83.62
326.015	41.11
326.468	58.73
326.921	80.49
327.374	110.73
327.827	142.43
328.28	124.14
328.733	96.28
329.186	80.96
329.639	87.92
330.092	42.14
330.545	55.55
330.997	69.73
331.45	97.95
331.903	138.49
332.355	151.73
332.808	94.66
333.26	30.94
333.713	40.57
334.165	36.47
334.617	-13.51
335.069	-69.03
335.522	-303.07
335.974	-296.56
336.426	-395.14
336.878	-383.41
337.33	-158.92
337.782	-180.33
338.234	-147.67
338.686	-187.85
339.137	-210.38
339.589	-208.98
340.041	-127.14
340.493	-81.34
340.944	-105.74
341.396	-102.73
341.847	-41.95
342.299	-11.04
342.75	74.52
343.201	6.01
343.653	3.31
344.104	-50.6
344.555	-41.66
345.006	-186.3
345.457	-49.93
345.908	-47.24
346.359	-29.47
346.81	-18.7
347.261	-65.07
347.712	-110.64
348.163	-147.41
348.613	-90.09
349.064	-65.88
349.515	-50.8
349.965	-15.04
350.416	-76.3
350.866	-93.85
351.317	-149.65
351.767	-256.27
352.217	-279.1
352.668	-176.75
353.118	-109.22
353.568	-263.93
354.018	-171.32
354.468	-139.47
354.918	-84.86
355.368	-52.84
355.818	-81.68
356.268	-281.56
356.718	-1098.83
357.168	-276.2
357.617	-181.48
358.067	-245.76
358.517	-178.76
358.966	-202.38
359.416	-170.5
359.865	-222.32
360.315	-437.52
360.764	-152.27
361.213	-57.06
361.663	-89.86
362.112	-121.54
362.561	-201.14
363.01	-131.92
363.459	-129.4
363.908	-167.57
364.357	-115.02
364.806	-239.37
365.255	-118.58
365.703	-89.55
366.152	-92.86
366.601	-60.79
367.05	-27.19
367.498	-3.86
367.947	-17.65
368.395	-4.49
368.844	1.93
369.292	-54.38
369.74	-21.85
370.189	-86.92
370.637	-136.28
371.085	-127.9
371.533	-172.89
371.981	-211.19
372.429	-193.21
372.877	-218.17
373.325	-186.64
373.773	-223.02
374.221	-221.8
374.669	-298.8
375.116	-218.46
375.564	-206.54
376.012	-260.43
376.459	-190.9
376.907	-229.04
377.354	-293.64
377.801	-230.92
378.249	-254.3
378.696	-316.03
379.143	-329.17
379.591	-354.41
380.038	-604.2
380.485	-369.71
380.932	-326.89
381.379	-133.68
381.826	13.74
382.273	-5.13
382.72	-31.38
383.166	6.37
383.613	32.53
384.06	21.87
384.506	19.75
384.953	5.98
385.4	-5.54
385.846	-8.1
386.292	-52.75
386.739	-70.63
387.185	-78.38
387.631	-76.52
388.078	-62.68
388.524	-81.61
388.97	-70.2
389.416	-41.57
389.862	-39.36
390.308	-39.22
390.754	-24.05
391.2	-19.79
391.645	-35.48
392.091	0.79
392.537	12.96
392.983	-13.49
393.428	32.32
393.874	31.46
394.319	47.02
394.765	59.26
395.21	56.07
395.655	41.34
396.101	40.16
396.546	40.48
396.991	15.26
397.436	8.86
397.881	8.66
398.326	-16.28
398.771	-7.77
399.216	-19.15
399.661	-26.17
400.106	-25.59
400.551	-16.81
400.995	-14.24
401.44	-8.09
401.885	-3.65
402.329	-6.11
402.774	-1.03
403.218	13.7
403.663	13.42
404.107	19.88
404.551	26.11
404.995	24.27
405.44	14.7
405.884	10.9
406.328	1.38
406.772	-1.11
407.216	0.6
407.66	-3.57
408.104	-13.18
408.547	-13.76
408.991	-13.93
409.435	-15.38
409.879	-13.17
410.322	-9.21
410.766	-4.67
411.209	2.88
411.653	4.56
412.096	8.48
412.54	7.83
412.983	9.52
413.426	13.84
413.869	10.65
414.312	13.86
414.756	12.46
415.199	9.6
415.642	10.45
416.085	9.32
416.527	7.68
416.97	5.58
417.413	6.74
417.856	3.1
418.298	-1.07
418.741	-3.33
419.184	-5.82
419.626	-10.2
420.069	-9.49
420.511	-8.63
420.953	-5.44
421.396	-3.8
421.838	-6.34
422.28	-7.1
422.722	-4.14
423.164	-5.67
423.606	-2.81
424.048	-3.09
424.49	2.32
424.932	2.18
425.374	-1.7
425.816	-6.56
426.258	-8.38
426.699	-6.06
427.141	0.65
427.582	-1.47
428.024	-0.16
428.465	-4.1
428.907	-4.01
429.348	-5.31
429.789	-3.03
430.231	2.74
430.672	4.36
431.113	4.84
431.554	5
431.995	0.92
432.436	4.49
432.877	6.34
433.318	10.89
433.759	7.16
434.2	5.82
434.64	4.9
435.081	3.64
435.522	5.12
435.962	4.73
436.403	5.25
436.843	2.62
437.284	-1.45
437.724	-4.99
438.164	-8.15
438.604	-7.26
439.045	-4.59
439.485	-2.59
439.925	-4.94
440.365	-5.96
440.805	-5.72
441.245	-4.39
441.685	-4.18
442.125	-4.8
442.564	-5.25
443.004	-3.6
443.444	-2.78
443.883	-3.67
444.323	-7.64
444.762	-11.88
445.202	-13.11
445.641	-9.96
446.081	-12.64
446.52	-12.08
446.959	-9.63
447.398	-5.92
447.837	-5.97
448.276	-5.94
448.716	-4.72
449.154	-6.1
449.593	-1.41
450.032	-0.79
450.471	-4.83
450.91	-4.87
451.349	-3.17
451.787	-5.27
452.226	-7.51
452.664	-8.03
453.103	-8.1
453.541	-9.81
453.98	-4.44
454.418	-5.5
454.856	-2.53
455.295	-2.31
455.733	-1.54
456.171	-3.1
456.609	0.28
457.047	0.93
457.485	3.22
457.923	5.06
458.361	3.74
458.798	1.77
459.236	2.48
459.674	-0.06
460.111	0.96
460.549	0.91
460.987	1.35
461.424	-0.95
461.862	-0.06
462.299	-0.77
462.736	-0.19
463.173	1.22
463.611	3.29
464.048	4.51
464.485	5.44
464.922	5.31
465.359	4.78
465.796	12.94
466.233	13.77
466.67	16.19
467.106	17.51
467.543	16.2
467.98	15.12
468.416	13.89
468.853	11.85
469.29	11.1
469.726	9.71
470.162	9.93
470.599	2.54
471.035	2.14
471.471	0.3
471.907	-1.9
472.344	-3.32
472.78	-2.87
473.216	-4.11
473.652	-4.08
474.088	-5.16
474.523	-4.32
474.959	-4.9
475.395	-3.88
475.831	-3.63
476.266	-4.92
476.702	-4.99
477.138	-3.78
477.573	-3.12
478.008	-2.49
478.444	-1.2
478.879	0.72
479.314	1.61
479.75	2.33
480.185	1.78
480.62	1.38
481.055	1.98
481.49	2.31
481.925	2.92
482.36	4.84
482.795	3.35
483.229	2.64
483.664	1.75
484.099	0.89
484.534	1.54
484.968	2.3
485.403	2.36
485.837	1.56
486.271	1.6
486.706	0.61
487.14	-0.85
487.574	0.3
488.009	-0.06
488.443	-0.53
488.877	0.67
489.311	-0.22
489.745	-0.11
490.179	0.51
490.613	2.72
491.046	1.94
491.48	1.54
491.914	1.39
492.348	1.44
492.781	2.02
493.215	2.4
493.648	1.3
494.082	0.88
494.515	0.81
494.948	1.41
495.382	-0.58
495.815	0.05
496.248	0.92
496.681	0.43
497.114	-0.51
497.547	-0.41
497.98	0.61
498.413	2.38
498.846	3.04
499.279	2.38
499.711	1.21
500.144	1.62
500.577	2.35
501.009	1.86
501.442	2.9
501.874	4.76
502.306	3.71
502.739	5.73
503.171	4.97
503.603	4.59
504.036	4.01
504.468	4.32
504.9	4.51
505.332	4.11
505.764	4.83
506.196	3.99
506.627	3.43
507.059	4.4
507.491	0.92
507.923	1.06
508.354	1.81
508.786	2.75
509.217	2.72
509.649	2.62
510.08	1.75
510.512	2.46
510.943	2.57
511.374	2.37
511.805	1.75
512.237	1.99
512.668	0.85
513.099	-0.15
513.53	-0.57
513.961	0.07
514.391	0.04
514.822	2.02
515.253	1.39
515.684	2.07
516.114	2
516.545	3.33
516.975	3.16
517.406	3.16
517.836	2.86
518.267	3.15
518.697	3.28
519.127	2.99
519.558	1.68
519.988	0.94
520.418	-0.44
520.848	-1.02
521.278	-2.61
521.708	30.7
522.138	32.14
522.567	32.06
522.997	31.75
523.427	30.95
523.857	31.21
524.286	31
524.716	31.45
525.145	32.07
525.575	33
526.004	32.79
526.433	0.75
526.863	-0.65
527.292	0.63
527.721	1.58
528.15	1.42
528.579	1.77
529.008	1.72
529.437	0.97
529.866	1.02
530.295	-0.12
530.724	1.05
531.152	0.86
531.581	1.75
532.01	1.56
532.438	0.48
532.867	0.12
533.295	0.12
533.723	0.29
534.152	0.85
534.58	1.36
535.008	1.65
535.436	2.41
535.865	2.15
536.293	0.91
536.721	0.32
537.149	0.91
537.576	1.95
538.004	2.07
538.432	1.76
538.86	2.24
539.287	1.76
539.715	2.59
540.143	1.1
540.57	1.75
540.998	2.27
541.425	4.37
541.852	3.92
542.28	3.33
542.707	2.59
543.134	2.96
543.561	2.82
543.988	3.4
544.415	2.01
544.842	2.01
545.269	1.81
545.696	2.67
546.123	1.75
546.549	1.96
546.976	1.94
547.403	2.41
547.829	1.71
548.256	1.08
548.682	0.76
549.108	2.6
549.535	2.74
549.961	1.88
550.387	0.81
550.813	1.85
551.24	1.63
551.666	1.5
552.092	1.45
552.518	1.65
552.943	2.76
553.369	2.5
553.795	1.87
554.221	2.26
554.646	2.36
555.072	3.94
555.498	2.06
555.923	1.31
556.349	1.56
556.774	1.35
557.199	1.4
557.625	0.15
558.05	0.78
558.475	0.37
558.9	0.49
559.325	1.34
559.75	1.06
560.175	0.84
560.6	1.09
561.025	0.34
561.449	0.76
561.874	0.23
562.299	0.99
562.723	0.42
563.148	0.09
563.572	-0.41
563.997	-0.74
564.421	-1.99
564.846	-2.18
565.27	-1.72
565.694	-1.55
566.118	-2.03
566.542	-0.18
566.966	0.12
567.39	0.41
567.814	1.37
568.238	1.32
568.662	0.92
569.086	1.69
569.509	1.41
569.933	2.9
570.357	3.17
570.78	2.93
571.204	3.69
571.627	3.47
572.05	2.9
572.474	3.82
572.897	4.22
573.32	5.36
573.743	4.5
574.166	5.27
574.589	4.03
575.012	3.73
575.435	3.58
575.858	2.5
576.281	2.72
576.704	2.83
577.126	1.35
577.549	0.75
577.972	-0.51
578.394	-0.34
578.817	1.33
579.239	0.88
579.661	1.92
580.084	3.68
580.506	3.85
580.928	3.12
581.35	3.14
581.772	3.27
582.194	3.68
582.616	3.24
583.038	2.92
583.46	1.34
583.882	2.08
584.303	0.92
584.725	-0.29
585.147	4
585.568	4.68
585.99	5.59
586.411	6.07
586.833	6.23
587.254	7.04
587.675	7
588.096	6.34
588.518	5.66
588.939	6.72
589.36	7.16
589.781	1.02
590.202	3.72
590.623	3.44
591.043	2.2
591.464	1.79
591.885	1.64
592.305	1.53
592.726	1.88
593.147	1.85
593.567	1.27
593.987	0.51
594.408	0.91
594.828	-2.39
595.248	-2.32
595.669	-1
596.089	-0.32
596.509	-0.78
596.929	-0.59
597.349	0.25
597.769	0.33
598.189	0.3
598.608	0.9
599.028	0.58
599.448	-0.25
599.867	-0.2
600.287	-1.26
600.706	-1.47
601.126	-0.64
601.545	-0
601.965	-0.41
602.384	-0.13
602.803	-0.19
603.222	-0.33
603.641	-0.11
604.061	1.19
604.48	0.56
604.898	0.97
605.317	0.78
605.736	0.38
606.155	0.31
606.574	0.47
606.992	0.16
607.411	0.25
607.829	-0.43
608.248	-0.37
608.666	-0.95
609.085	-0.31
609.503	0.02
609.921	0.91
610.339	0.89
610.758	0.27
611.176	-0.24
611.594	0.41
612.012	0.49
612.43	1.39
612.847	1.21
613.265	2.35
613.683	2.22
614.101	1.68
614.518	0.24
614.936	0.28
615.353	1.22
615.771	1.37
616.188	1.13
616.606	1.07
617.023	1.16
617.44	1.21
617.857	-0.34
618.274	-0.99
618.691	-0.3
619.108	0.18
619.525	0.36
619.942	0.4
620.359	0.46
620.776	0.38
621.192	1.06
621.609	1.26
622.026	2.13
622.442	2.74
622.859	2.58
623.275	1.76
623.691	1.86
624.108	1.55
624.524	1.39
624.94	1.92
625.356	1.53
625.772	0.28
626.188	-0.43
626.604	-0.65
627.02	-0.79
627.436	-0.54
627.852	0.84
628.268	1.24
628.683	0.64
629.099	0.23
629.514	-1.03
629.93	-1.04
630.345	-0.44
630.761	-1.25
631.176	-1.45
631.591	0.52
632.007	1.62
632.422	0.21
632.837	-0.64
633.252	1.28
633.667	1.3
634.082	1.65
634.497	2.44
634.911	4.42
635.326	4.77
635.741	5.02
636.155	2.89
636.57	3.53
636.984	4.08
637.399	5.74
637.813	4.32
638.228	4.85
638.642	4.76
639.056	3.99
639.47	2.63
639.884	3.24
640.298	3.02
640.712	4.19
641.126	3.24
641.54	2.73
641.954	-0.13
642.368	0.12
642.781	2.3
643.195	2.42
643.609	2.7
644.022	2.21
644.436	1.31
644.849	0.87
645.262	0.61
645.676	-0.13
646.089	-0.4
646.502	2.09
646.915	1.78
647.328	-0.22
647.741	0.39
648.154	1.04
648.567	3.2
648.98	4.22
649.393	4.15
649.805	3.75
650.218	3.84
650.631	5.06
651.043	4.6
651.456	5.37
651.868	5.25
652.28	4.42
652.693	3.23
653.105	1.28
653.517	0.36
653.929	0.5
654.341	1.3
654.753	2.01
655.165	1.08
655.577	0.93
655.989	0.53
656.401	-0.01
656.813	0.62
657.224	1.25
657.636	0.85
658.047	2.31
658.459	2.64
658.87	0.38
659.282	0.08
659.693	1.19
660.104	1.32
660.515	1.23
660.926	0.49
661.338	-0.33
661.749	-1.12
662.159	-0.6
662.57	-2.15
662.981	-2.24
663.392	-0.78
663.803	-1.1
664.213	-2.31
664.624	-2.97
665.035	-3.23
665.445	-3.54
665.855	-1.07
666.266	0.24
666.676	-0.12
667.086	-0.23
667.497	-0.36
667.907	-0.37
668.317	-0.96
668.727	2.51
669.137	1.17
669.547	1.07
669.956	1.33
670.366	0.44
670.776	0.48
671.186	0.34
671.595	1.72
672.005	1.38
672.414	1.28
672.824	2.82
673.233	-0.59
673.642	0.48
674.052	0.52
674.461	1.49
674.87	0.73
675.279	1.34
675.688	0.17
676.097	1.22
676.506	1.28
676.915	0.82
677.323	0.51
677.732	0.18
678.141	-0.34
678.549	-0.17
678.958	-1.97
679.366	-2.25
679.775	-3.99
680.183	-0.58
680.592	-2.1
681	-2.36
681.408	-2.82
681.816	-3.37
682.224	-3.03
682.632	-0.47
683.04	-0.15
683.448	0.45
683.856	1.33
684.264	3.13
684.671	1.02
685.079	0.19
685.487	-0.57
685.894	-0.63
686.302	-2.36
686.709	-1.82
687.116	-2.95
687.524	-1.97
687.931	-0.36
688.338	-0.43
688.745	-2.7
689.152	-3.42
689.559	-2.51
689.966	-0.74
690.373	0.21
690.78	2.68
691.187	2.71
691.593	3.65
692	2.45
692.407	2.31
692.813	4.35
693.22	6.28
693.626	5.82
694.032	7.02
694.439	6.73
694.845	6.39
695.251	4.83
695.657	5.02
696.063	2.37
696.469	2.39
696.875	2.43
697.281	0.34
697.687	-1.32
698.093	-1.16
698.498	-1.73
698.904	-3.18
699.31	-2.32
699.715	0.61
700.12	-0.27
700.526	0.79
700.931	0.63
701.337	1.24
701.742	1.72
702.147	1.74
702.552	2.53
702.957	0.63
703.362	1.22
703.767	0.98
704.172	-1.4
704.577	-1.83
704.981	-2.92
705.386	-2.6
705.791	-3.17
706.195	-4.12
706.6	-3.24
707.004	-4.75
707.408	-4.38
707.813	-2.88
708.217	-2.28
708.621	-2.71
709.025	-2.27
709.43	0.18
709.834	0.56
710.237	-0.15
710.641	0.3
711.045	0.62
711.449	2.39
711.853	6.28
712.256	4.83
712.66	4.54
713.064	5.56
713.467	6.05
713.87	5.04
714.274	5.53
714.677	6.74
715.08	7.6
715.484	7.46
715.887	9.96
716.29	6.35
716.693	8.69
717.096	8.97
717.499	8.57
717.901	7.18
718.304	7.18
718.707	6.31
719.109	5.97
719.512	4.67
719.915	7.46
720.317	4.75
720.719	4.73
721.122	3.15
721.524	2.37
721.926	7.6
722.328	8.62
722.731	7.27
723.133	7.02
723.535	6.43
723.937	6.07
724.338	5.93
724.74	8.04
725.142	62.15
725.544	66.46
725.945	80.38
726.347	75.5
726.748	76.05
727.15	78.05
727.551	81.48
727.952	80.17
728.354	79.82
728.755	78.3
729.156	75.29
729.557	22.62
729.958	17.67
730.359	5.33
730.76	4.94
731.161	4.63
731.562	2.22
731.962	-1.54
732.363	-1.14
732.763	-0.49
733.164	-3.16
733.564	-2.87
733.965	-1.51
734.365	-0.78
734.766	-1.33
735.166	-0.76
735.566	0.07
735.966	1.95
736.366	1.98
736.766	2.63
737.166	1.16
737.566	2.08
737.966	3.17
738.365	2.66
738.765	4.21
739.165	4.54
739.564	4.11
739.964	2.79
740.363	1.01
740.763	1.08
741.162	2.27
741.561	1.95
741.96	1.96
742.36	0.1
742.759	0.9
743.158	-1.3
743.557	-2.56
743.955	-2.35
744.354	-2.57
744.753	-2.78
745.152	-1.32
745.55	-3.95
745.949	-3.47
746.348	-3.41
746.746	-3.72
747.144	-1.77
747.543	-2.06
747.941	-2.46
748.339	-2.72
748.737	-1.65
749.136	0.33
749.534	-2.03
749.932	1.88
750.33	2.08
750.727	1.56
751.125	3.04
751.523	0.13
751.921	3.81
752.318	5.64
752.716	7.44
753.113	6.72
753.511	5.93
753.908	6.52
754.305	9.78
754.703	11.19
755.1	12.83
755.497	12.35
755.894	12.05
756.291	9.49
756.688	9.43
757.085	6.98
757.482	8.43
757.878	11.21
758.275	14.4
758.672	5.29
759.068	3.92
759.465	0.56
759.861	-2.1
760.258	-3.06
760.654	-3.42
761.05	-0.72
761.447	-0.71
761.843	-1.2
762.239	-4.48
762.635	-9.26
