Data from C_1_DEC_CT_2N_Splice17_11-46-28-440.txt Node
Date: Sat Mar 14 11:46:28 EDT 2020
User: sa697716
Spectrometer: FLMS03696
Trigger mode: 0
Integration Time (sec): 3.180400E-1
Scans to average: 20
Electric dark correction enabled: true
Nonlinearity correction enabled: true
Boxcar width: 5
XAxis mode: Wavelengths
Number of Pixels in Spectrum: 2048
>>>>>Begin Spectral Data<<<<<
187.83	-295533.64
188.298	2176.49
188.766	1128.81
189.233	1027.74
189.701	1470.19
190.169	1977.15
190.636	721.87
191.104	572.59
191.571	79.52
192.039	-11.27
192.506	-28.07
192.974	457.05
193.441	-661.38
193.908	-156.32
194.375	-61.44
194.842	45.07
195.31	40.71
195.777	115.73
196.244	219.02
196.711	130.8
197.177	116.07
197.644	75.41
198.111	128.79
198.578	141.22
199.045	94.49
199.511	101.74
199.978	27.71
200.445	44.33
200.911	23.54
201.378	-34.81
201.844	10.72
202.31	-24.56
202.777	-5.45
203.243	-12.02
203.709	-4.38
204.176	-17.87
204.642	0.98
205.108	26.37
205.574	29.04
206.04	0.83
206.506	13.73
206.972	-18.58
207.438	-18.98
207.903	-9.86
208.369	24.27
208.835	47.43
209.301	56.57
209.766	47.16
210.232	36.95
210.697	41.64
211.163	40.99
211.628	17.16
212.094	60.35
212.559	203.56
213.024	123.97
213.49	158.19
213.955	118.34
214.42	71.85
214.885	86.5
215.35	111.1
215.815	180.26
216.28	185.72
216.745	143.46
217.21	175.36
217.675	106.39
218.14	107.61
218.604	83.91
219.069	105.55
219.534	157.8
219.998	145.16
220.463	153.36
220.927	66.79
221.392	70.63
221.856	90.69
222.32	32.2
222.785	53.92
223.249	70.76
223.713	66.44
224.177	43.7
224.642	-41.5
225.106	-65.54
225.57	-122.33
226.034	3.85
226.497	-11.02
226.961	28.33
227.425	67.32
227.889	10.47
228.353	23.22
228.816	-12.05
229.28	58.67
229.744	37.73
230.207	115.87
230.671	140
231.134	52.06
231.597	105.04
232.061	49.37
232.524	1.88
232.987	42.14
233.45	53.07
233.914	89.49
234.377	21.97
234.84	16.39
235.303	-58.1
235.766	-67.08
236.229	-69.77
236.691	-50.72
237.154	-87.62
237.617	-48.09
238.08	-68.51
238.542	-97.09
239.005	-68.5
239.468	-46.75
239.93	-39.55
240.393	-11.32
240.855	-8.6
241.317	-19.56
241.78	-52.46
242.242	-44.7
242.704	-9.62
243.166	2.04
243.629	25.51
244.091	28.18
244.553	39.13
245.015	69.78
245.477	67.17
245.939	34.67
246.4	68.11
246.862	74.45
247.324	53.02
247.786	24.55
248.247	-40.54
248.709	-171.16
249.17	-109.58
249.632	-44.27
250.093	-37.64
250.555	-37.44
251.016	36.08
251.477	37.2
251.939	57.57
252.4	69.75
252.861	48.24
253.322	94.72
253.783	108.85
254.244	110.53
254.705	20.78
255.166	-29.02
255.627	-37.63
256.088	-64.44
256.549	-74.6
257.009	-74.4
257.47	-144.06
257.931	-149.9
258.391	-115.35
258.852	-111.46
259.312	-121.89
259.773	-157.39
260.233	-75.47
260.694	-26.83
261.154	-26.95
261.614	43.96
262.074	40.59
262.534	79.89
262.994	98.2
263.455	110.33
263.915	113.38
264.374	103.07
264.834	125.59
265.294	110.13
265.754	120.43
266.214	106.1
266.673	73.82
267.133	65.28
267.593	28.91
268.052	49.31
268.512	40.82
268.971	96.22
269.431	111.63
269.89	82.28
270.349	164.63
270.809	182.86
271.268	171.27
271.727	275.76
272.186	198.4
272.645	165.81
273.104	65.23
273.563	48.17
274.022	-59.86
274.481	-30.03
274.94	-17.53
275.399	-36.55
275.857	-77.67
276.316	-126.49
276.775	-126.02
277.233	-101.23
277.692	-55.21
278.15	-32.15
278.609	37.9
279.067	44.62
279.525	54.82
279.984	26.57
280.442	31.55
280.9	147.36
281.358	99
281.816	99.31
282.274	75.57
282.732	20.6
283.19	17.08
283.648	-8.54
284.106	-23.91
284.564	-30.06
285.021	17.86
285.479	12.69
285.937	-38.77
286.394	-5.73
286.852	-9.79
287.309	-11.25
287.767	34.15
288.224	37.97
288.682	35.24
289.139	53.5
289.596	43.48
290.053	27.56
290.511	12.63
290.968	48.39
291.425	-25.67
291.882	43.84
292.339	58.67
292.796	28.88
293.252	25.92
293.709	66.61
294.166	66.22
294.623	78.63
295.079	66.97
295.536	104.2
295.992	97.21
296.449	119.84
296.905	137.87
297.362	160.14
297.818	148.7
298.274	167.07
298.731	131.01
299.187	116.63
299.643	106.2
300.099	155.99
300.555	143.67
301.011	113.89
301.467	170.41
301.923	117.57
302.379	99.88
302.835	121.52
303.291	128.88
303.746	165.78
304.202	222.59
304.658	241.34
305.113	148.34
305.569	148.41
306.024	143.92
306.479	51.52
306.935	85.7
307.39	55.08
307.845	45.08
308.301	38.03
308.756	17.04
309.211	22.5
309.666	6.98
310.121	60.58
310.576	29.15
311.031	24.08
311.486	-20.24
311.94	-83.67
312.395	-112.34
312.85	-282.2
313.305	-2366.72
313.759	-8708.42
314.214	-698.44
314.668	-390.32
315.123	-362.92
315.577	-73.06
316.032	-66.25
316.486	-48.98
316.94	13.01
317.394	32.59
317.849	42.87
318.303	44.7
318.757	43.18
319.211	38.64
319.665	28.06
320.119	25.51
320.572	10.62
321.026	34.29
321.48	33.32
321.934	7.51
322.387	-5.86
322.841	20.05
323.295	76.43
323.748	39.84
324.202	56.47
324.655	73.27
325.108	158.59
325.562	147.46
326.015	114.26
326.468	89.47
326.921	120.55
327.374	150.72
327.827	150.82
328.28	137.74
328.733	127.45
329.186	125.44
329.639	116.64
330.092	76.85
330.545	66.06
330.997	102.27
331.45	127.4
331.903	165.1
332.355	207.4
332.808	154.57
333.26	127.91
333.713	130.22
334.165	110.17
334.617	129.1
335.069	29.84
335.522	-26.64
335.974	-115.78
336.426	-159.26
336.878	-215.05
337.33	-89.1
337.782	-78.94
338.234	-74.01
338.686	-135.25
339.137	-192.97
339.589	-195.39
340.041	-95.39
340.493	-69.05
340.944	-82.8
341.396	-56.15
341.847	11.6
342.299	67.8
342.75	121.85
343.201	59.68
343.653	88.88
344.104	127.49
344.555	80.47
345.006	24.26
345.457	130.31
345.908	92.25
346.359	104.84
346.81	77.83
347.261	41.53
347.712	4.46
348.163	16.56
348.613	64.45
349.064	36.85
349.515	58.1
349.965	109.26
350.416	95.64
350.866	102.26
351.317	23.43
351.767	17.81
352.217	-17.88
352.668	-20.07
353.118	-40.35
353.568	-149.39
354.018	-50.44
354.468	-29.77
354.918	-34.34
355.368	-58.52
355.818	-69.44
356.268	-171.08
356.718	-280.24
357.168	40.78
357.617	30.19
358.067	-75.21
358.517	-71.92
358.966	-49.83
359.416	7.83
359.865	-70.72
360.315	-88.79
360.764	-25.23
361.213	14.48
361.663	-24.91
362.112	-76.69
362.561	-149.34
363.01	-61.43
363.459	-26.51
363.908	-75.84
364.357	-46.61
364.806	-130.42
365.255	-87.56
365.703	-45.54
366.152	-44.3
366.601	-24.49
367.05	24.27
367.498	38.07
367.947	18.39
368.395	-3.13
368.844	26.79
369.292	-23.89
369.74	4.49
370.189	-23.81
370.637	-28.89
371.085	-45.74
371.533	-91.66
371.981	-140.19
372.429	-94.8
372.877	-95.09
373.325	-53.53
373.773	-84.57
374.221	-81
374.669	-85.3
375.116	-69.18
375.564	-95.54
376.012	-112.16
376.459	-49.81
376.907	-45.75
377.354	-96.41
377.801	-54.61
378.249	-42.47
378.696	-84.71
379.143	-93.12
379.591	-194.07
380.038	-267.78
380.485	-106.97
380.932	-147.86
381.379	-63.51
381.826	62.4
382.273	33.25
382.72	9.53
383.166	14.02
383.613	30.97
384.06	41.4
384.506	50.85
384.953	20.18
385.4	6.03
385.846	10.95
386.292	-15.42
386.739	-46.91
387.185	-67.28
387.631	-72.73
388.078	-51.87
388.524	-69.69
388.97	-62.54
389.416	-35.16
389.862	-25.69
390.308	-22.37
390.754	-16.55
391.2	-21.39
391.645	-24.27
392.091	29.31
392.537	40.98
392.983	9.51
393.428	46.34
393.874	38.09
394.319	51.89
394.765	70.76
395.21	63.15
395.655	64.69
396.101	60.37
396.546	68.43
396.991	40.65
397.436	28.46
397.881	25.77
398.326	4.74
398.771	15.75
399.216	0.37
399.661	-5.64
400.106	0.43
400.551	3.01
400.995	9.1
401.44	7.42
401.885	8.63
402.329	12.99
402.774	22.22
403.218	33.2
403.663	28.82
404.107	36.11
404.551	38.79
404.995	33.18
405.44	29.26
405.884	24.48
406.328	15.6
406.772	13.63
407.216	12.63
407.66	5.59
408.104	-4.29
408.547	-4.42
408.991	-5.5
409.435	-8.88
409.879	-3.81
410.322	-5.59
410.766	-3.39
411.209	3.06
411.653	3.81
412.096	8.15
412.54	9.03
412.983	11.38
413.426	15.05
413.869	11.71
414.312	16.05
414.756	13.29
415.199	13.3
415.642	16.02
416.085	14.34
416.527	10.92
416.97	6.91
417.413	7.32
417.856	3.95
418.298	1.59
418.741	0.19
419.184	-3.97
419.626	-10.05
420.069	-9.94
420.511	-10.09
420.953	-6.8
421.396	-2.44
421.838	-2.9
422.28	-1.7
422.722	2.02
423.164	-1.22
423.606	0.69
424.048	2.4
424.49	5.87
424.932	4.61
425.374	2.24
425.816	-0.53
426.258	-4.91
426.699	-4.43
427.141	-0.65
427.582	-4.17
428.024	-4.59
428.465	-5.5
428.907	-7.25
429.348	-5.96
429.789	-1.45
430.231	3.37
430.672	5.01
431.113	9.41
431.554	9.23
431.995	5.88
432.436	8.75
432.877	11.54
433.318	15.02
433.759	15.6
434.2	14.23
434.64	10.97
435.081	9.53
435.522	8.65
435.962	7.03
436.403	8.75
436.843	6.56
437.284	4.94
437.724	3.17
438.164	-1.98
438.604	-2.15
439.045	0.08
439.485	4.63
439.925	2.18
440.365	1.01
440.805	1.43
441.245	2.08
441.685	3.08
442.125	2.59
442.564	1.57
443.004	3.2
443.444	2.03
443.883	2.29
444.323	-1.59
444.762	-5.44
445.202	-6.23
445.641	-5.35
446.081	-8.39
446.52	-7.36
446.959	-5.5
447.398	-3.73
447.837	-2.33
448.276	-1.81
448.716	-0.93
449.154	-3.1
449.593	0.85
450.032	2.25
450.471	-0.56
450.91	-0.1
451.349	0.47
451.787	-1.31
452.226	-1.75
452.664	-2.82
453.103	-3.51
453.541	-6.59
453.98	-3.32
454.418	-4.31
454.856	-3.59
455.295	-3.64
455.733	-2.88
456.171	-3.44
456.609	-1.77
457.047	-0.51
457.485	0.27
457.923	2.31
458.361	2.95
458.798	2.34
459.236	3.27
459.674	1.1
460.111	1.42
460.549	1.53
460.987	-0.25
461.424	-1.74
461.862	-2.5
462.299	-1.45
462.736	-1.52
463.173	-1.2
463.611	2.49
464.048	3.42
464.485	6.05
464.922	6.66
465.359	6.05
465.796	16.41
466.233	18.23
466.67	20.86
467.106	21.05
467.543	19.59
467.98	18.64
468.416	15.43
468.853	13.13
469.29	11.57
469.726	11.03
470.162	11.21
470.599	2.9
471.035	0.36
471.471	-1.13
471.907	-2.9
472.344	-2.52
472.78	-1.75
473.216	-2.69
473.652	-1.85
474.088	-2.53
474.523	-2.16
474.959	-3.41
475.395	-3.6
475.831	-2.65
476.266	-3.31
476.702	-3.85
477.138	-2.96
477.573	-3.18
478.008	-2.72
478.444	-2.03
478.879	-0.47
479.314	0.41
479.75	1.7
480.185	2.2
480.62	2.3
481.055	2.49
481.49	3.3
481.925	3.05
482.36	5.05
482.795	4.35
483.229	3.16
483.664	2.65
484.099	2.19
484.534	2.31
484.968	2.42
485.403	1.8
485.837	1.01
486.271	0.85
486.706	0.57
487.14	-1.25
487.574	-0.8
488.009	-0.64
488.443	-0.67
488.877	0.09
489.311	-0.55
489.745	-0.23
490.179	0.46
490.613	2.56
491.046	2.64
491.48	2.87
491.914	3.11
492.348	2.64
492.781	2.62
493.215	2.22
493.648	1.18
494.082	0.91
494.515	0.55
494.948	1.39
495.382	-0.27
495.815	-0.05
496.248	0.38
496.681	0.23
497.114	0.18
497.547	0.93
497.98	2.6
498.413	3.86
498.846	4.3
499.279	4.04
499.711	2.08
500.144	2.18
500.577	2.68
501.009	1.7
501.442	2.95
501.874	4.03
502.306	3.23
502.739	4.86
503.171	4.42
503.603	4.39
504.036	4.04
504.468	5.07
504.9	5.17
505.332	4.61
505.764	5.43
506.196	4.64
506.627	4.04
507.059	4.29
507.491	0.75
507.923	0.9
508.354	1.56
508.786	1.98
509.217	1.73
509.649	1.51
510.08	1.03
510.512	1.15
510.943	1.44
511.374	1.67
511.805	1.63
512.237	1.89
512.668	0.49
513.099	-0.65
513.53	-0.35
513.961	0.21
514.391	0.41
514.822	2.67
515.253	3.66
515.684	3.14
516.114	3.3
516.545	3.71
516.975	3.58
517.406	3.91
517.836	3.7
518.267	3.49
518.697	4.28
519.127	4.61
519.558	2.8
519.988	0.8
520.418	0.21
520.848	-1.11
521.278	-1.78
521.708	22.31
522.138	23.31
522.567	22.76
522.997	22.53
523.427	21.32
523.857	20.91
524.286	21.15
524.716	22.02
525.145	22.81
525.575	24.25
526.004	23.89
526.433	0.21
526.863	-0.96
527.292	0.39
527.721	1.17
528.15	1.13
528.579	1.51
529.008	1.55
529.437	0.11
529.866	-0.32
530.295	-1.4
530.724	-0.04
531.152	0.35
531.581	1.61
532.01	1.33
532.438	0.23
532.867	-0.06
533.295	-0.2
533.723	-0.47
534.152	0.69
534.58	1.08
535.008	1.7
535.436	2.86
535.865	2.44
536.293	1.58
536.721	1.18
537.149	2.13
537.576	2.88
538.004	3.26
538.432	3.04
538.86	3.21
539.287	2.71
539.715	2.78
540.143	0.33
540.57	0.89
540.998	0.78
541.425	2.71
541.852	1.81
542.28	1.2
542.707	0.88
543.134	0.92
543.561	1.24
543.988	1.61
544.415	0.71
544.842	0.9
545.269	0.87
545.696	1.45
546.123	0.5
546.549	1.01
546.976	1.46
547.403	1.7
547.829	1.28
548.256	0.68
548.682	0.66
549.108	2.54
549.535	2.29
549.961	1.79
550.387	1.44
550.813	2.55
551.24	2.57
551.666	2.15
552.092	1.67
552.518	1.8
552.943	2.35
553.369	2.09
553.795	1.07
554.221	2.17
554.646	2.02
555.072	3.28
555.498	1.63
555.923	0.84
556.349	0.85
556.774	0.73
557.199	0.95
557.625	-0.41
558.05	-0.11
558.475	-0.43
558.9	-0.35
559.325	1.56
559.75	1.07
560.175	0.5
560.6	0.92
561.025	0.59
561.449	0.91
561.874	0.41
562.299	1.78
562.723	1.52
563.148	1.98
563.572	1.11
563.997	-0.13
564.421	-1.18
564.846	-1.16
565.27	-1.18
565.694	-0.94
566.118	-1.37
566.542	-0.47
566.966	-0.65
567.39	-0.29
567.814	-0.22
568.238	0.14
568.662	-0.54
569.086	-0.3
569.509	-0.5
569.933	0.69
570.357	0.68
570.78	0.72
571.204	1.88
571.627	1.58
572.05	1.39
572.474	2.25
572.897	2.2
573.32	3.39
573.743	3.08
574.166	4.26
574.589	2.94
575.012	2.86
575.435	2.35
575.858	1.34
576.281	1.79
576.704	1.12
577.126	-0.83
577.549	-1.46
577.972	-2.73
578.394	-1.98
578.817	-0.13
579.239	0.08
579.661	0.96
580.084	2.87
580.506	3.12
580.928	2.19
581.35	2.61
581.772	3.75
582.194	4.44
582.616	4.2
583.038	2.8
583.46	0.82
583.882	1.05
584.303	-0.51
584.725	-2.06
585.147	2.13
585.568	2.9
585.99	3.4
586.411	3.65
586.833	3.77
587.254	4.59
587.675	5.19
588.096	5.33
588.518	5.23
588.939	6.04
589.36	6.64
589.781	0.79
590.202	3.5
590.623	2.72
591.043	1.6
591.464	1.53
591.885	1.77
592.305	1.93
592.726	1.38
593.147	1.52
593.567	1.47
593.987	1.48
594.408	1.78
594.828	-1.03
595.248	0.38
595.669	1.49
596.089	0.87
596.509	0.34
596.929	0.09
597.349	0.49
597.769	0.49
598.189	0.5
598.608	0.32
599.028	0.53
599.448	-0.43
599.867	-1.76
600.287	-2.51
600.706	-1.2
601.126	-0.67
601.545	0.15
601.965	0.25
602.384	-0.3
602.803	-0.43
603.222	-0.38
603.641	-0.94
604.061	0.36
604.48	0.75
604.898	1.16
605.317	0.35
605.736	0.18
606.155	0.54
606.574	0.02
606.992	0.23
607.411	0.75
607.829	0.17
608.248	0.19
608.666	-0.23
609.085	0.06
609.503	-0.25
609.921	0.61
610.339	0.72
610.758	-0.33
611.176	-0.12
611.594	0.8
612.012	1.11
612.43	2.38
612.847	2.63
613.265	3.54
613.683	3.25
614.101	3.12
614.518	2.06
614.936	1.91
615.353	2.78
615.771	2.85
616.188	2.33
616.606	1.51
617.023	1.13
617.44	1.15
617.857	-0.29
618.274	-0.47
618.691	0.53
619.108	1.03
619.525	1.21
619.942	1.37
620.359	1.37
620.776	1.06
621.192	1.96
621.609	2.24
622.026	2.38
622.442	3.06
622.859	2.71
623.275	2.05
623.691	1.35
624.108	1.43
624.524	0.61
624.94	1.16
625.356	0.87
625.772	-0.07
626.188	-1.07
626.604	-0.94
627.02	-1.42
627.436	-0.49
627.852	0.75
628.268	1.47
628.683	0.58
629.099	0.37
629.514	-0.15
629.93	0.4
630.345	0.8
630.761	0.72
631.176	1.01
631.591	2.75
632.007	2.61
632.422	0.65
632.837	-0
633.252	1.27
633.667	1.58
634.082	1.41
634.497	1.82
634.911	3.79
635.326	4.1
635.741	3.9
636.155	2.84
636.57	3.69
636.984	4.47
637.399	6.34
637.813	5.02
638.228	4.67
638.642	4.64
639.056	3.94
639.47	2.23
639.884	2.6
640.298	2.65
640.712	2.79
641.126	2.57
641.54	2.11
641.954	-1
642.368	-0.04
642.781	3.12
643.195	3.43
643.609	4.75
644.022	4.63
644.436	3.9
644.849	3.57
645.262	3.45
645.676	2.41
646.089	2.38
646.502	4.31
646.915	3.51
647.328	1.77
647.741	1.87
648.154	1.13
648.567	3.45
648.98	4.01
649.393	4.18
649.805	4.6
650.218	4.12
650.631	4.78
651.043	5.82
651.456	6.61
651.868	6.02
652.28	4.82
652.693	4.37
653.105	1.91
653.517	2.43
653.929	2.76
654.341	2.12
654.753	3.09
655.165	2.22
655.577	1.05
655.989	0.74
656.401	-0.64
656.813	1.3
657.224	1.14
657.636	0.96
658.047	1.63
658.459	1.25
658.87	0.78
659.282	1.16
659.693	2.89
660.104	3.26
660.515	3.01
660.926	2.73
661.338	2.07
661.749	1.79
662.159	3.31
662.57	1.54
662.981	1.82
663.392	1.87
663.803	1.71
664.213	0.46
664.624	-0.63
665.035	-1.19
665.445	-0.58
665.855	0.37
666.266	1.45
666.676	0.42
667.086	0.92
667.497	1.4
667.907	1.69
668.317	0.53
668.727	3.82
669.137	3.92
669.547	4.69
669.956	4.15
670.366	3.78
670.776	3.92
671.186	3.49
671.595	3.66
672.005	2.36
672.414	3.59
672.824	4.83
673.233	1.13
673.642	0.75
674.052	0.67
674.461	1.91
674.87	1.49
675.279	2.37
675.688	0.74
676.097	2.19
676.506	2.67
676.915	0.65
677.323	0.24
677.732	0.68
678.141	1.46
678.549	0.96
678.958	-0.44
679.366	-1.24
679.775	-3.33
680.183	0.23
680.592	-1.54
681	-1.15
681.408	-0.66
681.816	-0.45
682.224	-0.7
682.632	1.12
683.04	1.64
683.448	2.44
683.856	3.62
684.264	4.19
684.671	1.51
685.079	1.03
685.487	0.6
685.894	-0.48
686.302	-2.44
686.709	-2.14
687.116	-3.94
687.524	-2.69
687.931	-1.87
688.338	-1.59
688.745	-2.01
689.152	-1.53
689.559	-0.35
689.966	1.3
690.373	3.54
690.78	5.8
691.187	6.25
691.593	7.03
692	6.04
692.407	6.41
692.813	9.02
693.22	10
693.626	8.97
694.032	9.36
694.439	8.8
694.845	7.86
695.251	7.19
695.657	6.78
696.063	5.22
696.469	4.94
696.875	4.51
697.281	0.86
697.687	0.25
698.093	0.73
698.498	0.41
698.904	-0.34
699.31	-0.52
699.715	2.06
700.12	2.44
700.526	3.19
700.931	2.5
701.337	3.49
701.742	5.13
702.147	4.43
702.552	5.17
702.957	3.87
703.362	3.12
703.767	2.67
704.172	0.23
704.577	-0.86
704.981	-2.38
705.386	-1.34
705.791	-1.73
706.195	-3.47
706.6	-2.92
707.004	-5.78
707.408	-5.84
707.813	-3.98
708.217	-2.33
708.621	-2.3
709.025	-2.33
709.43	-0.02
709.834	-0.66
710.237	-1.1
710.641	-0.24
711.045	0.5
711.449	3.65
711.853	7.15
712.256	6.35
712.66	5.24
713.064	4.73
713.467	5.64
713.87	5.4
714.274	6.63
714.677	7.39
715.08	7.98
715.484	8.54
715.887	10.97
716.29	7.6
716.693	8.54
717.096	8.96
717.499	9.6
717.901	9.48
718.304	8.83
718.707	7.45
719.109	6.96
719.512	4.78
719.915	6.96
720.317	5.11
720.719	5.75
721.122	4.64
721.524	5.33
721.926	10.34
722.328	10.69
722.731	10.13
723.133	9.28
723.535	7.9
723.937	8.86
724.338	8.64
724.74	8.56
725.142	64.9
725.544	69.92
725.945	83.65
726.347	79.36
726.748	79.81
727.15	81.38
727.551	86.68
727.952	85.78
728.354	84.56
728.755	83.38
729.156	81.84
729.557	26.02
729.958	20.76
730.359	7.39
730.76	6.1
731.161	4.44
731.562	2.65
731.962	-1.63
732.363	-0.34
732.763	0.33
733.164	-2.03
733.564	-1.31
733.965	0.15
734.365	0.55
734.766	0.73
735.166	1.56
735.566	2.99
735.966	3.45
736.366	4.14
736.766	3.72
737.166	2.71
737.566	4.12
737.966	4.08
738.365	4.22
738.765	5.42
739.165	4.87
739.564	3.96
739.964	2.62
740.363	1.89
740.763	0.18
741.162	2.45
741.561	2.16
741.96	1.36
742.36	0.78
742.759	0.42
743.158	-2
743.557	-2.29
743.955	-2.21
744.354	-2.21
744.753	-3.26
745.152	-1.57
745.55	-4.32
745.949	-3.35
746.348	-2.53
746.746	-3.43
747.144	0.45
747.543	0.85
747.941	0.03
748.339	0.41
748.737	2.66
749.136	4.29
749.534	1.99
749.932	4.23
750.33	4.03
750.727	3.05
751.125	4.14
751.523	0.93
751.921	5.16
752.318	5.69
752.716	7.06
753.113	5.77
753.511	5.51
753.908	7.32
754.305	10.87
754.703	11.18
755.1	12.11
755.497	12.44
755.894	11.68
756.291	7.97
756.688	8.84
757.085	7.62
757.482	8.45
757.878	11.22
758.275	14.51
758.672	6.48
759.068	6.28
759.465	3.42
759.861	0.83
760.258	0.91
760.654	0.68
761.05	2.88
761.447	3.38
761.843	2.79
762.239	0.77
762.635	-4.01
763.031	-5.7
763.427	-6.06
763.822	-4.21
764.218	-3.95
764.614	-3.47
765.01	-4.57
765.405	-7.02
765.801	-6.48
766.196	-7.33
766.592	-8.54
766.987	-7.93
767.382	-6.59
767.778	-6.52
768.173	-6.61
768.568	-6.31
768.963	-4.64
769.358	-2.56
769.753	-0.09
770.148	0.01
