Data from C_1_HIR_WI_4N_Splice17_11-41-43-505.txt Node
Date: Sat Mar 14 11:41:43 EDT 2020
User: sa697716
Spectrometer: FLMS03696
Trigger mode: 0
Integration Time (sec): 3.180400E-1
Scans to average: 20
Electric dark correction enabled: true
Nonlinearity correction enabled: true
Boxcar width: 5
XAxis mode: Wavelengths
Number of Pixels in Spectrum: 2048
>>>>>Begin Spectral Data<<<<<
187.83	-190618.47
188.298	1468.34
188.766	827.33
189.233	738.65
189.701	966.18
190.169	1375.37
190.636	501.56
191.104	411.92
191.571	78.41
192.039	9.66
192.506	24.94
192.974	354.94
193.441	-533.96
193.908	-65.55
194.375	3.91
194.842	44.14
195.31	103.79
195.777	123.71
196.244	227.03
196.711	124.88
197.177	106.74
197.644	82.4
198.111	115.22
198.578	103.49
199.045	55.53
199.511	13.95
199.978	-89.37
200.445	-41.27
200.911	-80.16
201.378	-152.67
201.844	-70.39
202.31	-156.85
202.777	-168.19
203.243	-96.86
203.709	-81.1
204.176	-86.3
204.642	-38.28
205.108	-7.57
205.574	-23.4
206.04	-42.27
206.506	-45.71
206.972	-79.42
207.438	-82.65
207.903	-115.32
208.369	-70.89
208.835	-50.61
209.301	-58.96
209.766	-88.91
210.232	-109.39
210.697	-138.05
211.163	-177.45
211.628	-299.52
212.094	-235.64
212.559	-194.66
213.024	-86.58
213.49	-105.98
213.955	-121.24
214.42	-142.11
214.885	-112.04
215.35	-71.93
215.815	8.66
216.28	24.56
216.745	28.41
217.21	63.46
217.675	14.75
218.14	7.67
218.604	-18.11
219.069	-21.45
219.534	18.19
219.998	5.88
220.463	-2.87
220.927	-92.71
221.392	-82.44
221.856	-58.71
222.32	-125.66
222.785	-107.94
223.249	-125.66
223.713	-95.51
224.177	-78.75
224.642	-176.93
225.106	-228.83
225.57	-252.92
226.034	-112.18
226.497	-158.77
226.961	-102.87
227.425	-69.46
227.889	-138.53
228.353	-150.84
228.816	-456.58
229.28	-412.97
229.744	-338.87
230.207	-141.12
230.671	-114.27
231.134	-323.88
231.597	-315.22
232.061	-388.64
232.524	-436.84
232.987	-277.67
233.45	-249.01
233.914	-212.67
234.377	-273.05
234.84	-235.23
235.303	-295.8
235.766	-330.93
236.229	-338.13
236.691	-240.58
237.154	-293.04
237.617	-190.76
238.08	-203.71
238.542	-234.12
239.005	-160.27
239.468	-139.91
239.93	-117.89
240.393	-103.49
240.855	-84.03
241.317	-100.49
241.78	-139.31
242.242	-120.21
242.704	-108.68
243.166	-85.61
243.629	-46.84
244.091	-49.21
244.553	-50.96
245.015	-39.58
245.477	-53.87
245.939	-98.66
246.4	-80.61
246.862	-76.76
247.324	-111.42
247.786	-159.05
248.247	-257.76
248.709	-398.24
249.17	-295.62
249.632	-196.95
250.093	-207.9
250.555	-184.4
251.016	-81.16
251.477	-65.16
251.939	-50.23
252.4	-72.12
252.861	-115.22
253.322	-69.13
253.783	-95.58
254.244	-153.82
254.705	-160.51
255.166	-182.4
255.627	-190.43
256.088	-260.92
256.549	-262.09
257.009	-229.91
257.47	-240.7
257.931	-188.97
258.391	-140.03
258.852	-136.55
259.312	-143.47
259.773	-200.89
260.233	-100.75
260.694	-44.72
261.154	-82.41
261.614	-25.19
262.074	-33.24
262.534	-25.81
262.994	-15.97
263.455	-41.45
263.915	-15.99
264.374	-11.93
264.834	-16.08
265.294	-58.45
265.754	-50.92
266.214	-38.26
266.673	-51.64
267.133	-64.6
267.593	-81.08
268.052	-89.61
268.512	-74.46
268.971	-17.37
269.431	1.32
269.89	12.56
270.349	29.67
270.809	15.69
271.268	21.85
271.727	-148.95
272.186	-129.09
272.645	-79.71
273.104	-110.61
273.563	-170.18
274.022	-241.09
274.481	-170.47
274.94	-115.47
275.399	-97.99
275.857	-139.11
276.316	-235.29
276.775	-183.55
277.233	-161.79
277.692	-115.17
278.15	-91.73
278.609	-36.52
279.067	-49.41
279.525	-44.91
279.984	-88
280.442	-100.03
280.9	-36.81
281.358	-11.4
281.816	-4.56
282.274	-10.81
282.732	-70.9
283.19	-80.19
283.648	-116.71
284.106	-123.58
284.564	-155.28
285.021	-124.64
285.479	-93.81
285.937	-116.94
286.394	-79.39
286.852	-94.76
287.309	-102.36
287.767	-54.42
288.224	-41.43
288.682	-53.11
289.139	-45.69
289.596	-33.28
290.053	-43.54
290.511	-86.64
290.968	-73.71
291.425	-142.87
291.882	-49.83
292.339	-21.34
292.796	-62.48
293.252	-81.48
293.709	-12.63
294.166	-9.81
294.623	-31.88
295.079	-54.68
295.536	-25.81
295.992	-19.44
296.449	-23.23
296.905	-15.11
297.362	14.77
297.818	14.85
298.274	33.35
298.731	1.52
299.187	6.63
299.643	19.46
300.099	40.55
300.555	35.02
301.011	34.65
301.467	125.95
301.923	74.38
302.379	44.95
302.835	35.3
303.291	20.01
303.746	26.95
304.202	-7.75
304.658	-17.95
305.113	-12.68
305.569	-19.2
306.024	-58.24
306.479	-156.77
306.935	-110.98
307.39	-159.7
307.845	-137.97
308.301	-94.76
308.756	-116.21
309.211	-87.03
309.666	-101.91
310.121	-83.54
310.576	-101.62
311.031	-117.24
311.486	-169.22
311.94	-192.13
312.395	-262.78
312.85	-568.77
313.305	-3824.47
313.759	-14861.58
314.214	-1175.35
314.668	-857.15
315.123	-707.57
315.577	-191.92
316.032	-160.15
316.486	-195.01
316.94	-92.75
317.394	-23.87
317.849	-4.68
318.303	-9.72
318.757	-0.94
319.211	-4.69
319.665	-2.91
320.119	-11.81
320.572	-49.39
321.026	-20.78
321.48	-4.54
321.934	-42.18
322.387	-52.99
322.841	-50.3
323.295	5.05
323.748	-48.52
324.202	-25.24
324.655	-14.38
325.108	42.1
325.562	67.23
326.015	44.04
326.468	32.68
326.921	48.29
327.374	51.1
327.827	77.49
328.28	44.33
328.733	67.13
329.186	41.64
329.639	39.24
330.092	15.96
330.545	11.57
330.997	30.73
331.45	58.72
331.903	81.97
332.355	86.33
332.808	60.43
333.26	59.3
333.713	34.2
334.165	8.17
334.617	-62.47
335.069	-139.4
335.522	-327.05
335.974	-426.05
336.426	-492.25
336.878	-377.53
337.33	-163.39
337.782	-170.6
338.234	-196.79
338.686	-246.31
339.137	-258.76
339.589	-238.66
340.041	-135.03
340.493	-112.13
340.944	-112.15
341.396	-110.97
341.847	-79.39
342.299	-63.77
342.75	-33.03
343.201	-72.99
343.653	-93.02
344.104	-140.64
344.555	-95.2
345.006	-228.51
345.457	-108.29
345.908	-96.36
346.359	-68.48
346.81	-52.31
347.261	-82.47
347.712	-132.73
348.163	-160.67
348.613	-106.71
349.064	-95.42
349.515	-73.6
349.965	-63.44
350.416	-109.74
350.866	-135.13
351.317	-190.61
351.767	-367.06
352.217	-489.55
352.668	-327
353.118	-283.48
353.568	-402.02
354.018	-258.15
354.468	-284.18
354.918	-157.43
355.368	-138.9
355.818	-175.13
356.268	-604.43
356.718	-1479.9
357.168	-331.85
357.617	-249.18
358.067	-297.03
358.517	-233.5
358.966	-246.65
359.416	-187.66
359.865	-302.72
360.315	-438.93
360.764	-207.75
361.213	-89.6
361.663	-140.79
362.112	-192.58
362.561	-284.21
363.01	-220.02
363.459	-184.05
363.908	-259.5
364.357	-176.5
364.806	-353.02
365.255	-247.06
365.703	-188.36
366.152	-193.34
366.601	-133.86
367.05	-74.96
367.498	-60.55
367.947	-74.61
368.395	-91.13
368.844	-72.51
369.292	-163.54
369.74	-82.04
370.189	-138.33
370.637	-185.51
371.085	-160.66
371.533	-223.57
371.981	-224.14
372.429	-148.74
372.877	-153.32
373.325	-119.99
373.773	-142.71
374.221	-120.25
374.669	-187.82
375.116	-139.2
375.564	-143.42
376.012	-161.8
376.459	-133.93
376.907	-187.33
377.354	-281.13
377.801	-214.98
378.249	-246.63
378.696	-288
379.143	-259.11
379.591	-214.09
380.038	-455.96
380.485	-296.01
380.932	-333.81
381.379	-152.18
381.826	-14.99
382.273	-26
382.72	-49.49
383.166	-29.55
383.613	-13.86
384.06	-32.99
384.506	-44
384.953	-21.67
385.4	-37.14
385.846	-32.57
386.292	-56.46
386.739	-79.91
387.185	-88.47
387.631	-88.51
388.078	-58.43
388.524	-71.84
388.97	-57.61
389.416	-49.89
389.862	-41.21
390.308	-33.55
390.754	-29.56
391.2	-44.61
391.645	-56.45
392.091	-18.78
392.537	-11.96
392.983	-43.96
393.428	-7.02
393.874	-19.14
394.319	7.86
394.765	21.11
395.21	13.24
395.655	15.16
396.101	24.08
396.546	30.73
396.991	5.85
397.436	7.35
397.881	9.35
398.326	-16.86
398.771	-10.03
399.216	-16.29
399.661	-26.67
400.106	-18.13
400.551	-17.16
400.995	-11.55
401.44	-8.83
401.885	-11.36
402.329	-11.94
402.774	-5.42
403.218	13.77
403.663	15.35
404.107	16.57
404.551	26.08
404.995	21.59
405.44	17.48
405.884	13.37
406.328	7.27
406.772	9.45
407.216	6.32
407.66	2.08
408.104	-7.32
408.547	-9.52
408.991	-10.48
409.435	-13.75
409.879	-9.6
410.322	-7.8
410.766	-3.5
411.209	0.94
411.653	2.65
412.096	7.14
412.54	6.37
412.983	6.57
413.426	10.5
413.869	7.19
414.312	10.12
414.756	7.54
415.199	6.31
415.642	6.48
416.085	5.34
416.527	2.83
416.97	-0.52
417.413	1.41
417.856	0.03
418.298	-1.17
418.741	-1.63
419.184	-4.33
419.626	-10.13
420.069	-7.88
420.511	-7.81
420.953	-3.54
421.396	-1.42
421.838	-1.18
422.28	0.08
422.722	0.19
423.164	-2.97
423.606	-2.77
424.048	-3.7
424.49	0.99
424.932	-2.06
425.374	-4.8
425.816	-9.66
426.258	-11.5
426.699	-9.99
427.141	-7.45
427.582	-9.04
428.024	-9.09
428.465	-9.81
428.907	-10.66
429.348	-12.52
429.789	-10.51
430.231	-6.39
430.672	-5.12
431.113	-4.75
431.554	-5.65
431.995	-9.33
432.436	-5.2
432.877	-3.4
433.318	1.76
433.759	1.22
434.2	0.09
434.64	-0.5
435.081	0.26
435.522	1.83
435.962	1.72
436.403	3.51
436.843	2.93
437.284	-0.44
437.724	-3.28
438.164	-8.75
438.604	-9.57
439.045	-5.2
439.485	-1.64
439.925	-3.12
440.365	-3.88
440.805	-2.9
441.245	-1.39
441.685	-1.83
442.125	-1.97
442.564	-1.28
443.004	0.43
443.444	1.32
443.883	0.38
444.323	-3.4
444.762	-7.13
445.202	-9.01
445.641	-7.63
446.081	-10.12
446.52	-9.51
446.959	-7.02
447.398	-4.48
447.837	-3.86
448.276	-4.22
448.716	-1.88
449.154	-3.83
449.593	-0.37
450.032	-0.14
450.471	-3.01
450.91	-3.18
451.349	-0.94
451.787	-2.15
452.226	-4.08
452.664	-4.67
453.103	-3.77
453.541	-7.24
453.98	-2.42
454.418	-2.84
454.856	0.26
455.295	2.05
455.733	2.57
456.171	2.11
456.609	3.59
457.047	4.29
457.485	6.72
457.923	7.6
458.361	6.88
458.798	5.29
459.236	3.67
459.674	1.53
460.111	2.14
460.549	2.3
460.987	0.78
461.424	-0.65
461.862	-0.23
462.299	-1.71
462.736	-1.03
463.173	0.1
463.611	3.26
464.048	5.71
464.485	7.28
464.922	5.91
465.359	5.62
465.796	14.71
466.233	15.9
466.67	18.05
467.106	20.34
467.543	19.25
467.98	19.09
468.416	16.78
468.853	14.81
469.29	12.5
469.726	12.49
470.162	11.6
470.599	4.28
471.035	2.43
471.471	0.7
471.907	-1.61
472.344	-2.42
472.78	-1.46
473.216	-2.7
473.652	-1.77
474.088	-1.35
474.523	-1.22
474.959	-1.76
475.395	-1.82
475.831	-0.97
476.266	-1.27
476.702	-1.29
477.138	-0.36
477.573	-0.74
478.008	0.01
478.444	0.74
478.879	2.55
479.314	2.72
479.75	2.82
480.185	2.74
480.62	2.88
481.055	2.92
481.49	3.75
481.925	3.63
482.36	5.65
482.795	4.41
483.229	3.59
483.664	2.65
484.099	2.78
484.534	3.6
484.968	4.47
485.403	4.25
485.837	3.93
486.271	3.12
486.706	3.06
487.14	1.47
487.574	2.58
488.009	2.82
488.443	2.71
488.877	3.38
489.311	3.08
489.745	2.51
490.179	2.85
490.613	5.12
491.046	4.8
491.48	4.46
491.914	5.02
492.348	4.73
492.781	4.62
493.215	4.48
493.648	3.49
494.082	3.52
494.515	3.77
494.948	4.57
495.382	2.77
495.815	3.15
496.248	4.36
496.681	4.05
497.114	3.45
497.547	3.86
497.98	4.9
498.413	6.48
498.846	6.88
499.279	7.03
499.711	5.77
500.144	5.63
500.577	6.54
501.009	5.45
501.442	5.59
501.874	6.75
502.306	6.3
502.739	8.83
503.171	8.56
503.603	8.66
504.036	8.12
504.468	8.67
504.9	8.88
505.332	8.42
505.764	9.17
506.196	9.37
506.627	9.04
507.059	9.36
507.491	5.79
507.923	5.44
508.354	5.98
508.786	6.27
509.217	6.86
509.649	7.23
510.08	7.17
510.512	7.85
510.943	7.95
511.374	8.25
511.805	7.62
512.237	8.01
512.668	7.8
513.099	6.66
513.53	6.69
513.961	6.73
514.391	6.58
514.822	8.11
515.253	8.1
515.684	8.06
516.114	8.17
516.545	9.35
516.975	9.13
517.406	9.28
517.836	9.06
518.267	9.58
518.697	10.1
519.127	10.11
519.558	8.94
519.988	8
520.418	7.45
520.848	7.12
521.278	7.41
521.708	39.82
522.138	40.84
522.567	41.12
522.997	41.34
523.427	41.04
523.857	41.46
524.286	41.78
524.716	42.64
525.145	43.8
525.575	44.76
526.004	43.76
526.433	12.67
526.863	11.76
527.292	13.32
527.721	14.14
528.15	13.71
528.579	13.95
529.008	14.22
529.437	13.89
529.866	13.68
530.295	12.83
530.724	14.55
531.152	14.97
531.581	16.19
532.01	16.19
532.438	15.25
532.867	14.89
533.295	15.42
533.723	15.83
534.152	16.37
534.58	16.87
535.008	17.65
535.436	18.26
535.865	18.32
536.293	17.1
536.721	16.17
537.149	16.38
537.576	17.74
538.004	17.96
538.432	16.7
538.86	17.17
539.287	16.24
539.715	15.87
540.143	14.33
540.57	14.13
540.998	14.18
541.425	15.94
541.852	15.98
542.28	15.22
542.707	14.44
543.134	15.33
543.561	14.93
543.988	15.4
544.415	14.98
544.842	14.91
545.269	15.25
545.696	16.42
546.123	15.93
546.549	16.48
546.976	17.3
547.403	17.3
547.829	16.89
548.256	16.34
548.682	16.31
549.108	17.66
549.535	17.74
549.961	16.84
550.387	15.94
550.813	16.49
551.24	16.38
551.666	15.45
552.092	15.8
552.518	15.72
552.943	16.94
553.369	16.81
553.795	16.26
554.221	17.16
554.646	17.43
555.072	18.94
555.498	17.51
555.923	16.6
556.349	16.64
556.774	16.46
557.199	16.42
557.625	15.05
558.05	15.8
558.475	15.59
558.9	14.53
559.325	15.09
559.75	14.53
560.175	14.93
560.6	14.88
561.025	14.81
561.449	14.8
561.874	14.31
562.299	15.4
562.723	14.31
563.148	14.32
563.572	14.43
563.997	14.21
564.421	13.02
564.846	12.47
565.27	12.91
565.694	12.93
566.118	12.83
566.542	14.12
566.966	13.63
567.39	14.06
567.814	14.13
568.238	14.51
568.662	13.57
569.086	13.77
569.509	12.82
569.933	14.03
570.357	13.95
570.78	13.93
571.204	14.04
571.627	13.58
572.05	13.45
572.474	13.92
572.897	14.05
573.32	15.35
573.743	15
574.166	16.09
574.589	14.63
575.012	14.64
575.435	13.85
575.858	13.43
576.281	13.35
576.704	12.76
577.126	11.61
577.549	10.74
577.972	9.76
578.394	9.91
578.817	12.15
579.239	12.14
579.661	12.37
580.084	13.9
580.506	14
580.928	13.99
581.35	14.38
581.772	14.68
582.194	14.91
582.616	14.05
583.038	12.56
583.46	10.11
583.882	10.13
584.303	9.15
584.725	8.17
585.147	12.16
585.568	12.5
585.99	12.91
586.411	13.33
586.833	13.53
587.254	14.3
587.675	15.54
588.096	15.28
588.518	15.27
588.939	16.1
589.36	15.9
589.781	10.23
590.202	12.87
590.623	11.98
591.043	10.45
591.464	9.88
591.885	10.32
592.305	9.38
592.726	9.22
593.147	8.88
593.567	8.95
593.987	8.88
594.408	8.68
594.828	4.83
595.248	5.72
595.669	7.28
596.089	7.23
596.509	6.65
596.929	6.94
597.349	7.17
597.769	7.12
598.189	6.41
598.608	6.45
599.028	6.8
599.448	6.86
599.867	6.35
600.287	5.27
600.706	5.56
601.126	5.75
601.545	7.05
601.965	7.02
602.384	6.79
602.803	6.76
603.222	7
603.641	6.53
604.061	7.32
604.48	7.15
604.898	7.06
605.317	6.49
605.736	6.36
606.155	6.5
606.574	6.32
606.992	6.08
607.411	6.41
607.829	5.12
608.248	5.47
608.666	4.7
609.085	4.86
609.503	4.95
609.921	5.32
610.339	5.24
610.758	3.95
611.176	4.08
611.594	5.01
612.012	4.92
612.43	6.11
612.847	5.75
613.265	7.25
613.683	7.39
614.101	7.83
614.518	7.47
614.936	7.7
615.353	8.06
615.771	8.52
616.188	7.99
616.606	7.56
617.023	7.79
617.44	8.1
617.857	6.33
618.274	5.49
618.691	5.67
619.108	5.73
619.525	5.16
619.942	5.79
620.359	5.54
620.776	5.29
621.192	6.11
621.609	6.24
622.026	6.54
622.442	7.38
622.859	6.98
623.275	6.12
623.691	5.65
624.108	6.17
624.524	5.13
624.94	5.13
625.356	5.42
625.772	4.46
626.188	3.54
626.604	3.62
627.02	3.18
627.436	3.93
627.852	5.29
628.268	5.66
628.683	4.94
629.099	5.16
629.514	4.45
629.93	4.56
630.345	4.21
630.761	2.76
631.176	2.2
631.591	3.54
632.007	3.89
632.422	2.38
632.837	2.56
633.252	3.07
633.667	3.11
634.082	3.28
634.497	3.46
634.911	5.71
635.326	7.33
635.741	7.46
636.155	6.07
636.57	6.15
636.984	6.78
637.399	8.07
637.813	7.9
638.228	7.56
638.642	7.48
639.056	7.12
639.47	5.96
639.884	5.85
640.298	5.83
640.712	6.5
641.126	6.42
641.54	5.83
641.954	2.77
642.368	2.9
642.781	5.77
643.195	5.73
643.609	6.18
644.022	6.1
644.436	5.16
644.849	4.59
645.262	3.9
645.676	2.82
646.089	2.4
646.502	4.72
646.915	3.29
647.328	1.9
647.741	1.9
648.154	1.85
648.567	3.81
648.98	4.92
649.393	4.83
649.805	6.04
650.218	6.63
650.631	7.8
651.043	6.84
651.456	8.17
651.868	6.76
652.28	5.67
652.693	4.47
653.105	3.21
653.517	1.76
653.929	1.43
654.341	0.73
654.753	1.8
655.165	0.85
655.577	0.78
655.989	0.72
656.401	-0.08
656.813	2.02
657.224	2.44
657.636	1.48
658.047	3.46
658.459	4.42
658.87	2.38
659.282	1.25
659.693	2.33
660.104	2.79
660.515	1.94
660.926	1.98
661.338	1.2
661.749	0.52
662.159	1.67
662.57	0.1
662.981	-0.09
663.392	0.58
663.803	-0.07
664.213	-1.04
664.624	-1.29
665.035	-1.4
665.445	-2
665.855	-1.18
666.266	-0.04
666.676	-1.43
667.086	-1.92
667.497	-1.29
667.907	-0.68
668.317	-0.73
668.727	2.51
669.137	2.24
669.547	2.17
669.956	2.79
670.366	1.82
670.776	2.17
671.186	2.09
671.595	1.97
672.005	0.65
672.414	1.44
672.824	3.03
673.233	-0.25
673.642	-0.3
674.052	0.81
674.461	2.42
674.87	2.41
675.279	2.42
675.688	1.35
676.097	3.84
676.506	4.22
676.915	3.13
677.323	2.4
677.732	2.71
678.141	2.02
678.549	1.48
678.958	-0.71
679.366	-1.34
679.775	-2.48
680.183	-0.61
680.592	-2.17
681	-2.83
681.408	-2.08
681.816	-1.84
682.224	-2.5
682.632	-0.38
683.04	-0.25
683.448	-0.01
683.856	0.93
684.264	1.08
684.671	-0.17
685.079	-1.32
685.487	-0.75
685.894	-1.86
686.302	-4.31
686.709	-3.5
687.116	-4.61
687.524	-3.59
687.931	-1.45
688.338	-0.81
688.745	-1.12
689.152	-1.2
689.559	0.49
689.966	1.9
690.373	2.69
690.78	4.26
691.187	4.02
691.593	5.34
692	5.2
692.407	5.16
692.813	7.21
693.22	7.89
693.626	7.15
694.032	8.02
694.439	7.83
694.845	7.28
695.251	7.31
695.657	8.08
696.063	6.37
696.469	5.99
696.875	6.16
697.281	4.51
697.687	4.58
698.093	5.63
698.498	5.39
698.904	3.71
699.31	3.96
699.715	6.67
700.12	6.37
700.526	7.88
700.931	7.45
701.337	7.63
701.742	8.76
702.147	9.45
702.552	10.54
702.957	10.04
703.362	11.34
703.767	12.09
704.172	10.08
704.577	9.61
704.981	8.37
705.386	9.24
705.791	9.8
706.195	8.57
706.6	7.86
707.004	6.51
707.408	6.75
707.813	7.64
708.217	8.43
708.621	8.78
709.025	9.13
709.43	12.15
709.834	12.49
710.237	12.22
710.641	12.36
711.045	13.65
711.449	15.55
711.853	19.69
712.256	19.56
712.66	18.34
713.064	18.58
713.467	20.49
713.87	18.86
714.274	19.25
714.677	19.83
715.08	21.26
715.484	21.47
715.887	23.47
716.29	19.05
716.693	19.51
717.096	21.35
717.499	22.06
717.901	20.51
718.304	20.67
718.707	19.61
719.109	18.88
719.512	17.19
719.915	19.47
720.317	18.45
720.719	17.76
721.122	17.56
721.524	18.62
721.926	23.07
722.328	23.21
722.731	22.61
723.133	23.59
723.535	23.11
723.937	23.69
724.338	23.61
724.74	24.74
725.142	77.74
725.544	81.88
725.945	94.27
726.347	90.13
726.748	91.03
727.15	91.84
727.551	95.03
727.952	93.97
728.354	92.84
728.755	92.53
729.156	90.46
729.557	38.82
729.958	34.01
730.359	21.73
730.76	21.42
731.161	21.58
731.562	19.99
731.962	16.17
732.363	18.81
732.763	20.28
733.164	18.34
733.564	18.92
733.965	20.53
734.365	20.73
734.766	20.56
735.166	21.05
735.566	21.99
735.966	23.75
736.366	25.32
736.766	23.92
737.166	23.14
737.566	23.05
737.966	22.47
738.365	23.23
738.765	24.49
739.165	25.16
739.564	24.67
739.964	22.73
740.363	21.17
740.763	18.93
741.162	20.43
741.561	19.72
741.96	20.72
742.36	19.75
742.759	19.47
743.158	18.37
743.557	17.35
743.955	17.39
744.354	17.84
744.753	18.44
745.152	20.91
745.55	19.72
745.949	20.12
746.348	20.16
746.746	19.53
747.144	22.04
747.543	21.4
747.941	20.97
748.339	20.48
748.737	21.36
749.136	21.8
749.534	19.88
749.932	21.54
750.33	21.64
750.727	20.73
751.125	22.72
751.523	20.49
751.921	24.2
752.318	25.18
752.716	27.59
753.113	26.74
753.511	26.55
753.908	28.21
754.305	31.04
754.703	31.44
755.1	33.33
755.497	32.91
755.894	32.55
756.291	30.4
756.688	29.93
757.085	27.93
