Data from C_1_DIV_PA_2N_Splice17_12-00-58-092.txt Node
Date: Sat Mar 14 12:00:58 EDT 2020
User: sa697716
Spectrometer: FLMS03696
Trigger mode: 0
Integration Time (sec): 3.180400E-1
Scans to average: 20
Electric dark correction enabled: true
Nonlinearity correction enabled: true
Boxcar width: 5
XAxis mode: Wavelengths
Number of Pixels in Spectrum: 2048
>>>>>Begin Spectral Data<<<<<
187.83	-264841.76
188.298	1893.89
188.766	1042.94
189.233	922.29
189.701	1245.2
190.169	1722.87
190.636	644.1
191.104	567.37
191.571	108.16
192.039	-42.04
192.506	-22.65
192.974	446.54
193.441	-822.85
193.908	-114.07
194.375	-26.48
194.842	-20.91
195.31	17.66
195.777	118.29
196.244	325.29
196.711	354.77
197.177	428.8
197.644	605.05
198.111	1028.25
198.578	1429.35
199.045	1115.22
199.511	1781.2
199.978	2067.63
200.445	1772.21
200.911	1953.98
201.378	2149.36
201.844	1973.85
202.31	3316.9
202.777	3427.93
203.243	1878.08
203.709	1779.26
204.176	2117.82
204.642	1751.13
205.108	1629.12
205.574	1306.58
206.04	1163.14
206.506	1081.79
206.972	999.19
207.438	976.45
207.903	1098.06
208.369	988.59
208.835	979.29
209.301	1027.17
209.766	1049.55
210.232	1031.35
210.697	1275.55
211.163	1562.53
211.628	2358.58
212.094	1968.96
212.559	2415.25
213.024	1500.7
213.49	1831.84
213.955	1768.55
214.42	1685.33
214.885	1561.85
215.35	1493.09
215.815	1456.44
216.28	1555.32
216.745	1234.13
217.21	1320.17
217.675	1165.66
218.14	1288.18
218.604	1382.59
219.069	1546.96
219.534	1600.3
219.998	1797.86
220.463	2122.96
220.927	2517.69
221.392	2314.75
221.856	2345.8
222.32	2886.96
222.785	3578.58
223.249	4453.11
223.713	4929.26
224.177	4924.95
224.642	6265.7
225.106	7704.46
225.57	8423.37
226.034	6299.4
226.497	9662.73
226.961	8744.01
227.425	10246.49
227.889	11376
228.353	11371.35
228.816	23421.09
229.28	22481.81
229.744	18974.05
230.207	11599.44
230.671	11454.8
231.134	18881.53
231.597	21745.88
232.061	21666.22
232.524	21107.68
232.987	14536.11
233.45	13161.78
233.914	11874.12
234.377	12126.73
234.84	11154.3
235.303	13183.39
235.766	14730.45
236.229	15271.1
236.691	9621.55
237.154	10835.12
237.617	8200.97
238.08	8421.74
238.542	9865.62
239.005	7061.33
239.468	7038.68
239.93	6645.3
240.393	6047.55
240.855	5316.33
241.317	5456.08
241.78	6640.55
242.242	6895.27
242.704	7467.96
243.166	6522.27
243.629	5940.9
244.091	6867.46
244.553	7552.51
245.015	8143.4
245.477	10522.87
245.939	15458.12
246.4	16396.29
246.862	15962.41
247.324	15078.2
247.786	16862.13
248.247	22085.25
248.709	22855.64
249.17	17143
249.632	16217.46
250.093	18892.4
250.555	16357.67
251.016	10017.1
251.477	9535.72
251.939	10331.01
252.4	10855.36
252.861	12948.32
253.322	12085.68
253.783	14372.67
254.244	18627.29
254.705	14676.24
255.166	13022.21
255.627	12869.52
256.088	18199.38
256.549	19376.62
257.009	16689.55
257.47	20262.24
257.931	16514.33
258.391	12396.63
258.852	12805.64
259.312	13464.47
259.773	16658.69
260.233	14139.13
260.694	11941.16
261.154	13558.72
261.614	10940.24
262.074	9818.35
262.534	10239.49
262.994	9673.54
263.455	12909.37
263.915	10925.78
264.374	10303.39
264.834	11281.65
265.294	12507.32
265.754	12997.19
266.214	12315.88
266.673	11530.93
267.133	14573.46
267.593	14448.72
268.052	17699.89
268.512	15379.61
268.971	18556.98
269.431	20398.02
269.89	18276.75
270.349	27467.3
270.809	30690.99
271.268	27651.81
271.727	62131.94
272.186	40281.66
272.645	30271.57
273.104	21861.35
273.563	31708.51
274.022	24956.26
274.481	21315.06
274.94	16454.9
275.399	12234.91
275.857	14242.63
276.316	19249.19
276.775	17143.44
277.233	16916.45
277.692	15900.32
278.15	18026.24
278.609	18619.46
279.067	17266.09
279.525	16020.8
279.984	20714.23
280.442	24906.69
280.9	24638.7
281.358	16282.33
281.816	15216.63
282.274	14885.35
282.732	15375.43
283.19	15478.96
283.648	13353.15
284.106	14235.23
284.564	14516.36
285.021	13497.76
285.479	10080.49
285.937	9150.01
286.394	8039.47
286.852	8276.44
287.309	8731.69
287.767	8448.15
288.224	8048.97
288.682	8859.12
289.139	9765.95
289.596	8967.67
290.053	9341.82
290.511	11810.35
290.968	14375.92
291.425	19547.07
291.882	16313.26
292.339	14247.26
292.796	14152.7
293.252	13339.55
293.709	10628.1
294.166	9521.08
294.623	10516.4
295.079	10079.91
295.536	10152.61
295.992	9225.33
296.449	9134.85
296.905	9502.16
297.362	9126.86
297.818	9613.63
298.274	10005.45
298.731	10197.5
299.187	10105
299.643	10875.79
300.099	13187.49
300.555	14498.97
301.011	12151.39
301.467	11752.62
301.923	13782.18
302.379	13488.37
302.835	13276.48
303.291	13312.31
303.746	15182.12
304.202	19233.68
304.658	19342.8
305.113	13025.26
305.569	12755.77
306.024	13601.97
306.479	12924.32
306.935	10917.96
307.39	11909.57
307.845	11020.91
308.301	11115.55
308.756	10846.13
309.211	10481.04
309.666	10738.86
310.121	13364.68
310.576	13578.77
311.031	13472.88
311.486	15450.65
311.94	15430.29
312.395	20659.11
312.85	38864.2
313.305	190713.97
313.759	989039.12
314.214	71648.41
314.668	56864.65
315.123	47966.18
315.577	17262
316.032	15404.75
316.486	19312.89
316.94	15295.19
317.394	10667.09
317.849	8287.94
318.303	7846.66
318.757	7425.48
319.211	8229.3
319.665	7219.63
320.119	7301.01
320.572	10476.59
321.026	9795.19
321.48	8158.93
321.934	8888.07
322.387	8912.34
322.841	9648.76
323.295	8713.71
323.748	10016.64
324.202	10135.8
324.655	12177.97
325.108	17089.75
325.562	12083.98
326.015	14370.73
326.468	10897.59
326.921	12203.83
327.374	11430.8
327.827	11912.23
328.28	13514.11
328.733	9099.77
329.186	8013.41
329.639	7650.07
330.092	6431.7
330.545	6144.76
330.997	6203.83
331.45	6788.76
331.903	7969.21
332.355	13693.81
332.808	13324.35
333.26	10988.76
333.713	11905.87
334.165	12009.64
334.617	16000.14
335.069	12934.77
335.522	23298.54
335.974	25814.27
336.426	23561.38
336.878	16321.56
337.33	8283.1
337.782	8105.88
338.234	10162.54
338.686	12146.69
339.137	14376.37
339.589	13581.32
340.041	10668.44
340.493	9209.98
340.944	9463.33
341.396	10224.13
341.847	8637.4
342.299	10228.4
342.75	12494.67
343.201	10926.13
343.653	12617.46
344.104	15554.83
344.555	12258.86
345.006	19052.77
345.457	14639.29
345.908	11654.78
346.359	10981.13
346.81	8933.16
347.261	9408.43
347.712	9264.95
348.163	9938.87
348.613	10097.24
349.064	9456.55
349.515	8299.49
349.965	8534.82
350.416	10278.97
350.866	11287.13
351.317	12780.72
351.767	21179.66
352.217	26790.47
352.668	22331.06
353.118	20505.07
353.568	19724.76
354.018	15605.16
354.468	16474.98
354.918	11832.87
355.368	10365.19
355.818	14635.98
356.268	42140.93
356.718	177204.87
357.168	44282.56
357.617	22213.78
358.067	24772.33
358.517	23317.25
358.966	27436.06
359.416	30839.96
359.865	33440.9
360.315	39840.37
360.764	18671.58
361.213	10471.32
361.663	9903.39
362.112	12184.55
362.561	19712.01
363.01	14863.59
363.459	12528.28
363.908	13530.27
364.357	11527.46
364.806	19499.48
365.255	13431.38
365.703	12313.61
366.152	12355.67
366.601	10015.12
367.05	8180.41
367.498	7455.77
367.947	7799.14
368.395	8121.98
368.844	7230.45
369.292	8695.16
369.74	6025.53
370.189	9231.48
370.637	10844.49
371.085	9362.22
371.533	11455.05
371.981	11040.61
372.429	10568.1
372.877	11031.61
373.325	9256.08
373.773	9439.54
374.221	8448.28
374.669	10476.07
375.116	9055.36
375.564	9163.95
376.012	10302.45
376.459	8539.4
376.907	10228.35
377.354	12378.28
377.801	11591.84
378.249	13348.81
378.696	17124.68
379.143	20807.06
379.591	22330.73
380.038	38068.58
380.485	27592.02
380.932	29788.34
381.379	27347.46
381.826	20208.77
382.273	14434.2
382.72	12651.76
383.166	12425.49
383.613	8087.4
384.06	7309.15
384.506	8487.89
384.953	6267.31
385.4	6330.29
385.846	5599.3
386.292	5486.52
386.739	5416.46
387.185	5383.07
387.631	5437.19
388.078	5315.64
388.524	5734.02
388.97	5347.55
389.416	4502.24
389.862	4818.57
390.308	4599.21
390.754	4713.82
391.2	5162.73
391.645	5359.74
392.091	5228.52
392.537	5138.02
392.983	5207.9
393.428	5189.78
393.874	5630.89
394.319	5758.23
394.765	5611.9
395.21	5961.29
395.655	5777.75
396.101	5601.79
396.546	5231.57
396.991	5444.67
397.436	5240.39
397.881	5264.22
398.326	5211.23
398.771	5140.02
399.216	4680.48
399.661	4366.53
400.106	4485.54
400.551	4719.94
400.995	4348.14
401.44	4400.95
401.885	4218.02
402.329	4333.87
402.774	4218.24
403.218	4131.56
403.663	4042.92
404.107	4211.78
404.551	4312.68
404.995	4030.66
405.44	3967.27
405.884	4104.06
406.328	4046.59
406.772	4104.2
407.216	3800.45
407.66	3746.5
408.104	3648.14
408.547	3487.68
408.991	3443.02
409.435	3373.31
409.879	3376.31
410.322	3373.51
410.766	3299.4
411.209	3182.63
411.653	3109.03
412.096	3093.81
412.54	3144.07
412.983	3161.24
413.426	3205.34
413.869	3246.03
414.312	3213.08
414.756	3128.07
415.199	3022.09
415.642	2967.68
416.085	2998.05
416.527	3002.88
416.97	3078.18
417.413	2939.23
417.856	2929.56
418.298	2911.65
418.741	2899.04
419.184	2903.93
419.626	3035.81
420.069	3039.6
420.511	3064.03
420.953	3007.67
421.396	2996.13
421.838	2941.15
422.28	3024.47
422.722	3053.42
423.164	3133.81
423.606	3112.51
424.048	3145.11
424.49	3015.69
424.932	3034.08
425.374	3022.19
425.816	3090.7
426.258	3141.2
426.699	3146.61
427.141	3053.9
427.582	3059.77
428.024	3007.92
428.465	2991.32
428.907	2943.74
429.348	2952.54
429.789	2984.61
430.231	2945.85
430.672	3017.47
431.113	2991.04
431.554	3019.31
431.995	3047.06
432.436	3034.07
432.877	3061.81
433.318	3073.96
433.759	3112.37
434.2	3150.96
434.64	3154.23
435.081	3202.96
435.522	3079.95
435.962	3018.88
436.403	2996.61
436.843	3083.52
437.284	3062.01
437.724	3014.54
438.164	3056.9
438.604	3012.53
439.045	2923.62
439.485	2834.45
439.925	2817.52
440.365	2790.21
440.805	2791.35
441.245	2785
441.685	2706.47
442.125	2710.56
442.564	2745.04
443.004	2694.13
443.444	2706.2
443.883	2727.14
444.323	2737.76
444.762	2778.23
445.202	2842.77
445.641	2907.38
446.081	2920.53
446.52	2967.3
446.959	2963.12
447.398	2919.88
447.837	2924.93
448.276	2912.63
448.716	2969.72
449.154	3014.05
449.593	2937.01
450.032	2924.18
450.471	2880.96
450.91	2888.72
451.349	2875.42
451.787	2863.15
452.226	2902.6
452.664	2895.79
453.103	2891.48
453.541	2890.06
453.98	2875.51
454.418	2905.76
454.856	2858.62
455.295	2853.91
455.733	2871.3
456.171	2888.61
456.609	2885.98
457.047	2884.32
457.485	2917.47
457.923	2917.52
458.361	2880.85
458.798	2900.06
459.236	2900.42
459.674	2938.3
460.111	2966.1
460.549	2949.72
460.987	2958.97
461.424	2970.99
461.862	2970.32
462.299	2942.65
462.736	2953.93
463.173	2977.26
463.611	2944.38
464.048	2943.99
464.485	2980.12
464.922	2975.54
465.359	2987.24
465.796	2938.05
466.233	2938.31
466.67	2929.93
467.106	2943.59
467.543	2945.71
467.98	2939.38
468.416	2908.09
468.853	2929.2
469.29	2881.98
469.726	2882.48
470.162	2836.52
470.599	2861.97
471.035	2872.51
471.471	2842.04
471.907	2866.41
472.344	2875.14
472.78	2896.78
473.216	2951.39
473.652	2924.12
474.088	2927.07
474.523	2924.9
474.959	2964.24
475.395	2945.42
475.831	2925.33
476.266	2943.03
476.702	2937.56
477.138	2905.97
477.573	2901.33
478.008	2891.64
478.444	2902.46
478.879	2919.03
479.314	2926.22
479.75	2913.86
480.185	2920.72
480.62	2938.62
481.055	2939.8
481.49	2940
481.925	2956.88
482.36	2959.96
482.795	2992.18
483.229	3016.96
483.664	3023.57
484.099	2988.11
484.534	2992.26
484.968	2984.32
485.403	2966.92
485.837	2940.73
486.271	2916.78
486.706	2915.08
487.14	2895.72
487.574	2865.24
488.009	2858.41
488.443	2847.98
488.877	2874.6
489.311	2880.7
489.745	2907.14
490.179	2921.53
490.613	2958.09
491.046	2974.96
491.48	2984.82
491.914	2974.87
492.348	2985.16
492.781	2990.32
493.215	2992.73
493.648	3000.67
494.082	3022.46
494.515	3015.13
494.948	3032.8
495.382	3044.04
495.815	3043.62
496.248	3044.35
496.681	3076.57
497.114	3101.66
497.547	3113.44
497.98	3129.11
498.413	3111.22
498.846	3109.87
499.279	3113.43
499.711	3108.36
500.144	3092.71
500.577	3100.84
501.009	3112.98
501.442	3115.68
501.874	3092.2
502.306	3084.18
502.739	3089.4
503.171	3134.11
503.603	3132.16
504.036	3145.61
504.468	3136.34
504.9	3145.25
505.332	3142.63
505.764	3130.01
506.196	3130.29
506.627	3149.88
507.059	3158.11
507.491	3159.17
507.923	3111.77
508.354	3122.57
508.786	3121.93
509.217	3144.51
509.649	3154.77
510.08	3174.42
510.512	3178.46
510.943	3175.9
511.374	3160.22
511.805	3173.01
512.237	3182.59
512.668	3228.29
513.099	3246.24
513.53	3249.51
513.961	3226.58
514.391	3236.12
514.822	3246.07
515.253	3270.37
515.684	3269.5
516.114	3284.16
516.545	3282.15
516.975	3294.87
517.406	3290.9
517.836	3263.68
518.267	3258.08
518.697	3287.4
519.127	3285.53
519.558	3289.07
519.988	3280.82
520.418	3287.14
520.848	3310.34
521.278	3310.19
521.708	3273.23
522.138	3278.57
522.567	3319.78
522.997	3339.95
523.427	3330.5
523.857	3320.48
524.286	3302.42
524.716	3300.6
525.145	3312.29
525.575	3307.15
526.004	3313.48
526.433	3322.26
526.863	3301.07
527.292	3262.72
527.721	3266.23
528.15	3283.04
528.579	3292.05
529.008	3314.46
529.437	3351.57
529.866	3360.59
530.295	3374.09
530.724	3374.38
531.152	3404.21
531.581	3414.08
532.01	3435.23
532.438	3440.07
532.867	3454.48
533.295	3474.58
533.723	3474.12
534.152	3462.92
534.58	3461.21
535.008	3430.92
535.436	3433.34
535.865	3447.35
536.293	3469.1
536.721	3486.77
537.149	3514.59
537.576	3498.9
538.004	3508.39
538.432	3517.06
538.86	3510.81
539.287	3523.72
539.715	3547.79
540.143	3554.7
540.57	3551.16
540.998	3552.24
541.425	3522.28
541.852	3503.72
542.28	3522.76
542.707	3512.9
543.134	3505.01
543.561	3514.69
543.988	3514.52
544.415	3528.32
544.842	3530.29
545.269	3529.63
545.696	3545.79
546.123	3585.51
546.549	3580.69
546.976	3568.83
547.403	3581.59
547.829	3598.52
548.256	3617.67
548.682	3626.08
549.108	3624.88
549.535	3639.25
549.961	3657.08
550.387	3643.02
550.813	3642.56
551.24	3666.42
551.666	3683.16
552.092	3678.12
552.518	3677.1
552.943	3672.58
553.369	3694.51
553.795	3712.72
554.221	3720.02
554.646	3717.18
555.072	3739.71
555.498	3749.3
555.923	3763.7
556.349	3785.47
556.774	3795.04
557.199	3791.8
557.625	3805.48
558.05	3795.67
558.475	3819.71
558.9	3819.97
559.325	3805.16
559.75	3798.28
560.175	3792.9
560.6	3788.44
561.025	3794.78
561.449	3805.51
561.874	3824.99
562.299	3831.3
562.723	3842.46
563.148	3818.52
563.572	3826.18
563.997	3848.05
564.421	3862.22
564.846	3861.49
565.27	3865.03
565.694	3855.25
566.118	3875.67
566.542	3887.04
566.966	3873.77
567.39	3862.03
567.814	3836.07
568.238	3833.76
568.662	3845.9
569.086	3855.17
569.509	3880.24
569.933	3859.95
570.357	3861.33
570.78	3834.58
571.204	3823.47
571.627	3819.83
572.05	3838.77
572.474	3859
572.897	3853.29
573.32	3854.87
573.743	3850.62
574.166	3826.26
574.589	3842.5
575.012	3837.71
575.435	3845.16
575.858	3837.13
576.281	3827.52
576.704	3810.31
577.126	3805.81
577.549	3803.82
577.972	3804.72
578.394	3802.67
578.817	3806.08
579.239	3787.54
579.661	3783.87
580.084	3775.54
580.506	3773.94
580.928	3792.62
581.35	3792.26
581.772	3806.4
582.194	3793.73
582.616	3780
583.038	3760.66
583.46	3753.25
583.882	3759.9
584.303	3784.61
584.725	3786.14
585.147	3784.51
585.568	3802.42
585.99	3813.02
586.411	3803.29
586.833	3819.44
587.254	3810.18
587.675	3841.53
588.096	3868.77
588.518	3851.1
588.939	3807.46
589.36	3803.95
589.781	3800.96
590.202	3748.47
590.623	3759.7
591.043	3790.89
591.464	3788.28
591.885	3801.48
592.305	3803.44
592.726	3784.1
593.147	3803.83
593.567	3805.41
593.987	3799.37
594.408	3796.63
594.828	3805.52
595.248	3795.07
595.669	3752.68
596.089	3744.2
596.509	3738.46
596.929	3710.95
597.349	3715.88
597.769	3690.06
598.189	3671.87
598.608	3672.86
599.028	3673.14
599.448	3671.32
599.867	3641.43
600.287	3634.95
600.706	3626.6
601.126	3603.96
601.545	3603.44
601.965	3605.66
602.384	3598.21
602.803	3613.07
603.222	3605.3
603.641	3596.16
604.061	3592.27
604.48	3586.24
604.898	3611.49
605.317	3627.65
605.736	3635.8
606.155	3628.47
606.574	3606.41
606.992	3621.46
607.411	3609.26
607.829	3592.22
608.248	3588.33
608.666	3589.21
609.085	3591.39
609.503	3572.54
609.921	3560.54
610.339	3570.64
610.758	3577
611.176	3570.31
611.594	3553.08
612.012	3554.17
612.43	3569.39
612.847	3592.11
613.265	3594.78
613.683	3610.88
614.101	3621.65
614.518	3619.54
614.936	3603.05
615.353	3573.8
615.771	3577.41
616.188	3590.63
616.606	3592.77
617.023	3587.39
617.44	3565.53
617.857	3567.69
618.274	3562.57
618.691	3557.18
619.108	3544.95
619.525	3535.95
619.942	3560.01
620.359	3570.47
620.776	3560.24
621.192	3548.35
621.609	3539.5
622.026	3551.34
622.442	3560.39
622.859	3564.4
623.275	3542.64
623.691	3554.33
624.108	3583.49
624.524	3619.18
624.94	3613.19
625.356	3635.49
625.772	3667.55
626.188	3698.03
626.604	3697.99
627.02	3684.03
627.436	3673.48
627.852	3687.82
628.268	3716.85
628.683	3689.89
629.099	3667.68
629.514	3661.19
629.93	3675.69
630.345	3695.19
630.761	3693.53
631.176	3713.96
631.591	3704.88
632.007	3700.86
632.422	3712.51
632.837	3696.67
633.252	3702.8
633.667	3690.66
634.082	3682.71
634.497	3663.67
634.911	3624.75
635.326	3636.32
635.741	3609.96
636.155	3608.53
636.57	3635.34
636.984	3656.44
637.399	3684.09
637.813	3714.08
638.228	3738.43
638.642	3780.4
639.056	3779.71
639.47	3813.5
639.884	3818.4
640.298	3831.71
640.712	3860.54
641.126	3858.06
641.54	3870.45
641.954	3898.99
642.368	3896.68
642.781	3900.2
643.195	3876.56
643.609	3911.28
644.022	3923.45
644.436	3939.57
644.849	3926.79
645.262	3915.86
645.676	3950.53
646.089	3954.99
646.502	3915.16
646.915	3917.9
647.328	3887.56
647.741	3907.01
648.154	3886.55
648.567	3892.92
648.98	3864.74
649.393	3892.12
649.805	3901.09
650.218	3895.11
650.631	3857.26
651.043	3859.94
651.456	3854.65
651.868	3872.08
652.28	3946.11
652.693	3992.4
653.105	4002.2
653.517	4015.54
653.929	3990.97
654.341	3996.21
654.753	3940.17
655.165	3965.89
655.577	3962.14
655.989	3960.37
656.401	3952.83
656.813	3833.45
657.224	3799.4
657.636	3748.84
658.047	3737.68
658.459	3722.04
658.87	3745.84
659.282	3749.25
659.693	3697.77
660.104	3670.14
660.515	3645.49
660.926	3666.74
661.338	3689.84
661.749	3691.19
662.159	3672.14
662.57	3684.03
662.981	3685.72
663.392	3669.66
663.803	3705.61
664.213	3719.12
664.624	3721.17
665.035	3753.02
665.445	3707.57
665.855	3683.69
666.266	3655.47
666.676	3657.54
667.086	3624.25
667.497	3624.02
667.907	3601.25
668.317	3561.18
668.727	3529.1
669.137	3533.96
669.547	3518.54
669.956	3529.99
670.366	3536.65
670.776	3539.16
671.186	3552.81
671.595	3558.07
672.005	3570.09
672.414	3554.18
672.824	3534.31
673.233	3563.35
673.642	3562.31
674.052	3561.28
674.461	3552.02
674.87	3561.99
675.279	3533.12
675.688	3531.23
676.097	3519.87
676.506	3490.94
676.915	3545.62
677.323	3543.2
677.732	3518.73
678.141	3502.52
678.549	3444.12
678.958	3429.83
679.366	3412.01
679.775	3422.3
680.183	3435.23
680.592	3441.86
681	3442.11
681.408	3383.1
681.816	3388.94
682.224	3397.32
682.632	3396.16
683.04	3476.76
683.448	3515.32
683.856	3549.92
684.264	3579.67
684.671	3597.41
685.079	3631.56
685.487	3676
685.894	3772.78
686.302	3818.84
686.709	3820.23
687.116	3844.78
687.524	3831.16
687.931	3815.1
688.338	3805.44
688.745	3801.25
689.152	3805.45
689.559	3827.64
689.966	3832
690.373	3774.99
690.78	3762.44
691.187	3801.26
691.593	3791.28
692	3770.87
692.407	3789.69
692.813	3831.56
693.22	3842.35
693.626	3861.43
