Data from C_1_DEC_VA_2N_Splice17_11-58-00-012.txt Node
Date: Sat Mar 14 11:58:00 EDT 2020
User: sa697716
Spectrometer: FLMS03696
Trigger mode: 0
Integration Time (sec): 3.180400E-1
Scans to average: 20
Electric dark correction enabled: true
Nonlinearity correction enabled: true
Boxcar width: 5
XAxis mode: Wavelengths
Number of Pixels in Spectrum: 2048
>>>>>Begin Spectral Data<<<<<
187.83	-235159.95
188.298	1600.52
188.766	928.63
189.233	829.27
189.701	1135.19
190.169	1598.12
190.636	605.06
191.104	501.8
191.571	74.61
192.039	-95.21
192.506	-134.45
192.974	257.07
193.441	-445.98
193.908	-164.39
194.375	0.08
194.842	6.18
195.31	106.4
195.777	168.15
196.244	377.01
196.711	478.82
197.177	593.29
197.644	843.73
198.111	1450.57
198.578	1997.3
199.045	1627.9
199.511	2640.18
199.978	3116.93
200.445	2650.44
200.911	2934.26
201.378	3275.22
201.844	2953.26
202.31	5052.51
202.777	5273.6
203.243	2948.81
203.709	2830.55
204.176	3401.75
204.642	2819.77
205.108	2616.69
205.574	2122.65
206.04	1935.41
206.506	1813.88
206.972	1710.35
207.438	1650.35
207.903	1871.42
208.369	1630.96
208.835	1628.36
209.301	1696.01
209.766	1733.75
210.232	1723.26
210.697	2153.2
211.163	2652.21
211.628	4007.04
212.094	3364.56
212.559	4153.2
213.024	2593.73
213.49	3160.74
213.955	3088.27
214.42	3029.09
214.885	2823.54
215.35	2702.95
215.815	2582.81
216.28	2749.61
216.745	2235.14
217.21	2418.35
217.675	2207.23
218.14	2476.54
218.604	2767.33
219.069	3153.01
219.534	3298
219.998	3817.41
220.463	4628.8
220.927	5691.47
221.392	5351.89
221.856	5417.82
222.32	6821.35
222.785	8429.67
223.249	10615.96
223.713	11855.52
224.177	11866.31
224.642	15204.02
225.106	18733.55
225.57	20470.19
226.034	15224.97
226.497	23183.99
226.961	20913.98
227.425	24355.87
227.889	27001.11
228.353	26996.6
228.816	55756.91
229.28	53244.71
229.744	44978.98
230.207	27318.5
230.671	26898.1
231.134	44491.68
231.597	51243.16
232.061	51359.89
232.524	50094.88
232.987	34521.29
233.45	31070.03
233.914	27891.88
234.377	28593.93
234.84	26181.16
235.303	30896.74
235.766	34488.86
236.229	35672.29
236.691	22491.56
237.154	25272.25
237.617	19020.12
238.08	19511.05
238.542	22830.54
239.005	16306.73
239.468	16197.99
239.93	15270.08
240.393	13884.49
240.855	12185.06
241.317	12497.39
241.78	15214.03
242.242	15737.96
242.704	17008.33
243.166	14800.11
243.629	13471.73
244.091	15526.88
244.553	17005.94
245.015	18278.7
245.477	23651.09
245.939	34677.24
246.4	36782.13
246.862	35760.04
247.324	33710.26
247.786	37733.59
248.247	49479.57
248.709	51023.4
249.17	38191.17
249.632	36053.77
250.093	41854.44
250.555	36155.4
251.016	22066.12
251.477	20929.42
251.939	22594.17
252.4	23715.8
252.861	28222.29
253.322	26290.59
253.783	31315.13
254.244	40637.87
254.705	32029.94
255.166	28478.77
255.627	28032.23
256.088	39535.52
256.549	42007.31
257.009	36167.47
257.47	43910.18
257.931	35782.28
258.391	26815.14
258.852	27649.91
259.312	29004.84
259.773	35869.98
260.233	30326.68
260.694	25620.18
261.154	29094.48
261.614	23358.38
262.074	20910.86
262.534	21728.26
262.994	20479.6
263.455	27280.38
263.915	22973.41
264.374	21650.21
264.834	23633.64
265.294	26209.82
265.754	27149.9
266.214	25721.73
266.673	24110.56
267.133	30429.77
267.593	30208.55
268.052	36993.52
268.512	32191.2
268.971	38834.38
269.431	42564.47
269.89	38114.73
270.349	57113
270.809	63701.89
271.268	57263.16
271.727	128379.77
272.186	83127.78
272.645	62297.66
273.104	44906.58
273.563	65001.64
274.022	51116.15
274.481	43526.41
274.94	33525.17
275.399	24918.78
275.857	29011.47
276.316	39205.53
276.775	34927.77
277.233	34400.81
277.692	32208.6
278.15	36448.72
278.609	37484.38
279.067	34734.77
279.525	32263.87
279.984	41695.94
280.442	50114.39
280.9	49406.08
281.358	32528.98
281.816	30313.35
282.274	29721.72
282.732	30742.63
283.19	30892.54
283.648	26691.42
284.106	28438.89
284.564	28935.4
285.021	26815.8
285.479	20000.4
285.937	18191.1
286.394	15965.62
286.852	16443.74
287.309	17291.02
287.767	16688.12
288.224	15868.77
288.682	17420.98
289.139	19109.23
289.596	17472.22
290.053	18169.75
290.511	22923.26
290.968	27809.19
291.425	37725.94
291.882	31361.74
292.339	27275.9
292.796	27093.36
293.252	25541.15
293.709	20290.78
294.166	18192.38
294.623	20122.88
295.079	19289.87
295.536	19372.88
295.992	17592.33
296.449	17388.23
296.905	18074.89
297.362	17310.13
297.818	18210.06
298.274	18888.17
298.731	19228.8
299.187	19006.36
299.643	20388.98
300.099	24709.4
300.555	27110.69
301.011	22645.46
301.467	21842.98
301.923	25584.46
302.379	25018.29
302.835	24582.9
303.291	24618.12
303.746	28043.55
304.202	35505.85
304.658	35674.09
305.113	23995.54
305.569	23531.55
306.024	25123.32
306.479	23947.16
306.935	20181.42
307.39	22033.62
307.845	20336.88
308.301	20488.77
308.756	19968.55
309.211	19235.63
309.666	19682.41
310.121	24455
310.576	24833.23
311.031	24616.6
311.486	28203.93
311.94	28186.93
312.395	37756.84
312.85	71046.37
313.305	348972.07
313.759	1807098.22
314.214	130920.31
314.668	103899.44
315.123	87283.56
315.577	31290.55
316.032	27860.07
316.486	34956.59
316.94	27650.39
317.394	19259.83
317.849	14958.68
318.303	14179.32
318.757	13386.72
319.211	14796.42
319.665	12965.95
320.119	13120.26
320.572	18812.07
321.026	17576.27
321.48	14607.89
321.934	15900.42
322.387	15926.22
322.841	17208.01
323.295	15453.53
323.748	17792.33
324.202	18038.85
324.655	21667.75
325.108	30305.29
325.562	21398.14
326.015	25446.91
326.468	19237.6
326.921	21528.78
327.374	20062.73
327.827	20879.08
328.28	23628.69
328.733	15836.25
329.186	13925.77
329.639	13267.47
330.092	11173.35
330.545	10650.56
330.997	10746.34
331.45	11735.36
331.903	13767.56
332.355	23702.5
332.808	23048.48
333.26	19033.84
333.713	20683.8
334.165	20866.57
334.617	27845.8
335.069	22525.08
335.522	40725.87
335.974	45097.5
336.426	41181.97
336.878	28527.82
337.33	14457.55
337.782	14145.64
338.234	17699.97
338.686	21181.58
339.137	25097.35
339.589	23702.52
340.041	18557.59
340.493	15948.18
340.944	16284.68
341.396	17534.13
341.847	14725.18
342.299	17383.37
342.75	21186.66
343.201	18526.02
343.653	21321.01
344.104	26221.38
344.555	20603.15
345.006	32073.62
345.457	24527.58
345.908	19529.99
346.359	18407.45
346.81	15006.25
347.261	15801.61
347.712	15560.76
348.163	16665.01
348.613	16834.76
349.064	15705.64
349.515	13761.63
349.965	14132.63
350.416	17016.47
350.866	18684.25
351.317	21120.46
351.767	34970.08
352.217	44230.99
352.668	36629.08
353.118	33564.53
353.568	32390.43
354.018	25627.87
354.468	26978.89
354.918	19315.57
355.368	16918.62
355.818	23877.35
356.268	68699.18
356.718	287569.68
357.168	71417.28
357.617	35920.42
358.067	39984.07
358.517	37399.83
358.966	43833.09
359.416	49222.03
359.865	53310.58
360.315	63471.34
360.764	29645.33
361.213	16624.89
361.663	15726.92
362.112	19470.23
362.561	31408.46
363.01	23699.79
363.459	19976.17
363.908	21652.33
364.357	18385.81
364.806	31002.97
365.255	21333.71
365.703	19572.68
366.152	19586.5
366.601	15882.23
367.05	12883.48
367.498	11711.67
367.947	12222.89
368.395	12724.63
368.844	11275.79
369.292	13595.22
369.74	9410.93
370.189	14427.68
370.637	16877.3
371.085	14560.92
371.533	17736.56
371.981	17088.47
372.429	16283.51
372.877	16974.35
373.325	14206.04
373.773	14436.85
374.221	12843.73
374.669	15932.89
375.116	13764.83
375.564	13867.81
376.012	15501.8
376.459	12784.06
376.907	15270.43
377.354	18477.73
377.801	17230.24
378.249	19809.15
378.696	25330.31
379.143	30711.68
379.591	32740.37
380.038	55333.53
380.485	40045.31
380.932	43257.77
381.379	39621.54
381.826	29272.85
382.273	20811.61
382.72	18199.58
383.166	17730.39
383.613	11520.97
384.06	10397.74
384.506	12020.05
384.953	8862.91
385.4	8918.99
385.846	7834.66
386.292	7651.36
386.739	7466.18
387.185	7400.82
387.631	7420.63
388.078	7201.63
388.524	7715.94
388.97	7121.83
389.416	5948.54
389.862	6314.46
390.308	6003.64
390.754	6094.63
391.2	6614.5
391.645	6796.75
392.091	6509.44
392.537	6297.32
392.983	6334
393.428	6229.39
393.874	6700.66
394.319	6738.89
394.765	6404.84
395.21	6592.5
395.655	6181.12
396.101	5783.84
396.546	5224.05
396.991	5273.93
397.436	4904.22
397.881	4735.72
398.326	4492.39
398.771	4248.98
399.216	3718
399.661	3350.71
400.106	3339.46
400.551	3424.01
400.995	3078.5
401.44	3047.44
401.885	2860.71
402.329	2888.66
402.774	2769.51
403.218	2680.51
403.663	2580.64
404.107	2650.68
404.551	2668.7
404.995	2445.74
405.44	2354.07
405.884	2390.94
406.328	2312.06
406.772	2302.68
407.216	2095.92
407.66	2024.91
408.104	1922.4
408.547	1799.44
408.991	1739.42
409.435	1672.59
409.879	1646.51
410.322	1627.34
410.766	1566.46
411.209	1488.27
411.653	1431.86
412.096	1401.65
412.54	1402.33
412.983	1391.74
413.426	1395.17
413.869	1394.29
414.312	1366.5
414.756	1315.79
415.199	1252.64
415.642	1216.83
416.085	1218.67
416.527	1208.29
416.97	1226.66
417.413	1162.58
417.856	1148.8
418.298	1136.46
418.741	1126.9
419.184	1123.17
419.626	1168.95
420.069	1168.89
420.511	1175.38
420.953	1147.28
421.396	1137.15
421.838	1106.12
422.28	1130.18
422.722	1135.61
423.164	1150.48
423.606	1131.41
424.048	1131.56
424.49	1074.95
424.932	1067.75
425.374	1050.99
425.816	1070.24
426.258	1088.4
426.699	1100.53
427.141	1083.26
427.582	1098.35
428.024	1093.2
428.465	1085.2
428.907	1055.99
429.348	1041.77
429.789	1040.52
430.231	1020.58
430.672	1032.58
431.113	1006.37
431.554	992.2
431.995	968.04
432.436	932.97
432.877	911.07
433.318	897.58
433.759	892.81
434.2	895.21
434.64	886.72
435.081	886.91
435.522	839.25
435.962	808.4
436.403	790.89
436.843	801.58
437.284	784.11
437.724	762.56
438.164	761.76
438.604	746.54
439.045	719.26
439.485	688.98
439.925	673.87
440.365	657.47
440.805	647.81
441.245	638.77
441.685	615.48
442.125	610.87
442.564	613.63
443.004	600.94
443.444	597.56
443.883	596.45
444.323	592.13
444.762	594.1
445.202	603.62
445.641	616.26
446.081	612.94
446.52	616.86
446.959	612.45
447.398	599.25
447.837	591.8
448.276	582.87
448.716	589.96
449.154	595.09
449.593	580.84
450.032	578.07
450.471	566.82
450.91	567.41
451.349	568.4
451.787	565.09
452.226	572.92
452.664	572.26
453.103	573.21
453.541	572.51
453.98	571.96
454.418	576.23
454.856	567.8
455.295	566.97
455.733	570.52
456.171	572.26
456.609	574.11
457.047	574.55
457.485	584.02
457.923	585.24
458.361	577.32
458.798	578.55
459.236	576.53
459.674	580.39
460.111	583.81
460.549	580.17
460.987	577.88
461.424	574.46
461.862	570.63
462.299	560.93
462.736	561.27
463.173	562.47
463.611	558.64
464.048	558.38
464.485	562.27
464.922	556.25
465.359	551.34
465.796	545.38
466.233	542.6
466.67	538.74
467.106	538.5
467.543	532.36
467.98	526.91
468.416	512.53
468.853	507.36
469.29	492.16
469.726	487.42
470.162	475.66
470.599	469.15
471.035	464.06
471.471	453.37
471.907	450.2
472.344	446.87
472.78	447.11
473.216	451.9
473.652	447.38
474.088	446.29
474.523	444.62
474.959	448.31
475.395	443.39
475.831	439.84
476.266	440.86
476.702	439.68
477.138	434.74
477.573	432.6
478.008	431.16
478.444	432.99
478.879	436.95
479.314	438.88
479.75	438.31
480.185	440.05
480.62	444.95
481.055	446.41
481.49	449.83
481.925	456.41
482.36	464.39
482.795	476.15
483.229	488.76
483.664	499.04
484.099	500.02
484.534	507.66
484.968	513.2
485.403	514.25
485.837	514.77
486.271	513.26
486.706	513.43
487.14	507.67
487.574	500.2
488.009	495.95
488.443	492.01
488.877	498.02
489.311	500
489.745	506.31
490.179	511.5
490.613	521.58
491.046	526.53
491.48	530.99
491.914	533.36
492.348	538.49
492.781	542.46
493.215	544.41
493.648	546.53
494.082	551.73
494.515	552.67
494.948	560.69
495.382	565.8
495.815	570.65
496.248	577.13
496.681	588.49
497.114	599.45
497.547	609.11
497.98	621.66
498.413	628.8
498.846	639.11
499.279	648.3
499.711	653.37
500.144	656.74
500.577	667.95
501.009	679.38
501.442	689.76
501.874	693.67
502.306	699
502.739	709.01
503.171	724.63
503.603	730.65
504.036	743.35
504.468	752.72
504.9	766.89
505.332	776.78
505.764	784.65
506.196	794.9
506.627	812.11
507.059	827.23
507.491	838.42
507.923	840.68
508.354	858.8
508.786	870.82
509.217	890.43
509.649	907.55
510.08	929.7
510.512	949.62
510.943	968.04
511.374	982.99
511.805	1006.22
512.237	1029.38
512.668	1064.18
513.099	1093.98
513.53	1124.91
513.961	1150.28
514.391	1186.09
514.822	1221.5
515.253	1259.81
515.684	1288.49
516.114	1320.97
516.545	1345.67
516.975	1375.22
517.406	1396.47
517.836	1403.38
518.267	1414.62
518.697	1435.18
519.127	1443.34
519.558	1455.03
519.988	1463.23
520.418	1476.88
520.848	1498.84
521.278	1511.5
521.708	1529.49
522.138	1546.03
522.567	1580.92
522.997	1608.9
523.427	1627.05
523.857	1646.38
524.286	1659.93
524.716	1677.57
525.145	1699.91
525.575	1713.79
526.004	1731.42
526.433	1730.29
526.863	1732.43
527.292	1722.27
527.721	1729.51
528.15	1736.92
528.579	1739.42
529.008	1751.26
529.437	1776.47
529.866	1791.12
530.295	1808.41
530.724	1821.92
531.152	1851.23
531.581	1866.47
532.01	1886.26
532.438	1896.84
532.867	1913
533.295	1933.14
533.723	1940.33
534.152	1938.19
534.58	1939
535.008	1924.06
535.436	1927.29
535.865	1936
536.293	1953.11
536.721	1971.7
537.149	1999.39
537.576	2003.53
538.004	2018.18
538.432	2027.49
538.86	2027.11
539.287	2035.73
539.715	2050.29
540.143	2053.14
540.57	2049
540.998	2044.63
541.425	2019.66
541.852	1996.79
542.28	1995.73
542.707	1978.84
543.134	1964.3
543.561	1960.05
543.988	1951.45
544.415	1952.48
544.842	1946.52
545.269	1940.04
545.696	1942.14
546.123	1954.27
546.549	1943.64
546.976	1928.91
547.403	1927.05
547.829	1927.97
548.256	1929.48
548.682	1925.4
549.108	1915.38
549.535	1914.51
549.961	1915.25
550.387	1900.08
550.813	1894.96
551.24	1900.37
551.666	1901.04
552.092	1890.3
552.518	1882.76
552.943	1875.39
553.369	1882.55
553.795	1887.51
554.221	1887.28
554.646	1882.74
555.072	1893.23
555.498	1898.05
555.923	1906.88
556.349	1922.17
556.774	1929.89
557.199	1930.21
557.625	1935.53
558.05	1926.82
558.475	1937.19
558.9	1935.29
559.325	1925.81
559.75	1918.53
560.175	1910.21
560.6	1902.62
561.025	1898.29
561.449	1899.38
561.874	1904.34
562.299	1907.23
562.723	1915.52
563.148	1904.25
563.572	1907.39
563.997	1916.92
564.421	1921.83
564.846	1922.42
565.27	1925.21
565.694	1922.32
566.118	1933.81
566.542	1940.86
566.966	1932.72
567.39	1926.22
567.814	1913.46
568.238	1912.4
568.662	1917.24
569.086	1918.51
569.509	1924.89
569.933	1908.42
570.357	1899.47
570.78	1875.37
571.204	1861.08
571.627	1849.55
572.05	1847.55
572.474	1846.46
572.897	1831.43
573.32	1820.42
573.743	1808.65
574.166	1787.42
574.589	1785.91
575.012	1777.29
575.435	1775.43
575.858	1763.4
576.281	1750.56
576.704	1732.01
577.126	1716.97
577.549	1704.95
577.972	1694.31
578.394	1682.18
578.817	1673.47
579.239	1651.69
579.661	1636.66
580.084	1617.96
580.506	1602.97
580.928	1597.67
581.35	1585.17
581.772	1580.76
582.194	1565.11
582.616	1551.56
583.038	1536.25
583.46	1524.65
583.882	1520.89
584.303	1523.46
584.725	1518.48
585.147	1520.39
585.568	1529.24
585.99	1540.39
586.411	1544.47
586.833	1558.37
587.254	1558.66
587.675	1570.97
588.096	1581.67
588.518	1575.74
588.939	1557.76
589.36	1555.55
589.781	1543.58
590.202	1515.83
590.623	1506.62
591.043	1504.16
591.464	1490.44
591.885	1485.02
592.305	1478.99
592.726	1465.37
593.147	1465.85
593.567	1460.77
593.987	1451.45
594.408	1445.83
594.828	1442.04
595.248	1435.58
595.669	1416.67
596.089	1410.39
596.509	1405.02
596.929	1392.1
597.349	1393.31
597.769	1382.68
598.189	1375.6
598.608	1377.68
599.028	1378.58
599.448	1378.61
599.867	1364.65
600.287	1360.05
600.706	1355.06
601.126	1344.47
601.545	1342.77
601.965	1340.48
602.384	1334.9
602.803	1337.79
603.222	1332.18
603.641	1325.34
604.061	1321.17
604.48	1317.83
604.898	1324.65
605.317	1328.45
605.736	1329.78
606.155	1325.78
606.574	1315.19
606.992	1318.32
607.411	1311.24
607.829	1301.89
608.248	1297.71
608.666	1293.82
609.085	1290.78
609.503	1280.85
609.921	1273.37
610.339	1273.41
610.758	1271.78
611.176	1266.21
611.594	1257.09
612.012	1252.5
612.43	1254.86
612.847	1259.36
613.265	1259.44
613.683	1262.99
614.101	1262.7
614.518	1258.18
614.936	1247.71
615.353	1232.27
615.771	1227.81
616.188	1227.31
616.606	1223.05
617.023	1214.46
617.44	1200.93
617.857	1192.52
618.274	1182.85
618.691	1176.75
619.108	1166.3
619.525	1158.96
619.942	1163.45
620.359	1164.67
620.776	1158.17
621.192	1153.56
621.609	1150.33
622.026	1155.76
622.442	1161.11
622.859	1163.18
623.275	1155.88
623.691	1160.93
624.108	1171.68
624.524	1184.19
624.94	1184.41
625.356	1193.15
625.772	1205.13
626.188	1215.89
626.604	1216.01
627.02	1212.22
627.436	1210.71
627.852	1217.4
628.268	1227.87
628.683	1219.93
629.099	1211.39
629.514	1205.96
629.93	1209.3
630.345	1212.15
630.761	1208.52
631.176	1211.69
631.591	1205.6
632.007	1198.84
632.422	1195.01
632.837	1184.85
633.252	1181.03
633.667	1171.14
634.082	1162.48
634.497	1149.17
634.911	1129.96
635.326	1125.9
635.741	1107.39
636.155	1096.04
636.57	1096.03
636.984	1094.05
637.399	1093.16
637.813	1091.11
638.228	1087.1
638.642	1088.43
639.056	1076.84
639.47	1075.71
639.884	1064.76
640.298	1057.17
640.712	1053.39
641.126	1039.37
641.54	1029.07
641.954	1022.08
642.368	1008.48
642.781	1000.32
643.195	982.53
643.609	981.16
644.022	972.91
644.436	967.35
644.849	955.36
645.262	942.97
645.676	942.76
646.089	936.59
646.502	920.73
646.915	912.58
647.328	895.23
647.741	891.13
648.154	877.81
648.567	873.26
648.98	860.05
649.393	858.66
649.805	853.38
650.218	845.02
650.631	831.36
651.043	824.8
651.456	819.15
651.868	818.97
652.28	831.5
652.693	841.38
653.105	846.38
653.517	852.46
653.929	851.3
654.341	855.43
654.753	843.25
655.165	845.49
655.577	842.54
655.989	836.68
656.401	828.09
656.813	798.02
657.224	779.65
657.636	753.26
658.047	736.7
658.459	718.84
658.87	708.42
659.282	697.2
659.693	678.43
660.104	663.95
660.515	651.64
660.926	647.21
661.338	642.22
661.749	634.62
662.159	625.36
662.57	620.15
662.981	614.12
663.392	607.04
663.803	607.65
664.213	604.16
664.624	599.62
665.035	599.98
665.445	588.33
665.855	581.15
666.266	574.39
666.676	572.08
667.086	563.97
667.497	562.28
667.907	556.99
668.317	549.27
668.727	546.86
669.137	546.25
669.547	543.21
669.956	544.34
670.366	544.88
670.776	546.71
671.186	549.38
671.595	551.56
672.005	553.27
672.414	551.78
672.824	550.94
673.233	553.52
673.642	554.98
674.052	558.22
674.461	561.16
674.87	565.39
675.279	562.8
675.688	564.93
676.097	567.23
676.506	567.32
676.915	579.02
677.323	583.25
677.732	583.52
678.141	585.26
678.549	578.38
678.958	577.95
679.366	577.53
679.775	582.15
680.183	591.31
680.592	597.31
681	602.89
681.408	600.98
681.816	607.91
682.224	616.64
682.632	626.68
683.04	652.79
683.448	675.01
683.856	702.49
684.264	734.07
684.671	763.81
685.079	798.94
685.487	838.71
685.894	893.38
686.302	939.98
686.709	979.65
687.116	1024.92
687.524	1064.97
687.931	1101.94
688.338	1134.77
688.745	1162.37
689.152	1193.47
689.559	1237.64
689.966	1280.1
690.373	1303.48
690.78	1347.17
691.187	1408.41
691.593	1457.94
692	1502.69
692.407	1566.32
692.813	1641.99
693.22	1706.38
693.626	1772.41
694.032	1825.68
694.439	1906.12
694.845	1971.79
695.251	2049.81
695.657	2121.29
696.063	2225.86
696.469	2304.15
696.875	2376.34
697.281	2422.34
697.687	2475.44
