Data from C_1_DIV_PA_2N_Splice17_12-01-27-776.txt Node
Date: Sat Mar 14 12:01:27 EDT 2020
User: sa697716
Spectrometer: FLMS03696
Trigger mode: 0
Integration Time (sec): 3.180400E-1
Scans to average: 20
Electric dark correction enabled: true
Nonlinearity correction enabled: true
Boxcar width: 5
XAxis mode: Wavelengths
Number of Pixels in Spectrum: 2048
>>>>>Begin Spectral Data<<<<<
187.83	-350609.71
188.298	2508.76
188.766	1342.85
189.233	1194.17
189.701	1608.33
190.169	2185.18
190.636	868.8
191.104	736.48
191.571	177.17
192.039	-9.71
192.506	17.42
192.974	480.01
193.441	-630.68
193.908	-44.58
194.375	31.89
194.842	15.61
195.31	101.05
195.777	147.75
196.244	354.79
196.711	486.33
197.177	623.66
197.644	900.56
198.111	1580.21
198.578	2209.97
199.045	1755.25
199.511	2851.05
199.978	3355.89
200.445	2825.63
200.911	3156.42
201.378	3541.81
201.844	3198.59
202.31	5512.36
202.777	5765.76
203.243	3196.85
203.709	3029.28
204.176	3628.69
204.642	2994.69
205.108	2802.31
205.574	2291.51
206.04	2109.99
206.506	1980.19
206.972	1861.44
207.438	1784.6
207.903	2031.07
208.369	1783.31
208.835	1785.35
209.301	1855.88
209.766	1897.43
210.232	1869.62
210.697	2331.22
211.163	2862.86
211.628	4307.48
212.094	3632.05
212.559	4457.26
213.024	2756.73
213.49	3349
213.955	3272.47
214.42	3223.28
214.885	2993.95
215.35	2887.04
215.815	2757.89
216.28	2919.11
216.745	2389.12
217.21	2572.51
217.675	2353.02
218.14	2633.31
218.604	2921.75
219.069	3308.7
219.534	3435.37
219.998	3991.27
220.463	4815.47
220.927	5948.06
221.392	5585.28
221.856	5641.63
222.32	7124.09
222.785	8814.48
223.249	11120.88
223.713	12449.32
224.177	12486.36
224.642	16119.2
225.106	19855.15
225.57	21808.87
226.034	16219.45
226.497	24761.19
226.961	22398.48
227.425	26143.61
227.889	29122.87
228.353	29224.36
228.816	60549.89
229.28	58077.76
229.744	49037.44
230.207	29901.55
230.671	29501.06
231.134	48941.86
231.597	56592.08
232.061	56910.49
232.524	55667.72
232.987	38442.55
233.45	34692.58
233.914	31219.18
234.377	32118.19
234.84	29502.26
235.303	34924.91
235.766	39085.74
236.229	40517.32
236.691	25586.63
237.154	28793.46
237.617	21748.01
238.08	22348.87
238.542	26236.22
239.005	18788.59
239.468	18698.18
239.93	17682.44
240.393	16098.34
240.855	14156.1
241.317	14543.22
241.78	17766.94
242.242	18396.37
242.704	19857.04
243.166	17299.07
243.629	15706.66
244.091	18135.69
244.553	19891.63
245.015	21362.78
245.477	27682.83
245.939	40637.74
246.4	43143.3
246.862	41936.2
247.324	39612.44
247.786	44430.7
248.247	58396.1
248.709	60451.9
249.17	45227.85
249.632	42650.52
250.093	49604.53
250.555	42911.38
251.016	26195.39
251.477	24870.55
251.939	26859.32
252.4	28202.2
252.861	33606.29
253.322	31274.43
253.783	37276.72
254.244	48450.59
254.705	38224.73
255.166	33981.85
255.627	33466.54
256.088	47222.78
256.549	50276.42
257.009	43353.39
257.47	52653.02
257.931	42901.69
258.391	32127.49
258.852	33118.47
259.312	34737.56
259.773	42992.89
260.233	36351.88
260.694	30703.67
261.154	34819.04
261.614	27933.58
262.074	25006.86
262.534	25984.12
262.994	24484.94
263.455	32691.4
263.915	27548.37
264.374	25947.86
264.834	28321.96
265.294	31440.11
265.754	32535.14
266.214	30836.07
266.673	28879.79
267.133	36448.3
267.593	36204.2
268.052	44311.94
268.512	38534.33
268.971	46483.79
269.431	50991.26
269.89	45670.34
270.349	68441.71
270.809	76388.01
271.268	68727.49
271.727	154360.99
272.186	99969.44
272.645	74973.01
273.104	54078.88
273.563	78246.42
274.022	61554.97
274.481	52374.33
274.94	40389.46
275.399	30018.57
275.857	34965.98
276.316	47282.28
276.775	42066.94
277.233	41456.93
277.692	38769.88
278.15	43898.83
278.609	45180.17
279.067	41828.67
279.525	38870.09
279.984	50228.48
280.442	60375.32
280.9	59552.71
281.358	39228.49
281.816	36599.39
282.274	35869.95
282.732	37146.78
283.19	37352.86
283.648	32330.58
284.106	34484.26
284.564	35135.54
285.021	32579.55
285.479	24328.01
285.937	22155.87
286.394	19446.41
286.852	20042.13
287.309	21070.94
287.767	20362.72
288.224	19386.07
288.682	21263.96
289.139	23370.24
289.596	21376.2
290.053	22270.76
290.511	28129.35
290.968	34129.11
291.425	46384.44
291.882	38630.81
292.339	33693.33
292.796	33496.94
293.252	31612.5
293.709	25125.72
294.166	22534.62
294.623	24948.39
295.079	23938.44
295.536	24067.52
295.992	21890.26
296.449	21676.66
296.905	22527.54
297.362	21611.89
297.818	22765.47
298.274	23643.48
298.731	24157.31
299.187	23956.19
299.643	25767.69
300.099	31215.58
300.555	34280.58
301.011	28671.68
301.467	27659.83
301.923	32474.63
302.379	31761.44
302.835	31235.26
303.291	31310.84
303.746	35662.66
304.202	45060.3
304.658	45328.12
305.113	30497.1
305.569	29916.49
306.024	31936.67
306.479	30443.43
306.935	25640.12
307.39	28054.45
307.845	25927.17
308.301	26101.9
308.756	25465.09
309.211	24563.06
309.666	25142.74
310.121	31267.64
310.576	31770.55
311.031	31568.45
311.486	36202.6
311.94	36283.15
312.395	48526.63
312.85	91290.81
313.305	449526.23
313.759	2323055.99
314.214	168521.53
314.668	133701.37
315.123	112452.03
315.577	40385.29
316.032	35916.97
316.486	44978.18
316.94	35476.39
317.394	24693.37
317.849	19184.33
318.303	18153.11
318.757	17168.82
319.211	18970.45
319.665	16622.24
320.119	16827.31
320.572	24162.55
321.026	22570.13
321.48	18785.84
321.934	20498.1
322.387	20555.98
322.841	22214.11
323.295	19958.8
323.748	23002.25
324.202	23380.07
324.655	28063.86
325.108	39179.19
325.562	27655.56
326.015	32917.65
326.468	24923.87
326.921	27886.53
327.374	26011.2
327.827	27113.18
328.28	30736.83
328.733	20599.59
329.186	18120.06
329.639	17288.74
330.092	14583.33
330.545	13906.57
330.997	14027.97
331.45	15341.81
331.903	17988.22
332.355	31000.48
332.808	30141.2
333.26	24893.15
333.713	27048.83
334.165	27254.89
334.617	36433.94
335.069	29548.24
335.522	53410.61
335.974	59170.26
336.426	54094.43
336.878	37520.48
337.33	19012.48
337.782	18581.58
338.234	23256.04
338.686	27823.83
339.137	33004.75
339.589	31089.82
340.041	24387.83
340.493	20974.55
340.944	21481.74
341.396	23150.93
341.847	19476.55
342.299	23020.18
342.75	28073.57
343.201	24568.98
343.653	28285.4
344.104	34794.97
344.555	27392.59
345.006	42623.11
345.457	32641.85
345.908	25948.51
346.359	24410.93
346.81	19873.84
347.261	20935.51
347.712	20627.61
348.163	22119.24
348.613	22385.76
349.064	20869.13
349.515	18273.15
349.965	18742.15
350.416	22572.29
350.866	24793.99
351.317	28043.87
351.767	46459.88
352.217	58731.08
352.668	48799.81
353.118	44749.23
353.568	43210.61
354.018	34172.71
354.468	36064.11
354.918	25886.82
355.368	22693.96
355.818	32084.8
356.268	92424.19
356.718	386821.56
357.168	96371.67
357.617	48415.16
358.067	53897.88
358.517	50497.8
358.966	59300.68
359.416	66503.38
359.865	71932.59
360.315	85644.9
360.764	39988.95
361.213	22433.37
361.663	21315.18
362.112	26372.24
362.561	42606.37
363.01	32176.29
363.459	27131.53
363.908	29418.99
364.357	25026.65
364.806	42354.57
365.255	29187.63
365.703	26785.55
366.152	26806.44
366.601	21743.17
367.05	17638.19
367.498	16064.69
367.947	16831.72
368.395	17538.62
368.844	15547.21
369.292	18776.45
369.74	12990.41
370.189	19941.32
370.637	23426.04
371.085	20296.34
371.533	24768.71
371.981	23958.27
372.429	22902.55
372.877	23890.87
373.325	20103.1
373.773	20551.54
374.221	18380.82
374.669	22873.4
375.116	19865.63
375.564	20090.5
376.012	22517.49
376.459	18636.97
376.907	22354.2
377.354	27119.56
377.801	25368.23
378.249	29157.01
378.696	37399.36
379.143	45358.44
379.591	48540.8
380.038	82146.29
380.485	59476.71
380.932	64469.48
381.379	59058.81
381.826	43551.75
382.273	31034.74
382.72	27247.77
383.166	26581.17
383.613	17277.2
384.06	15649.96
384.506	18163.85
384.953	13383.59
385.4	13522.42
385.846	11887.85
386.292	11641.47
386.739	11431.78
387.185	11334.48
387.631	11345.44
388.078	11050.18
388.524	11849.2
388.97	10943.52
389.416	9128.26
389.862	9710.69
390.308	9216.87
390.754	9356.71
391.2	10151.6
391.645	10397.52
392.091	9932.76
392.537	9607.72
392.983	9629.05
393.428	9457.06
393.874	10164.86
394.319	10198.48
394.765	9675.41
395.21	9955.52
395.655	9342.39
396.101	8765.74
396.546	7916.57
396.991	8008.37
397.436	7449.38
397.881	7225.61
398.326	6870.08
398.771	6493.09
399.216	5693.15
399.661	5147.51
400.106	5131.44
400.551	5266.7
400.995	4730.31
401.44	4690.32
401.885	4413.93
402.329	4467.16
402.774	4275.5
403.218	4139.56
403.663	4002.07
404.107	4119.97
404.551	4149.81
404.995	3816.24
405.44	3683.93
405.884	3754.59
406.328	3645.61
406.772	3643.92
407.216	3327.45
407.66	3229.21
408.104	3079.91
408.547	2889.98
408.991	2803.43
409.435	2709.12
409.879	2678.46
410.322	2650.47
410.766	2560.15
411.209	2435.43
411.653	2343.33
412.096	2297.67
412.54	2305.29
412.983	2291.34
413.426	2297.91
413.869	2300.56
414.312	2255.48
414.756	2174.92
415.199	2077.31
415.642	2021.05
416.085	2029.48
416.527	2020.02
416.97	2057.2
417.413	1953.24
417.856	1939.73
418.298	1924.6
418.741	1916.68
419.184	1919.23
419.626	2005.54
420.069	2008.38
420.511	2019.81
420.953	1974.41
421.396	1956.2
421.838	1907.49
422.28	1952.23
422.722	1959.31
423.164	1991.22
423.606	1959.38
424.048	1959.24
424.49	1863.86
424.932	1857.08
425.374	1837.18
425.816	1877.75
426.258	1919.3
426.699	1945.48
427.141	1917.27
427.582	1953.89
428.024	1947.68
428.465	1938.75
428.907	1889.89
429.348	1867.77
429.789	1868.06
430.231	1825.69
430.672	1845.98
431.113	1800.96
431.554	1773.62
431.995	1733.34
432.436	1666.81
432.877	1626.71
433.318	1596.12
433.759	1588.8
434.2	1589.33
434.64	1573.04
435.081	1580.54
435.522	1498.46
435.962	1444.36
436.403	1411.32
436.843	1428.83
437.284	1402.81
437.724	1366.98
438.164	1374.39
438.604	1344.64
439.045	1293.47
439.485	1237.58
439.925	1209.06
440.365	1178.39
440.805	1162.54
441.245	1147.03
441.685	1104.96
442.125	1095.25
442.564	1100.44
443.004	1071.11
443.444	1067.22
443.883	1066.98
444.323	1059.42
444.762	1062.26
445.202	1075.2
445.641	1090.27
446.081	1083.88
446.52	1090.07
446.959	1074.76
447.398	1044.81
447.837	1030.06
448.276	1010.49
448.716	1017.4
449.154	1023.85
449.593	995.62
450.032	988.46
450.471	967.68
450.91	966.71
451.349	961.14
451.787	955.04
452.226	968.12
452.664	966.25
453.103	966.69
453.541	963.3
453.98	958.38
454.418	964.67
454.856	949.5
455.295	949.79
455.733	955.19
456.171	961.3
456.609	962.26
457.047	962.24
457.485	974.38
457.923	974.38
458.361	961.53
458.798	964.81
459.236	961.88
459.674	969.73
460.111	972.82
460.549	963.39
460.987	959.39
461.424	956.53
461.862	951.36
462.299	937.82
462.736	937.01
463.173	940.11
463.611	929.94
464.048	927.06
464.485	933.64
464.922	925.33
465.359	921.44
465.796	904.43
466.233	898.36
466.67	888.79
467.106	886.63
467.543	877.73
467.98	867.47
468.416	845.78
468.853	839.48
469.29	814.02
469.726	805.06
470.162	782.75
470.599	776.85
471.035	769.62
471.471	750.31
471.907	746.35
472.344	739.83
472.78	739.06
473.216	747.04
473.652	736.56
474.088	734.11
474.523	730.41
474.959	736.21
475.395	728.08
475.831	721.45
476.266	724.37
476.702	720.54
477.138	712.6
477.573	709.14
478.008	704.91
478.444	706.98
478.879	710.33
479.314	710.79
479.75	708.33
480.185	711.28
480.62	716.46
481.055	719.26
481.49	723.55
481.925	733.31
482.36	744.57
482.795	764.51
483.229	784.31
483.664	801.3
484.099	804.5
484.534	815.86
484.968	822.02
485.403	823.58
485.837	822.56
486.271	819.94
486.706	819.13
487.14	809.09
487.574	794.43
488.009	785.71
488.443	776.64
488.877	782.1
489.311	782.73
489.745	788.34
490.179	792.38
490.613	802.32
491.046	805.02
491.48	807.07
491.914	804.28
492.348	806.43
492.781	806.03
493.215	802.53
493.648	799.02
494.082	799.7
494.515	795.61
494.948	799.11
495.382	799.71
495.815	799.27
496.248	799.32
496.681	806.43
497.114	812.3
497.547	816.98
497.98	824.74
498.413	824.53
498.846	826.74
499.279	827.32
499.711	823.18
500.144	817.3
500.577	819.38
501.009	821.86
501.442	822.75
501.874	814.3
502.306	806.28
502.739	803.52
503.171	807.55
503.603	801.11
504.036	799.01
504.468	794.72
504.9	794.19
505.332	788.28
505.764	781.17
506.196	776.05
506.627	777.44
507.059	777.79
507.491	772.92
507.923	759.92
508.354	760
508.786	757.38
509.217	759.27
509.649	758.92
510.08	762.41
510.512	763.81
510.943	763.84
511.374	761.36
511.805	763.66
512.237	766.18
512.668	776.41
513.099	784.13
513.53	791.76
513.961	795.17
514.391	805.34
514.822	816.85
515.253	828.61
515.684	834.42
516.114	842.27
516.545	846.43
516.975	852.82
517.406	854.9
517.836	848.04
518.267	843.8
518.697	845.64
519.127	839.83
519.558	835.96
519.988	831.14
520.418	830.29
520.848	833.67
521.278	832.92
521.708	853.04
522.138	855.72
522.567	867.29
522.997	875.98
523.427	880.03
523.857	885.15
524.286	886.85
524.716	891.79
525.145	899.55
525.575	902.53
526.004	906.57
526.433	884.01
526.863	880.59
527.292	874.14
527.721	875.6
528.15	876.37
528.579	876.19
529.008	880.59
529.437	889.52
529.866	893.9
530.295	900.96
530.724	906.64
531.152	919.03
531.581	926.61
532.01	934.47
532.438	937.67
532.867	944.4
533.295	952.85
533.723	955.46
534.152	954.74
534.58	955.18
535.008	947.57
535.436	948.58
535.865	952.91
536.293	959.43
536.721	966.75
537.149	980.18
537.576	982.12
538.004	988.89
538.432	992.76
538.86	992.42
539.287	995.19
539.715	1002.76
540.143	1004.23
540.57	1002.28
540.998	1000.42
541.425	989.56
541.852	978.41
542.28	976.4
542.707	967.63
543.134	959.97
543.561	957.72
543.988	954
544.415	952.98
544.842	949.58
545.269	945.38
545.696	945.85
546.123	951.39
546.549	944.47
546.976	938.68
547.403	937.68
547.829	937.67
548.256	937.72
548.682	935.48
549.108	931.32
549.535	930.15
549.961	930.67
550.387	924.09
550.813	921.45
551.24	925.54
551.666	925.4
552.092	920.37
552.518	917.4
552.943	914.02
553.369	917.42
553.795	919.53
554.221	920.75
554.646	918.89
555.072	923.81
555.498	925.17
555.923	928.72
556.349	935.56
556.774	939.67
557.199	939.67
557.625	942.28
558.05	939.5
558.475	943.81
558.9	942.41
559.325	937.97
559.75	934.81
560.175	931.72
560.6	928.15
561.025	926.6
561.449	926.54
561.874	928.36
562.299	930.15
562.723	931.89
563.148	926.07
563.572	927.45
563.997	932.21
564.421	932.75
564.846	931.54
565.27	933.61
565.694	932.05
566.118	937.22
566.542	941.12
566.966	937.37
567.39	935.32
567.814	930.49
568.238	930.34
568.662	932.46
569.086	935.09
569.509	939.49
569.933	932.3
570.357	929.58
570.78	920.08
571.204	915.61
571.627	911.92
572.05	912.14
572.474	914.01
572.897	908.54
573.32	907.01
573.743	903.55
574.166	896.26
574.589	898.35
575.012	894.74
575.435	895.61
575.858	891.72
576.281	887.11
576.704	879.96
577.126	873.59
577.549	870.07
577.972	865.22
578.394	860.81
578.817	859.41
579.239	849.82
579.661	846.16
580.084	839.51
580.506	833.72
580.928	833.1
581.35	829.26
581.772	828.97
582.194	822.57
582.616	816.88
583.038	810
583.46	804.92
583.882	804.92
584.303	807.62
584.725	806.64
585.147	810.88
585.568	817.4
585.99	824.74
586.411	830.03
586.833	840.02
587.254	842.38
587.675	851.2
588.096	858.68
588.518	856.76
588.939	848.12
589.36	847.77
589.781	840.13
590.202	826.87
590.623	822.93
591.043	821.12
591.464	814.14
591.885	812.64
592.305	809.86
592.726	802.56
593.147	803.79
593.567	801.47
593.987	798.25
594.408	795.58
594.828	793.28
595.248	790.85
595.669	781.56
596.089	777.72
596.509	775.05
596.929	768.64
597.349	769.54
597.769	765.15
598.189	762.21
598.608	763.02
599.028	765.75
599.448	765.86
599.867	759.95
600.287	757.87
600.706	756.66
601.126	752.04
601.545	752.62
601.965	753.24
602.384	750.59
602.803	752.54
603.222	750.09
603.641	746.56
604.061	746.15
604.48	744.75
604.898	750.34
605.317	753.78
605.736	756.39
606.155	756.18
606.574	752.29
606.992	756.99
607.411	756.49
607.829	754.13
608.248	754.97
608.666	755.72
609.085	757.39
609.503	755.5
609.921	755.51
610.339	758.92
610.758	760.65
611.176	760.83
611.594	758.45
612.012	759.58
612.43	764.93
612.847	770.41
613.265	774.33
613.683	779.47
614.101	783.19
614.518	783.51
614.936	779.84
615.353	773.75
615.771	773.86
616.188	776.06
616.606	776.31
617.023	774.35
617.44	768.92
617.857	766.19
618.274	762.86
618.691	760.85
619.108	757.05
619.525	754.94
619.942	761.49
620.359	766.24
620.776	764.7
621.192	764.08
621.609	764.82
622.026	770.25
622.442	776
622.859	779.84
623.275	776.22
623.691	780.9
624.108	789.15
624.524	798.19
624.94	798.48
625.356	805.81
625.772	814.49
626.188	821.13
626.604	822.51
627.02	820.2
627.436	819.49
627.852	826.08
628.268	834.1
628.683	829.42
629.099	824.65
629.514	821.49
629.93	823.9
630.345	827.55
630.761	824.71
631.176	827.65
631.591	825.2
632.007	821.46
632.422	819.93
632.837	813.27
633.252	812.95
633.667	807.39
634.082	803.54
634.497	797.96
634.911	788.59
635.326	789.33
635.741	780.4
636.155	776.9
636.57	781.78
636.984	784.88
637.399	790.31
637.813	793.91
638.228	798.59
638.642	806.29
639.056	804
639.47	808.78
639.884	809.49
640.298	811.83
640.712	816.43
641.126	813.48
641.54	813.9
641.954	815.83
642.368	814.66
642.781	816.44
643.195	811.18
643.609	818.74
644.022	821
644.436	825.27
644.849	823.35
645.262	821.6
645.676	830.21
646.089	833.28
646.502	829.49
646.915	831.61
647.328	825.04
647.741	829.17
648.154	824.36
648.567	828.3
648.98	822.75
649.393	828.68
649.805	830.31
650.218	827.56
650.631	819.11
651.043	818.11
651.456	817.27
651.868	820.45
652.28	838.2
652.693	853.41
653.105	862.06
653.517	873.51
653.929	877.55
654.341	885.8
654.753	880.79
655.165	890.65
655.577	892.88
655.989	892.83
656.401	892.27
656.813	866.25
657.224	854.35
657.636	834.71
658.047	825.02
658.459	813.04
658.87	811.7
659.282	807.92
659.693	797.1
660.104	791.47
660.515	788.14
660.926	794
661.338	799.62
661.749	801.25
662.159	800.76
662.57	804.67
662.981	808.92
663.392	810.14
663.803	823.04
664.213	828.41
664.624	831.82
665.035	841.39
665.445	834.31
665.855	833.62
666.266	833.15
666.676	837.73
667.086	834.09
667.497	839.31
667.907	838.1
668.317	832.63
668.727	832.37
669.137	837.79
669.547	839.5
669.956	845.65
670.366	850.96
670.776	855.07
671.186	862.63
671.595	869.2
672.005	875.39
672.414	876.68
672.824	877.02
673.233	884.75
673.642	888.2
674.052	892.58
674.461	896.22
674.87	902.38
675.279	899.43
675.688	901.05
676.097	902.21
676.506	898.05
676.915	915.25
677.323	918.38
677.732	914.36
678.141	912.31
678.549	899.33
678.958	897.11
679.366	894.25
679.775	898.3
680.183	906.12
680.592	909.3
681	911.6
681.408	898.77
681.816	901.09
682.224	904.81
682.632	908.05
683.04	931.1
683.448	947.21
683.856	967.69
684.264	990.33
684.671	1009.32
685.079	1033.01
685.487	1057.44
685.894	1095.45
686.302	1117.63
686.709	1130.14
687.116	1147.69
687.524	1153.6
687.931	1152.13
688.338	1143.6
688.745	1130.18
689.152	1118.19
689.559	1114.83
689.966	1112.14
690.373	1091.84
690.78	1086.65
691.187	1096.59
691.593	1095.02
692	1089.08
692.407	1098.05
692.813	1117.18
693.22	1127.26
693.626	1137.74
694.032	1144.28
694.439	1166.44
694.845	1179.51
695.251	1203.32
695.657	1225.11
696.063	1264.03
696.469	1293.57
696.875	1318.8
697.281	1331.57
697.687	1351.93
698.093	1371.53
698.498	1410.26
698.904	1439.13
699.31	1490.21
699.715	1530.29
700.12	1585.94
700.526	1605.14
700.931	1650.83
701.337	1693.13
701.742	1722.97
702.147	1785.02
702.552	1817.61
702.957	1867.62
703.362	1898.22
