Data from C_1_DEC_ON_6N_Splice17_11-53-39-335.txt Node
Date: Sat Mar 14 11:53:39 EDT 2020
User: sa697716
Spectrometer: FLMS03696
Trigger mode: 0
Integration Time (sec): 3.180400E-1
Scans to average: 20
Electric dark correction enabled: true
Nonlinearity correction enabled: true
Boxcar width: 5
XAxis mode: Wavelengths
Number of Pixels in Spectrum: 2048
>>>>>Begin Spectral Data<<<<<
187.83	-197119.36
188.298	1453.48
188.766	847.28
189.233	716.45
189.701	995.84
190.169	1351.21
190.636	501.73
191.104	474.38
191.571	57.54
192.039	-63.98
192.506	-68.5
192.974	392.14
193.441	-915.4
193.908	-265
194.375	-88.61
194.842	-5.43
195.31	30.48
195.777	113.92
196.244	293
196.711	329.48
197.177	426.59
197.644	611.05
198.111	1093.28
198.578	1563.16
199.045	1239.38
199.511	2026.67
199.978	2352.04
200.445	2005.97
200.911	2247.74
201.378	2550.85
201.844	2353.7
202.31	4021.61
202.777	4204.84
203.243	2328.53
203.709	2245.52
204.176	2681.61
204.642	2203.48
205.108	2039.47
205.574	1678.52
206.04	1499.85
206.506	1384.78
206.972	1279.37
207.438	1225.31
207.903	1398.04
208.369	1244.65
208.835	1233.19
209.301	1309.12
209.766	1327.4
210.232	1314.43
210.697	1587.49
211.163	1966.41
211.628	2963.35
212.094	2494.03
212.559	3083.86
213.024	1896.98
213.49	2274.47
213.955	2200.28
214.42	2097.79
214.885	1950.24
215.35	1862.41
215.815	1829.13
216.28	1924.55
216.745	1544.6
217.21	1641.08
217.675	1456.01
218.14	1585.1
218.604	1684.58
219.069	1835.84
219.534	1867.84
219.998	2093.32
220.463	2444.17
220.927	2848.57
221.392	2615.77
221.856	2594.96
222.32	3150.25
222.785	3819.97
223.249	4732.04
223.713	5218.2
224.177	5182.15
224.642	6550.67
225.106	7932.71
225.57	8603.06
226.034	6386.06
226.497	9617.65
226.961	8672.07
227.425	10095.17
227.889	11142.95
228.353	11061.76
228.816	22754.34
229.28	21660.3
229.744	18184.59
230.207	11093.33
230.671	10871.38
231.134	17815.94
231.597	20555.68
232.061	20372.99
232.524	19748.97
232.987	13551.35
233.45	12207.73
233.914	10906.68
234.377	11110.18
234.84	10156.54
235.303	11941.47
235.766	13331.48
236.229	13737.09
236.691	8608.74
237.154	9629.02
237.617	7297.99
238.08	7467.24
238.542	8726.78
239.005	6249.81
239.468	6225.45
239.93	5870.61
240.393	5330.22
240.855	4665.49
241.317	4782.33
241.78	5809.09
242.242	6030.48
242.704	6508.28
243.166	5670.92
243.629	5151.76
244.091	5928.18
244.553	6485.18
245.015	6968.17
245.477	8993.41
245.939	13152.37
246.4	13935.36
246.862	13524.15
247.324	12724.27
247.786	14184.84
248.247	18531.22
248.709	19080.31
249.17	14287.16
249.632	13540.11
250.093	15722.09
250.555	13597.21
251.016	8321.83
251.477	7903.06
251.939	8541.43
252.4	8965.06
252.861	10650.85
253.322	9921
253.783	11784.41
254.244	15255.6
254.705	11962.62
255.166	10610.84
255.627	10457.18
256.088	14782.11
256.549	15731.84
257.009	13524.16
257.47	16380.79
257.931	13306.64
258.391	9976.17
258.852	10276.42
259.312	10748.22
259.773	13257.06
260.233	11233.47
260.694	9444.83
261.154	10643.57
261.614	8552.28
262.074	7642.36
262.534	7934.9
262.994	7473.04
263.455	9902.23
263.915	8336.32
264.374	7829.1
264.834	8531.45
265.294	9382.29
265.754	9708.23
266.214	9157.37
266.673	8525.82
267.133	10703.65
267.593	10569.99
268.052	12914.17
268.512	11224.89
268.971	13573.41
269.431	14888.59
269.89	13282.05
270.349	19941.74
270.809	22221.12
271.268	19992.85
271.727	44782.84
272.186	29012.37
272.645	21777.26
273.104	15664
273.563	22621.52
274.022	17689.11
274.481	15067.24
274.94	11640.21
275.399	8626.68
275.857	10009.6
276.316	13514.3
276.775	12037.94
277.233	11886.4
277.692	11149.19
278.15	12655.93
278.609	13096.83
279.067	12154.83
279.525	11316.26
279.984	14603.96
280.442	17582.97
280.9	17441.07
281.358	11507.34
281.816	10729.53
282.274	10502.31
282.732	10856.76
283.19	10928.51
283.648	9436.57
284.106	10050.91
284.564	10224.21
285.021	9518.11
285.479	7107.7
285.937	6463.61
286.394	5698.4
286.852	5873.44
287.309	6195.34
287.767	6017.95
288.224	5731.28
288.682	6304.63
289.139	6949.29
289.596	6377.66
290.053	6630.7
290.511	8364.92
290.968	10137.26
291.425	13728.98
291.882	11515.14
292.339	10036.47
292.796	9946.2
293.252	9379.89
293.709	7457.83
294.166	6677.95
294.623	7359.57
295.079	7040.68
295.536	7098.61
295.992	6463.75
296.449	6413.31
296.905	6665.64
297.362	6413.58
297.818	6750.48
298.274	7010.4
298.731	7143.98
299.187	7089.66
299.643	7624.05
300.099	9279.1
300.555	10186.72
301.011	8525.54
301.467	8282.53
301.923	9648.91
302.379	9430.88
302.835	9266
303.291	9293.04
303.746	10595.16
304.202	13380.86
304.658	13470.15
305.113	9052.69
305.569	8895.28
306.024	9484.79
306.479	8981.6
306.935	7632.54
307.39	8342.07
307.845	7741.56
308.301	7827.37
308.756	7647.5
309.211	7403.45
309.666	7600.38
310.121	9509.23
310.576	9661.64
311.031	9623.02
311.486	11007.57
311.94	10995.32
312.395	14675.88
312.85	27581.55
313.305	135199.11
313.759	702150.81
314.214	50826.58
314.668	40391.4
315.123	34034.64
315.577	12244.49
316.032	10882.24
316.486	13697.1
316.94	10827.63
317.394	7568.7
317.849	5887.42
318.303	5571.94
318.757	5264.96
319.211	5831.88
319.665	5103.59
320.119	5139.57
320.572	7366.83
321.026	6912.49
321.48	5743.09
321.934	6241.38
322.387	6256.43
322.841	6777.03
323.295	6128.42
323.748	7016.49
324.202	7113.09
324.655	8561
325.108	12010.96
325.562	8484.24
326.015	10029.02
326.468	7616.13
326.921	8567.21
327.374	7984.54
327.827	8344.14
328.28	9428.58
328.733	6360.7
329.186	5609.5
329.639	5362.04
330.092	4523.98
330.545	4318.05
330.997	4372.3
331.45	4787.62
331.903	5617.88
332.355	9681.49
332.808	9382.7
333.26	7766.43
333.713	8441.81
334.165	8492.7
334.617	11306.75
335.069	9095.34
335.522	16418.9
335.974	18218.64
336.426	16651.34
336.878	11497.79
337.33	5851.65
337.782	5731.76
338.234	7201.54
338.686	8619.27
339.137	10256.15
339.589	9675.51
340.041	7619.1
340.493	6563.68
340.944	6730.78
341.396	7257.33
341.847	6137.98
342.299	7287.48
342.75	8945.75
343.201	7774.97
343.653	8903.69
344.104	10899.61
344.555	8555.14
345.006	13237.56
345.457	10168.95
345.908	8070.21
346.359	7620.31
346.81	6177.11
347.261	6465.24
347.712	6295.12
348.163	6745.85
348.613	6887.95
349.064	6436.76
349.515	5653.67
349.965	5814.77
350.416	6989.59
350.866	7674.36
351.317	8619.64
351.767	14363.57
352.217	18126.21
352.668	15127.36
353.118	13890.18
353.568	13318.61
354.018	10574.06
354.468	11177.81
354.918	8074.03
355.368	7079.82
355.818	9981.7
356.268	28766.54
356.718	120678.27
357.168	30170.63
357.617	15092.71
358.067	16800.61
358.517	15816.66
358.966	18579.48
359.416	20923.5
359.865	22557.44
360.315	26843.4
360.764	12620.38
361.213	7083.46
361.663	6677.56
362.112	8222.06
362.561	13314.51
363.01	10035.98
363.459	8438
363.908	9134.98
364.357	7759.42
364.806	13111.29
365.255	8999.67
365.703	8263.84
366.152	8298.47
366.601	6744.69
367.05	5534.32
367.498	5059.68
367.947	5285.8
368.395	5490.92
368.844	4888.89
369.292	5873.31
369.74	4061.81
370.189	6227.1
370.637	7327.35
371.085	6315.33
371.533	7678.38
371.981	7384.16
372.429	7070.6
372.877	7402.96
373.325	6204.72
373.773	6295.84
374.221	5610.35
374.669	6998.55
375.116	6083.04
375.564	6108.38
376.012	6839.86
376.459	5671.25
376.907	6779.01
377.354	8161.24
377.801	7656.73
378.249	8865.65
378.696	11355.18
379.143	13814.86
379.591	14764.92
380.038	25006.77
380.485	18125.56
380.932	19613.55
381.379	18032.54
381.826	13342.85
382.273	9510.47
382.72	8296.93
383.166	8075.64
383.613	5264.65
384.06	4757.63
384.506	5508.94
384.953	4058.41
385.4	4078.64
385.846	3576.74
386.292	3476.96
386.739	3397.97
387.185	3346.2
387.631	3356.45
388.078	3283
388.524	3520.56
388.97	3259.85
389.416	2725.83
389.862	2905.29
390.308	2762.59
390.754	2822.66
391.2	3079.82
391.645	3155.77
392.091	3060.51
392.537	2973.76
392.983	2974.12
393.428	2946.16
393.874	3158.6
394.319	3189.62
394.765	3051.14
395.21	3152.4
395.655	2961.81
396.101	2780.18
396.546	2522.79
396.991	2541.74
397.436	2364.52
397.881	2290.38
398.326	2168.47
398.771	2071.39
399.216	1807.53
399.661	1628.86
400.106	1632.24
400.551	1686.44
400.995	1519.09
401.44	1508.88
401.885	1425.52
402.329	1445.14
402.774	1394.51
403.218	1357.62
403.663	1310.14
404.107	1355.45
404.551	1370.74
404.995	1260.51
405.44	1212.5
405.884	1233.88
406.328	1192.78
406.772	1191.79
407.216	1089.31
407.66	1053.97
408.104	997.68
408.547	936.5
408.991	910.9
409.435	878.76
409.879	869.38
410.322	864.46
410.766	836.77
411.209	800.36
411.653	768.65
412.096	757.14
412.54	759.18
412.983	758.94
413.426	764.3
413.869	762.07
414.312	752.1
414.756	723.95
415.199	690.15
415.642	672.55
416.085	676.52
416.527	674.01
416.97	684.27
417.413	652.08
417.856	644.27
418.298	635.98
418.741	632.64
419.184	628.26
419.626	654.78
420.069	655.86
420.511	660.76
420.953	646.52
421.396	640.56
421.838	623.56
422.28	637.09
422.722	643.77
423.164	655.54
423.606	646.37
424.048	647.32
424.49	617.95
424.932	612.17
425.374	604.38
425.816	615.56
426.258	627.63
426.699	635.93
427.141	630.58
427.582	639.49
428.024	634.19
428.465	631.04
428.907	614.14
429.348	607.39
429.789	612.14
430.231	603.15
430.672	613.4
431.113	601.46
431.554	593.94
431.995	577.08
432.436	559.82
432.877	549.14
433.318	541.26
433.759	539.59
434.2	540.79
434.64	534.82
435.081	534.18
435.522	505.43
435.962	487.34
436.403	478.66
436.843	485.57
437.284	474.16
437.724	461.97
438.164	461.94
438.604	453.1
439.045	436.46
439.485	420.34
439.925	413.29
440.365	402.96
440.805	399.26
441.245	394.06
441.685	381
442.125	378.42
442.564	382.01
443.004	373.96
443.444	374.14
443.883	375.05
444.323	371.28
444.762	368.85
445.202	374.08
445.641	380.04
446.081	378.46
446.52	382.39
446.959	380.75
447.398	372.6
447.837	370.17
448.276	362.98
448.716	368.32
449.154	372.48
449.593	366.09
450.032	365.65
450.471	358.25
450.91	358.48
451.349	359.2
451.787	356.97
452.226	361.55
452.664	362.03
453.103	364.31
453.541	362.32
453.98	361.8
454.418	363.82
454.856	360.25
455.295	360.35
455.733	364.79
456.171	365.32
456.609	366.92
457.047	368.12
457.485	373.8
457.923	375.16
458.361	370.55
458.798	372.2
459.236	372.24
459.674	373.35
460.111	375.43
460.549	371.64
460.987	370.61
461.424	368.85
461.862	366.07
462.299	359.81
462.736	358.79
463.173	359.89
463.611	358.56
464.048	358.84
464.485	363.57
464.922	360.95
465.359	358.98
465.796	358.18
466.233	357.35
466.67	355.73
467.106	356.7
467.543	355.17
467.98	352.15
468.416	341.95
468.853	337.82
469.29	326.86
469.726	323.59
470.162	315.31
470.599	308.72
471.035	304.71
471.471	297.51
471.907	295.06
472.344	292.52
472.78	292.95
473.216	295.08
473.652	292.37
474.088	291.4
474.523	291.21
474.959	293.87
475.395	290.89
475.831	289.87
476.266	290.87
476.702	289.95
477.138	286.6
477.573	285.87
478.008	285.07
478.444	286.44
478.879	289.5
479.314	290.76
479.75	290.4
480.185	291.26
480.62	293.6
481.055	295.67
481.49	298.75
481.925	303.47
482.36	309.85
482.795	318.63
483.229	327.53
483.664	334.6
484.099	335.05
484.534	340.53
484.968	345.15
485.403	345.2
485.837	344.16
486.271	343.11
486.706	343.03
487.14	338.41
487.574	333.99
488.009	331.73
488.443	329.76
488.877	335.25
489.311	337.17
489.745	341.71
490.179	346.65
490.613	356.23
491.046	360.52
491.48	365.27
491.914	368.27
492.348	372.27
492.781	375.85
493.215	378.44
493.648	380.41
494.082	385.4
494.515	388.34
494.948	395.36
495.382	399.46
495.815	404.52
496.248	409.81
496.681	419.23
497.114	428.8
497.547	438.14
497.98	449.83
498.413	457.42
498.846	466.75
499.279	475.41
499.711	481.5
500.144	485.98
500.577	496.87
501.009	508.04
501.442	518.82
501.874	523.96
502.306	529.26
502.739	538.87
503.171	552.77
503.603	559.59
504.036	570.88
504.468	580.11
504.9	593.52
505.332	602.69
505.764	610.82
506.196	620.92
506.627	637.54
507.059	652.28
507.491	662.53
507.923	666.5
508.354	682.78
508.786	694.93
509.217	712.96
509.649	729.04
510.08	748.17
510.512	765.79
510.943	782.14
511.374	794.3
511.805	814.7
512.237	834.89
512.668	863.8
513.099	889.38
513.53	915.71
513.961	936.31
514.391	965.7
514.822	996.19
515.253	1028.92
515.684	1052.95
516.114	1081.03
516.545	1102.04
516.975	1126.53
517.406	1145.32
517.836	1151.68
518.267	1160.59
518.697	1179.54
519.127	1186.62
519.558	1196.8
519.988	1201.78
520.418	1213.16
520.848	1231.39
521.278	1242.38
521.708	1251.49
522.138	1264.65
522.567	1291.99
522.997	1315.62
523.427	1330.02
523.857	1345.97
524.286	1356.65
524.716	1371.47
525.145	1388.96
525.575	1399.22
526.004	1412.71
526.433	1417.45
526.863	1419.3
527.292	1412.74
527.721	1418.63
528.15	1424.45
528.579	1425.27
529.008	1435.12
529.437	1455.76
529.866	1467.48
530.295	1482.3
530.724	1492.92
531.152	1516.48
531.581	1528.87
532.01	1543.65
532.438	1551.22
532.867	1564.21
533.295	1581.12
533.723	1586.19
534.152	1584.89
534.58	1585.29
535.008	1572.62
535.436	1574.68
535.865	1581.87
536.293	1595.46
536.721	1609.98
537.149	1632.2
537.576	1635.55
538.004	1646.82
538.432	1653.67
538.86	1652.33
539.287	1659.28
539.715	1672.43
540.143	1675.49
540.57	1672.99
540.998	1668.64
541.425	1649.34
541.852	1630.68
542.28	1628.82
542.707	1614.86
543.134	1603.26
543.561	1600.07
543.988	1593.28
544.415	1591.36
544.842	1586.31
545.269	1579.02
545.696	1581.06
546.123	1592.35
546.549	1584.13
546.976	1572.58
547.403	1572.51
547.829	1573.32
548.256	1574.08
548.682	1570.98
549.108	1564.33
549.535	1562.91
549.961	1564.13
550.387	1552.12
550.813	1546.66
551.24	1550.44
551.666	1550.61
552.092	1540.17
552.518	1534.11
552.943	1528.09
553.369	1532.89
553.795	1536.46
554.221	1536.59
554.646	1533.58
555.072	1541.62
555.498	1544.71
555.923	1551.8
556.349	1563.01
556.774	1569.14
557.199	1568.96
557.625	1573.85
558.05	1568.13
558.475	1576.47
558.9	1573.87
559.325	1565.31
559.75	1559.11
560.175	1551.44
560.6	1544.78
561.025	1542.68
561.449	1543.03
561.874	1546.81
562.299	1549.05
562.723	1554.25
563.148	1544.18
563.572	1546.69
563.997	1553.43
564.421	1557.09
564.846	1557.1
565.27	1559.76
565.694	1556.46
566.118	1564.65
566.542	1569.89
566.966	1562.56
567.39	1557.6
567.814	1547.51
568.238	1545.07
568.662	1549.05
569.086	1549.86
569.509	1554.24
569.933	1539.7
570.357	1533
570.78	1513.64
571.204	1501.22
571.627	1492.01
572.05	1488.79
572.474	1486.64
572.897	1476.31
573.32	1468.28
573.743	1458.04
574.166	1440.98
574.589	1438.28
575.012	1428.77
575.435	1427.6
575.858	1417.77
576.281	1407.16
576.704	1392.23
577.126	1380.66
577.549	1369.08
577.972	1359.24
578.394	1349.34
578.817	1342.76
579.239	1326.39
579.661	1314.71
580.084	1299.88
580.506	1288.13
580.928	1282.08
581.35	1271.96
581.772	1266.95
582.194	1255.17
582.616	1242.44
583.038	1228.79
583.46	1218.49
583.882	1215.06
584.303	1215.85
584.725	1210.51
585.147	1210.9
585.568	1218.09
585.99	1226.27
586.411	1230.8
586.833	1240.85
587.254	1241.85
587.675	1252.15
588.096	1261.35
588.518	1255.14
588.939	1241.07
589.36	1238.7
589.781	1229.29
590.202	1206.49
590.623	1197.67
591.043	1193.59
591.464	1182.71
591.885	1177.94
592.305	1172.19
592.726	1160.21
593.147	1160.33
593.567	1157.14
593.987	1150.71
594.408	1146.31
594.828	1143.99
595.248	1140.46
595.669	1127.09
596.089	1122.06
596.509	1116.58
596.929	1106.14
597.349	1106.51
597.769	1098.92
598.189	1093.02
598.608	1093.77
599.028	1094.56
599.448	1094.1
599.867	1083.48
600.287	1079.74
600.706	1075.56
601.126	1067.65
601.545	1065.32
601.965	1063.52
602.384	1059.33
602.803	1060.09
603.222	1055.6
603.641	1049.23
604.061	1046.26
604.48	1042.45
604.898	1047.03
605.317	1049.75
605.736	1050.77
606.155	1048.61
606.574	1039.81
606.992	1041.9
607.411	1037.38
607.829	1029.15
608.248	1025.44
608.666	1021.3
609.085	1019.08
609.503	1010.74
609.921	1004.3
610.339	1003.85
610.758	1001.83
611.176	997.46
611.594	989.59
612.012	985.79
612.43	987.41
612.847	990.93
613.265	991.13
613.683	992.17
614.101	991.72
614.518	987.4
614.936	978.08
615.353	965.43
615.771	961.37
616.188	959.54
616.606	955.31
617.023	948.54
617.44	936.69
617.857	928.98
618.274	921.7
618.691	917.07
619.108	908.56
619.525	904.1
619.942	907.54
620.359	908.46
620.776	904.25
621.192	900.49
621.609	898
622.026	902.13
622.442	906.12
622.859	908.01
623.275	900.56
623.691	904.66
624.108	911.87
624.524	921.07
624.94	920.33
625.356	926.28
625.772	934.73
626.188	942.86
626.604	943.21
627.02	940.18
627.436	938.07
627.852	943.84
628.268	952.44
628.683	945.65
629.099	940.13
629.514	936.72
629.93	939.16
630.345	942.59
630.761	939.86
631.176	942.26
631.591	938.81
632.007	934.56
632.422	931.95
632.837	923.33
633.252	920.99
633.667	911.99
634.082	904.15
634.497	895.02
634.911	879.61
635.326	875.25
635.741	861.14
636.155	850.98
636.57	850.11
636.984	847.77
637.399	846.82
637.813	843.39
638.228	840.45
638.642	840.84
639.056	830.82
639.47	829.05
639.884	819.99
640.298	812.65
640.712	808.78
641.126	796.98
641.54	788.32
641.954	780.77
642.368	769.6
642.781	761.84
643.195	747.89
643.609	745.45
644.022	736.95
644.436	731.51
644.849	719.81
645.262	709.76
645.676	707.84
646.089	701.7
646.502	689.36
646.915	683.49
647.328	669.62
647.741	665.68
648.154	654.24
648.567	651.64
648.98	641.23
649.393	640.84
649.805	636.33
650.218	628.86
650.631	617.18
651.043	611.81
651.456	606.57
651.868	605.69
652.28	613.42
652.693	620.69
653.105	622.23
653.517	626.67
653.929	624.98
654.341	627.59
654.753	619.17
655.165	620.76
655.577	617.15
655.989	612.92
656.401	605.46
656.813	583.45
657.224	567.81
657.636	548.34
658.047	535.14
658.459	521.24
658.87	512.14
659.282	502.7
659.693	488.46
660.104	477.42
660.515	467.24
660.926	462.23
661.338	456.49
661.749	449.83
662.159	442.3
662.57	436.48
662.981	431.33
663.392	424.03
663.803	422.91
664.213	419.25
664.624	415.01
665.035	413.04
665.445	404.26
665.855	399.61
666.266	394.41
666.676	391.26
667.086	385.17
667.497	383.25
667.907	379.72
668.317	374.33
668.727	373.26
669.137	371.41
669.547	369.93
669.956	370.81
670.366	370.33
670.776	370.93
671.186	372.47
671.595	373.63
672.005	374.92
672.414	374.22
672.824	373.74
673.233	374.17
673.642	376.07
674.052	377.85
674.461	379.53
674.87	382.37
675.279	382.47
675.688	383.34
676.097	385.28
676.506	384.58
676.915	392.54
677.323	394.95
677.732	394
678.141	395.29
678.549	391.09
678.958	391.13
679.366	391.92
679.775	395.05
680.183	403.78
680.592	409.27
681	415.21
681.408	414.61
681.816	421.17
682.224	429.91
682.632	439.23
683.04	458.41
683.448	475.85
683.856	496.44
684.264	520.83
684.671	542.17
685.079	570.16
685.487	601.89
685.894	643.47
686.302	680.52
686.709	712.93
687.116	749.46
687.524	784.23
687.931	816.78
688.338	846.66
688.745	873.57
689.152	903.84
689.559	941.39
689.966	979.23
690.373	1003.09
690.78	1040.23
691.187	1094.36
691.593	1138.11
692	1177.76
692.407	1232.47
692.813	1297.69
693.22	1350.98
693.626	1406.59
694.032	1452.19
694.439	1518.71
694.845	1573.15
695.251	1640.14
695.657	1699.69
696.063	1785.53
696.469	1851.54
696.875	1913.08
697.281	1949.49
697.687	1995.31
698.093	2036.01
698.498	2104.89
698.904	2157.85
699.31	2235.44
699.715	2293.01
700.12	2372.49
700.526	2393
700.931	2455.35
701.337	2501.65
701.742	2537.59
702.147	2612.97
702.552	2643.89
702.957	2699.24
703.362	2721.2
703.767	2752.12
704.172	2789.86
704.577	2756.72
704.981	2801.11
705.386	2819.87
705.791	2818.96
706.195	2885.73
706.6	2896.34
