Data from C_1_HIR_WI_4N_Splice17_11-41-37-570.txt Node
Date: Sat Mar 14 11:41:37 EDT 2020
User: sa697716
Spectrometer: FLMS03696
Trigger mode: 0
Integration Time (sec): 3.180400E-1
Scans to average: 20
Electric dark correction enabled: true
Nonlinearity correction enabled: true
Boxcar width: 5
XAxis mode: Wavelengths
Number of Pixels in Spectrum: 2048
>>>>>Begin Spectral Data<<<<<
187.83	-134907.24
188.298	966.97
188.766	582.41
189.233	528.13
189.701	690.31
190.169	1014.61
190.636	381.92
191.104	371.95
191.571	112.82
192.039	3.24
192.506	-31.26
192.974	337.97
193.441	-626.13
193.908	-156.77
194.375	-21.79
194.842	-32.64
195.31	63.06
195.777	110.81
196.244	312.81
196.711	393.25
197.177	486.26
197.644	681.54
198.111	1152.26
198.578	1596.83
199.045	1256.67
199.511	1996.74
199.978	2305.23
200.445	1906.53
200.911	2101.15
201.378	2308.75
201.844	2087.57
202.31	3447.63
202.777	3491.51
203.243	1908.52
203.709	1776.21
204.176	2105.95
204.642	1742.9
205.108	1618.17
205.574	1306.92
206.04	1186.31
206.506	1102.59
206.972	1016.95
207.438	981.44
207.903	1103.94
208.369	959.46
208.835	959.49
209.301	996.72
209.766	992.52
210.232	971.13
210.697	1192.17
211.163	1429.85
211.628	2126.76
212.094	1786.69
212.559	2206.97
213.024	1350.46
213.49	1622.28
213.955	1532.99
214.42	1450.86
214.885	1346.91
215.35	1283.25
215.815	1249.67
216.28	1310.93
216.745	1028.75
217.21	1059.32
217.675	894.87
218.14	952.72
218.604	973.87
219.069	1028.96
219.534	1013.59
219.998	1051.11
220.463	1135.81
220.927	1205.45
221.392	1026.29
221.856	976.13
222.32	1105.06
222.785	1286.19
223.249	1507.01
223.713	1587.8
224.177	1505.54
224.642	1751.6
225.106	2065.64
225.57	2186.65
226.034	1614.02
226.497	2379.84
226.961	2084.15
227.425	2384.15
227.889	2532.24
228.353	2434.85
228.816	4815.72
229.28	4509.91
229.744	3760.22
230.207	2307.84
230.671	2200.19
231.134	3397.96
231.597	3849.12
232.061	3674.69
232.524	3480.85
232.987	2343.11
233.45	2118.83
233.914	1869.49
234.377	1825.74
234.84	1630.85
235.303	1867.73
235.766	2041.23
236.229	2090.64
236.691	1280.79
237.154	1404.75
237.617	1047.6
238.08	1056.78
238.542	1185.76
239.005	854.76
239.468	858.14
239.93	804.66
240.393	722.26
240.855	641.74
241.317	644.97
241.78	758.94
242.242	811.35
242.704	913
243.166	802.13
243.629	758.28
244.091	881.83
244.553	963.41
245.015	1049.51
245.477	1343.7
245.939	1918.27
246.4	2033.68
246.862	2001.75
247.324	1836.17
247.786	1991.12
248.247	2544.34
248.709	2475.68
249.17	1839.4
249.632	1813
250.093	2140.18
250.555	1853.51
251.016	1159.01
251.477	1108.32
251.939	1202.21
252.4	1270.33
252.861	1481.78
253.322	1421.22
253.783	1688.42
254.244	2153.78
254.705	1629.78
255.166	1397.27
255.627	1348.14
256.088	1923.74
256.549	2060.31
257.009	1725.14
257.47	2042.72
257.931	1647.57
258.391	1226.01
258.852	1251.35
259.312	1297.57
259.773	1587.19
260.233	1396.5
260.694	1223.79
261.154	1356.87
261.614	1114.37
262.074	992.36
262.534	1040.79
262.994	988.73
263.455	1272.61
263.915	1083.36
264.374	1006.2
264.834	1088.54
265.294	1140.33
265.754	1156.97
266.214	1068.72
266.673	973.61
267.133	1196.18
267.593	1146.06
268.052	1368.73
268.512	1175.95
268.971	1465.49
269.431	1592.63
269.89	1407.98
270.349	2143.11
270.809	2365.83
271.268	2132.95
271.727	4670.76
272.186	3057.09
272.645	2292.6
273.104	1611.89
273.563	2370.22
274.022	1770.64
274.481	1549.52
274.94	1207.08
275.399	878.27
275.857	1011.96
276.316	1351.94
276.775	1220.67
277.233	1229.73
277.692	1202.4
278.15	1440.93
278.609	1515.33
279.067	1404.81
279.525	1335.11
279.984	1741.81
280.442	2122
280.9	2180.19
281.358	1470.94
281.816	1389.41
282.274	1368.84
282.732	1393.4
283.19	1385.41
283.648	1182.14
284.106	1293.65
284.564	1330.53
285.021	1255.51
285.479	972.85
285.937	870.12
286.394	798.43
286.852	824.33
287.309	876.83
287.767	894.87
288.224	878.63
288.682	984.03
289.139	1092.9
289.596	1000.3
290.053	1022.21
290.511	1252.19
290.968	1522.27
291.425	1994.1
291.882	1710.31
292.339	1500.33
292.796	1442.02
293.252	1318.44
293.709	1071.45
294.166	951.81
294.623	1043.41
295.079	992.31
295.536	1013.58
295.992	915.51
296.449	907.43
296.905	956.16
297.362	928.21
297.818	967.18
298.274	1023.39
298.731	1020.21
299.187	1016.67
299.643	1093.75
300.099	1341.01
300.555	1462.24
301.011	1237.62
301.467	1260.22
301.923	1398.94
302.379	1360.9
302.835	1355.58
303.291	1348.04
303.746	1542.64
304.202	1933.64
304.658	1947.4
305.113	1339.63
305.569	1322.18
306.024	1402.33
306.479	1271.52
306.935	1128.12
307.39	1217.66
307.845	1123.97
308.301	1170.5
308.756	1134.35
309.211	1109.89
309.666	1138.47
310.121	1440.62
310.576	1462.77
311.031	1459.6
311.486	1691.45
311.94	1650.85
312.395	2232.7
312.85	4173.97
313.305	19682.11
313.759	108228.65
314.214	7855.45
314.668	6228.16
315.123	5350.96
315.577	2002.34
316.032	1813.09
316.486	2263.35
316.94	1837.07
317.394	1285.93
317.849	1013.48
318.303	972.9
318.757	905.33
319.211	997.92
319.665	874.6
320.119	870.77
320.572	1199.74
321.026	1122.67
321.48	938.63
321.934	984.69
322.387	987.48
322.841	1078.86
323.295	1016.57
323.748	1141.27
324.202	1179.65
324.655	1456.41
325.108	2081.54
325.562	1514.63
326.015	1770.15
326.468	1358.09
326.921	1555.59
327.374	1501.25
327.827	1610.71
328.28	1783.74
328.733	1225.02
329.186	1084.12
329.639	1032.89
330.092	849.55
330.545	821
330.997	852.45
331.45	959.44
331.903	1161
332.355	1961.33
332.808	1870.8
333.26	1569.89
333.713	1717.54
334.165	1721.74
334.617	2272.08
335.069	1825.36
335.522	3262.16
335.974	3658.44
336.426	3244.96
336.878	2170.36
337.33	1121.65
337.782	1094.16
338.234	1416.78
338.686	1667.76
339.137	1997.74
339.589	1892.34
340.041	1529.28
340.493	1319.79
340.944	1347.4
341.396	1478.04
341.847	1278
342.299	1515.07
342.75	1897.71
343.201	1588.6
343.653	1834.19
344.104	2209.62
344.555	1735.64
345.006	2624.11
345.457	2041.94
345.908	1584.99
346.359	1496.02
346.81	1212.48
347.261	1264.7
347.712	1214.39
348.163	1303.52
348.613	1392.03
349.064	1316.8
349.515	1160.66
349.965	1210.82
350.416	1460.75
350.866	1615.75
351.317	1797.35
351.767	2972.85
352.217	3725.62
352.668	3162.23
353.118	2913.46
353.568	2651.73
354.018	2156.85
354.468	2321.99
354.918	1709.78
355.368	1489.65
355.818	2123.91
356.268	6110.02
356.718	26052.25
357.168	6662.57
357.617	3308.93
358.067	3675.1
358.517	3479.41
358.966	4097.43
359.416	4621.22
359.865	4966.58
360.315	5806.67
360.764	2750.5
361.213	1548.08
361.663	1434.23
362.112	1737.77
362.561	2824.16
363.01	2143.98
363.459	1808.46
363.908	1928.03
364.357	1674.59
364.806	2759.87
365.255	1938.28
365.703	1801.78
366.152	1851.55
366.601	1522.82
367.05	1269.69
367.498	1174.91
367.947	1225.85
368.395	1275.97
368.844	1150.78
369.292	1344.42
369.74	973.58
370.189	1482.05
370.637	1707.99
371.085	1461.31
371.533	1780.68
371.981	1690.73
372.429	1630.65
372.877	1704.92
373.325	1451.38
373.773	1480.51
374.221	1338.39
374.669	1629.5
375.116	1391.24
375.564	1419.64
376.012	1594.39
376.459	1337.23
376.907	1618.2
377.354	1938.53
377.801	1838.31
378.249	2171.54
378.696	2779.96
379.143	3409.35
379.591	3666.18
380.038	6453.13
380.485	4826.78
380.932	5289.66
381.379	5035.81
381.826	3822.26
382.273	2792.27
382.72	2491.32
383.166	2512.51
383.613	1702.28
384.06	1615.72
384.506	1952.44
384.953	1518.53
385.4	1608.09
385.846	1512.04
386.292	1564.37
386.739	1672.7
387.185	1810.61
387.631	2021.02
388.078	2191.91
388.524	2590.52
388.97	2601.49
389.416	2330.99
389.862	2605.87
390.308	2597.27
390.754	2816.99
391.2	3306.83
391.645	3704.3
392.091	3921.46
392.537	4128.96
392.983	4404.18
393.428	4560.16
393.874	5176.09
394.319	5637.61
394.765	5977.89
395.21	6943.92
395.655	7335.13
396.101	7657.68
396.546	7644.46
396.991	8488.42
397.436	8652.8
397.881	9218.24
398.326	9696.38
398.771	10073.5
399.216	9652.74
399.661	9396
400.106	9981.07
400.551	10834
400.995	10256.57
401.44	10623.5
401.885	10404.35
402.329	10918.16
402.774	10811.32
403.218	10738.56
403.663	10695.04
404.107	11335.64
404.551	11807.87
404.995	11256.65
405.44	11302.45
405.884	11936.89
406.328	11991.36
406.772	12339.94
407.216	11604.25
407.66	11644.72
408.104	11583.54
408.547	11283.24
408.991	11307.1
409.435	11233.4
409.879	11342.56
410.322	11449.25
410.766	11310.9
411.209	11021.71
411.653	10897.65
412.096	10957.35
412.54	11252.64
412.983	11409.29
413.426	11633.17
413.869	11857.77
414.312	11817.31
414.756	11622.92
415.199	11300.3
415.642	11147.43
416.085	11327.16
416.527	11408.87
416.97	11750.77
417.413	11250.64
417.856	11240.67
418.298	11204.02
418.741	11178.42
419.184	11206.97
419.626	11730.95
420.069	11761.83
420.511	11863.39
420.953	11661.79
421.396	11628.92
421.838	11432.83
422.28	11779.38
422.722	11918.54
423.164	12260.85
423.606	12212.08
424.048	12384.73
424.49	11888.66
424.932	11982.61
425.374	11967.78
425.816	12272.1
426.258	12471.22
426.699	12466.77
427.141	12032.05
427.582	12025.44
428.024	11839.03
428.465	11793.24
428.907	11608.2
429.348	11658.34
429.789	11790.2
430.231	11641.77
430.672	11910.85
431.113	11825.57
431.554	11975.12
431.995	12162.02
432.436	12134.65
432.877	12231.05
433.318	12257.39
433.759	12409.29
434.2	12560.57
434.64	12583.33
435.081	12769.15
435.522	12279.2
435.962	12047.65
436.403	11959
436.843	12317.02
437.284	12239.48
437.724	12062.96
438.164	12263.38
438.604	12105.2
439.045	11710.88
439.485	11305.46
439.925	11212.34
440.365	11072.12
440.805	11034.84
441.245	10950.15
441.685	10596.59
442.125	10572.16
442.564	10664.57
443.004	10409.66
443.444	10401.94
443.883	10444.52
444.323	10455.47
444.762	10572.41
445.202	10758.56
445.641	10944.38
446.081	10971.25
446.52	11066.11
446.959	10980.1
447.398	10748.74
447.837	10680.88
448.276	10543.89
448.716	10666.6
449.154	10774.69
449.593	10456.4
450.032	10369.45
450.471	10177.59
450.91	10139.67
451.349	10041.32
451.787	9952.63
452.226	10026.91
452.664	9953.28
453.103	9891.21
453.541	9814.12
453.98	9663.61
454.418	9657.78
454.856	9404.98
455.295	9314.27
455.733	9279.64
456.171	9263.18
456.609	9178.55
457.047	9088.53
457.485	9123.45
457.923	9064.2
458.361	8902.65
458.798	8921.91
459.236	8881.22
459.674	8974.31
460.111	9013.02
460.549	8945.52
460.987	8952.71
461.424	8955.35
461.862	8946.73
462.299	8841.92
462.736	8841.64
463.173	8901.59
463.611	8781.93
464.048	8780.32
464.485	8873.91
464.922	8841.51
465.359	8858.09
465.796	8647.88
466.233	8638.92
466.67	8581.89
467.106	8600.69
467.543	8597.91
467.98	8550.62
468.416	8439.18
468.853	8453.6
469.29	8264.25
469.726	8221.95
470.162	8041.42
470.599	8088.68
471.035	8057.77
471.471	7910.38
471.907	7922.33
472.344	7891.72
472.78	7896.67
473.216	7989.79
473.652	7865.91
474.088	7829.86
474.523	7756.59
474.959	7798.87
475.395	7690.47
475.831	7585.44
476.266	7579.5
476.702	7510.05
477.138	7366.41
477.573	7289.23
478.008	7195.92
478.444	7146.9
478.879	7118.41
479.314	7079.28
479.75	6997.21
480.185	6960.43
480.62	6947.17
481.055	6903.44
481.49	6856.04
481.925	6857.34
482.36	6835.66
482.795	6907.07
483.229	6976.28
483.664	6995.87
484.099	6909.21
484.534	6900.57
484.968	6864.64
485.403	6797.52
485.837	6717.58
486.271	6632.95
486.706	6579.37
487.14	6488.4
487.574	6353.11
488.009	6269.99
488.443	6190.02
488.877	6200.54
489.311	6180.27
489.745	6201.04
490.179	6205.98
490.613	6246.03
491.046	6254.61
491.48	6254.64
491.914	6211.74
492.348	6211.97
492.781	6204.45
493.215	6185.5
493.648	6179.9
494.082	6195.29
494.515	6162.07
494.948	6183.54
495.382	6199.05
495.815	6189.12
496.248	6183.67
496.681	6244.94
497.114	6291.97
497.547	6314.13
497.98	6346.59
498.413	6313.71
498.846	6317.06
499.279	6322.35
499.711	6301.69
500.144	6259.31
500.577	6267.12
501.009	6288.85
501.442	6286.32
501.874	6223.66
502.306	6189.31
502.739	6170.34
503.171	6235.69
503.603	6203.85
504.036	6210.61
504.468	6181.26
504.9	6190.13
505.332	6172.08
505.764	6130.4
506.196	6112.47
506.627	6137.59
507.059	6144.5
507.491	6144.44
507.923	6039.68
508.354	6051.35
508.786	6037.39
509.217	6064.4
509.649	6072.4
510.08	6102.81
510.512	6107.35
510.943	6105.14
511.374	6080.46
511.805	6103.8
512.237	6124.56
512.668	6219.03
513.099	6271.88
513.53	6305.67
513.961	6296.03
514.391	6341.32
514.822	6380.56
515.253	6445.83
515.684	6459.78
516.114	6495.85
516.545	6489.41
516.975	6507.73
517.406	6488.76
517.836	6411.62
518.267	6363.66
518.697	6370.3
519.127	6322.75
519.558	6291.26
519.988	6239.4
520.418	6218.02
520.848	6225.7
521.278	6196.8
521.708	6048.44
522.138	6037.98
522.567	6097.86
522.997	6126.8
523.427	6116.37
523.857	6105
524.286	6077.8
524.716	6074.66
525.145	6084.96
525.575	6071.54
526.004	6078.45
526.433	6140.54
526.863	6096.43
527.292	6015.77
527.721	6003.4
528.15	6004.1
528.579	5988.17
529.008	6004.98
529.437	6059.18
529.866	6075.7
530.295	6102.5
530.724	6104.01
531.152	6160.81
531.581	6173.51
532.01	6206.08
532.438	6208.48
532.867	6232.61
533.295	6268.11
533.723	6265.18
534.152	6236.71
534.58	6217.72
535.008	6148.83
535.436	6139.53
535.865	6153.4
536.293	6187.93
536.721	6221.48
537.149	6281.35
537.576	6264.95
538.004	6290.86
538.432	6306.52
538.86	6293.42
539.287	6312
539.715	6351.07
540.143	6362.99
540.57	6352.65
540.998	6348.35
541.425	6275.4
541.852	6223.59
542.28	6237.24
542.707	6203.1
543.134	6171.2
543.561	6170.18
543.988	6158.22
544.415	6172.83
544.842	6167.78
545.269	6153.38
545.696	6168.04
546.123	6231.59
546.549	6209.01
546.976	6174.85
547.403	6183.1
547.829	6201.98
548.256	6223.49
548.682	6223.57
549.108	6207.62
549.535	6219.84
549.961	6240
550.387	6205.33
550.813	6191.52
551.24	6223.99
551.666	6239.28
552.092	6215.35
552.518	6204.56
552.943	6187.73
553.369	6222.36
553.795	6248.44
554.221	6253.29
554.646	6245.72
555.072	6277.68
555.498	6297.33
555.923	6324.22
556.349	6368.83
556.774	6392.43
557.199	6392.1
557.625	6418.68
558.05	6395.64
558.475	6433.68
558.9	6429.67
559.325	6400.48
559.75	6386.12
560.175	6369.62
560.6	6356.35
561.025	6355.75
561.449	6366.37
561.874	6386.12
562.299	6392.78
562.723	6416.25
563.148	6373.27
563.572	6384.31
563.997	6416.22
564.421	6433.13
564.846	6429.32
565.27	6429.77
565.694	6413.66
566.118	6440.3
566.542	6454.21
566.966	6423.6
567.39	6394.93
567.814	6348.35
568.238	6339.9
568.662	6354.14
569.086	6360.67
569.509	6393.78
569.933	6349.61
570.357	6343.22
570.78	6292.17
571.204	6266.91
571.627	6258.96
572.05	6287.01
572.474	6319.48
572.897	6316.52
573.32	6326.47
573.743	6337.3
574.166	6307.44
574.589	6352.74
575.012	6363.11
575.435	6403.56
575.858	6415.22
576.281	6421.27
576.704	6410.62
577.126	6419.02
577.549	6425.51
577.972	6441.85
578.394	6446.4
578.817	6459.23
579.239	6436.71
579.661	6431.93
580.084	6409.52
580.506	6407.49
580.928	6441.05
581.35	6443.87
581.772	6466.9
582.194	6449
582.616	6429.52
583.038	6407.27
583.46	6402.83
583.882	6415.93
584.303	6466.12
584.725	6480.8
585.147	6482.86
585.568	6529.08
585.99	6570.44
586.411	6586.09
586.833	6639.81
587.254	6642.42
587.675	6705.89
588.096	6763.57
588.518	6745.02
588.939	6675.4
589.36	6670.7
589.781	6664.41
590.202	6548.24
590.623	6540.27
591.043	6561.15
591.464	6527.6
591.885	6524.79
592.305	6508.52
592.726	6454.42
593.147	6459.47
593.567	6436.14
593.987	6398.57
594.408	6369.37
594.828	6366.5
595.248	6323.4
595.669	6221.42
596.089	6177.58
596.509	6137.76
596.929	6058.75
597.349	6038.56
597.769	5973.58
598.189	5919.69
598.608	5900.77
599.028	5880.63
599.448	5858.16
599.867	5786.54
600.287	5758.13
600.706	5721.18
601.126	5662.78
601.545	5643.43
601.965	5630.39
602.384	5602.55
602.803	5610.42
603.222	5584.78
603.641	5559.44
604.061	5541.17
604.48	5528.91
604.898	5564.65
605.317	5591.73
605.736	5607.71
606.155	5601.23
606.574	5571.97
606.992	5603.45
607.411	5593.21
607.829	5578.27
608.248	5581.61
608.666	5591.38
609.085	5605.39
609.503	5585.76
609.921	5575.97
610.339	5602.25
610.758	5621.01
611.176	5620.01
611.594	5600.49
612.012	5607.68
612.43	5634.93
612.847	5679.79
613.265	5692.29
613.683	5725.93
614.101	5749.47
614.518	5756.12
614.936	5735.4
615.353	5692.47
615.771	5701.47
616.188	5724
616.606	5730.05
617.023	5724.17
617.44	5685.21
617.857	5688.76
618.274	5677.8
618.691	5668.78
619.108	5646.21
619.525	5634.88
619.942	5674.97
620.359	5694.59
620.776	5680.38
621.192	5663.16
621.609	5652.78
622.026	5678.12
622.442	5700.47
622.859	5714.24
623.275	5683.7
623.691	5706.38
624.108	5755.58
624.524	5820.37
624.94	5817.95
625.356	5859.27
625.772	5921.55
626.188	5976.33
626.604	5983.2
627.02	5963.09
627.436	5948.78
627.852	5973.21
628.268	6023.9
628.683	5985.14
629.099	5949.24
629.514	5936.64
629.93	5962.04
630.345	5989.79
630.761	5984.45
631.176	6013.69
631.591	5993.76
632.007	5981.91
632.422	5997.96
632.837	5968.2
633.252	5971.33
633.667	5948.7
634.082	5929.07
634.497	5893.52
634.911	5824.28
635.326	5837.56
635.741	5788.88
636.155	5782.09
636.57	5819.91
636.984	5853.62
637.399	5891.19
637.813	5936.22
638.228	5969.73
638.642	6035.56
639.056	6031.1
639.47	6085.16
639.884	6089.56
640.298	6108.01
640.712	6151.96
641.126	6142.32
641.54	6156.59
641.954	6199.31
642.368	6187.17
642.781	6187.35
643.195	6147.9
643.609	6203.93
644.022	6225.82
644.436	6256.12
644.849	6244.55
645.262	6229.19
645.676	6293.31
646.089	6305.97
646.502	6250.49
646.915	6263.26
647.328	6220.52
647.741	6250.32
648.154	6214.45
648.567	6216.91
648.98	6170.63
649.393	6206.17
649.805	6219.11
650.218	6206.3
650.631	6138.85
651.043	6136.64
651.456	6126.99
651.868	6156.8
652.28	6280.88
652.693	6367.77
653.105	6407.39
653.517	6452.15
653.929	6437.17
654.341	6466.42
654.753	6391
655.165	6449.97
655.577	6459.51
655.989	6466.08
656.401	6461.41
656.813	6271.65
657.224	6213.25
657.636	6121.99
658.047	6090.81
658.459	6052.39
658.87	6083.99
659.282	6089.02
659.693	6009.66
660.104	5970.75
660.515	5939.43
660.926	5987.04
661.338	6034.31
661.749	6051.23
662.159	6032.59
662.57	6065.42
662.981	6087.66
663.392	6079.26
663.803	6155.83
664.213	6193.91
664.624	6216.44
665.035	6288.37
665.445	6229.61
665.855	6207.47
666.266	6172.94
666.676	6194.6
667.086	6156.12
667.497	6172.28
667.907	6149.75
668.317	6098.12
668.727	6059.22
669.137	6084.16
669.547	6072.68
669.956	6105.31
670.366	6129.28
670.776	6146.72
671.186	6183.19
671.595	6205.25
672.005	6237.94
672.414	6218.73
672.824	6192.29
673.233	6251.35
673.642	6253.85
674.052	6260.47
674.461	6252.11
674.87	6279.05
675.279	6235.95
675.688	6241.31
676.097	6225.58
676.506	6179.09
676.915	6281.76
677.323	6285.89
677.732	6248.67
678.141	6225.1
678.549	6125.51
678.958	6101.88
679.366	6072.52
679.775	6094.2
680.183	6110.48
680.592	6120.56
681	6118.71
681.408	6015.58
681.816	6020.83
682.224	6030.77
682.632	6020.82
683.04	6152.76
683.448	6222.02
683.856	6289.16
684.264	6353.83
684.671	6398.68
685.079	6470.06
685.487	6551.86
685.894	6721.56
686.302	6803.59
686.709	6801.61
687.116	6840.06
687.524	6810.53
687.931	6758.32
688.338	6705.02
688.745	6651.23
689.152	6609.64
689.559	6602.93
689.966	6570.78
690.373	6432.11
690.78	6369.17
691.187	6395.3
691.593	6339.86
692	6262.58
692.407	6253.62
692.813	6280.64
693.22	6258.43
693.626	6254.92
694.032	6209.7
694.439	6249.76
694.845	6247.07
695.251	6290.07
695.657	6307.33
696.063	6415.8
696.469	6443.31
696.875	6453.17
697.281	6387.57
697.687	6337.24
698.093	6263.28
698.498	6276.1
