Data from C_1_DIV_PA_2N_Splice17_12-01-17-293.txt Node
Date: Sat Mar 14 12:01:17 EDT 2020
User: sa697716
Spectrometer: FLMS03696
Trigger mode: 0
Integration Time (sec): 3.180400E-1
Scans to average: 20
Electric dark correction enabled: true
Nonlinearity correction enabled: true
Boxcar width: 5
XAxis mode: Wavelengths
Number of Pixels in Spectrum: 2048
>>>>>Begin Spectral Data<<<<<
187.83	-261479.58
188.298	1944.37
188.766	1061.46
189.233	943.61
189.701	1349.57
190.169	1834.45
190.636	721.26
191.104	596.69
191.571	122.18
192.039	-37.6
192.506	48.4
192.974	395.01
193.441	-457.35
193.908	137.58
194.375	34.31
194.842	71.4
195.31	134.93
195.777	178.69
196.244	414.76
196.711	536.72
197.177	647.94
197.644	924.2
198.111	1608.07
198.578	2215.83
199.045	1752.81
199.511	2883.77
199.978	3397.99
200.445	2882.8
200.911	3194.3
201.378	3553.99
201.844	3210.52
202.31	5532.93
202.777	5774.2
203.243	3168.76
203.709	3037.9
204.176	3645.14
204.642	2994.12
205.108	2790.83
205.574	2295.75
206.04	2104.83
206.506	1971.74
206.972	1861.74
207.438	1795.98
207.903	2028.19
208.369	1783.68
208.835	1771.87
209.301	1839.03
209.766	1898.19
210.232	1882.18
210.697	2316.02
211.163	2851.49
211.628	4308.74
212.094	3629.01
212.559	4436.95
213.024	2761.86
213.49	3364.29
213.955	3282.09
214.42	3222.89
214.885	2994.34
215.35	2889.77
215.815	2761.23
216.28	2916.84
216.745	2375.72
217.21	2547.18
217.675	2335.72
218.14	2613.4
218.604	2912.57
219.069	3325.79
219.534	3469.7
219.998	4037.54
220.463	4860.39
220.927	6002.78
221.392	5660.68
221.856	5756.85
222.32	7286.22
222.785	9004.58
223.249	11371.84
223.713	12694.57
224.177	12712.61
224.642	16342.39
225.106	20157.39
225.57	22100.76
226.034	16449.66
226.497	25152.75
226.961	22750.85
227.425	26509.15
227.889	29509.58
228.353	29594.71
228.816	61341.49
229.28	58775.45
229.744	49830.71
230.207	30362.1
230.671	29960.09
231.134	49815.77
231.597	57497.1
232.061	57663.61
232.524	56454.71
232.987	39058.14
233.45	35225.78
233.914	31688.58
234.377	32617.05
234.84	29916.38
235.303	35413.58
235.766	39671.47
236.229	41092.45
236.691	26001.81
237.154	29282.05
237.617	22086.51
238.08	22659.95
238.542	26633.47
239.005	19076.01
239.468	18978.98
239.93	17914.31
240.393	16316.92
240.855	14346.01
241.317	14727.27
241.78	17941.78
242.242	18579.29
242.704	20091.52
243.166	17527.13
243.629	15929.15
244.091	18388.82
244.553	20168.84
245.015	21725.26
245.477	28108.05
245.939	41253.05
246.4	43775.56
246.862	42626.54
247.324	40260.21
247.786	45101.47
248.247	59152.18
248.709	61176.32
249.17	45793.9
249.632	43182.4
250.093	50106.02
250.555	43382.8
251.016	26497.12
251.477	25216.73
251.939	27240.32
252.4	28616.36
252.861	34114.11
253.322	31783.04
253.783	37904.66
254.244	49263.9
254.705	38906.94
255.166	34673.21
255.627	34156.04
256.088	48211.7
256.549	51187.83
257.009	44127.48
257.47	53583.57
257.931	43672.37
258.391	32740.57
258.852	33746.41
259.312	35375.01
259.773	43779.64
260.233	36957.26
260.694	31190.58
261.154	35396.99
261.614	28416.55
262.074	25413.83
262.534	26405.82
262.994	24883.64
263.455	33170.3
263.915	27946.01
264.374	26335.46
264.834	28755.06
265.294	31909.89
265.754	33071.26
266.214	31300.14
266.673	29348.69
267.133	37070.3
267.593	36806.22
268.052	45033
268.512	39182.37
268.971	47283.4
269.431	51893.31
269.89	46463.52
270.349	69649.69
270.809	77635.87
271.268	69915.77
271.727	156859.22
272.186	101599.15
272.645	76184.34
273.104	55010.99
273.563	79743.09
274.022	62739.56
274.481	53341.26
274.94	41078.97
275.399	30551.87
275.857	35598.67
276.316	48117.73
276.775	42866.81
277.233	42240.5
277.692	39562.68
278.15	44720.89
278.609	45981.79
279.067	42587.78
279.525	39618.88
279.984	51252.8
280.442	61646.05
280.9	60775.03
281.358	40026.28
281.816	37284.36
282.274	36527
282.732	37792.64
283.19	38045.25
283.648	32887.35
284.106	35062.31
284.564	35666.36
285.021	33080.54
285.479	24670.44
285.937	22481
286.394	19746.1
286.852	20346.84
287.309	21394.98
287.767	20658.62
288.224	19667.84
288.682	21600.08
289.139	23734.81
289.596	21743.89
290.053	22646.65
290.511	28610.33
290.968	34763.67
291.425	47253.12
291.882	39335.37
292.339	34262.39
292.796	34098.46
293.252	32203.24
293.709	25604.41
294.166	22976.58
294.623	25435.02
295.079	24439.29
295.536	24582.34
295.992	22329.98
296.449	22105.34
296.905	23033.12
297.362	22126.53
297.818	23302.72
298.274	24186.75
298.731	24667.69
299.187	24461.24
299.643	26298.87
300.099	31839.81
300.555	34953
301.011	29249.4
301.467	28186.38
301.923	33051.48
302.379	32332.45
302.835	31782.51
303.291	31854.41
303.746	36349.73
304.202	45940.23
304.658	46202.16
305.113	31078.84
305.569	30507.26
306.024	32553.74
306.479	31090.46
306.935	26224.81
307.39	28682.72
307.845	26507.41
308.301	26686.3
308.756	26006.31
309.211	25065.62
309.666	25680.18
310.121	31892.43
310.576	32418.77
311.031	32210.88
311.486	36917.31
311.94	36928.94
312.395	49396.73
312.85	92947.02
313.305	457319.34
313.759	2365308.89
314.214	171512.92
314.668	135999.95
315.123	114463.77
315.577	41007.38
316.032	36470.06
316.486	45712.43
316.94	36052.37
317.394	25125.63
317.849	19544.15
318.303	18526.64
318.757	17495.83
319.211	19355.26
319.665	16982.04
320.119	17229.77
320.572	24781.3
321.026	23167.91
321.48	19310.15
321.934	21106.98
322.387	21164.39
322.841	22866.74
323.295	20541.67
323.748	23708.31
324.202	24045.75
324.655	28867.21
325.108	40240.64
325.562	28415.63
326.015	33804.59
326.468	25539.71
326.921	28574.06
327.374	26656.01
327.827	27771.86
328.28	31483.03
328.733	21098.04
329.186	18585.79
329.639	17711.22
330.092	14961.41
330.545	14245.65
330.997	14369.17
331.45	15707.06
331.903	18402.66
332.355	31699.38
332.808	30827.5
333.26	25436.57
333.713	27654.95
334.165	27854.67
334.617	37250.71
335.069	30139.86
335.522	54557.73
335.974	60489.99
336.426	55396.32
336.878	38382.13
337.33	19461.08
337.782	19008.9
338.234	23811.31
338.686	28502.03
339.137	33815.23
339.589	31843.44
340.041	24984.97
340.493	21476.59
340.944	22003.35
341.396	23647.97
341.847	19878.53
342.299	23436.03
342.75	28624.66
343.201	25036.61
343.653	28779.38
344.104	35454.24
344.555	27904.27
345.006	43477.22
345.457	33253.15
345.908	26426.87
346.359	24898.19
346.81	20321.82
347.261	21478.06
347.712	21150.12
348.163	22670.79
348.613	22909.01
349.064	21373.22
349.515	18735.26
349.965	19191.75
350.416	23159.25
350.866	25462.98
351.317	28826.73
351.767	47678.64
352.217	60152.37
352.668	49948.62
353.118	45807.17
353.568	44291.03
354.018	34984.88
354.468	36891.63
354.918	26467.09
355.368	23181.34
355.818	32753.24
356.268	94217.9
356.718	394850.93
357.168	98313.36
357.617	49397.53
358.067	55036.85
358.517	51626.85
358.966	60561.61
359.416	67871.17
359.865	73463.97
360.315	87607.94
360.764	40876.5
361.213	22928.6
361.663	21748.01
362.112	26912.44
362.561	43537.01
363.01	32912.68
363.459	27752.85
363.908	30091.49
364.357	25606.86
364.806	43407.2
365.255	29885.98
365.703	27406
366.152	27477.24
366.601	22312.74
367.05	18117.71
367.498	16478.61
367.947	17260.93
368.395	17968.14
368.844	15942.75
369.292	19294.93
369.74	13327.81
370.189	20452.04
370.637	24023.83
371.085	20802.97
371.533	25414.96
371.981	24539.82
372.429	23424.46
372.877	24432.25
373.325	20522.88
373.773	20976
374.221	18726.92
374.669	23329.19
375.116	20237.71
375.564	20472.81
376.012	22930.31
376.459	18951.34
376.907	22769.64
377.354	27665.98
377.801	25844.96
378.249	29766.65
378.696	38181.71
379.143	46347.42
379.591	49594.2
380.038	84029.78
380.485	60896.22
380.932	66050.06
381.379	60451.36
381.826	44571.24
382.273	31739.24
382.72	27868.08
383.166	27232.05
383.613	17721.77
384.06	16011.02
384.506	18553.21
384.953	13675.4
385.4	13815.95
385.846	12121.17
386.292	11857.46
386.739	11630.51
387.185	11533.57
387.631	11550.75
388.078	11218.63
388.524	12021.69
388.97	11127.18
389.416	9287.43
389.862	9876.98
390.308	9366.74
390.754	9512.68
391.2	10334.74
391.645	10587.31
392.091	10115.51
392.537	9767.47
392.983	9798.8
393.428	9617.95
393.874	10328.69
394.319	10358.13
394.765	9821.41
395.21	10110.07
395.655	9499.17
396.101	8919.85
396.546	8062.18
396.991	8156.22
397.436	7590.01
397.881	7344.45
398.326	6981.89
398.771	6599.55
399.216	5788.3
399.661	5223.84
400.106	5204.61
400.551	5330.42
400.995	4787.53
401.44	4747.23
401.885	4465.46
402.329	4521.29
402.774	4341.08
403.218	4201.06
403.663	4056.57
404.107	4174.52
404.551	4214.2
404.995	3874.35
405.44	3745.81
405.884	3814.83
406.328	3696.83
406.772	3699.65
407.216	3381.24
407.66	3278.86
408.104	3125.98
408.547	2933.99
408.991	2845.63
409.435	2743.7
409.879	2712.15
410.322	2683.13
410.766	2594.38
411.209	2470.34
411.653	2374.89
412.096	2327.47
412.54	2334.5
412.983	2322.2
413.426	2330.78
413.869	2334.45
414.312	2295.14
414.756	2216.48
415.199	2117.41
415.642	2056.26
416.085	2062.52
416.527	2050.09
416.97	2085.43
417.413	1981.32
417.856	1966.16
418.298	1953.78
418.741	1947.64
419.184	1946.22
419.626	2031.64
420.069	2033.09
420.511	2047.44
420.953	2006.09
421.396	1989.11
421.838	1941.44
422.28	1986.63
422.722	1996.57
423.164	2023.9
423.606	1987.34
424.048	1988.59
424.49	1890.42
424.932	1884.19
425.374	1861.28
425.816	1893.88
426.258	1933.47
426.699	1956.89
427.141	1930.17
427.582	1961.68
428.024	1958.12
428.465	1952.56
428.907	1906.33
429.348	1885.62
429.789	1884.21
430.231	1841.89
430.672	1870.86
431.113	1826.43
431.554	1801.58
431.995	1757.15
432.436	1694.09
432.877	1653.57
433.318	1621.9
433.759	1613.6
434.2	1614.3
434.64	1599.14
435.081	1604.18
435.522	1519.04
435.962	1465.85
436.403	1433.09
436.843	1455.25
437.284	1425.18
437.724	1387.73
438.164	1392.74
438.604	1361.92
439.045	1307.05
439.485	1249.29
439.925	1223.6
440.365	1192.32
440.805	1174.36
441.245	1158.09
441.685	1113.6
442.125	1106.3
442.564	1112.71
443.004	1085.93
443.444	1082.15
443.883	1083.25
444.323	1077.59
444.762	1079.18
445.202	1092.16
445.641	1108.75
446.081	1101.35
446.52	1106.63
446.959	1090.76
447.398	1061.18
447.837	1045.63
448.276	1025.14
448.716	1032.51
449.154	1038.62
449.593	1010.53
450.032	1003.78
450.471	984.53
450.91	983.03
451.349	979.24
451.787	973.01
452.226	984.84
452.664	983.61
453.103	984.41
453.541	980.24
453.98	976.44
454.418	982.52
454.856	964.94
455.295	961.97
455.733	968.89
456.171	972.47
456.609	974.38
457.047	973.54
457.485	986.24
457.923	984.84
458.361	972.56
458.798	976.18
459.236	972.97
459.674	982.3
460.111	987.74
460.549	977.32
460.987	975.09
461.424	972.63
461.862	968.77
462.299	953.78
462.736	955.03
463.173	958.08
463.611	943.77
464.048	943.29
464.485	950.31
464.922	941.1
465.359	937.11
465.796	920.99
466.233	912.56
466.67	902.12
467.106	899.45
467.543	888.9
467.98	877.73
468.416	857.81
468.853	851.23
469.29	825.5
469.726	816.23
470.162	793.74
470.599	786
471.035	779.48
471.471	761.6
471.907	757.73
472.344	753.55
472.78	753.18
473.216	762.11
473.652	749.95
474.088	747.03
474.523	743.61
474.959	749.65
475.395	741.16
475.831	734.71
476.266	736.4
476.702	732.53
477.138	723.37
477.573	719.29
478.008	714.23
478.444	716.48
478.879	721.06
479.314	722.77
479.75	721.24
480.185	723.62
480.62	728.91
481.055	732.28
481.49	736.33
481.925	745.73
482.36	758.82
482.795	780.4
483.229	800.6
483.664	816.8
484.099	819.56
484.534	830.93
484.968	837.11
485.403	838.31
485.837	836.79
486.271	834.57
486.706	833.32
487.14	822.04
487.574	805.66
488.009	796.39
488.443	787.58
488.877	792.05
489.311	791.62
489.745	798.42
490.179	803.18
490.613	813.51
491.046	816.58
491.48	818.48
491.914	815.12
492.348	817.76
492.781	818.17
493.215	814.32
493.648	811.44
494.082	812.68
494.515	808.4
494.948	810.29
495.382	809.95
495.815	809.35
496.248	809.43
496.681	817.21
497.114	823.25
497.547	827.42
497.98	835.26
498.413	834.48
498.846	837.18
499.279	838.03
499.711	836.06
500.144	830.45
500.577	832.37
501.009	834.96
501.442	835.78
501.874	827.25
502.306	819.96
502.739	817.04
503.171	821
503.603	813.71
504.036	811.78
504.468	805.49
504.9	804.94
505.332	800.37
505.764	793.07
506.196	787.42
506.627	789.12
507.059	788.74
507.491	784.33
507.923	771.26
508.354	772.82
508.786	769.62
509.217	772.43
509.649	772.83
510.08	775.05
510.512	777.15
510.943	777.66
511.374	774.26
511.805	777.93
512.237	780.16
512.668	791.01
513.099	797.93
513.53	805.85
513.961	808.75
514.391	818.83
514.822	829.68
515.253	840.8
515.684	846.6
516.114	854.71
516.545	857.73
516.975	864.11
517.406	866.21
517.836	857.9
518.267	852.96
518.697	855.85
519.127	850.31
519.558	846.38
519.988	841.26
520.418	840.91
520.848	843.78
521.278	842
521.708	862.16
522.138	863.87
522.567	876.29
522.997	885.82
523.427	889.53
523.857	894.92
524.286	897.35
524.716	902.13
525.145	908.33
525.575	911.65
526.004	916.23
526.433	893.09
526.863	890.71
527.292	883.79
527.721	885.25
528.15	886.43
528.579	884.97
529.008	888.59
529.437	898.61
529.866	903.8
530.295	912.02
530.724	917.84
531.152	931.16
531.581	938.11
532.01	946.16
532.438	948.16
532.867	955.22
533.295	964.41
533.723	967.72
534.152	966.92
534.58	967.01
535.008	957.77
535.436	959.56
535.865	963.04
536.293	969.68
536.721	978.16
537.149	992.03
537.576	994.11
538.004	1000.79
538.432	1004.22
538.86	1003.02
539.287	1006.55
539.715	1014.13
540.143	1014.63
540.57	1013.69
540.998	1011.74
541.425	999.28
541.852	988.28
542.28	985.87
542.707	976.83
543.134	969.36
543.561	966.89
543.988	963.2
544.415	962.32
544.842	959.06
545.269	954.51
545.696	955.91
546.123	962.22
546.549	956.59
546.976	950.08
547.403	949.74
547.829	950.17
548.256	950.95
548.682	948.88
549.108	945.02
549.535	944.27
549.961	943.74
550.387	935.93
550.813	933.01
551.24	935.85
551.666	935.73
552.092	930.2
552.518	926.94
552.943	923.64
553.369	926.75
553.795	929.47
554.221	929.96
554.646	928.27
555.072	933.06
555.498	934.74
555.923	938.27
556.349	945.34
556.774	948.95
557.199	948.89
557.625	950.96
558.05	947.07
558.475	951.47
558.9	949.92
559.325	945.45
559.75	942.16
560.175	938.14
560.6	934.65
561.025	932.34
561.449	932.73
561.874	934.13
562.299	936.2
562.723	938.84
563.148	932.66
563.572	934.58
563.997	939.74
564.421	941.5
564.846	941.85
565.27	943.4
565.694	942.39
566.118	947.88
566.542	952.17
566.966	948.88
567.39	947.48
567.814	942.61
568.238	942.45
568.662	945.66
569.086	948.53
569.509	952.41
569.933	946.21
570.357	943.36
570.78	932.92
571.204	928.46
571.627	924.01
572.05	923.73
572.474	925.41
572.897	920.48
573.32	917.87
573.743	913.77
574.166	906.47
574.589	907.55
575.012	904.22
575.435	905.02
575.858	900.5
576.281	896.67
576.704	890.51
577.126	884.93
577.549	879.71
577.972	875.52
578.394	871.82
578.817	870.45
579.239	861.53
579.661	857.47
580.084	852.17
580.506	847.09
580.928	845.69
581.35	841.39
581.772	840.48
582.194	834.77
582.616	829.1
583.038	821.89
583.46	815.87
583.882	815.34
584.303	817.19
584.725	814.95
585.147	819.81
585.568	827.01
585.99	834.94
586.411	840.07
586.833	850.08
587.254	852.65
587.675	862.32
588.096	870.89
588.518	869.08
588.939	861.49
589.36	861.77
589.781	854.01
590.202	840.55
590.623	835.39
591.043	834.04
591.464	827.96
591.885	826.63
592.305	823.19
592.726	816
593.147	817.37
593.567	814.86
593.987	811.13
594.408	809.23
594.828	807.38
595.248	805.76
595.669	796.88
596.089	793.22
596.509	789.4
596.929	781.98
597.349	783.83
597.769	778.86
598.189	776.29
598.608	777.1
599.028	778.03
599.448	777.9
599.867	770.72
600.287	768
600.706	766.33
601.126	761.64
601.545	762.45
601.965	761.76
602.384	759.02
602.803	761.31
603.222	759.83
603.641	757.49
604.061	757.04
604.48	755.77
604.898	762.29
605.317	767.05
605.736	769.62
606.155	769.76
606.574	765.48
606.992	770.32
607.411	769.9
607.829	766.99
608.248	766.92
608.666	768.38
609.085	770.52
609.503	768.1
609.921	766.77
610.339	770.89
610.758	772.68
611.176	773.48
611.594	771.7
612.012	772.01
612.43	777.44
612.847	784.43
613.265	787.42
613.683	792.55
614.101	795.85
614.518	795.2
614.936	791.79
615.353	785.7
615.771	786.29
616.188	789.25
616.606	789.81
617.023	787.7
617.44	781.03
617.857	778.29
618.274	775.33
618.691	772.79
619.108	769.6
619.525	767.72
619.942	773.88
620.359	777.77
620.776	775.83
621.192	775.19
621.609	775.69
622.026	781.78
622.442	787.23
622.859	791.21
623.275	788.2
623.691	792.94
624.108	801.69
624.524	811.29
624.94	811.91
625.356	818.93
625.772	827.11
626.188	833.96
626.604	835.21
627.02	833.3
627.436	831.78
627.852	838.78
628.268	847.07
628.683	840.49
629.099	835.04
629.514	832.02
629.93	835.04
630.345	839.73
630.761	838.46
631.176	841.53
631.591	839.11
632.007	836.48
632.422	834.84
632.837	828.47
633.252	829.31
633.667	825.4
634.082	820.47
634.497	814.82
634.911	804.42
635.326	804.65
635.741	795.87
636.155	791.95
636.57	796.62
636.984	800.13
637.399	805.53
637.813	809.65
638.228	812.92
638.642	821.17
639.056	819.69
639.47	824.57
639.884	823.82
640.298	825.8
640.712	831.47
641.126	829.8
641.54	830.18
641.954	833.04
642.368	830.44
642.781	833.01
643.195	827.92
643.609	834.63
644.022	837.98
644.436	843.52
644.849	842.04
645.262	840.05
645.676	847.66
646.089	851.09
646.502	846.26
646.915	849.31
647.328	842.54
647.741	846.3
648.154	841.26
648.567	844.27
648.98	837.91
649.393	843.44
649.805	846.08
650.218	843.85
650.631	835.12
651.043	834
651.456	832.5
651.868	835.72
652.28	853.85
652.693	869.64
653.105	878.91
653.517	891.26
653.929	895.26
654.341	903.56
654.753	896.76
655.165	905.72
655.577	907.79
655.989	909.93
656.401	909.05
656.813	882.88
657.224	870.61
657.636	851.33
658.047	841.59
658.459	830.16
658.87	828.74
659.282	826.79
659.693	815.91
660.104	809.92
660.515	805.17
660.926	810.21
661.338	815.79
661.749	818.56
662.159	818.11
662.57	821.24
662.981	825.12
663.392	826.13
663.803	837.41
664.213	843.2
664.624	847.6
665.035	858.3
665.445	851.82
665.855	850.3
666.266	847.65
666.676	850.68
667.086	847.99
667.497	853.28
667.907	851.49
668.317	845.23
668.727	844.78
669.137	849.38
669.547	849.02
669.956	856.06
670.366	863.19
670.776	867.91
671.186	875.46
671.595	881.43
672.005	886.75
672.414	887.76
672.824	888.21
673.233	894.74
673.642	898.75
674.052	903.26
674.461	905.54
674.87	910.49
675.279	908.66
675.688	910.77
676.097	912.37
676.506	908.55
676.915	925.68
677.323	928.57
677.732	926.09
678.141	924.23
678.549	911.22
678.958	908.97
679.366	906.29
679.775	908.28
680.183	917.32
680.592	921.66
681	923.88
681.408	910.85
681.816	914.9
682.224	918.37
682.632	922.86
683.04	947.44
683.448	964.24
683.856	986.28
684.264	1011.73
684.671	1029.42
685.079	1052.4
685.487	1078.24
685.894	1117.05
686.302	1140.5
686.709	1152.76
687.116	1166.94
687.524	1170.01
687.931	1168.84
688.338	1160.74
688.745	1145
689.152	1135.49
689.559	1131.67
689.966	1127.65
690.373	1107.03
690.78	1101.35
691.187	1112.14
691.593	1111.88
692	1107.97
692.407	1116.02
692.813	1133.47
693.22	1145.41
693.626	1155.23
694.032	1161.28
694.439	1182.18
694.845	1196.78
695.251	1221.63
695.657	1242.64
696.063	1282.95
696.469	1311.73
696.875	1338.93
697.281	1352.56
697.687	1371.81
698.093	1390.65
698.498	1430.49
698.904	1462.55
699.31	1513.32
699.715	1551.89
700.12	1608.56
700.526	1625.68
700.931	1672.71
701.337	1714.51
701.742	1745.55
702.147	1807.09
702.552	1840.49
702.957	1889.01
703.362	1917.45
