Data from C_1_DEC_OH_4N_Splice17_11-56-16-127.txt Node
Date: Sat Mar 14 11:56:16 EDT 2020
User: sa697716
Spectrometer: FLMS03696
Trigger mode: 0
Integration Time (sec): 3.180400E-1
Scans to average: 20
Electric dark correction enabled: true
Nonlinearity correction enabled: true
Boxcar width: 5
XAxis mode: Wavelengths
Number of Pixels in Spectrum: 2048
>>>>>Begin Spectral Data<<<<<
187.83	-230395.88
188.298	1824.43
188.766	1026.84
189.233	919.7
189.701	1347.45
190.169	1933.75
190.636	752.32
191.104	626.91
191.571	112.75
192.039	-34.35
192.506	-15.5
192.974	546.07
193.441	-679.18
193.908	-151.9
194.375	-62.57
194.842	80.4
195.31	216.63
195.777	168.11
196.244	368.28
196.711	457.95
197.177	600.08
197.644	858.13
198.111	1487.83
198.578	2106.21
199.045	1697.48
199.511	2781.52
199.978	3209.55
200.445	2730.62
200.911	3031.68
201.378	3410.7
201.844	3077.33
202.31	5245.35
202.777	5513.38
203.243	3056.48
203.709	2897.17
204.176	3450.19
204.642	2873.54
205.108	2707.14
205.574	2217
206.04	2036.17
206.506	1909.53
206.972	1813.26
207.438	1749.13
207.903	1982.48
208.369	1741.58
208.835	1741.71
209.301	1834.65
209.766	1891.84
210.232	1856.4
210.697	2292.7
211.163	2866.91
211.628	4350.12
212.094	3685.17
212.559	4529.72
213.024	2821.44
213.49	3461.65
213.955	3390.94
214.42	3320.63
214.885	3075.6
215.35	2969.54
215.815	2849.08
216.28	3006.99
216.745	2445.31
217.21	2637.63
217.675	2432.27
218.14	2751.21
218.604	3084.23
219.069	3537.68
219.534	3732.6
219.998	4366.37
220.463	5351.33
220.927	6645.84
221.392	6286.98
221.856	6410.85
222.32	8131.22
222.785	10081.98
223.249	12719.87
223.713	14253.52
224.177	14321.2
224.642	18429.04
225.106	22699.05
225.57	24811.48
226.034	18453.01
226.497	28146.86
226.961	25391.88
227.425	29565.7
227.889	32871.4
228.353	32905.95
228.816	67940.88
229.28	64932.39
229.744	54751.61
230.207	33327.89
230.671	32793.35
231.134	54334.96
231.597	62660.63
232.061	62704.1
232.524	61255.34
232.987	42161.15
233.45	37939.12
233.914	34050.76
234.377	34918.35
234.84	31987.32
235.303	37707.52
235.766	42037.08
236.229	43436.29
236.691	27356.97
237.154	30742.83
237.617	23128.52
238.08	23707.92
238.542	27782.8
239.005	19853.62
239.468	19676.13
239.93	18532.16
240.393	16837.15
240.855	14787.88
241.317	15134.09
241.78	18405.52
242.242	19024.82
242.704	20518.45
243.166	17838.79
243.629	16184.71
244.091	18640.94
244.553	20463.89
245.015	21968.62
245.477	28428.91
245.939	41682.72
246.4	44269.79
246.862	43039.74
247.324	40563.84
247.786	45370.44
248.247	59478.34
248.709	61436.49
249.17	45955.1
249.632	43249.62
250.093	50173.01
250.555	43361.63
251.016	26452.97
251.477	25075.41
251.939	27060.71
252.4	28384.69
252.861	33788.34
253.322	31470.65
253.783	37438.14
254.244	48580.17
254.705	38319.63
255.166	34090.69
255.627	33536.19
256.088	47266.34
256.549	50219.87
257.009	43247.83
257.47	52529.93
257.931	42771.14
258.391	32051.12
258.852	33047.63
259.312	34657.95
259.773	42811.21
260.233	36177.73
260.694	30515.89
261.154	34615.82
261.614	27781.02
262.074	24876.86
262.534	25842.04
262.994	24360.34
263.455	32462.55
263.915	27339.22
264.374	25741.67
264.834	28140.8
265.294	31210.79
265.754	32338.1
266.214	30646.11
266.673	28735.39
267.133	36250.56
267.593	35958.56
268.052	43972.06
268.512	38242.35
268.971	46096.14
269.431	50601.21
269.89	45304.88
270.349	67948.56
270.809	75802.63
271.268	68144.21
271.727	152813.86
272.186	98950.99
272.645	74277.33
273.104	53655.28
273.563	77725.33
274.022	61239.27
274.481	52100.28
274.94	40140.69
275.399	29846.34
275.857	34750.88
276.316	47016.25
276.775	41859.99
277.233	41241.75
277.692	38572.23
278.15	43599.3
278.609	44840.01
279.067	41509.04
279.525	38557.26
279.984	49804.86
280.442	59791.37
280.9	58928.62
281.358	38773.46
281.816	36156.76
282.274	35402.96
282.732	36639.98
283.19	36877.98
283.648	31829.31
284.106	33903
284.564	34456.75
285.021	31930.61
285.479	23796.88
285.937	21666.27
286.394	19010.56
286.852	19555.35
287.309	20542.98
287.767	19813.95
288.224	18810.81
288.682	20640.8
289.139	22643.29
289.596	20727.33
290.053	21550.27
290.511	27235.73
290.968	33016.99
291.425	44776.12
291.882	37264.29
292.339	32441.75
292.796	32218.79
293.252	30368.7
293.709	24098.7
294.166	21607.03
294.623	23884.87
295.079	22923.92
295.536	23014.59
295.992	20918.14
296.449	20701.59
296.905	21512.99
297.362	20623.39
297.818	21688.98
298.274	22516.31
298.731	22967.27
299.187	22722.49
299.643	24400.12
300.099	29512.68
300.555	32365.9
301.011	27015.05
301.467	26009.58
301.923	30448.8
302.379	29759.08
302.835	29264.88
303.291	29307.78
303.746	33408.97
304.202	42184.84
304.658	42370.32
305.113	28500.73
305.569	27939.52
306.024	29802.35
306.479	28399.78
306.935	23928.65
307.39	26154.53
307.845	24128.91
308.301	24274.95
308.756	23631.97
309.211	22786.38
309.666	23321.39
310.121	28955.01
310.576	29361.54
311.031	29118.19
311.486	33345.53
311.94	33353.05
312.395	44573.32
312.85	83678.51
313.305	411200.58
313.759	2125177.18
314.214	153924.83
314.668	122104.62
315.123	102669.95
315.577	36820.82
316.032	32749.58
316.486	41087.02
316.94	32413.67
317.394	22550.24
317.849	17546.72
318.303	16598.73
318.757	15666.7
319.211	17301.22
319.665	15121.96
320.119	15286.36
320.572	21932.5
321.026	20486.91
321.48	17031.38
321.934	18568.73
322.387	18625.57
322.841	20113.02
323.295	18062.67
323.748	20834.32
324.202	21161.79
324.655	25447.08
325.108	35563.07
325.562	25113.32
326.015	29834.69
326.468	22544.18
326.921	25194.16
327.374	23469.11
327.827	24398.53
328.28	27645.06
328.733	18484.92
329.186	16235.47
329.639	15461.48
330.092	13016.96
330.545	12397.47
330.997	12508.67
331.45	13666.14
331.903	16006.43
332.355	27566.32
332.808	26817.5
333.26	22114.01
333.713	24015.03
334.165	24224.36
334.617	32323.58
335.069	26179.74
335.522	47306.22
335.974	52348.56
336.426	47807.27
336.878	33146.06
337.33	16778.66
337.782	16395.17
338.234	20499.1
338.686	24538.86
339.137	29039.06
339.589	27350.99
340.041	21413.96
340.493	18427.72
340.944	18853.63
341.396	20318.38
341.847	17075.22
342.299	20130.02
342.75	24549.98
343.201	21484.23
343.653	24737.9
344.104	30441.65
344.555	23974.13
345.006	37298.32
345.457	28513.1
345.908	22697.2
346.359	21334.07
346.81	17387.11
347.261	18338.71
347.712	18050.51
348.163	19347.4
348.613	19544.94
349.064	18229.85
349.515	15961.33
349.965	16378.67
350.416	19719.44
350.866	21630.88
351.317	24479.26
351.767	40526.85
352.217	51135.15
352.668	42495.66
353.118	38939.19
353.568	37611.08
354.018	29736.06
354.468	31315.32
354.918	22437.62
355.368	19638.72
355.818	27733.21
356.268	79666.16
356.718	333406.71
357.168	83153.22
357.617	41703.2
358.067	46478.62
358.517	43474.82
358.966	50893.7
359.416	57109.01
359.865	61871.2
360.315	73643.17
360.764	34371.74
361.213	19306.22
361.663	18266.21
362.112	22556
362.561	36480.44
363.01	27455.66
363.459	23124.56
363.908	25099.73
364.357	21298.39
364.806	35866.42
365.255	24674.3
365.703	22567.5
366.152	22551.91
366.601	18316.55
367.05	14837.39
367.498	13458.27
367.947	14037.67
368.395	14599.55
368.844	12905.01
369.292	15544.59
369.74	10742.06
370.189	16438.79
370.637	19279.46
371.085	16618
371.533	20204.92
371.981	19470.64
372.429	18542.65
372.877	19306.7
373.325	16135.08
373.773	16437.5
374.221	14646.1
374.669	18140.66
375.116	15671.8
375.564	15804.1
376.012	17683.16
376.459	14560.94
376.907	17388.17
377.354	20996.95
377.801	19583.88
378.249	22489.69
378.696	28630.01
379.143	34643.45
379.591	36986.79
380.038	62546.92
380.485	45111.32
380.932	48679.21
381.379	44424.68
381.826	32655.83
382.273	23211.75
382.72	20251.25
383.166	19745.03
383.613	12833
384.06	11572.05
384.506	13347.9
384.953	9785.66
385.4	9839.42
385.846	8588.49
386.292	8380.41
386.739	8198.06
387.185	8086.75
387.631	8083.55
388.078	7816.32
388.524	8345.95
388.97	7684.19
389.416	6399.11
389.862	6789.51
390.308	6425.84
390.754	6524.89
391.2	7062.63
391.645	7226.52
392.091	6910.45
392.537	6676.71
392.983	6688.31
393.428	6571.91
393.874	7032.17
394.319	7045.03
394.765	6666.57
395.21	6843.78
395.655	6402.33
396.101	5990.19
396.546	5389.54
396.991	5428.65
397.436	5030.4
397.881	4847.38
398.326	4578.67
398.771	4324.44
399.216	3780.24
399.661	3404.1
400.106	3385.58
400.551	3455.6
400.995	3094.21
401.44	3058.44
401.885	2865.26
402.329	2895.88
402.774	2773.12
403.218	2680.83
403.663	2580.26
404.107	2646.61
404.551	2656.98
404.995	2433.68
405.44	2341.76
405.884	2371.33
406.328	2289.26
406.772	2276.61
407.216	2065.9
407.66	1993.26
408.104	1890.8
408.547	1765.22
408.991	1704.74
409.435	1638.2
409.879	1613.2
410.322	1592.13
410.766	1535.6
411.209	1459.11
411.653	1398.89
412.096	1367.78
412.54	1365.72
412.983	1355.88
413.426	1358.04
413.869	1354.39
414.312	1330.37
414.756	1282.36
415.199	1222.1
415.642	1184.01
416.085	1187.5
416.527	1180.59
416.97	1199.65
417.413	1137.93
417.856	1122.35
418.298	1109.19
418.741	1100.84
419.184	1096.14
419.626	1136.94
420.069	1138.31
420.511	1145.6
420.953	1116.45
421.396	1104.42
421.838	1073.53
422.28	1098.54
422.722	1104.15
423.164	1118.56
423.606	1100.67
424.048	1100.35
424.49	1046.4
424.932	1038.58
425.374	1025.28
425.816	1043.13
426.258	1060.45
426.699	1074.35
427.141	1058.62
427.582	1074.82
428.024	1072.87
428.465	1065.03
428.907	1039.08
429.348	1026.97
429.789	1026.72
430.231	1004.12
430.672	1016.09
431.113	993.8
431.554	979.64
431.995	953.6
432.436	920.03
432.877	896.65
433.318	881.97
433.759	876.4
434.2	875.82
434.64	866.71
435.081	869.07
435.522	824.24
435.962	795.4
436.403	778.52
436.843	791.16
437.284	773.9
437.724	754.79
438.164	757.08
438.604	740.92
439.045	714.16
439.485	686.14
439.925	670.35
440.365	653.32
440.805	644.02
441.245	634.39
441.685	611.01
442.125	606.94
442.564	610.04
443.004	596.29
443.444	595.74
443.883	595.02
444.323	589.14
444.762	589.39
445.202	596.77
445.641	606.51
446.081	602.54
446.52	604.86
446.959	598.29
447.398	582.22
447.837	572.69
448.276	558.43
448.716	563.24
449.154	565.57
449.593	551.82
450.032	549.26
450.471	538.16
450.91	537.13
451.349	537.14
451.787	532.25
452.226	539.57
452.664	538.25
453.103	540.26
453.541	537.64
453.98	536.74
454.418	539.56
454.856	530.33
455.295	529.49
455.733	532.66
456.171	532.87
456.609	534.55
457.047	534.81
457.485	544.41
457.923	544.37
458.361	537.31
458.798	538.95
459.236	538.78
459.674	542.53
460.111	544.77
460.549	540.76
460.987	539.91
461.424	537.64
461.862	535.06
462.299	527.07
462.736	526.63
463.173	528.64
463.611	524.97
464.048	524.35
464.485	529.7
464.922	524.84
465.359	521.44
465.796	516.49
466.233	513.33
466.67	508.87
467.106	507.9
467.543	503.14
467.98	496.96
468.416	483.28
468.853	477.68
469.29	462.35
469.726	457.19
470.162	444.98
470.599	437.32
471.035	432.74
471.471	421.61
471.907	417.06
472.344	414.89
472.78	416.01
473.216	420.28
473.652	415.95
474.088	414.99
474.523	413.67
474.959	417.08
475.395	412.36
475.831	409.45
476.266	410.92
476.702	409.71
477.138	404.56
477.573	401.78
478.008	400.12
478.444	401.54
478.879	404.51
479.314	405.06
479.75	404.74
480.185	406.2
480.62	409.11
481.055	410.66
481.49	413.26
481.925	418.61
482.36	426.25
482.795	436.81
483.229	447.68
483.664	456.51
484.099	458.09
484.534	464.45
484.968	468.6
485.403	468.66
485.837	466.97
486.271	465.93
486.706	465.99
487.14	459.95
487.574	453.02
488.009	448.26
488.443	443.12
488.877	447.91
489.311	448.3
489.745	453.33
490.179	458.22
490.613	467.62
491.046	470.72
491.48	473.9
491.914	474.38
492.348	477.93
492.781	481.17
493.215	482.99
493.648	482.87
494.082	487.05
494.515	486.59
494.948	492.67
495.382	494.92
495.815	498.66
496.248	502.16
496.681	510.57
497.114	517.5
497.547	524.67
497.98	535.01
498.413	539.63
498.846	546.66
499.279	553.91
499.711	556.82
500.144	559.58
500.577	568.34
501.009	577.66
501.442	586.35
501.874	589.29
502.306	591.95
502.739	598.73
503.171	611.42
503.603	616.14
504.036	624.94
504.468	631.81
504.9	643.32
505.332	649.98
505.764	655.64
506.196	663.67
506.627	678.04
507.059	691.37
507.491	700.55
507.923	702.99
508.354	717.32
508.786	729.19
509.217	746.26
509.649	761.42
510.08	780.75
510.512	797.99
510.943	814.15
511.374	827.48
511.805	847.58
512.237	868.56
512.668	899.22
513.099	927.12
513.53	954.63
513.961	976.92
514.391	1008.56
514.822	1041.22
515.253	1077.11
515.684	1104.22
516.114	1134.37
516.545	1159.05
516.975	1187.44
517.406	1208.63
517.836	1216.09
518.267	1228.2
518.697	1250.15
519.127	1260
519.558	1272.36
519.988	1281.08
520.418	1296.35
520.848	1318.13
521.278	1330.75
521.708	1352.94
522.138	1369.39
522.567	1402.93
522.997	1429.92
523.427	1448.76
523.857	1468.58
524.286	1482.09
524.716	1500.29
525.145	1521.15
525.575	1533.54
526.004	1550.86
526.433	1547.85
526.863	1551.38
527.292	1544.94
527.721	1552.91
528.15	1560.95
528.579	1564.25
529.008	1577.18
529.437	1600.48
529.866	1615.2
530.295	1633.68
530.724	1647.16
531.152	1673.62
531.581	1688.78
532.01	1706.75
532.438	1717.07
532.867	1731.16
533.295	1749.28
533.723	1755.85
534.152	1755.18
534.58	1756.62
535.008	1743.45
535.436	1745.97
535.865	1755.27
536.293	1771.2
536.721	1788.38
537.149	1812.62
537.576	1817.46
538.004	1831.38
538.432	1840.76
538.86	1840.23
539.287	1848.12
539.715	1861.79
540.143	1866.03
540.57	1862.21
540.998	1858.47
541.425	1837.74
541.852	1819.19
542.28	1816.64
542.707	1801.43
543.134	1788.43
543.561	1785.08
543.988	1778.06
544.415	1778.97
544.842	1773.36
545.269	1767.54
545.696	1768.69
546.123	1779.3
546.549	1769.08
546.976	1758
547.403	1757.02
547.829	1758.93
548.256	1760.37
548.682	1756.25
549.108	1748.6
549.535	1748.32
549.961	1749.28
550.387	1736.41
550.813	1730.83
551.24	1736.79
551.666	1736.18
552.092	1726.1
552.518	1717.71
552.943	1711.25
553.369	1717.38
553.795	1720.49
554.221	1720.91
554.646	1716.4
555.072	1725.08
555.498	1727.77
555.923	1734.6
556.349	1748.22
556.774	1755.3
557.199	1755.54
557.625	1760.08
558.05	1752.89
558.475	1761.55
558.9	1758.13
559.325	1748.68
559.75	1740.64
560.175	1733.01
560.6	1724.77
561.025	1719.29
561.449	1717.1
561.874	1719.71
562.299	1719.59
562.723	1723.61
563.148	1710.98
563.572	1710.72
563.997	1716.98
564.421	1719.98
564.846	1716.56
565.27	1714.87
565.694	1709.99
566.118	1717.3
566.542	1720.02
566.966	1710.67
567.39	1702.37
567.814	1688.46
568.238	1684.15
568.662	1684.53
569.086	1681.64
569.509	1684.73
569.933	1666.97
570.357	1655.88
570.78	1633.16
571.204	1618
571.627	1605.68
572.05	1599.75
572.474	1595.65
572.897	1581.05
573.32	1571.02
573.743	1559
574.166	1540.21
574.589	1537.5
575.012	1527.49
575.435	1523.26
575.858	1511.56
576.281	1496.7
576.704	1480.19
577.126	1466.76
577.549	1453.98
577.972	1441.85
578.394	1429.55
578.817	1420.87
579.239	1402.09
579.661	1387.5
580.084	1371.36
580.506	1357.65
580.928	1353.3
581.35	1341.01
581.772	1334.7
582.194	1321.13
582.616	1308.27
583.038	1294.64
583.46	1282.44
583.882	1278.43
584.303	1280.23
584.725	1273.46
585.147	1273.79
585.568	1279.64
585.99	1287.99
586.411	1291.82
586.833	1303.49
587.254	1302.82
587.675	1312.49
588.096	1322.22
588.518	1315.97
588.939	1300.1
589.36	1298.86
589.781	1288.66
590.202	1265.25
590.623	1257.93
591.043	1255.29
591.464	1243.65
591.885	1242.24
592.305	1236.52
592.726	1223.53
593.147	1223.07
593.567	1219.05
593.987	1211.54
594.408	1206.27
594.828	1203.85
595.248	1197.58
595.669	1181.7
596.089	1175.24
596.509	1166.95
596.929	1155.22
597.349	1155.26
597.769	1146.24
598.189	1139.9
598.608	1140.38
599.028	1140.78
599.448	1138.81
599.867	1127.51
600.287	1122.24
600.706	1117.12
601.126	1108.24
601.545	1106.38
601.965	1104.19
602.384	1099.3
602.803	1100.45
603.222	1094.77
603.641	1088.3
604.061	1084.4
604.48	1079.69
604.898	1084.87
605.317	1087.33
605.736	1088.59
606.155	1085.99
606.574	1076.56
606.992	1079.2
607.411	1073.74
607.829	1065.68
608.248	1060.63
608.666	1056.7
609.085	1055.36
609.503	1047.18
609.921	1039.81
610.339	1038.74
610.758	1034.96
611.176	1030.29
611.594	1021.58
612.012	1016.48
612.43	1017.15
612.847	1020.19
613.265	1019.78
613.683	1020.78
614.101	1020.75
614.518	1017.25
614.936	1007.98
615.353	995.08
615.771	990.24
616.188	988.3
616.606	985.4
617.023	978.7
617.44	966.97
617.857	959.78
618.274	951.91
618.691	945.01
619.108	935.6
619.525	929.18
619.942	933.6
620.359	934.13
620.776	929.02
621.192	924.86
621.609	922.2
622.026	926.35
622.442	930.12
622.859	931.91
623.275	925.69
623.691	930.19
624.108	938.24
624.524	947.22
624.94	947.66
625.356	954.41
625.772	963.52
626.188	971.35
626.604	972.02
627.02	969.38
627.436	968.1
627.852	973.74
628.268	982.23
628.683	976.23
629.099	970.29
629.514	965.86
629.93	967.93
630.345	971.34
630.761	968.47
631.176	971.27
631.591	966.25
632.007	961.33
632.422	959.32
632.837	949.9
633.252	946.66
633.667	938.72
634.082	931.18
634.497	921.29
634.911	905.96
635.326	902.16
635.741	888.43
636.155	878.6
636.57	877.99
636.984	875.9
637.399	876.18
637.813	873.69
638.228	869.99
638.642	871.15
639.056	861.5
639.47	858.69
639.884	850.61
640.298	843.03
640.712	841.04
641.126	828.42
641.54	819.62
641.954	811.96
642.368	800.93
642.781	793.96
643.195	779.02
643.609	778.12
644.022	771.93
644.436	766.51
644.849	756.59
645.262	745.33
645.676	745.21
646.089	739.74
646.502	729.17
646.915	724.25
647.328	711.14
647.741	708.66
648.154	697.66
648.567	694.36
648.98	684.81
649.393	683.57
649.805	681.75
650.218	675.6
650.631	664.46
651.043	659.19
651.456	654.75
651.868	654.04
652.28	664.11
652.693	672.05
653.105	675.78
653.517	681.31
653.929	681.34
654.341	682.94
654.753	674.32
655.165	677.91
655.577	675.25
655.989	671.3
656.401	665.39
656.813	643.41
657.224	631.19
657.636	611.61
658.047	599.62
658.459	587.64
658.87	582.12
659.282	574.85
659.693	563.08
660.104	555.1
660.515	545.98
660.926	544.72
661.338	541.72
661.749	537.21
662.159	531.85
662.57	530.11
662.981	527.15
663.392	522.69
663.803	525.45
664.213	523.95
664.624	521.04
665.035	525.24
665.445	517.43
665.855	514.04
666.266	510.14
666.676	510.6
667.086	505.14
667.497	506.15
667.907	503.23
668.317	498.83
668.727	498.9
669.137	500.51
669.547	499.8
669.956	502.59
670.366	506.54
670.776	508.75
671.186	512.56
671.595	516.34
672.005	519.07
672.414	520.62
672.824	520.93
673.233	524.08
673.642	526.64
674.052	529.74
674.461	533.15
674.87	536.15
675.279	536.75
675.688	537.69
676.097	540.2
676.506	539.74
676.915	550.94
677.323	552.66
677.732	551.96
678.141	552.28
678.549	546.06
678.958	546.28
679.366	546.15
679.775	549.05
680.183	556.58
680.592	559.88
681	563.34
681.408	558.47
681.816	564.14
682.224	569.75
682.632	577.55
683.04	596.66
683.448	611.69
683.856	633
684.264	657.29
684.671	678.87
685.079	706.49
685.487	736.65
685.894	778.81
686.302	814.24
686.709	842.1
687.116	875.98
687.524	905.85
687.931	933.37
688.338	956.34
688.745	976.98
689.152	1003.02
689.559	1037.04
689.966	1074.17
690.373	1096.66
690.78	1134.47
691.187	1190.06
691.593	1237.25
692	1279.63
692.407	1339.25
692.813	1412.04
693.22	1473.21
693.626	1536.9
694.032	1591.03
694.439	1667.26
694.845	1730.01
695.251	1809.2
695.657	1882.84
696.063	1983.12
696.469	2065.32
696.875	2142.43
697.281	2193.86
697.687	2255.32
698.093	2309.53
698.498	2397.92
698.904	2471.43
699.31	2572.19
699.715	2647.81
