Data from C_1_DIV_IL_4N_Splice17_11-59-37-955.txt Node
Date: Sat Mar 14 11:59:37 EDT 2020
User: sa697716
Spectrometer: FLMS03696
Trigger mode: 0
Integration Time (sec): 3.180400E-1
Scans to average: 20
Electric dark correction enabled: true
Nonlinearity correction enabled: true
Boxcar width: 5
XAxis mode: Wavelengths
Number of Pixels in Spectrum: 2048
>>>>>Begin Spectral Data<<<<<
187.83	-260885.38
188.298	1959.76
188.766	1079.97
189.233	1001.65
189.701	1384.3
190.169	1951.14
190.636	735.32
191.104	550.21
191.571	86.44
192.039	-38.58
192.506	-11.72
192.974	432.95
193.441	-806.68
193.908	-240.43
194.375	-17
194.842	52.3
195.31	134.02
195.777	164.83
196.244	304.66
196.711	350.69
197.177	439.66
197.644	612.29
198.111	1041.46
198.578	1462.88
199.045	1152.18
199.511	1850.56
199.978	2139.94
200.445	1836.84
200.911	2016
201.378	2259.67
201.844	2042.71
202.31	3475.66
202.777	3653.72
203.243	2006.92
203.709	1912.64
204.176	2281.78
204.642	1886.55
205.108	1765.32
205.574	1432.49
206.04	1311.06
206.506	1220.7
206.972	1162.18
207.438	1115.5
207.903	1258.42
208.369	1130.01
208.835	1148.24
209.301	1220.2
209.766	1234.87
210.232	1237.06
210.697	1536.33
211.163	1889.71
211.628	2872.24
212.094	2431.47
212.559	3040.73
213.024	1926.04
213.49	2361.08
213.955	2290.81
214.42	2237.81
214.885	2115.74
215.35	2031.38
215.815	1968.36
216.28	2106.36
216.745	1713.89
217.21	1863.99
217.675	1703.65
218.14	1927.22
218.604	2170.23
219.069	2517.4
219.534	2686
219.998	3163.48
220.463	3885.99
220.927	4845.36
221.392	4626.52
221.856	4748.42
222.32	6030.52
222.785	7544.76
223.249	9571.89
223.713	10739.65
224.177	10826.85
224.642	13945.95
225.106	17222.68
225.57	18908.63
226.034	14121.21
226.497	21522.53
226.961	19507.01
227.425	22821.63
227.889	25328.54
228.353	25385.11
228.816	52588.43
229.28	50389
229.744	42574.72
230.207	25972.42
230.671	25592.69
231.134	42470.98
231.597	49061.05
232.061	49114.96
232.524	47972.68
232.987	33140.2
233.45	29838.19
233.914	26851.58
234.377	27568.41
234.84	25269.31
235.303	29827.38
235.766	33351.62
236.229	34505.98
236.691	21801.53
237.154	24519.52
237.617	18460.04
238.08	18914.22
238.542	22220.56
239.005	15879.27
239.468	15789.48
239.93	14920.6
240.393	13564.03
240.855	11910.3
241.317	12195.66
241.78	14808.2
242.242	15338.71
242.704	16583.17
243.166	14453.29
243.629	13110.6
244.091	15119.71
244.553	16557.11
245.015	17791.09
245.477	23063.88
245.939	33849.98
246.4	35923.63
246.862	34978.34
247.324	32969.61
247.786	36906.79
248.247	48448.11
248.709	50055.72
249.17	37465.17
249.632	35347.23
250.093	41017.15
250.555	35391.2
251.016	21577.08
251.477	20499.1
251.939	22143.46
252.4	23261.89
252.861	27682.31
253.322	25740.16
253.783	30665.78
254.244	39816.31
254.705	31397.67
255.166	27932.15
255.627	27577.03
256.088	38909.8
256.549	41337.93
257.009	35640.96
257.47	43290.39
257.931	35262.59
258.391	26467.21
258.852	27315.25
259.312	28667.53
259.773	35436.43
260.233	29959.77
260.694	25282.11
261.154	28725.13
261.614	23086.43
262.074	20667.68
262.534	21497.42
262.994	20273.51
263.455	27024.57
263.915	22782.14
264.374	21453.24
264.834	23443.55
265.294	26008.82
265.754	26943.56
266.214	25525.14
266.673	23929.42
267.133	30196.34
267.593	29962.59
268.052	36701.6
268.512	31966.33
268.971	38547.13
269.431	42329.28
269.89	37940.41
270.349	56886.74
270.809	63504.2
271.268	57126.09
271.727	128227.56
272.186	83157.77
272.645	62357.15
273.104	45005.96
273.563	65124.86
274.022	51259.64
274.481	43630.57
274.94	33621.43
275.399	25048.51
275.857	29152.58
276.316	39440.01
276.775	35122.63
277.233	34606.92
277.692	32418.38
278.15	36687.65
278.609	37777.31
279.067	34988.1
279.525	32494.81
279.984	41962.78
280.442	50336.69
280.9	49615.17
281.358	32626.32
281.816	30390.63
282.274	29745.82
282.732	30761.45
283.19	30945.2
283.648	26697.49
284.106	28450.43
284.564	28940.62
285.021	26828.95
285.479	20019.35
285.937	18232.58
286.394	16002.08
286.852	16467.26
287.309	17284.39
287.767	16685.66
288.224	15845.56
288.682	17413.73
289.139	19119.23
289.596	17517.05
290.053	18212.55
290.511	22973.45
290.968	27856.85
291.425	37870.96
291.882	31557.86
292.339	27544.66
292.796	27361.35
293.252	25831.23
293.709	20511.75
294.166	18391.13
294.623	20326.5
295.079	19535.8
295.536	19655.63
295.992	17855.13
296.449	17644.83
296.905	18341.49
297.362	17601.35
297.818	18520.63
298.274	19208.37
298.731	19575.74
299.187	19370.95
299.643	20770.47
300.099	25109.95
300.555	27522.77
301.011	23019.43
301.467	22203.92
301.923	25974.21
302.379	25320.72
302.835	24874.98
303.291	24921.5
303.746	28407.21
304.202	35897
304.658	36072.4
305.113	24291.51
305.569	23808.96
306.024	25348.88
306.479	24123.99
306.935	20362.26
307.39	22225.93
307.845	20530.22
308.301	20652.53
308.756	20096.7
309.211	19362.39
309.666	19835.05
310.121	24593.44
310.576	24972.95
311.031	24798.41
311.486	28401.09
311.94	28339.8
312.395	37965.85
312.85	71305.16
313.305	349882.56
313.759	1808886.63
314.214	130960.47
314.668	103718.54
315.123	87289.95
315.577	31327.02
316.032	27845.81
316.486	34920.71
316.94	27562.19
317.394	19163.64
317.849	14881.63
318.303	14098.17
318.757	13322.38
319.211	14741.82
319.665	12932.56
320.119	13077.94
320.572	18711.68
321.026	17512.27
321.48	14576.98
321.934	15921.53
322.387	15956.52
322.841	17269.05
323.295	15531.39
323.748	17890.75
324.202	18153.26
324.655	21787.21
325.108	30471.66
325.562	21552.01
326.015	25620.56
326.468	19369.5
326.921	21628.35
327.374	20190.08
327.827	21000.14
328.28	23759.38
328.733	15908.36
329.186	13978.47
329.639	13306.82
330.092	11210.78
330.545	10680.58
330.997	10764.54
331.45	11778.74
331.903	13836.75
332.355	23807.42
332.808	23147.36
333.26	19136.01
333.713	20791.86
334.165	20964.01
334.617	28027.08
335.069	22662.48
335.522	41014.51
335.974	45456.17
336.426	41498.29
336.878	28717.78
337.33	14581.49
337.782	14241.52
338.234	17812.43
338.686	21309.5
339.137	25272.76
339.589	23820.49
340.041	18685.38
340.493	16051.9
340.944	16439.59
341.396	17721.99
341.847	14912.14
342.299	17592.13
342.75	21525.15
343.201	18864.52
343.653	21742.29
344.104	26722.82
344.555	21067.64
345.006	32862.91
345.457	25179.94
345.908	20054.59
346.359	18880.31
346.81	15390.82
347.261	16258.78
347.712	16008.88
348.163	17168.06
348.613	17396.52
349.064	16266.71
349.515	14254.06
349.965	14617.05
350.416	17653.14
350.866	19357.05
351.317	21917.47
351.767	36345.78
352.217	45990.99
352.668	38187.38
353.118	35023.4
353.568	33789.05
354.018	26787.95
354.468	28304.06
354.918	20334.8
355.368	17821.1
355.818	25267.62
356.268	72891.34
356.718	305267.21
357.168	76067.63
357.617	38281.16
358.067	42712.92
358.517	40175.79
358.966	47130.09
359.416	52915.9
359.865	57294.39
360.315	68265.35
360.764	31894.65
361.213	17894.99
361.663	17048.57
362.112	21093.65
362.561	34163.06
363.01	25802.84
363.459	21762.67
363.908	23635.48
364.357	20158.6
364.806	34174.25
365.255	23597.89
365.703	21697.74
366.152	21843.43
366.601	17726.21
367.05	14460.34
367.498	13200.04
367.947	13846.62
368.395	14445.47
368.844	12838.63
369.292	15522.87
369.74	10773.79
370.189	16587.11
370.637	19547.53
371.085	16931.4
371.533	20748.43
371.981	20093.54
372.429	19236.92
372.877	20172.5
373.325	17005.43
373.773	17437.83
374.221	15620.47
374.669	19460.07
375.116	16917.21
375.564	17173.43
376.012	19325.53
376.459	16046.63
376.907	19286.81
377.354	23485.75
377.801	22029.14
378.249	25444.1
378.696	32768.68
379.143	39985.29
379.591	43009.42
380.038	73049.53
380.485	53029
380.932	57564.75
381.379	52918.91
381.826	39144.59
382.273	27991.47
382.72	24655.41
383.166	24171.94
383.613	15746.79
384.06	14261.22
384.506	16576.51
384.953	12263.4
385.4	12415.57
385.846	10935.31
386.292	10726.1
386.739	10542.37
387.185	10466.4
387.631	10492.64
388.078	10209.49
388.524	10970.82
388.97	10164.96
389.416	8498.77
389.862	9061.15
390.308	8616.51
390.754	8765.52
391.2	9520.52
391.645	9785.61
392.091	9358.83
392.537	9051.85
392.983	9085.45
393.428	8916.74
393.874	9558.38
394.319	9590.1
394.765	9084.43
395.21	9340.21
395.655	8759.08
396.101	8205.59
396.546	7397.09
396.991	7467.78
397.436	6943.48
397.881	6708.93
398.326	6364.04
398.771	6006.64
399.216	5248
399.661	4728.76
400.106	4693.76
400.551	4792.87
400.995	4291.73
401.44	4235.51
401.885	3978.65
402.329	4005.68
402.774	3826.32
403.218	3689.16
403.663	3548.32
404.107	3635.12
404.551	3647.29
404.995	3339.49
405.44	3210.65
405.884	3251.12
406.328	3137.59
406.772	3113.63
407.216	2827.11
407.66	2730.31
408.104	2589.4
408.547	2422.73
408.991	2343.49
409.435	2252.24
409.879	2211.26
410.322	2180.84
410.766	2098.49
411.209	1990.58
411.653	1909.13
412.096	1867.31
412.54	1864.52
412.983	1848.07
413.426	1850.4
413.869	1844.57
414.312	1806.01
414.756	1742.03
415.199	1657.55
415.642	1608.99
416.085	1609.38
416.527	1593.28
416.97	1615.14
417.413	1528.14
417.856	1510.99
418.298	1491.32
418.741	1480.82
419.184	1473.42
419.626	1533.61
420.069	1530.82
420.511	1534.02
420.953	1499.24
421.396	1486.67
421.838	1448.67
422.28	1479.86
422.722	1484.84
423.164	1504.34
423.606	1474.98
424.048	1474.55
424.49	1399.32
424.932	1391.79
425.374	1374.35
425.816	1398.1
426.258	1420.34
426.699	1431.93
427.141	1410.71
427.582	1432.44
428.024	1423.5
428.465	1414.45
428.907	1373.57
429.348	1354.02
429.789	1349.95
430.231	1319.44
430.672	1334.04
431.113	1301.96
431.554	1280.34
431.995	1245.68
432.436	1196.58
432.877	1168.11
433.318	1146.13
433.759	1142.4
434.2	1143.59
434.64	1131.2
435.081	1132.03
435.522	1070.55
435.962	1030.59
436.403	1009.42
436.843	1023.55
437.284	1001.16
437.724	972.61
438.164	975.99
438.604	953.25
439.045	916.21
439.485	877.19
439.925	859.04
440.365	838.46
440.805	826.44
441.245	815.3
441.685	783.34
442.125	777.99
442.564	784.5
443.004	765.21
443.444	763.48
443.883	763.3
444.323	758.41
444.762	760.56
445.202	769.88
445.641	785.46
446.081	781.34
446.52	788.85
446.959	781.19
447.398	761.26
447.837	752.05
448.276	738.95
448.716	747.34
449.154	754.31
449.593	736.2
450.032	732.85
450.471	719.61
450.91	719.94
451.349	720.16
451.787	717.97
452.226	730.37
452.664	732.05
453.103	733.25
453.541	730.97
453.98	729.35
454.418	735.49
454.856	726.2
455.295	724.64
455.733	732.07
456.171	734.59
456.609	735.24
457.047	734.28
457.485	744.99
457.923	747.12
458.361	738.59
458.798	741.28
459.236	740.04
459.674	743.95
460.111	746.55
460.549	737.69
460.987	737
461.424	735.19
461.862	732.3
462.299	720.53
462.736	718.47
463.173	720.82
463.611	713.53
464.048	710.59
464.485	716.85
464.922	711.56
465.359	707.1
465.796	697.48
466.233	693.02
466.67	686.84
467.106	684.26
467.543	677.36
467.98	669.01
468.416	651.48
468.853	645.83
469.29	626.98
469.726	619.58
470.162	604.19
470.599	595.98
471.035	590.12
471.471	575.24
471.907	573.33
472.344	570.95
472.78	571.79
473.216	580.02
473.652	573.74
474.088	572.51
474.523	570.85
474.959	576.3
475.395	571.44
475.831	566.82
476.266	569.54
476.702	566.93
477.138	560.38
477.573	558.17
478.008	555.54
478.444	558.16
478.879	562.3
479.314	564.62
479.75	564.62
480.185	567.03
480.62	572.21
481.055	575.65
481.49	580.65
481.925	589.76
482.36	599.98
482.795	616.14
483.229	631.52
483.664	645.29
484.099	647.77
484.534	657.8
484.968	664.57
485.403	667.16
485.837	667.04
486.271	665.38
486.706	667.13
487.14	660.33
487.574	649.93
488.009	645.57
488.443	640
488.877	646.72
489.311	649.27
489.745	655.98
490.179	662.38
490.613	674.44
491.046	679.86
491.48	684.3
491.914	685.35
492.348	691.2
492.781	694.75
493.215	696.41
493.648	697.45
494.082	702.23
494.515	703.59
494.948	711.63
495.382	716.71
495.815	722.47
496.248	727.43
496.681	739.59
497.114	750.03
497.547	760.38
497.98	773.98
498.413	780.72
498.846	790.12
499.279	798.4
499.711	801.68
500.144	803.11
500.577	812.07
501.009	822.67
501.442	831.61
501.874	832.57
502.306	833.24
502.739	839.29
503.171	852.29
503.603	854.99
504.036	863.96
504.468	868.52
504.9	878.29
505.332	884.08
505.764	886.95
506.196	892.31
506.627	905.12
507.059	916.79
507.491	923.53
507.923	919.96
508.354	933.56
508.786	940.78
509.217	956.29
509.649	968.16
510.08	983.76
510.512	996.79
510.943	1008.97
511.374	1016.83
511.805	1033.03
512.237	1048.98
512.668	1076.81
513.099	1097.1
513.53	1119.41
513.961	1135.08
514.391	1160.22
514.822	1186.71
515.253	1215.3
515.684	1233.73
516.114	1257.3
516.545	1272.22
516.975	1291.35
517.406	1302.98
517.836	1301.24
518.267	1302.65
518.697	1314.7
519.127	1314.04
519.558	1316.08
519.988	1314.73
520.418	1321.39
520.848	1331.93
521.278	1335.8
521.708	1348.1
522.138	1354.7
522.567	1378.25
522.997	1396.01
523.427	1405.49
523.857	1417.37
524.286	1423.14
524.716	1433.28
525.145	1445.08
525.575	1451.37
526.004	1460.75
526.433	1449.4
526.863	1447.32
527.292	1435.43
527.721	1438.23
528.15	1440.36
528.579	1438.53
529.008	1445.05
529.437	1462.17
529.866	1471.09
530.295	1483.32
530.724	1492.08
531.152	1514.02
531.581	1523.5
532.01	1537.06
532.438	1542.09
532.867	1552.88
533.295	1567.61
533.723	1571.72
534.152	1569.14
534.58	1567.67
535.008	1553.51
535.436	1553.93
535.865	1558.89
536.293	1569.58
536.721	1581.61
537.149	1602.32
537.576	1604.34
538.004	1614.16
538.432	1620.25
538.86	1619.03
539.287	1625.74
539.715	1637.17
540.143	1638.42
540.57	1635.22
540.998	1632.4
541.425	1612.97
541.852	1594.61
542.28	1592.48
542.707	1577.31
543.134	1565.49
543.561	1560.29
543.988	1552.93
544.415	1551.52
544.842	1547.41
545.269	1540.46
545.696	1542.24
546.123	1552.57
546.549	1544.1
546.976	1532.51
547.403	1531.76
547.829	1532.34
548.256	1533.2
548.682	1530.56
549.108	1524.47
549.535	1522.43
549.961	1523.4
550.387	1511.1
550.813	1506.45
551.24	1510.56
551.666	1511.57
552.092	1503.64
552.518	1497.81
552.943	1492.29
553.369	1497.38
553.795	1501.61
554.221	1502.69
554.646	1499.95
555.072	1510.54
555.498	1514.4
555.923	1521.46
556.349	1533.83
556.774	1541.46
557.199	1542.73
557.625	1548.55
558.05	1543.66
558.475	1551.68
558.9	1551.4
559.325	1545.38
559.75	1539.94
560.175	1535
560.6	1531.54
561.025	1529.75
561.449	1531.26
561.874	1536.55
562.299	1541.15
562.723	1548.7
563.148	1542.47
563.572	1546.56
563.997	1555.78
564.421	1560.71
564.846	1563.07
565.27	1566.51
565.694	1566.39
566.118	1577.17
566.542	1585.49
566.966	1581.96
567.39	1580.03
567.814	1571.73
568.238	1573.54
568.662	1580.41
569.086	1584.15
569.509	1592.59
569.933	1581.28
570.357	1576.78
570.78	1560.89
571.204	1551.92
571.627	1545.4
572.05	1545.85
572.474	1548.86
572.897	1541.16
573.32	1536.08
573.743	1530.86
574.166	1516.5
574.589	1519.8
575.012	1515.33
575.435	1516.77
575.858	1510.25
576.281	1501.94
576.704	1489.69
577.126	1479.48
577.549	1469.92
577.972	1462.79
578.394	1454.04
578.817	1449.96
579.239	1434.52
579.661	1422.63
580.084	1409.26
580.506	1398.15
580.928	1394.64
581.35	1386.05
581.772	1383.5
582.194	1372.67
582.616	1361.61
583.038	1349.43
583.46	1339.43
583.882	1337.04
584.303	1342.6
584.725	1339.62
585.147	1342.88
585.568	1353.93
585.99	1364.5
586.411	1371.21
586.833	1385.06
587.254	1388.5
587.675	1402.65
588.096	1415.3
588.518	1410.64
588.939	1396.16
589.36	1395.72
589.781	1386.58
590.202	1361.57
590.623	1354.55
591.043	1352.75
591.464	1342.12
591.885	1337.78
592.305	1332.57
592.726	1320.05
593.147	1321.34
593.567	1317.45
593.987	1310.64
594.408	1305.21
594.828	1303.03
595.248	1298.1
595.669	1281.36
596.089	1275.44
596.509	1270.94
596.929	1259.31
597.349	1261.2
597.769	1253.03
598.189	1247.09
598.608	1248.97
599.028	1251.85
599.448	1252.56
599.867	1241.72
600.287	1239.56
600.706	1236.03
601.126	1228.13
601.545	1227.05
601.965	1226.51
602.384	1222.84
602.803	1225.69
603.222	1222.4
603.641	1217.17
604.061	1214.92
604.48	1211.69
604.898	1218.61
605.317	1223.82
605.736	1226.44
606.155	1225.32
606.574	1217.28
606.992	1222.27
607.411	1219.86
607.829	1213.18
608.248	1211.55
608.666	1210.39
609.085	1211.52
609.503	1204.43
609.921	1199.79
610.339	1202.15
610.758	1202.24
611.176	1199.39
611.594	1193.33
612.012	1191.09
612.43	1193.99
612.847	1200.36
613.265	1201.45
613.683	1205.86
614.101	1208.14
614.518	1205.34
614.936	1197.36
615.353	1185.6
615.771	1184.01
616.188	1183.75
616.606	1180.81
617.023	1176.01
617.44	1164.22
617.857	1160.14
618.274	1154.29
618.691	1149.06
619.108	1141.21
619.525	1136.06
619.942	1142.14
620.359	1143.83
620.776	1140.2
621.192	1137.54
621.609	1135.59
622.026	1141.64
622.442	1146.1
622.859	1147.98
623.275	1142.22
623.691	1148.4
624.108	1159.45
624.524	1172.98
624.94	1174.46
625.356	1183.37
625.772	1195.57
626.188	1205.94
626.604	1207.42
627.02	1204.16
627.436	1202.82
627.852	1210.52
628.268	1220.36
628.683	1211.79
629.099	1203.56
629.514	1198.45
629.93	1201.74
630.345	1205.55
630.761	1202.54
631.176	1205.59
631.591	1201.3
632.007	1196.76
632.422	1195.17
632.837	1186.21
633.252	1184.67
633.667	1176.23
634.082	1168.18
634.497	1157.23
634.911	1140.55
635.326	1138.82
635.741	1125.2
636.155	1116.23
636.57	1118
636.984	1117.34
637.399	1120.4
637.813	1121.87
638.228	1122.51
638.642	1128.11
639.056	1120.03
639.47	1121.31
639.884	1115.3
640.298	1110.4
640.712	1110.9
641.126	1101.32
641.54	1095.98
641.954	1092.46
642.368	1082.11
642.781	1075.69
643.195	1061.15
643.609	1064.05
644.022	1060.44
644.436	1057.97
644.849	1048.4
645.262	1039.73
645.676	1041.63
646.089	1038.59
646.502	1026.74
646.915	1023.75
647.328	1010.52
647.741	1008.74
648.154	997.41
648.567	995.74
648.98	984.31
649.393	985.64
649.805	981.84
650.218	976.14
650.631	961.06
651.043	953.64
651.456	947.77
651.868	947.36
652.28	964.14
652.693	977.69
653.105	984.3
653.517	993.22
653.929	994.34
654.341	1000.39
654.753	988.51
655.165	994.44
655.577	993.07
655.989	988.52
656.401	982.71
656.813	949.56
657.224	930.57
657.636	902.89
658.047	885.43
658.459	867.31
658.87	858.98
659.282	848.46
659.693	830.42
660.104	816.75
660.515	805.04
660.926	802.39
661.338	800.06
661.749	793.81
662.159	785.14
662.57	781.63
662.981	776.2
663.392	769.44
663.803	772.93
664.213	770.39
664.624	766.63
665.035	769.14
665.445	756.6
665.855	749.27
666.266	741.93
666.676	739.8
667.086	730.65
667.497	730.62
667.907	724.63
668.317	715.02
668.727	710.5
669.137	710.56
669.547	706.96
669.956	708.32
670.366	708.9
670.776	709.55
671.186	713.36
671.595	715.67
672.005	717.63
672.414	715.7
672.824	714.5
673.233	718.77
673.642	720.13
674.052	722.55
674.461	724.42
674.87	728.61
675.279	725.56
675.688	725.04
676.097	725.47
676.506	721.68
676.915	734.29
677.323	735.85
677.732	732.95
678.141	731.66
678.549	721.85
678.958	721.4
679.366	719.4
679.775	723.4
680.183	731.62
680.592	736.77
681	742.45
681.408	736.82
681.816	743.13
682.224	751.21
682.632	760.99
683.04	787.91
683.448	809.19
683.856	838.73
684.264	871.19
684.671	901.11
685.079	937.59
685.487	976.96
685.894	1031.63
686.302	1077.29
686.709	1111.27
687.116	1152.44
687.524	1185.71
687.931	1212.04
688.338	1232.18
688.745	1249.29
689.152	1269.32
689.559	1298.51
689.966	1325.57
690.373	1333.55
690.78	1357.18
691.187	1400.95
691.593	1432.12
692	1455.61
692.407	1497.59
692.813	1550.35
693.22	1588.94
693.626	1630.44
694.032	1659.71
694.439	1712.77
694.845	1750.15
695.251	1801.21
695.657	1845.64
696.063	1914
696.469	1962.96
696.875	2006.17
