Data from C_1_DIV_PA_2N_Splice17_12-01-30-745.txt Node
Date: Sat Mar 14 12:01:30 EDT 2020
User: sa697716
Spectrometer: FLMS03696
Trigger mode: 0
Integration Time (sec): 3.180400E-1
Scans to average: 20
Electric dark correction enabled: true
Nonlinearity correction enabled: true
Boxcar width: 5
XAxis mode: Wavelengths
Number of Pixels in Spectrum: 2048
>>>>>Begin Spectral Data<<<<<
187.83	-315410.32
188.298	1992.51
188.766	1081.44
189.233	953.36
189.701	1320.28
190.169	1877.07
190.636	694.73
191.104	544.65
191.571	98.06
192.039	-31.98
192.506	-60.12
192.974	405.32
193.441	-1058.82
193.908	-406.97
194.375	-164.02
194.842	-96.7
195.31	-35.05
195.777	101.75
196.244	312.05
196.711	447.07
197.177	610.7
197.644	878.4
198.111	1529.98
198.578	2146.34
199.045	1738.75
199.511	2852.65
199.978	3317.84
200.445	2818.04
200.911	3133.29
201.378	3515.57
201.844	3185.5
202.31	5420.04
202.777	5707.59
203.243	3176.3
203.709	3053.38
204.176	3636.73
204.642	3020.6
205.108	2847.86
205.574	2315.92
206.04	2112.11
206.506	1974.09
206.972	1873.34
207.438	1801.33
207.903	2035.01
208.369	1782.97
208.835	1769.17
209.301	1841.73
209.766	1876.31
210.232	1839.72
210.697	2297.02
211.163	2852.46
211.628	4322.78
212.094	3616.02
212.559	4442.96
213.024	2752.27
213.49	3336.97
213.955	3248.39
214.42	3204.93
214.885	2986.3
215.35	2865.77
215.815	2732.02
216.28	2882.8
216.745	2356.5
217.21	2535.68
217.675	2317.04
218.14	2597.06
218.604	2898.44
219.069	3291.1
219.534	3427.69
219.998	3974.57
220.463	4802.07
220.927	5916.05
221.392	5560.88
221.856	5598.92
222.32	7081.85
222.785	8781.2
223.249	11064.18
223.713	12376.71
224.177	12413.36
224.642	15965.62
225.106	19689.15
225.57	21611.92
226.034	16108.06
226.497	24584.7
226.961	22287.72
227.425	26029.26
227.889	28971.36
228.353	29052.1
228.816	60196.51
229.28	57775.14
229.744	48938.43
230.207	29842.49
230.671	29436.42
231.134	48864.77
231.597	56479.44
232.061	56645.87
232.524	55448.41
232.987	38330.96
233.45	34597.81
233.914	31165.38
234.377	32030.23
234.84	29372.86
235.303	34751.26
235.766	38903.06
236.229	40335.46
236.691	25506.26
237.154	28773.04
237.617	21681.54
238.08	22248.32
238.542	26172.05
239.005	18730.03
239.468	18647.9
239.93	17620.92
240.393	16052.22
240.855	14112.38
241.317	14484.71
241.78	17667.57
242.242	18287.37
242.704	19772.52
243.166	17243.25
243.629	15662.49
244.091	18087.5
244.553	19837.5
245.015	21330.96
245.477	27641.01
245.939	40612.77
246.4	43164.48
246.862	41967.18
247.324	39636.58
247.786	44408.62
248.247	58264.8
248.709	60239.33
249.17	45094.22
249.632	42524.26
250.093	49374.17
250.555	42644.97
251.016	26018.33
251.477	24688.68
251.939	26666.14
252.4	27985.51
252.861	33351.61
253.322	31054.87
253.783	37024.97
254.244	48037.99
254.705	37941.67
255.166	33808.67
255.627	33371.13
256.088	47110.51
256.549	50149.77
257.009	43259.69
257.47	52545.32
257.931	42839.33
258.391	32144.65
258.852	33140.29
259.312	34809.42
259.773	42964.6
260.233	36304.41
260.694	30622.23
261.154	34762.63
261.614	27890.43
262.074	24940.24
262.534	25934.78
262.994	24439.08
263.455	32598.93
263.915	27483.33
264.374	25894.07
264.834	28305.11
265.294	31397.97
265.754	32509.76
266.214	30799.85
266.673	28882.53
267.133	36493.15
267.593	36222.05
268.052	44318.65
268.512	38552.52
268.971	46459.35
269.431	50956.31
269.89	45675.19
270.349	68386.21
270.809	76296.08
271.268	68568.68
271.727	153831.76
272.186	99680.3
272.645	74741.8
273.104	53983.24
273.563	78091.94
274.022	61475.28
274.481	52323.73
274.94	40325.18
275.399	30035.94
275.857	35004.97
276.316	47378.7
276.775	42186.73
277.233	41550.75
277.692	38910.3
278.15	44024.61
278.609	45293.73
279.067	41929.63
279.525	38925.16
279.984	50297.68
280.442	60416.11
280.9	59533.1
281.358	39221
281.816	36569.17
282.274	35817.52
282.732	37088.1
283.19	37288.28
283.648	32261.91
284.106	34431.45
284.564	35068.53
285.021	32552.84
285.479	24292.77
285.937	22148.69
286.394	19430.7
286.852	20008.18
287.309	21047.12
287.767	20332.59
288.224	19360.63
288.682	21269.35
289.139	23366.19
289.596	21392.2
290.053	22251.47
290.511	28127.27
290.968	34112.85
291.425	46366.78
291.882	38622.68
292.339	33659.26
292.796	33456.77
293.252	31582.28
293.709	25089.48
294.166	22511.16
294.623	24926.63
295.079	23962.63
295.536	24100.58
295.992	21920.57
296.449	21693.81
296.905	22581.75
297.362	21680.04
297.818	22836.7
298.274	23730.31
298.731	24244.52
299.187	24032.37
299.643	25835.94
300.099	31284.89
300.555	34350.01
301.011	28755.67
301.467	27736.28
301.923	32538.3
302.379	31837.64
302.835	31271.2
303.291	31303.16
303.746	35661.88
304.202	45042.19
304.658	45299.82
305.113	30477.04
305.569	29893.13
306.024	31888.53
306.479	30432.77
306.935	25653.92
307.39	28055.06
307.845	25953.8
308.301	26141.84
308.756	25490.37
309.211	24610.16
309.666	25229.96
310.121	31362
310.576	31889.1
311.031	31665.29
311.486	36301.14
311.94	36347.2
312.395	48613.79
312.85	91414.45
313.305	450141.93
313.759	2331059.24
314.214	168908.08
314.668	133962.92
315.123	112566.94
315.577	40358.66
316.032	35932.31
316.486	45053.77
316.94	35495.59
317.394	24709.19
317.849	19220.19
318.303	18205.16
318.757	17188.13
319.211	19020.4
319.665	16663.75
320.119	16883
320.572	24232.48
321.026	22621.59
321.48	18836.31
321.934	20593.38
322.387	20659.36
322.841	22312.35
323.295	20032.3
323.748	23096.43
324.202	23454.3
324.655	28152.56
325.108	39340.53
325.562	27846.84
326.015	33161.28
326.468	25043.02
326.921	28013.67
327.374	26139.88
327.827	27234.86
328.28	30834.04
328.733	20644.44
329.186	18148.59
329.639	17310.63
330.092	14602.28
330.545	13904.14
330.997	14012.71
331.45	15330.12
331.903	17947.48
332.355	30886.01
332.808	30070.32
333.26	24855.03
333.713	27024.43
334.165	27259.68
334.617	36437.1
335.069	29479.03
335.522	53291.75
335.974	59070.6
336.426	54009.88
336.878	37475.02
337.33	19022.83
337.782	18579.89
338.234	23268.87
338.686	27888.92
339.137	33007.31
339.589	31111.13
340.041	24394.81
340.493	20980.02
340.944	21494.42
341.396	23164.72
341.847	19478.67
342.299	22937.05
342.75	27946.16
343.201	24469.07
343.653	28141.39
344.104	34651.28
344.555	27252.13
345.006	42479.03
345.457	32433.69
345.908	25807.31
346.359	24287.34
346.81	19800.91
347.261	20919.77
347.712	20652.28
348.163	22143.3
348.613	22379.08
349.064	20890.19
349.515	18301.11
349.965	18747.16
350.416	22666.83
350.866	24866.12
351.317	28144.47
351.767	46638.34
352.217	58943.49
352.668	48895.47
353.118	44842.57
353.568	43346.87
354.018	34292.12
354.468	36202.1
354.918	26023.6
355.368	22765.7
355.818	32158.61
356.268	92600.59
356.718	387387.99
357.168	96395.41
357.617	48433.66
358.067	53890.12
358.517	50529.3
358.966	59211.19
359.416	66359.55
359.865	71744.48
360.315	85449.6
360.764	40025.95
361.213	22454.15
361.663	21330.2
362.112	26392.45
362.561	42667.86
363.01	32201.7
363.459	27159.59
363.908	29459.58
364.357	25057.25
364.806	42419.93
365.255	29279
365.703	26807.7
366.152	26890.68
366.601	21798.35
367.05	17727.94
367.498	16134.95
367.947	16920.64
368.395	17642.59
368.844	15644.69
369.292	18918.49
369.74	13077.93
370.189	20043.16
370.637	23580.55
371.085	20366.16
371.533	24877.73
371.981	24049.66
372.429	22988.44
372.877	23996.29
373.325	20096.42
373.773	20561.68
374.221	18390.59
374.669	22885.39
375.116	19849.85
375.564	20055.07
376.012	22509.69
376.459	18619.64
376.907	22327.11
377.354	27086.14
377.801	25289.73
378.249	29160.12
378.696	37399.64
379.143	45362.95
379.591	48538.3
380.038	82332.98
380.485	59667.64
380.932	64600.91
381.379	59111.41
381.826	43569.43
382.273	31070.15
382.72	27258.97
383.166	26669.21
383.613	17341.1
384.06	15667.15
384.506	18161.37
384.953	13373.18
385.4	13507.64
385.846	11873.18
386.292	11641.63
386.739	11438
387.185	11348.56
387.631	11390
388.078	11036.49
388.524	11816.81
388.97	10932.75
389.416	9140.32
389.862	9731.22
390.308	9228.9
390.754	9383.95
391.2	10188.01
391.645	10436.29
392.091	9967.19
392.537	9635.2
392.983	9688.51
393.428	9526.25
393.874	10219.79
394.319	10249.37
394.765	9714.55
395.21	10008.61
395.655	9384.58
396.101	8788.21
396.546	7932.26
396.991	8025.5
397.436	7463.72
397.881	7209.13
398.326	6857.26
398.771	6491.24
399.216	5692.32
399.661	5137.93
400.106	5122.83
400.551	5251.27
400.995	4721.15
401.44	4678.06
401.885	4400.05
402.329	4454.54
402.774	4282.81
403.218	4136.34
403.663	3994.29
404.107	4113.87
404.551	4147.91
404.995	3813.74
405.44	3687.11
405.884	3752.71
406.328	3645.5
406.772	3644.34
407.216	3329.33
407.66	3227.64
408.104	3080.62
408.547	2889.91
408.991	2803.69
409.435	2703.2
409.879	2670.06
410.322	2640.21
410.766	2554.37
411.209	2432.13
411.653	2339.35
412.096	2292.38
412.54	2297.9
412.983	2284.43
413.426	2296.9
413.869	2297.84
414.312	2261.86
414.756	2182.32
415.199	2084.11
415.642	2025.93
416.085	2029.68
416.527	2017.39
416.97	2050.4
417.413	1948.03
417.856	1934.58
418.298	1918.45
418.741	1911.69
419.184	1910.97
419.626	1995.94
420.069	2000.99
420.511	2013.74
420.953	1971.54
421.396	1956.78
421.838	1909.89
422.28	1954.25
422.722	1965.04
423.164	1997.08
423.606	1963.06
424.048	1964.8
424.49	1870.04
424.932	1862.12
425.374	1842.01
425.816	1877.13
426.258	1916.91
426.699	1945.1
427.141	1919.24
427.582	1954.46
428.024	1946.99
428.465	1939.34
428.907	1891.17
429.348	1867.45
429.789	1866.57
430.231	1826.49
430.672	1854.41
431.113	1808.93
431.554	1783.18
431.995	1740.08
432.436	1672.67
432.877	1633.64
433.318	1602.41
433.759	1595.38
434.2	1597.35
434.64	1581.38
435.081	1584.83
435.522	1502.67
435.962	1451
436.403	1414.83
436.843	1436.28
437.284	1407.98
437.724	1369.76
438.164	1375.84
438.604	1347.7
439.045	1293.34
439.485	1236.77
439.925	1210.73
440.365	1179.34
440.805	1161.45
441.245	1146.19
441.685	1101.96
442.125	1093.51
442.564	1101.59
443.004	1076.8
443.444	1070.48
443.883	1070.75
444.323	1063.69
444.762	1066.95
445.202	1077.99
445.641	1094.34
446.081	1087.68
446.52	1093.44
446.959	1078.31
447.398	1046.1
447.837	1027.68
448.276	1006.7
448.716	1014.47
449.154	1021.5
449.593	990.97
450.032	985.47
450.471	964.56
450.91	962.81
451.349	957.15
451.787	954.23
452.226	968.23
452.664	967.05
453.103	968.33
453.541	964.51
453.98	960.21
454.418	965.96
454.856	949.15
455.295	946.79
455.733	953.48
456.171	958.93
456.609	957.67
457.047	956.59
457.485	968.95
457.923	968.34
458.361	954.67
458.798	958.2
459.236	956.8
459.674	964.66
460.111	970.3
460.549	960.28
460.987	957.82
461.424	954.68
461.862	949.66
462.299	936.14
462.736	935.69
463.173	940.4
463.611	929.01
464.048	925.68
464.485	932.71
464.922	924.05
465.359	919.53
465.796	902.94
466.233	895.61
466.67	885.32
467.106	881.76
467.543	874.21
467.98	862.71
468.416	841.05
468.853	835.54
469.29	810.58
469.726	800.76
470.162	779.52
470.599	771.96
471.035	765.04
471.471	747.42
471.907	743.21
472.344	737.51
472.78	738.13
473.216	746.81
473.652	736.46
474.088	734
474.523	730.73
474.959	736.78
475.395	729.45
475.831	722.74
476.266	726.06
476.702	723.04
477.138	713.77
477.573	710.13
478.008	705.47
478.444	707.08
478.879	711.01
479.314	713.03
479.75	710.74
480.185	712.88
480.62	719.12
481.055	720.7
481.49	724.61
481.925	734.12
482.36	745.59
482.795	766.41
483.229	786.52
483.664	802.91
484.099	805.38
484.534	816.64
484.968	822.85
485.403	823.69
485.837	822.15
486.271	819.45
486.706	818.96
487.14	807.58
487.574	792.41
488.009	783.52
488.443	774.3
488.877	778.92
489.311	779.38
489.745	785.24
490.179	789.69
490.613	801.09
491.046	803.45
491.48	805.6
491.914	802.79
492.348	804.5
492.781	804.16
493.215	800.79
493.648	798.23
494.082	799.38
494.515	795.69
494.948	799.6
495.382	799.1
495.815	799.24
496.248	799.2
496.681	806.89
497.114	812.84
497.547	817.27
497.98	824.67
498.413	823.28
498.846	825.64
499.279	826.26
499.711	821.37
500.144	815.16
500.577	816.8
501.009	818.74
501.442	819.18
501.874	810.86
502.306	803.74
502.739	801.52
503.171	806.02
503.603	799.04
504.036	797.28
504.468	792.46
504.9	792.33
505.332	787.92
505.764	780.91
506.196	776.47
506.627	778.07
507.059	777.86
507.491	773.22
507.923	760.24
508.354	760.38
508.786	757.61
509.217	759.82
509.649	759.83
510.08	762.76
510.512	764.25
510.943	764.24
511.374	761.18
511.805	764.74
512.237	767.14
512.668	777.61
513.099	784.98
513.53	791.71
513.961	795.06
514.391	804.89
514.822	815.11
515.253	826.93
515.684	832.34
516.114	840.25
516.545	843.38
516.975	848.57
517.406	850.17
517.836	843.31
518.267	838.85
518.697	840.79
519.127	835.28
519.558	832.37
519.988	827.09
520.418	826.16
520.848	829.56
521.278	827.46
521.708	848.25
522.138	851.39
522.567	862.12
522.997	871.57
523.427	875.27
523.857	880.62
524.286	881.92
524.716	886.5
525.145	894.1
525.575	898.11
526.004	903.86
526.433	881.41
526.863	878.92
527.292	873.11
527.721	874.83
528.15	877.06
528.579	875.38
529.008	880.22
529.437	891.28
529.866	896.79
530.295	903.73
530.724	908.89
531.152	922.41
531.581	927.75
532.01	936.36
532.438	938.87
532.867	944.99
533.295	955.08
533.723	957.29
534.152	955.97
534.58	955.36
535.008	946.84
535.436	948.63
535.865	951.84
536.293	959.39
536.721	966.51
537.149	979.62
537.576	981.47
538.004	987.2
538.432	991.31
538.86	989.9
539.287	993.11
539.715	1000.26
540.143	1000.55
540.57	997.89
540.998	995.9
541.425	986.47
541.852	975.84
542.28	974.77
542.707	966.68
543.134	958.31
543.561	955.92
543.988	952.59
544.415	950.87
544.842	947.6
545.269	944.84
545.696	945.95
546.123	949.92
546.549	943.84
546.976	936.41
547.403	936.03
547.829	937.42
548.256	938.36
548.682	935.34
549.108	932.04
549.535	931.44
549.961	931.18
550.387	923.1
550.813	920.98
551.24	924.17
551.666	925
552.092	919.33
552.518	915.18
552.943	911.72
553.369	914.68
553.795	917.77
554.221	918.23
554.646	916.25
555.072	922.34
555.498	923.5
555.923	926.82
556.349	933.49
556.774	937.19
557.199	937.79
557.625	939.47
558.05	937.25
558.475	940.52
558.9	939.11
559.325	935
559.75	930.82
560.175	927.15
560.6	923.81
561.025	922.05
561.449	922.67
561.874	925.05
562.299	927.7
562.723	929.75
563.148	925.57
563.572	926.78
563.997	930.56
564.421	932.43
564.846	932.28
565.27	933.93
565.694	932.4
566.118	937.24
566.542	941.3
566.966	937.45
567.39	935.75
567.814	930.97
568.238	931.16
568.662	934.09
569.086	936.3
569.509	940
569.933	933.84
570.357	931.36
570.78	922.43
571.204	917.44
571.627	913.08
572.05	913.18
572.474	913.77
572.897	908.56
573.32	907.02
573.743	903
574.166	895.45
574.589	895.7
575.012	892.57
575.435	893.03
575.858	888.61
576.281	884.74
576.704	877.52
577.126	871.17
577.549	867.48
577.972	862.73
578.394	858.62
578.817	857.04
579.239	848.32
579.661	842.59
580.084	836.67
580.506	831.37
580.928	829.94
581.35	826.13
581.772	825.75
582.194	819.6
582.616	813.67
583.038	807.44
583.46	802.72
583.882	803.2
584.303	806.29
584.725	803.4
585.147	806.84
585.568	814.95
585.99	822.65
586.411	827.62
586.833	836.81
587.254	838.66
587.675	846.61
588.096	853.52
588.518	851.89
588.939	844.15
589.36	844.44
589.781	837.88
590.202	823.61
590.623	819.07
591.043	817.67
591.464	811.78
591.885	811.55
592.305	809.34
592.726	802.85
593.147	803.68
593.567	801.54
593.987	798.52
594.408	796.38
594.828	794.57
595.248	792.14
595.669	783.88
596.089	779.59
596.509	776.18
596.929	768.74
597.349	770.05
597.769	765.59
598.189	763.16
598.608	764.22
599.028	765.37
599.448	765.05
599.867	758.25
600.287	756.48
600.706	755.29
601.126	750.08
601.545	751.58
601.965	750.99
602.384	748.14
602.803	749.51
603.222	747.89
603.641	744.74
604.061	744.73
604.48	743.84
604.898	749.45
605.317	753.32
605.736	756.69
606.155	756.66
606.574	753.4
606.992	758.49
607.411	758.42
607.829	755.4
608.248	756.64
608.666	757.25
609.085	759.82
609.503	756.91
609.921	756.12
610.339	758.85
610.758	759.64
611.176	759.33
611.594	757.04
612.012	757.27
612.43	762.18
612.847	768.23
613.265	771.85
613.683	776.41
614.101	779.81
614.518	780.47
614.936	777.78
615.353	772.95
615.771	773.78
616.188	775.69
616.606	776.39
617.023	774.69
617.44	768.51
617.857	765.91
618.274	762.87
618.691	761.09
619.108	757.04
619.525	755.58
619.942	761.74
620.359	764.85
620.776	763.6
621.192	762.89
621.609	762.93
622.026	768.68
622.442	773.62
622.859	776.64
623.275	773.26
623.691	777.33
624.108	784.9
624.524	794.53
624.94	795.31
625.356	802.49
625.772	810.62
626.188	818.61
626.604	819.52
627.02	817.4
627.436	816.46
627.852	822.28
628.268	830.95
628.683	825.88
629.099	820.41
629.514	818.06
629.93	821.11
630.345	824.49
630.761	822.03
631.176	824.6
631.591	822.54
632.007	820.2
632.422	819.16
632.837	813.28
633.252	813.87
633.667	808.99
634.082	805.52
634.497	798.61
634.911	789.01
635.326	788.06
635.741	781.13
636.155	777.22
636.57	781.77
636.984	784.61
637.399	788.58
637.813	791.05
638.228	794.83
638.642	802.71
639.056	801.2
639.47	807.04
639.884	809.37
640.298	811
640.712	816.98
641.126	814.15
641.54	815.36
641.954	817.73
642.368	817.1
642.781	818.57
643.195	812.28
643.609	819.89
644.022	823.06
644.436	826.02
644.849	823.55
645.262	821.64
645.676	830.53
646.089	834.26
646.502	830.8
646.915	832.65
647.328	825.24
647.741	829.7
648.154	825.1
648.567	828.34
648.98	822.79
649.393	827.65
649.805	829.43
650.218	826.5
650.631	816.83
651.043	815.9
651.456	815.52
651.868	819.74
652.28	838.05
652.693	853.16
653.105	861.24
653.517	873.04
653.929	877.31
654.341	885.59
654.753	881.3
655.165	891.24
655.577	893.82
655.989	894.36
656.401	892.96
656.813	867.56
657.224	855.25
657.636	836.36
658.047	827.68
658.459	817.1
658.87	815.54
659.282	811.46
659.693	800.41
660.104	793.77
660.515	789.09
660.926	795.55
661.338	799.87
661.749	802.52
662.159	801.58
662.57	804.85
662.981	808.07
663.392	809.25
663.803	820.86
664.213	826.3
664.624	830.88
665.035	841.36
665.445	834.91
665.855	833.79
666.266	832.43
666.676	836.31
667.086	832.92
667.497	839.49
667.907	838.07
668.317	833.38
668.727	833.1
669.137	838.3
669.547	839.31
669.956	845.71
670.366	851.32
670.776	855.25
671.186	862.46
671.595	868.93
672.005	874.89
672.414	876.27
672.824	876.44
673.233	884.19
673.642	887.35
674.052	891.08
674.461	894.2
674.87	900.7
675.279	898.75
675.688	902.06
676.097	903.41
676.506	898.85
676.915	914.31
677.323	916.59
677.732	913.78
678.141	911.46
678.549	899.36
678.958	896.57
679.366	894.37
679.775	897.36
680.183	904.82
680.592	907.54
681	910.01
681.408	898.64
681.816	901.97
682.224	905.6
682.632	908.41
683.04	932.1
683.448	948.6
683.856	968.32
684.264	991.54
684.671	1009.57
685.079	1033.27
685.487	1057.33
685.894	1094.25
686.302	1117.23
686.709	1130.09
687.116	1147.75
687.524	1152.17
687.931	1150.38
688.338	1141.87
688.745	1128.83
689.152	1118.04
689.559	1115.11
689.966	1111
690.373	1091.11
690.78	1086.3
691.187	1094.71
691.593	1093.56
692	1089.55
692.407	1097.74
692.813	1117.82
693.22	1127.54
693.626	1139.08
694.032	1143.78
694.439	1166.58
694.845	1181.68
695.251	1204.74
695.657	1225.49
696.063	1264.92
696.469	1292.5
696.875	1320.44
697.281	1331.9
697.687	1351.28
698.093	1369.16
698.498	1409.97
698.904	1439.92
699.31	1489.46
699.715	1528.86
700.12	1584.6
700.526	1603.86
700.931	1650.56
701.337	1690.44
701.742	1721.59
702.147	1782.16
702.552	1814.13
702.957	1863.43
703.362	1892.45
703.767	1925.89
704.172	1966.78
