Data from C_1_DEC_ON_6N_Splice17_11-53-53-651.txt Node
Date: Sat Mar 14 11:53:53 EDT 2020
User: sa697716
Spectrometer: FLMS03696
Trigger mode: 0
Integration Time (sec): 3.180400E-1
Scans to average: 20
Electric dark correction enabled: true
Nonlinearity correction enabled: true
Boxcar width: 5
XAxis mode: Wavelengths
Number of Pixels in Spectrum: 2048
>>>>>Begin Spectral Data<<<<<
187.83	-120522.15
188.298	899.03
188.766	521.27
189.233	474.26
189.701	731.63
190.169	1083.99
190.636	351.37
191.104	304.73
191.571	-7.77
192.039	-137.34
192.506	-209.85
192.974	293.2
193.441	-754.26
193.908	-400.27
194.375	-118.22
194.842	-16.91
195.31	71.9
195.777	110.74
196.244	323.12
196.711	375.75
197.177	458.05
197.644	628.99
198.111	1111.83
198.578	1565.72
199.045	1290.87
199.511	2107.78
199.978	2403.06
200.445	2037.22
200.911	2242.93
201.378	2458.36
201.844	2229.97
202.31	3788.09
202.777	3955.09
203.243	2203.76
203.709	2107.9
204.176	2458.3
204.642	2035.87
205.108	1905.66
205.574	1553.12
206.04	1433.44
206.506	1351.5
206.972	1256.92
207.438	1213.06
207.903	1363.85
208.369	1195.74
208.835	1182.44
209.301	1247.15
209.766	1272.71
210.232	1265.25
210.697	1561.37
211.163	1877.71
211.628	2791.56
212.094	2342.27
212.559	2865.11
213.024	1770.2
213.49	2157.49
213.955	2088.76
214.42	2009.74
214.885	1862.04
215.35	1769.01
215.815	1719.03
216.28	1831.92
216.745	1479.3
217.21	1572.06
217.675	1395.83
218.14	1523.32
218.604	1603.97
219.069	1761.13
219.534	1789.29
219.998	1971.88
220.463	2287.6
220.927	2632.2
221.392	2376.88
221.856	2329.37
222.32	2836
222.785	3419.32
223.249	4221.44
223.713	4670.01
224.177	4593.61
224.642	5751.98
225.106	7023.14
225.57	7605.27
226.034	5672.69
226.497	8593.06
226.961	7772.67
227.425	9021.32
227.889	9920.14
228.353	9829.33
228.816	20056.84
229.28	19196.5
229.744	16151.46
230.207	9782.63
230.671	9579.82
231.134	15696.64
231.597	18078.17
232.061	17955.83
232.524	17402.6
232.987	11967.96
233.45	10757.2
233.914	9655.42
234.377	9829.18
234.84	9008.19
235.303	10594.83
235.766	11812.69
236.229	12164.23
236.691	7627.82
237.154	8518.37
237.617	6419.74
238.08	6550.01
238.542	7657.33
239.005	5475.19
239.468	5439.52
239.93	5109.5
240.393	4636.56
240.855	4068.98
241.317	4167.95
241.78	5054.48
242.242	5246.83
242.704	5685.07
243.166	4954.97
243.629	4513.46
244.091	5199.81
244.553	5687.63
245.015	6121.67
245.477	7919.23
245.939	11579.22
246.4	12286.41
246.862	11948.67
247.324	11246.7
247.786	12546.03
248.247	16417.95
248.709	16892.15
249.17	12633.07
249.632	11997.45
250.093	13966
250.555	12067.36
251.016	7393.94
251.477	7000.65
251.939	7558.91
252.4	7921.86
252.861	9394.32
253.322	8750.28
253.783	10397.58
254.244	13474.74
254.705	10553.24
255.166	9305.31
255.627	9139.51
256.088	12894.36
256.549	13700.15
257.009	11750.56
257.47	14237.73
257.931	11538.68
258.391	8656.58
258.852	8914.8
259.312	9307.32
259.773	11439.11
260.233	9725.01
260.694	8206.63
261.154	9270.03
261.614	7450.78
262.074	6644.86
262.534	6892.87
262.994	6515.25
263.455	8625.85
263.915	7245.64
264.374	6825.06
264.834	7456.36
265.294	8218.77
265.754	8512.44
266.214	8039.66
266.673	7503.95
267.133	9458.67
267.593	9344.17
268.052	11400.6
268.512	9904.85
268.971	11978.38
269.431	13126.94
269.89	11722.81
270.349	17524.48
270.809	19480.31
271.268	17473.34
271.727	39049.83
272.186	25257.61
272.645	18952.82
273.104	13616.78
273.563	19673.77
274.022	15397.7
274.481	13078.05
274.94	10075.4
275.399	7482.37
275.857	8680.39
276.316	11699.26
276.775	10434.24
277.233	10268.25
277.692	9658.41
278.15	10961.84
278.609	11302.42
279.067	10439.2
279.525	9750.28
279.984	12606.01
280.442	15148.35
280.9	15034.79
281.358	9917.94
281.816	9251.88
282.274	9086.63
282.732	9335.98
283.19	9385.16
283.648	8112.34
284.106	8676.13
284.564	8793.71
285.021	8173.9
285.479	6102.07
285.937	5542.67
286.394	4897.94
286.852	5046.79
287.309	5321.21
287.767	5195.47
288.224	4973.8
288.682	5488.14
289.139	6061.19
289.596	5583.91
290.053	5806.6
290.511	7336.84
290.968	8907.45
291.425	12062.3
291.882	10102.41
292.339	8789.52
292.796	8663.85
293.252	8137.06
293.709	6487.07
294.166	5819.3
294.623	6403.79
295.079	6144.54
295.536	6205.94
295.992	5648.84
296.449	5591.93
296.905	5797.5
297.362	5600.24
297.818	5917.25
298.274	6153.89
298.731	6257.68
299.187	6195.24
299.643	6663.51
300.099	8076.79
300.555	8843.49
301.011	7386.05
301.467	7176.21
301.923	8372.43
302.379	8170.24
302.835	7991.53
303.291	8033.18
303.746	9159.41
304.202	11549.06
304.658	11611.56
305.113	7816.39
305.569	7685.42
306.024	8200.24
306.479	7762.37
306.935	6595.94
307.39	7190.94
307.845	6696.15
308.301	6763.63
308.756	6580.15
309.211	6354.97
309.666	6517.57
310.121	8130.59
310.576	8251.51
311.031	8208.79
311.486	9408.4
311.94	9391.54
312.395	12589.71
312.85	23641.29
313.305	115562.62
313.759	604087.72
314.214	43986.71
314.668	34962.05
315.123	29616.65
315.577	10666.61
316.032	9505.33
316.486	11895.78
316.94	9414.79
317.394	6580.2
317.849	5133.34
318.303	4856.58
318.757	4570.39
319.211	5042.92
319.665	4432.06
320.119	4469.3
320.572	6386.73
321.026	6003.85
321.48	5002.24
321.934	5445.9
322.387	5445.5
322.841	5891.25
323.295	5366.33
323.748	6157.08
324.202	6253.41
324.655	7517.95
325.108	10542.81
325.562	7499.51
326.015	8853.5
326.468	6735.39
326.921	7556.79
327.374	7086.87
327.827	7401.67
328.28	8343.7
328.733	5628.73
329.186	4967.81
329.639	4736.8
330.092	3995.21
330.545	3808.43
330.997	3871.67
331.45	4264.26
331.903	5026.66
332.355	8588.19
332.808	8323.85
333.26	6863.11
333.713	7485.86
334.165	7562.93
334.617	10072.26
335.069	8096.83
335.522	14584.72
335.974	16123.76
336.426	14656
336.878	10103.37
337.33	5176.56
337.782	5077.76
338.234	6417.16
338.686	7661.35
339.137	9047.96
339.589	8561.16
340.041	6744.58
340.493	5805.43
340.944	5930.32
341.396	6385.87
341.847	5396.71
342.299	6375.57
342.75	7783.13
343.201	6735.66
343.653	7706.35
344.104	9475.98
344.555	7419.04
345.006	11460.61
345.457	8819.92
345.908	7021.2
346.359	6650.6
346.81	5397.2
347.261	5657.54
347.712	5542.23
348.163	5936.81
348.613	6055.49
349.064	5649
349.515	4931.44
349.965	5084.72
350.416	6111.56
350.866	6697.03
351.317	7478.63
351.767	12379.2
352.217	15635.52
352.668	13024.57
353.118	11912.5
353.568	11398.76
354.018	9046.32
354.468	9601.51
354.918	6893.93
355.368	6058.14
355.818	8544.11
356.268	24611.69
356.718	103753.75
357.168	25940.3
357.617	13026.92
358.067	14519.88
358.517	13652.81
358.966	16032.69
359.416	18112.65
359.865	19546.71
360.315	23180.53
360.764	10890.1
361.213	6137.17
361.663	5775.75
362.112	7117.38
362.561	11519.31
363.01	8761.11
363.459	7423.96
363.908	8070.54
364.357	6894.69
364.806	11641.74
365.255	8010.28
365.703	7406.66
366.152	7438.15
366.601	6075.14
367.05	4986.92
367.498	4559.78
367.947	4749.59
368.395	4923.28
368.844	4368.48
369.292	5238.22
369.74	3660.71
370.189	5595.87
370.637	6531.23
371.085	5648.67
371.533	6875.85
371.981	6579.84
372.429	6276.3
372.877	6545.57
373.325	5489.93
373.773	5581.16
374.221	4962.02
374.669	6147.6
375.116	5343.02
375.564	5396.21
376.012	6046.28
376.459	5020.39
376.907	5992.09
377.354	7243.18
377.801	6788.99
378.249	7864.67
378.696	10069.14
379.143	12286.82
379.591	13061.72
380.038	22295.01
380.485	16250.84
380.932	17571.25
381.379	16119.63
381.826	11994.89
382.273	8532.18
382.72	7431.62
383.166	7242.63
383.613	4718.97
384.06	4246.06
384.506	4930.89
384.953	3616.04
385.4	3624.27
385.846	3175.65
386.292	3094.16
386.739	3020.63
387.185	2990.4
387.631	3015.57
388.078	2949.4
388.524	3158.76
388.97	2926.87
389.416	2448.87
389.862	2606.74
390.308	2483.75
390.754	2538.83
391.2	2764.25
391.645	2831.81
392.091	2746.27
392.537	2662.44
392.983	2661.87
393.428	2654.3
393.874	2855.18
394.319	2899.31
394.765	2767.56
395.21	2844.57
395.655	2678.91
396.101	2518.03
396.546	2290.48
396.991	2307.41
397.436	2153.98
397.881	2089.42
398.326	1967.18
398.771	1874.58
399.216	1638.24
399.661	1480.89
400.106	1484.07
400.551	1528.89
400.995	1374.76
401.44	1362.12
401.885	1284.25
402.329	1300.34
402.774	1255.38
403.218	1231.31
403.663	1192.74
404.107	1235.3
404.551	1253.2
404.995	1156.43
405.44	1114.17
405.884	1136.29
406.328	1102.89
406.772	1100.64
407.216	1008.7
407.66	974.9
408.104	921.79
408.547	863.06
408.991	835.57
409.435	804.77
409.879	798.78
410.322	790.58
410.766	767.7
411.209	733.66
411.653	707.51
412.096	696.26
412.54	696.56
412.983	694.87
413.426	702.12
413.869	702.88
414.312	693.3
414.756	667.1
415.199	640.91
415.642	623.88
416.085	628.76
416.527	626.01
416.97	637.87
417.413	609.59
417.856	602.36
418.298	593.79
418.741	590.43
419.184	586.78
419.626	608.88
420.069	608.52
420.511	612.39
420.953	599.17
421.396	595.21
421.838	579.44
422.28	593.34
422.722	601.49
423.164	610.85
423.606	602.72
424.048	603.73
424.49	577.67
424.932	574.92
425.374	567.33
425.816	576.03
426.258	587.16
426.699	592.51
427.141	587.15
427.582	593.07
428.024	590.03
428.465	586.22
428.907	570.67
429.348	562.94
429.789	563.66
430.231	553.3
430.672	564.31
431.113	551.19
431.554	545.03
431.995	530.79
432.436	515.11
432.877	506.54
433.318	501.05
433.759	501.02
434.2	502.3
434.64	498.04
435.081	503.09
435.522	478.35
435.962	462.96
436.403	455.94
436.843	461.63
437.284	452.93
437.724	439.92
438.164	440.21
438.604	432
439.045	417.31
439.485	404
439.925	394.69
440.365	383.42
440.805	379.27
441.245	375.68
441.685	362.98
442.125	360.63
442.564	363.73
443.004	355.67
443.444	354.94
443.883	357.12
444.323	352.42
444.762	351.38
445.202	357.52
445.641	364.69
446.081	361.76
446.52	364.9
446.959	361.95
447.398	354.1
447.837	349.94
448.276	343.87
448.716	347.1
449.154	349.75
449.593	343.1
450.032	343.45
450.471	335.87
450.91	335.87
451.349	337.23
451.787	334.44
452.226	339.94
452.664	340.43
453.103	342.09
453.541	341.59
453.98	343.74
454.418	346.29
454.856	341.51
455.295	341.74
455.733	345.82
456.171	346.85
456.609	350.41
457.047	351.62
457.485	358.01
457.923	359.72
458.361	353.83
458.798	353.6
459.236	354.01
459.674	355.8
460.111	358.1
460.549	355.22
460.987	353.81
461.424	351.84
461.862	350.39
462.299	345.25
462.736	345.5
463.173	348.79
463.611	347.73
464.048	347.29
464.485	351.48
464.922	349.79
465.359	347.1
465.796	348.8
466.233	346.77
466.67	345.4
467.106	346.16
467.543	342.06
467.98	337.19
468.416	327.09
468.853	323.25
469.29	313.09
469.726	309.24
470.162	301.42
470.599	294.01
471.035	291.32
471.471	283.45
471.907	280.44
472.344	278.91
472.78	280.01
473.216	283.62
473.652	280.53
474.088	279.5
474.523	278.43
474.959	281.36
475.395	277.97
475.831	277.03
476.266	278.18
476.702	276.73
477.138	273.59
477.573	272.53
478.008	272
478.444	274.03
478.879	276.86
479.314	278.28
479.75	278.43
480.185	280.57
480.62	282.48
481.055	284.04
481.49	286.93
481.925	291.19
482.36	297.37
482.795	304.99
483.229	312.43
483.664	319.58
484.099	320.89
484.534	326.18
484.968	329.47
485.403	330.27
485.837	329.37
486.271	329.15
486.706	330.18
487.14	326.07
487.574	321.92
488.009	319.7
488.443	317.62
488.877	322.12
489.311	323.24
489.745	328.38
490.179	332.82
490.613	342.24
491.046	346.53
491.48	350.78
491.914	353.12
492.348	357.38
492.781	361.25
493.215	363.56
493.648	366.31
494.082	371.12
494.515	373.17
494.948	380.14
495.382	383.88
495.815	388.9
496.248	394.25
496.681	404.18
497.114	412.83
497.547	422.4
497.98	432.93
498.413	439.74
498.846	449.41
499.279	457.56
499.711	462.55
500.144	467.54
500.577	477.89
501.009	488.5
501.442	498.81
501.874	504.29
502.306	508.9
502.739	519.37
503.171	533.07
503.603	539.64
504.036	550.14
504.468	560.27
504.9	571.93
505.332	581.1
505.764	588.4
506.196	597.45
506.627	612.04
507.059	626.61
507.491	636.36
507.923	639.85
508.354	655.14
508.786	667.58
509.217	684.44
509.649	700.82
510.08	718.48
510.512	735.91
510.943	751.53
511.374	764.99
511.805	784.53
512.237	802.99
512.668	832.14
513.099	856.81
513.53	881.93
513.961	901.04
514.391	928.49
514.822	958.3
515.253	989.86
515.684	1013.73
516.114	1040.25
516.545	1060.14
516.975	1084.72
517.406	1101.35
517.836	1107
518.267	1116.05
518.697	1134.06
519.127	1140.93
519.558	1149.98
519.988	1155.76
520.418	1167.31
520.848	1183.58
521.278	1194.15
521.708	1204.15
522.138	1216.94
522.567	1244.74
522.997	1267.08
523.427	1281.52
523.857	1297.09
524.286	1307.39
524.716	1321.6
525.145	1337.89
525.575	1348.67
526.004	1360.54
526.433	1363.49
526.863	1365.18
527.292	1357.58
527.721	1362.47
528.15	1368.61
528.579	1370.41
529.008	1379.75
529.437	1398.35
529.866	1410.49
530.295	1425.3
530.724	1437.14
531.152	1460.04
531.581	1471.68
532.01	1486.97
532.438	1494.52
532.867	1506.82
533.295	1521.32
533.723	1526.11
534.152	1525.11
534.58	1524.66
535.008	1511.12
535.436	1513.06
535.865	1519.15
536.293	1531.82
536.721	1544.26
537.149	1565.28
537.576	1567.85
538.004	1579.41
538.432	1586.66
538.86	1585.98
539.287	1592.55
539.715	1604.66
540.143	1607.04
540.57	1606.37
540.998	1603.08
541.425	1584.57
541.852	1568.18
542.28	1567
542.707	1553.91
543.134	1542.93
543.561	1539
543.988	1533.4
544.415	1533.16
544.842	1528.14
545.269	1520.83
545.696	1522.43
546.123	1533.67
546.549	1524.79
546.976	1513.32
547.403	1512.87
547.829	1513.26
548.256	1514.44
548.682	1510.63
549.108	1503.88
549.535	1503.29
549.961	1504.02
550.387	1492.28
550.813	1486.5
551.24	1490.91
551.666	1490.61
552.092	1481.55
552.518	1476.26
552.943	1471.53
553.369	1475.67
553.795	1479.93
554.221	1479.58
554.646	1476.04
555.072	1484.4
555.498	1488.07
555.923	1494.93
556.349	1505.69
556.774	1511.62
557.199	1512.02
557.625	1515.66
558.05	1510.35
558.475	1516.9
558.9	1515.15
559.325	1507.46
559.75	1500.02
560.175	1494.22
560.6	1486.96
561.025	1485.49
561.449	1485.48
561.874	1488.57
562.299	1490.68
562.723	1495.52
563.148	1485.84
563.572	1487.82
563.997	1496.02
564.421	1500.93
564.846	1498.9
565.27	1501.11
565.694	1498.06
566.118	1505.88
566.542	1509.97
566.966	1503.35
567.39	1498.79
567.814	1489.11
568.238	1487.69
568.662	1489.46
569.086	1489.64
569.509	1494.66
569.933	1480.81
570.357	1473.39
570.78	1456.2
571.204	1445.14
571.627	1435.75
572.05	1432.28
572.474	1431.65
572.897	1419.94
573.32	1411.99
573.743	1402.6
574.166	1385.72
574.589	1384.44
575.012	1376.53
575.435	1373.27
575.858	1364.14
576.281	1352.76
576.704	1338.67
577.126	1326.13
577.549	1315.12
577.972	1305.87
578.394	1296.19
578.817	1289.75
579.239	1272.5
579.661	1260.62
580.084	1246.78
580.506	1234.03
580.928	1229.27
581.35	1219.48
581.772	1215.7
582.194	1204.21
582.616	1192.54
583.038	1180.11
583.46	1169.91
583.882	1166.37
584.303	1168.06
584.725	1163.25
585.147	1164.66
585.568	1172
585.99	1180.15
586.411	1183.63
586.833	1194.16
587.254	1193.77
587.675	1202.28
588.096	1210.25
588.518	1206.75
588.939	1192.53
589.36	1190.32
589.781	1180
590.202	1157.53
590.623	1149.33
591.043	1146.35
591.464	1135.6
591.885	1132.73
592.305	1128.3
592.726	1118.11
593.147	1117.87
593.567	1114.21
593.987	1107.7
594.408	1103.79
594.828	1101.72
595.248	1097.45
595.669	1082.65
596.089	1077.25
596.509	1071.08
596.929	1060.49
597.349	1060.59
597.769	1052.51
598.189	1046.77
598.608	1047.04
599.028	1048.53
599.448	1047.94
599.867	1037.3
600.287	1034.35
600.706	1030.52
601.126	1024.15
601.545	1023.4
601.965	1021.61
602.384	1017.44
602.803	1019.15
603.222	1015.21
603.641	1009.2
604.061	1005.84
604.48	1002.54
604.898	1006.95
605.317	1009.69
605.736	1009.41
606.155	1005.04
606.574	997.02
606.992	999.5
607.411	994.6
607.829	987.27
608.248	983.72
608.666	980.22
609.085	978.59
609.503	970.65
609.921	964.82
610.339	964.8
610.758	963.32
611.176	958.97
611.594	950.23
612.012	946.39
612.43	946.97
612.847	949.66
613.265	949.49
613.683	950.86
614.101	951.96
614.518	947.08
614.936	938.75
615.353	927.7
615.771	924.18
616.188	923.06
616.606	918.53
617.023	912.59
617.44	901.75
617.857	894.82
618.274	886.94
618.691	879.75
619.108	872.21
619.525	867.26
619.942	870.15
620.359	870.44
620.776	866.4
621.192	862.63
621.609	860.24
622.026	863.98
622.442	867.51
622.859	869.78
623.275	864.32
623.691	867.8
624.108	874.58
624.524	883.75
624.94	883.66
625.356	889.86
625.772	900.05
626.188	907.78
626.604	908.13
627.02	904.83
627.436	902.92
627.852	908.64
628.268	916.72
628.683	910.2
629.099	904.48
629.514	900.61
629.93	903.17
630.345	904.93
630.761	901.12
631.176	904.42
631.591	900.62
632.007	895.41
632.422	892.94
632.837	884.44
633.252	882.67
633.667	874.18
634.082	866.58
634.497	856.59
634.911	842.35
635.326	838.73
635.741	824.66
636.155	816.29
636.57	816.59
636.984	814.99
637.399	814.9
637.813	811.78
638.228	809.28
638.642	809.67
639.056	799.95
639.47	797.86
639.884	790.03
640.298	782.89
640.712	779.57
641.126	768.43
641.54	758.1
641.954	750.73
642.368	740.39
642.781	732.71
643.195	719.34
643.609	716.75
644.022	709.47
644.436	704.19
644.849	693.55
645.262	681.98
645.676	679.44
646.089	675.42
646.502	664.51
646.915	658.17
647.328	645.52
647.741	642.09
648.154	632.37
648.567	628.64
648.98	616.97
649.393	615.59
649.805	612.41
650.218	606.33
650.631	594.92
651.043	589.5
651.456	585.04
651.868	583.35
652.28	591.33
652.693	597.28
653.105	599.24
653.517	604.05
653.929	601.79
654.341	603.53
654.753	594.76
655.165	596.84
655.577	592.62
655.989	587.76
656.401	580.48
656.813	558.6
657.224	544.31
657.636	525.91
658.047	514.43
658.459	502.14
658.87	493.9
659.282	484.78
659.693	470.43
660.104	460.47
660.515	449.33
660.926	445.13
661.338	440.1
661.749	433.8
662.159	426.8
662.57	420.75
662.981	415.74
663.392	410.4
663.803	409.07
664.213	405.12
664.624	400.65
665.035	400.37
665.445	391.43
665.855	386.71
666.266	381.2
666.676	377.81
667.086	370.98
667.497	369.43
667.907	364.95
668.317	359.96
668.727	359.9
669.137	358.99
669.547	357.31
669.956	357.68
670.366	356.85
670.776	358.36
671.186	359.83
671.595	362.52
672.005	363.5
672.414	363.81
672.824	364.09
673.233	363.43
673.642	365.26
674.052	366.96
674.461	370.2
674.87	374.18
675.279	374.52
675.688	375.72
676.097	377.98
676.506	377.42
676.915	384.14
677.323	386.05
677.732	387.03
678.141	387.04
678.549	383.62
678.958	383.89
679.366	384.47
679.775	387.2
680.183	394.69
680.592	399.38
681	403.58
681.408	402.73
681.816	408.67
682.224	415.57
682.632	424.57
683.04	442.34
683.448	457.58
683.856	478.41
684.264	502.21
684.671	523.8
685.079	549.86
685.487	581.41
685.894	622.06
686.302	656.64
686.709	687.48
687.116	724.63
687.524	758.44
687.931	789.16
688.338	816.13
688.745	840.23
689.152	868.84
689.559	905.38
689.966	940.69
690.373	963.16
690.78	1001.65
691.187	1053.94
691.593	1094.92
692	1131.79
692.407	1182.96
692.813	1244.55
693.22	1295.26
693.626	1348.97
694.032	1394.27
694.439	1457.15
694.845	1509.82
695.251	1570.9
695.657	1627.24
696.063	1707.48
696.469	1770.48
696.875	1829.4
697.281	1867.46
697.687	1911.84
698.093	1949.17
698.498	2012.87
698.904	2065.64
699.31	2141.39
699.715	2197.61
700.12	2275.38
700.526	2298.38
700.931	2360.57
701.337	2410.47
701.742	2442.36
702.147	2516.38
702.552	2546.44
702.957	2598.79
703.362	2620.14
703.767	2647.91
704.172	2685.42
704.577	2653.3
704.981	2696.2
705.386	2714.98
705.791	2712.84
706.195	2777.98
706.6	2789.04
707.004	2858.21
707.408	2839.77
707.813	2866.27
708.217	2861.35
