Data from C_1_DEC_VA_2N_Splice17_11-57-41-035.txt Node
Date: Sat Mar 14 11:57:41 EDT 2020
User: sa697716
Spectrometer: FLMS03696
Trigger mode: 0
Integration Time (sec): 3.180400E-1
Scans to average: 20
Electric dark correction enabled: true
Nonlinearity correction enabled: true
Boxcar width: 5
XAxis mode: Wavelengths
Number of Pixels in Spectrum: 2048
>>>>>Begin Spectral Data<<<<<
187.83	-250634.17
188.298	1860.25
188.766	1045.51
189.233	957.63
189.701	1416.56
190.169	1809.01
190.636	657.36
191.104	475.24
191.571	80.27
192.039	-38.89
192.506	-44.72
192.974	567.53
193.441	-880.67
193.908	-220.14
194.375	-5.81
194.842	55.33
195.31	58.91
195.777	127.41
196.244	337.43
196.711	473.38
197.177	606.16
197.644	864.36
198.111	1487.32
198.578	2084.94
199.045	1668.26
199.511	2684.92
199.978	3162.34
200.445	2683.96
200.911	2957.82
201.378	3291.98
201.844	2982.36
202.31	5142.31
202.777	5375.19
203.243	2994.57
203.709	2847.25
204.176	3389.1
204.642	2828.57
205.108	2632.18
205.574	2146.46
206.04	1966.88
206.506	1836.51
206.972	1729.78
207.438	1662.86
207.903	1892.77
208.369	1662.59
208.835	1652.46
209.301	1735.95
209.766	1772.48
210.232	1748.43
210.697	2167.83
211.163	2660.67
211.628	4033
212.094	3394.75
212.559	4144.42
213.024	2572.58
213.49	3121.45
213.955	3041.54
214.42	2966.94
214.885	2764.88
215.35	2658.16
215.815	2558.43
216.28	2723.86
216.745	2217.35
217.21	2379.69
217.675	2185.09
218.14	2448.98
218.604	2739.71
219.069	3118.76
219.534	3269.26
219.998	3790.49
220.463	4621.27
220.927	5673.09
221.392	5355.2
221.856	5418.76
222.32	6842.29
222.785	8435.83
223.249	10653.94
223.713	11847.56
224.177	11878.89
224.642	15276.49
225.106	18788.29
225.57	20524.69
226.034	15291.36
226.497	23241.94
226.961	20991.29
227.425	24422.67
227.889	27118.99
228.353	27067.94
228.816	55964.51
229.28	53468.64
229.744	45117.91
230.207	27423.99
230.671	26930.62
231.134	44514.73
231.597	51279.9
232.061	51298.05
232.524	50094.51
232.987	34568.28
233.45	31094.81
233.914	27910.98
234.377	28644.24
234.84	26176.76
235.303	30934.07
235.766	34556.99
236.229	35707.18
236.691	22529.56
237.154	25318.91
237.617	19049.83
238.08	19495.79
238.542	22840.45
239.005	16347.66
239.468	16239.96
239.93	15301.88
240.393	13890.94
240.855	12185.38
241.317	12497.53
241.78	15205.97
242.242	15739.2
242.704	16989.67
243.166	14797.57
243.629	13448.53
244.091	15489.59
244.553	16969.29
245.015	18262.03
245.477	23637.36
245.939	34706.45
246.4	36795.37
246.862	35768.99
247.324	33691.46
247.786	37736.76
248.247	49435.61
248.709	51032.03
249.17	38212.29
249.632	36022.16
250.093	41791.67
250.555	36064.71
251.016	21992.54
251.477	20900.3
251.939	22565.16
252.4	23676.31
252.861	28171.09
253.322	26265.87
253.783	31296.31
254.244	40603.54
254.705	32006.98
255.166	28507.14
255.627	28108.63
256.088	39686.54
256.549	42186.89
257.009	36362.04
257.47	44167.92
257.931	35947.18
258.391	26913.17
258.852	27752.26
259.312	29104.17
259.773	35966.1
260.233	30359.14
260.694	25616.69
261.154	29051.93
261.614	23308.46
262.074	20855.71
262.534	21681.7
262.994	20444.38
263.455	27296.59
263.915	23022.21
264.374	21684.77
264.834	23690.36
265.294	26279.51
265.754	27222.97
266.214	25779.64
266.673	24148.91
267.133	30453.05
267.593	30223.41
268.052	37030.39
268.512	32193.69
268.971	38787.68
269.431	42527.64
269.89	38057.2
270.349	57015.07
270.809	63595.47
271.268	57104.12
271.727	128134.15
272.186	83081.54
272.645	62308.69
273.104	44923.39
273.563	64982.48
274.022	51081.21
274.481	43451.36
274.94	33504.62
275.399	24901.84
275.857	28993.28
276.316	39232.73
276.775	34911.94
277.233	34356.07
277.692	32135.13
278.15	36344.49
278.609	37408.44
279.067	34653.46
279.525	32193.01
279.984	41555.15
280.442	49901.35
280.9	49160.69
281.358	32386.6
281.816	30189.01
282.274	29582.4
282.732	30603.65
283.19	30778.6
283.648	26572.2
284.106	28285.77
284.564	28799.76
285.021	26701.62
285.479	19912.65
285.937	18118.4
286.394	15892.98
286.852	16360.38
287.309	17195.73
287.767	16604.53
288.224	15778.24
288.682	17313.99
289.139	19024.81
289.596	17381.02
290.053	18079.03
290.511	22824.4
290.968	27694.35
291.425	37584.33
291.882	31283.35
292.339	27259.94
292.796	27053.57
293.252	25499.83
293.709	20256.71
294.166	18145.81
294.623	20076.28
295.079	19274.11
295.536	19380.24
295.992	17596.33
296.449	17410.27
296.905	18084
297.362	17314.82
297.818	18220.83
298.274	18921.03
298.731	19294.99
299.187	19109.14
299.643	20511.67
300.099	24813.93
300.555	27235.88
301.011	22782.87
301.467	21926.66
301.923	25686.18
302.379	25103.8
302.835	24657.63
303.291	24664.72
303.746	28062.35
304.202	35423.15
304.658	35579.94
305.113	23922.02
305.569	23447.1
306.024	25021.15
306.479	23865.25
306.935	20141.75
307.39	21999.42
307.845	20319.28
308.301	20477.67
308.756	19976.78
309.211	19282.03
309.666	19766.63
310.121	24543.88
310.576	24909.85
311.031	24692.2
311.486	28292.61
311.94	28279.31
312.395	37883.93
312.85	71229.25
313.305	349815.26
313.759	1808403.68
314.214	130967.24
314.668	103895.69
315.123	87513.75
315.577	31396.7
316.032	27921.08
316.486	35013.72
316.94	27574.41
317.394	19168.58
317.849	14903.26
318.303	14114.46
318.757	13310.16
319.211	14711.5
319.665	12887.5
320.119	13026.15
320.572	18661.7
321.026	17438.22
321.48	14520.16
321.934	15839.21
322.387	15886.4
322.841	17171.54
323.295	15433.8
323.748	17812
324.202	18077.91
324.655	21686.19
325.108	30309.37
325.562	21426.93
326.015	25483.52
326.468	19209.51
326.921	21519.92
327.374	20059.18
327.827	20864.21
328.28	23614.67
328.733	15819.63
329.186	13905.18
329.639	13253.13
330.092	11176.93
330.545	10641.4
330.997	10730.26
331.45	11753.26
331.903	13768.78
332.355	23687.97
332.808	23071.67
333.26	19059.84
333.713	20708.3
334.165	20930.24
334.617	27945.02
335.069	22554.5
335.522	40804.51
335.974	45234.46
336.426	41361.87
336.878	28615.53
337.33	14523.71
337.782	14148.84
338.234	17708.52
338.686	21155.21
339.137	25019.39
339.589	23559.08
340.041	18489.03
340.493	15892.05
340.944	16260.94
341.396	17525.05
341.847	14761.43
342.299	17394.99
342.75	21259.41
343.201	18579.79
343.653	21387.85
344.104	26286.84
344.555	20685.73
345.006	32219.23
345.457	24657.3
345.908	19590.73
346.359	18398.62
346.81	14995.62
347.261	15830.41
347.712	15582.97
348.163	16700.48
348.613	16908.6
349.064	15757.98
349.515	13802.54
349.965	14144.6
350.416	17031.14
350.866	18697.1
351.317	21147.84
351.767	34961.39
352.217	44110.81
352.668	36602.57
353.118	33559.46
353.568	32356.63
354.018	25622.93
354.468	26988.73
354.918	19377.68
355.368	16965.32
355.818	23983.5
356.268	69005.45
356.718	288916.87
357.168	72023.83
357.617	36120.67
358.067	40110.16
358.517	37547.83
358.966	44058.58
359.416	49495.9
359.865	53532.12
360.315	63783.67
360.764	29771.29
361.213	16671.3
361.663	15758.57
362.112	19441.65
362.561	31402.59
363.01	23711.29
363.459	19972.43
363.908	21593.49
364.357	18367.57
364.806	31007.5
365.255	21311.2
365.703	19475.7
366.152	19499.39
366.601	15872.37
367.05	12880.31
367.498	11696.53
367.947	12224.14
368.395	12720.12
368.844	11272.64
369.292	13547.06
369.74	9357
370.189	14339.41
370.637	16828.93
371.085	14541.19
371.533	17690.4
371.981	17050.4
372.429	16269.53
372.877	16956.64
373.325	14163.29
373.773	14405.02
374.221	12847.84
374.669	15934.55
375.116	13765.59
375.564	13877.81
376.012	15519.64
376.459	12771.54
376.907	15280.07
377.354	18500.67
377.801	17255.81
378.249	19915.35
378.696	25474
379.143	30854.13
379.591	32904.82
380.038	55624.08
380.485	40277.25
380.932	43502.84
381.379	39848.9
381.826	29291.08
382.273	20815.65
382.72	18195.81
383.166	17689.11
383.613	11503.03
384.06	10372.23
384.506	11996.26
384.953	8819.94
385.4	8881.47
385.846	7776.91
386.292	7581.92
386.739	7448.66
387.185	7371.16
387.631	7372.77
388.078	7167.8
388.524	7662.97
388.97	7097.93
389.416	5935.87
389.862	6333.57
390.308	6008.92
390.754	6116.58
391.2	6661.76
391.645	6817.01
392.091	6529.52
392.537	6334.43
392.983	6357.57
393.428	6275.17
393.874	6735.22
394.319	6768.21
394.765	6418.29
395.21	6601.2
395.655	6212.33
396.101	5819.67
396.546	5256.09
396.991	5312.45
397.436	4940.85
397.881	4776.14
398.326	4527.58
398.771	4282.9
399.216	3746.1
399.661	3381.53
400.106	3372.6
400.551	3449.5
400.995	3097.4
401.44	3065.65
401.885	2883.89
402.329	2912.66
402.774	2796.99
403.218	2706.26
403.663	2603.7
404.107	2677.89
404.551	2691.63
404.995	2467.7
405.44	2374.56
405.884	2406.98
406.328	2328.29
406.772	2316.72
407.216	2108.97
407.66	2038.02
408.104	1933.48
408.547	1816.61
408.991	1756.61
409.435	1687.09
409.879	1661.37
410.322	1639.57
410.766	1581.46
411.209	1503.11
411.653	1443.11
412.096	1413.08
412.54	1412.58
412.983	1400.37
413.426	1397.94
413.869	1394.26
414.312	1368.67
414.756	1320.39
415.199	1257.43
415.642	1223.39
416.085	1223.36
416.527	1215.13
416.97	1230.97
417.413	1167.05
417.856	1157.65
418.298	1143.04
418.741	1136.17
419.184	1133.83
419.626	1179.04
420.069	1178.29
420.511	1180.8
420.953	1154.35
421.396	1140.8
421.838	1112.61
422.28	1133.85
422.722	1137.1
423.164	1157.23
423.606	1136.29
424.048	1131.24
424.49	1073.71
424.932	1069.69
425.374	1054.96
425.816	1072
426.258	1090.37
426.699	1098.18
427.141	1082.23
427.582	1096.95
428.024	1087.65
428.465	1078.54
428.907	1052.93
429.348	1037.46
429.789	1034.61
430.231	1012.61
430.672	1022.86
431.113	1000.74
431.554	986.21
431.995	961.19
432.436	925.38
432.877	903.14
433.318	889.66
433.759	882.61
434.2	884.16
434.64	873.08
435.081	874.2
435.522	831.25
435.962	798.71
436.403	784.69
436.843	795.09
437.284	779.01
437.724	758.07
438.164	758.73
438.604	744.5
439.045	716.52
439.485	686.7
439.925	672.71
440.365	655.25
440.805	646.37
441.245	637.17
441.685	613.57
442.125	608.04
442.564	613.25
443.004	599.44
443.444	599.96
443.883	601.56
444.323	597.47
444.762	597.72
445.202	604.58
445.641	616.41
446.081	610.85
446.52	615.71
446.959	610.9
447.398	596.68
447.837	591
448.276	579.13
448.716	584.67
449.154	592.13
449.593	579.03
450.032	578.18
450.471	567.86
450.91	570.24
451.349	570.22
451.787	567.38
452.226	575.86
452.664	575.89
453.103	576.53
453.541	575.36
453.98	573.49
454.418	577.28
454.856	570.38
455.295	569.8
455.733	573.53
456.171	575.43
456.609	576.52
457.047	575.89
457.485	584.6
457.923	586.86
458.361	578.24
458.798	580.31
459.236	579.3
459.674	581.19
460.111	583.58
460.549	578.82
460.987	577.12
461.424	575.5
461.862	572.17
462.299	563.02
462.736	560.97
463.173	563.94
463.611	559
464.048	558.22
464.485	563.86
464.922	558.16
465.359	554.7
465.796	549.02
466.233	545.11
466.67	541.22
467.106	539.14
467.543	534.75
467.98	527.53
468.416	513.22
468.853	508.15
469.29	492.26
469.726	487.05
470.162	474.73
470.599	467.2
471.035	462.72
471.471	452.29
471.907	449.44
472.344	446.1
472.78	447.64
473.216	452
473.652	447.61
474.088	446.34
474.523	445.12
474.959	448.77
475.395	444.83
475.831	441.52
476.266	442.99
476.702	441.9
477.138	436.62
477.573	434.3
478.008	432.67
478.444	433.54
478.879	437.76
479.314	439.88
479.75	438.75
480.185	440.26
480.62	443.9
481.055	444.66
481.49	448.32
481.925	454.35
482.36	462.83
482.795	474.74
483.229	486.73
483.664	496.84
484.099	497.96
484.534	505.8
484.968	511.03
485.403	512.1
485.837	512.77
486.271	511.24
486.706	512.15
487.14	506.05
487.574	498.57
488.009	494.99
488.443	490.68
488.877	496.43
489.311	498.93
489.745	504.95
490.179	510.86
490.613	520.85
491.046	525.79
491.48	530.74
491.914	532.62
492.348	538.28
492.781	543.14
493.215	546.02
493.648	548.5
494.082	553.4
494.515	555.21
494.948	561.9
495.382	567.01
495.815	572.12
496.248	577.84
496.681	590.03
497.114	601.68
497.547	611.16
497.98	623
498.413	629.88
498.846	639.78
499.279	648.71
499.711	654.46
500.144	658.75
500.577	670.11
501.009	682.29
501.442	692.94
501.874	696.14
502.306	701.38
502.739	710.95
503.171	726.43
503.603	732.55
504.036	744.77
504.468	753.68
504.9	767.11
505.332	776.5
505.764	783.05
506.196	792.59
506.627	809.4
507.059	824.43
507.491	836.5
507.923	838.63
508.354	856.7
508.786	869.55
509.217	890.47
509.649	909.02
510.08	930.44
510.512	951.37
510.943	969.58
511.374	983.75
511.805	1006.84
512.237	1029.15
512.668	1064.75
513.099	1094.79
513.53	1126.4
513.961	1150.79
514.391	1185.1
514.822	1221.3
515.253	1260.34
515.684	1289.43
516.114	1323.69
516.545	1349.31
516.975	1380.76
517.406	1402.46
517.836	1409.41
518.267	1419.82
518.697	1441.56
519.127	1450.51
519.558	1462.69
519.988	1469.13
520.418	1483.28
520.848	1503.89
521.278	1516.36
521.708	1533.97
522.138	1549.22
522.567	1584.04
522.997	1612.74
523.427	1630.72
523.857	1650.55
524.286	1662.86
524.716	1680.91
525.145	1703.08
525.575	1717.43
526.004	1734.2
526.433	1731.99
526.863	1734.38
527.292	1725.31
527.721	1731.04
528.15	1739.03
528.579	1740.88
529.008	1752.6
529.437	1777.65
529.866	1791.92
530.295	1809.73
530.724	1823.06
531.152	1852.33
531.581	1869
532.01	1887.8
532.438	1898.92
532.867	1914.9
533.295	1934.9
533.723	1943.21
534.152	1940.87
534.58	1941.85
535.008	1926.08
535.436	1928.82
535.865	1937.76
536.293	1953.71
536.721	1972.39
537.149	2000.01
537.576	2004.33
538.004	2018.42
538.432	2028.22
538.86	2029.04
539.287	2038.05
539.715	2054.66
540.143	2059.13
540.57	2056.71
540.998	2053.09
541.425	2027.93
541.852	2006.29
542.28	2004.13
542.707	1986.29
543.134	1971.35
543.561	1965.89
543.988	1957.28
544.415	1955.42
544.842	1949.39
545.269	1941.02
545.696	1942.54
546.123	1956.55
546.549	1944.19
546.976	1929.66
547.403	1929.07
547.829	1930.32
548.256	1931.26
548.682	1926.84
549.108	1918.72
549.535	1917.79
549.961	1919.49
550.387	1904.46
550.813	1897.35
551.24	1903.71
551.666	1904.99
552.092	1894.34
552.518	1886.49
552.943	1881.14
553.369	1889.61
553.795	1894.52
554.221	1894.57
554.646	1890.22
555.072	1900.31
555.498	1904.84
555.923	1912.97
556.349	1927.61
556.774	1936.73
557.199	1937.81
557.625	1942.43
558.05	1933.74
558.475	1943.88
558.9	1942.2
559.325	1932.17
559.75	1925.54
560.175	1918.19
560.6	1910.35
561.025	1906.63
561.449	1905.06
561.874	1909.41
562.299	1913.74
562.723	1920.84
563.148	1908.79
563.572	1911.89
563.997	1922.4
564.421	1926.22
564.846	1926.27
565.27	1930.89
565.694	1927.59
566.118	1939.23
566.542	1946.69
566.966	1937.84
567.39	1931.95
567.814	1919.01
568.238	1917.44
568.662	1921.97
569.086	1923.11
569.509	1929.44
569.933	1911
570.357	1902.33
570.78	1879.52
571.204	1864.22
571.627	1852.69
572.05	1848.64
572.474	1848.01
572.897	1832.57
573.32	1822.2
573.743	1810.91
574.166	1789.55
574.589	1788.98
575.012	1780.45
575.435	1778.4
575.858	1766.44
576.281	1752.87
576.704	1736.02
577.126	1721.38
577.549	1709.14
577.972	1697.21
578.394	1685.87
578.817	1676.71
579.239	1656.35
579.661	1640.35
580.084	1621.54
580.506	1606.56
580.928	1600.8
581.35	1588.01
581.772	1583.26
582.194	1569.11
582.616	1556.17
583.038	1539.49
583.46	1528.18
583.882	1522.77
584.303	1525.75
584.725	1521.06
585.147	1522.06
585.568	1531.6
585.99	1542.62
586.411	1547.01
586.833	1561.38
587.254	1561.12
587.675	1575.26
588.096	1586.74
588.518	1580.77
588.939	1562.88
589.36	1560.38
589.781	1550.01
590.202	1520.2
590.623	1510.89
591.043	1508.3
591.464	1494.21
591.885	1488.68
592.305	1482.26
592.726	1468.49
593.147	1468.35
593.567	1463.83
593.987	1455.19
594.408	1448.98
594.828	1448.27
595.248	1441.35
595.669	1421.6
596.089	1413.69
596.509	1407.31
596.929	1392.41
597.349	1392.29
597.769	1382.47
598.189	1375.24
598.608	1376.12
599.028	1378.63
599.448	1378.01
599.867	1365.56
600.287	1361.24
600.706	1356.67
601.126	1346.98
601.545	1345.92
601.965	1344.32
602.384	1338.51
602.803	1340.22
603.222	1335.51
603.641	1327
604.061	1322.51
604.48	1317.25
604.898	1324.69
605.317	1328.09
605.736	1329.1
606.155	1326.16
606.574	1316.1
606.992	1319.78
607.411	1314.7
607.829	1304.3
608.248	1300.98
608.666	1296.91
609.085	1295.2
609.503	1285.21
609.921	1278.54
610.339	1279.06
610.758	1276.53
611.176	1270.37
611.594	1260.92
612.012	1255.43
612.43	1257.91
612.847	1262.09
613.265	1261.65
613.683	1264.98
614.101	1266
614.518	1260.57
614.936	1250
615.353	1234.1
615.771	1230.4
616.188	1229.05
616.606	1224.81
617.023	1217.27
617.44	1203.21
617.857	1195.62
618.274	1186.22
618.691	1178.61
619.108	1168.91
619.525	1162.09
619.942	1167.17
620.359	1167.61
620.776	1161.16
621.192	1156.37
621.609	1152.96
622.026	1157.32
622.442	1162.47
622.859	1164.85
623.275	1157.87
623.691	1163.11
624.108	1172.9
624.524	1185.27
624.94	1184.96
625.356	1194.1
625.772	1205.33
626.188	1216.44
626.604	1218.77
627.02	1213.83
627.436	1211.41
627.852	1217.02
628.268	1226.85
628.683	1218.62
629.099	1210.74
629.514	1206.27
629.93	1209.03
630.345	1212.62
630.761	1207.08
631.176	1209.32
631.591	1203.93
632.007	1198.13
632.422	1195.17
632.837	1183.05
633.252	1179.68
633.667	1170.34
634.082	1161.65
634.497	1149.27
634.911	1131.37
635.326	1127.73
635.741	1110.39
636.155	1099.57
636.57	1099.25
636.984	1097.52
637.399	1098.83
637.813	1096.36
638.228	1092.75
638.642	1094.26
639.056	1083.08
639.47	1081.05
639.884	1071.05
640.298	1064.04
640.712	1059.47
641.126	1045.45
641.54	1034.52
641.954	1026.25
642.368	1013.11
642.781	1002.92
643.195	984.48
643.609	981.97
644.022	973.32
644.436	966.55
644.849	952.38
645.262	941.08
645.676	939.43
646.089	933.46
646.502	919.28
646.915	911.8
647.328	895.87
647.741	892.28
648.154	879.68
648.567	874.52
648.98	861.69
649.393	860.72
649.805	854.68
650.218	846.15
650.631	832.39
651.043	825.16
651.456	819.46
651.868	819.03
652.28	830.97
652.693	840.34
653.105	845.02
653.517	852.62
653.929	851.16
654.341	856.52
654.753	845.68
655.165	847.99
655.577	843.43
655.989	837.67
656.401	828.01
656.813	797.68
657.224	779.77
657.636	754.38
658.047	737.14
658.459	719.79
658.87	709.31
659.282	698.17
659.693	680.57
660.104	667.99
660.515	654.35
660.926	649.12
661.338	644.5
661.749	637
662.159	628.31
662.57	622.36
662.981	615.92
663.392	608.71
663.803	609.25
664.213	605.41
664.624	599.79
665.035	601.33
665.445	590.88
665.855	583.22
666.266	576.35
666.676	572.55
667.086	564.53
667.497	562.97
667.907	557.02
668.317	549.22
668.727	546.25
669.137	545.37
669.547	542.18
669.956	543.85
670.366	545.49
670.776	546.32
671.186	549.75
671.595	551.97
672.005	554.78
672.414	554.94
672.824	554.77
673.233	557.87
673.642	559.63
674.052	562.36
674.461	564
674.87	567.89
675.279	567.1
675.688	568.05
676.097	570.74
676.506	568.48
676.915	578.35
677.323	580.03
677.732	578.67
678.141	579.79
678.549	573.63
678.958	574.43
679.366	575.34
679.775	578.81
680.183	588.96
680.592	593.66
681	599.71
681.408	597.02
681.816	605.52
682.224	613.67
682.632	624.54
683.04	649.8
683.448	671.75
683.856	697.51
684.264	730.21
684.671	758.94
685.079	795.71
685.487	835.14
685.894	889.83
686.302	936.58
686.709	978.29
687.116	1024.14
687.524	1063.25
687.931	1099.79
688.338	1133.36
688.745	1162.18
689.152	1194.75
689.559	1237.62
689.966	1282.47
690.373	1308.68
690.78	1351.32
691.187	1413.25
691.593	1462.96
692	1509.29
692.407	1572.82
692.813	1648.4
693.22	1710.49
693.626	1776.92
694.032	1831.21
694.439	1910.35
694.845	1972.02
695.251	2049.18
695.657	2120.4
696.063	2223.84
696.469	2302.72
696.875	2375.35
697.281	2421.5
697.687	2476.23
698.093	2521.85
698.498	2603.76
