Data from C_1_HIR_WI_4N_Splice17_11-42-10-220.txt Node
Date: Sat Mar 14 11:42:10 EDT 2020
User: sa697716
Spectrometer: FLMS03696
Trigger mode: 0
Integration Time (sec): 3.180400E-1
Scans to average: 20
Electric dark correction enabled: true
Nonlinearity correction enabled: true
Boxcar width: 5
XAxis mode: Wavelengths
Number of Pixels in Spectrum: 2048
>>>>>Begin Spectral Data<<<<<
187.83	-207346.76
188.298	1606.68
188.766	843.72
189.233	757.17
189.701	1109.62
190.169	1501.05
190.636	609.29
191.104	494.57
191.571	79.46
192.039	-61.68
192.506	-85.06
192.974	301.92
193.441	-502.88
193.908	-93.86
194.375	-36.86
194.842	53.87
195.31	97.27
195.777	145.11
196.244	228.92
196.711	97.84
197.177	68.22
197.644	22.14
198.111	45.1
198.578	48.58
199.045	-4.42
199.511	-39.73
199.978	-127.47
200.445	-80.04
200.911	-111.5
201.378	-218.49
201.844	-138.57
202.31	-301.2
202.777	-265.81
203.243	-151.2
203.709	-131.03
204.176	-125.2
204.642	-81.14
205.108	-59.45
205.574	-56.18
206.04	-73.71
206.506	-51.86
206.972	-76.23
207.438	-68.99
207.903	-100.21
208.369	-56.09
208.835	-44.08
209.301	-19.62
209.766	-39.34
210.232	-26.63
210.697	-50.4
211.163	-74.43
211.628	-162.85
212.094	-113.78
212.559	-67.26
213.024	-18.43
213.49	-24.84
213.955	-29.2
214.42	-110.04
214.885	-84.58
215.35	-71.72
215.815	12.42
216.28	30.51
216.745	40.25
217.21	77.43
217.675	40.43
218.14	40.59
218.604	16.18
219.069	11.79
219.534	64.77
219.998	50.16
220.463	39.86
220.927	-37.75
221.392	-43.07
221.856	-19.65
222.32	-87.91
222.785	-91.47
223.249	-98.13
223.713	-106.99
224.177	-97.84
224.642	-209.6
225.106	-273.81
225.57	-332.36
226.034	-180.87
226.497	-260.53
226.961	-231.88
227.425	-208.75
227.889	-260.47
228.353	-288.43
228.816	-687.6
229.28	-592.72
229.744	-482.49
230.207	-206.95
230.671	-173.19
231.134	-416.66
231.597	-381.64
232.061	-375.26
232.524	-451.64
232.987	-272.94
233.45	-222.61
233.914	-176.47
234.377	-240.46
234.84	-218.83
235.303	-303.57
235.766	-350.86
236.229	-348.56
236.691	-266.56
237.154	-329.92
237.617	-225.63
238.08	-239.87
238.542	-282.12
239.005	-184.57
239.468	-152.96
239.93	-136.82
240.393	-107.84
240.855	-81.54
241.317	-86.61
241.78	-121.8
242.242	-101.56
242.704	-70.92
243.166	-52.64
243.629	-27.93
244.091	-37.75
244.553	-51.32
245.015	-48.32
245.477	-74.11
245.939	-135.48
246.4	-150.24
246.862	-127.92
247.324	-140.9
247.786	-227.11
248.247	-354.44
248.709	-459.61
249.17	-333.16
249.632	-245.15
250.093	-214.46
250.555	-216.64
251.016	-94.88
251.477	-83.33
251.939	-76.99
252.4	-86.05
252.861	-112.83
253.322	-76.39
253.783	-125.31
254.244	-170.26
254.705	-194.17
255.166	-224.06
255.627	-204.72
256.088	-295.11
256.549	-273.07
257.009	-251.51
257.47	-297.93
257.931	-256.28
258.391	-171.7
258.852	-156.37
259.312	-175.52
259.773	-217.35
260.233	-119.89
260.694	-65.52
261.154	-100.08
261.614	-35.87
262.074	-34.07
262.534	-28.84
262.994	1.57
263.455	-25.56
263.915	-12.33
264.374	-9.56
264.834	-1.69
265.294	-47.34
265.754	-59.99
266.214	-48.76
266.673	-78.31
267.133	-109.67
267.593	-139.13
268.052	-174.25
268.512	-160.63
268.971	-134.65
269.431	-122.31
269.89	-117.08
270.349	-133.63
270.809	-130.94
271.268	-118.45
271.727	-398.45
272.186	-230.92
272.645	-124.63
273.104	-127.67
273.563	-177.64
274.022	-259.14
274.481	-198.89
274.94	-158.46
275.399	-151.76
275.857	-201.04
276.316	-270.66
276.775	-239.53
277.233	-229.55
277.692	-186.93
278.15	-192.69
278.609	-143.15
279.067	-97.03
279.525	-74.86
279.984	-108.52
280.442	-88.2
280.9	-10.67
281.358	-14.99
281.816	-2.12
282.274	-9.49
282.732	-66.66
283.19	-101.12
283.648	-133.91
284.106	-154.47
284.564	-174.92
285.021	-118.59
285.479	-94.77
285.937	-131.35
286.394	-89.31
286.852	-84
287.309	-90.5
287.767	-48.39
288.224	-29.76
288.682	-23.66
289.139	-2.95
289.596	1.92
290.053	-23.96
290.511	-53.89
290.968	-54.61
291.425	-141.41
291.882	-97.74
292.339	-61.88
292.796	-101.71
293.252	-106.96
293.709	-55.62
294.166	-61.12
294.623	-87.42
295.079	-109.13
295.536	-91.59
295.992	-54.46
296.449	-33.46
296.905	-18.22
297.362	-7.92
297.818	-8.25
298.274	12.96
298.731	-10.96
299.187	1.84
299.643	-1.44
300.099	26.6
300.555	43.75
301.011	21.64
301.467	55.22
301.923	-11.79
302.379	0.93
302.835	-7.24
303.291	-15.66
303.746	-18.53
304.202	-80.37
304.658	-73.53
305.113	-49.7
305.569	-61.06
306.024	-94.83
306.479	-158.18
306.935	-104.57
307.39	-171.85
307.845	-148.01
308.301	-133.19
308.756	-154.46
309.211	-130.63
309.666	-139.92
310.121	-129.96
310.576	-156.64
311.031	-142.27
311.486	-205.34
311.94	-236.15
312.395	-305.49
312.85	-790.09
313.305	-4880.6
313.759	-19765.26
314.214	-1532.29
314.668	-1202.03
315.123	-1024.1
315.577	-318.58
316.032	-281.63
316.486	-325.49
316.94	-203.26
317.394	-126.77
317.849	-61.55
318.303	-59.48
318.757	-56.39
319.211	-51.45
319.665	-30.76
320.119	-37.36
320.572	-79.81
321.026	-54.45
321.48	-39.68
321.934	-67.69
322.387	-59.55
322.841	-45.47
323.295	29.43
323.748	-21.14
324.202	-19.44
324.655	-21.78
325.108	22.63
325.562	54.69
326.015	38.78
326.468	41.35
326.921	50.56
327.374	64.03
327.827	83.96
328.28	45.44
328.733	61.37
329.186	53.92
329.639	49.99
330.092	24.7
330.545	27.47
330.997	38.64
331.45	66.5
331.903	103.89
332.355	112.8
332.808	49.69
333.26	30.35
333.713	36.64
334.165	29.28
334.617	-21.54
335.069	-95.96
335.522	-274.66
335.974	-371.02
336.426	-455.72
336.878	-418.18
337.33	-172.33
337.782	-155.31
338.234	-180.07
338.686	-265.76
339.137	-336.15
339.589	-308.84
340.041	-165.82
340.493	-154.27
340.944	-142.64
341.396	-111.92
341.847	-57.69
342.299	-58.95
342.75	-17.54
343.201	-48.86
343.653	-47.17
344.104	-59.21
344.555	-40.36
345.006	-165.68
345.457	-3.26
345.908	-27.33
346.359	-38.02
346.81	-43.01
347.261	-68.31
347.712	-109.66
348.163	-138.38
348.613	-82.05
349.064	-67.56
349.515	-55.07
349.965	-34.85
350.416	-94.3
350.866	-98.33
351.317	-147.94
351.767	-204.41
352.217	-265.92
352.668	-180.78
353.118	-104.5
353.568	-175.43
354.018	-130.37
354.468	-154.27
354.918	-69.85
355.368	-59.31
355.818	-85.49
356.268	-352.62
356.718	-1168.11
357.168	-229.26
357.617	-165.71
358.067	-270.27
358.517	-283.11
358.966	-255.85
359.416	-156.45
359.865	-330.5
360.315	-444.25
360.764	-219.51
361.213	-97.43
361.663	-159.7
362.112	-220.41
362.561	-357.89
363.01	-208.74
363.459	-163.83
363.908	-223.7
364.357	-137.96
364.806	-298.23
365.255	-224.86
365.703	-176.74
366.152	-197.52
366.601	-122.22
367.05	-69.45
367.498	-41.59
367.947	-90.48
368.395	-111.29
368.844	-83.07
369.292	-183.56
369.74	-92.1
370.189	-147.84
370.637	-197.9
371.085	-152.77
371.533	-212.19
371.981	-256.97
372.429	-215.91
372.877	-197.9
373.325	-150.12
373.773	-159.24
374.221	-149.08
374.669	-212.96
375.116	-184.43
375.564	-170.94
376.012	-204.74
376.459	-144.1
376.907	-169.28
377.354	-245.42
377.801	-191.33
378.249	-206.21
378.696	-328.02
379.143	-360.54
379.591	-393.17
380.038	-674.1
380.485	-475.94
380.932	-519.01
381.379	-411.53
381.826	-216.42
382.273	-155.76
382.72	-179.74
383.166	-149.98
383.613	-70.02
384.06	-58.77
384.506	-69.89
384.953	-30.07
385.4	-43.67
385.846	-29.16
386.292	-48.62
386.739	-70.29
387.185	-84.56
387.631	-77.75
388.078	-67.86
388.524	-81.63
388.97	-66.97
389.416	-37.48
389.862	-43.42
390.308	-31.82
390.754	-27.58
391.2	-33.17
391.645	-29.39
392.091	9.8
392.537	15.72
392.983	-1.16
393.428	27.7
393.874	15.63
394.319	24.49
394.765	47.98
395.21	37.8
395.655	26.59
396.101	35.74
396.546	35.22
396.991	12.99
397.436	11.88
397.881	9.3
398.326	-11.83
398.771	0.35
399.216	-2.35
399.661	-11.29
400.106	-2.03
400.551	6.53
400.995	1.9
401.44	3.98
401.885	8.72
402.329	6.99
402.774	10.28
403.218	29.16
403.663	24.17
404.107	21.69
404.551	25.73
404.995	19.33
405.44	11.61
405.884	9.4
406.328	4.35
406.772	0.67
407.216	1.08
407.66	0.12
408.104	-13.68
408.547	-15.5
408.991	-14.85
409.435	-19.08
409.879	-15.8
410.322	-12.86
410.766	-8.26
411.209	-4.19
411.653	-3.23
412.096	-1.1
412.54	-3.99
412.983	-1.51
413.426	3.79
413.869	2.11
414.312	5.67
414.756	3.76
415.199	4.81
415.642	6.55
416.085	4.66
416.527	4.4
416.97	3.59
417.413	5.28
417.856	2.94
418.298	2.11
418.741	0
419.184	-2.97
419.626	-7.46
420.069	-9.04
420.511	-11.12
420.953	-9.01
421.396	-10.44
421.838	-12.34
422.28	-13.05
422.722	-9.91
423.164	-13.68
423.606	-12.43
424.048	-13.76
424.49	-10.49
424.932	-12.69
425.374	-13.99
425.816	-16.95
426.258	-16.18
426.699	-14.34
427.141	-8.38
427.582	-11
428.024	-10.3
428.465	-13.02
428.907	-14.24
429.348	-14.01
429.789	-10.13
430.231	-6.18
430.672	-5.67
431.113	-5.49
431.554	-5.57
431.995	-9.79
432.436	-5.51
432.877	-4.61
433.318	-0.12
433.759	0.73
434.2	0.24
434.64	-0.61
435.081	-0.72
435.522	0.57
435.962	-0.06
436.403	1.17
436.843	-1.1
437.284	-3.9
437.724	-3.77
438.164	-6.98
438.604	-4.24
439.045	-1.61
439.485	-1.43
439.925	-2.67
440.365	-2.74
440.805	-2.7
441.245	-1.48
441.685	0.23
442.125	-1.55
442.564	-3.79
443.004	-2.09
443.444	-3.43
443.883	-3.73
444.323	-6.02
444.762	-10.28
445.202	-10.51
445.641	-9.41
446.081	-12.32
446.52	-12.75
446.959	-9.81
447.398	-6.54
447.837	-6.85
448.276	-7.46
448.716	-6.39
449.154	-7.48
449.593	-3.9
450.032	-4.79
450.471	-6.3
450.91	-6.63
451.349	-3.85
451.787	-5.26
452.226	-6.68
452.664	-6.57
453.103	-6.44
453.541	-8.47
453.98	-4.95
454.418	-5.4
454.856	-3.35
455.295	-3.03
455.733	-2.16
456.171	-2.6
456.609	-0.53
457.047	-0.08
457.485	1.8
457.923	3.31
458.361	2.24
458.798	0.87
459.236	1.56
459.674	0.2
460.111	0.45
460.549	1.25
460.987	-1.27
461.424	-3.02
461.862	-2.77
462.299	-3.12
462.736	-2.89
463.173	-2.21
463.611	1.3
464.048	1.39
464.485	2.52
464.922	2.07
465.359	1.66
465.796	9.85
466.233	11.97
466.67	14.62
467.106	16.85
467.543	15.24
467.98	15.28
468.416	12.83
468.853	11.01
469.29	9.66
469.726	9.65
470.162	8.71
470.599	2.5
471.035	0.73
471.471	-1.13
471.907	-4.85
472.344	-5.12
472.78	-4.89
473.216	-6.59
473.652	-5.45
474.088	-5.4
474.523	-4.89
474.959	-5.13
475.395	-4.87
475.831	-4.22
476.266	-3.99
476.702	-3.71
477.138	-2.7
477.573	-2.3
478.008	-0.94
478.444	-0.82
478.879	0.98
479.314	1.06
479.75	1.69
480.185	0.94
480.62	-0.17
481.055	-0.47
481.49	0.06
481.925	-0.05
482.36	1.61
482.795	0.62
483.229	-0.18
483.664	-1.7
484.099	-1.78
484.534	-1.99
484.968	-1.07
485.403	-1.03
485.837	-1.53
486.271	-1.25
486.706	-1.59
487.14	-3.16
487.574	-2.97
488.009	-2.45
488.443	-2.27
488.877	-1.29
489.311	-1.36
489.745	-1.12
490.179	-0.35
490.613	1.78
491.046	1.44
491.48	1.71
491.914	2.03
492.348	2.31
492.781	2.82
493.215	3.09
493.648	1.99
494.082	2.04
494.515	1.89
494.948	2.43
495.382	0.68
495.815	0.94
496.248	1.27
496.681	0.55
497.114	0.01
497.547	0.12
497.98	0.99
498.413	2.26
498.846	2.94
499.279	2.47
499.711	1.27
500.144	1.09
500.577	1.65
501.009	1.2
501.442	2.22
501.874	3.36
502.306	2.61
502.739	4.62
503.171	4.06
503.603	4.28
504.036	3.7
504.468	4.27
504.9	3.87
505.332	3.1
505.764	3.55
506.196	3.22
506.627	2.97
507.059	3.15
507.491	0.26
507.923	0.32
508.354	-0.08
508.786	0.77
509.217	0.83
509.649	1.41
510.08	0.9
510.512	1.71
510.943	1.79
511.374	1.88
511.805	1.5
512.237	0.43
512.668	-0.88
513.099	-1.86
513.53	-2.41
513.961	-1.85
514.391	-2.16
514.822	0.16
515.253	0.06
515.684	-0.19
516.114	0.03
516.545	1.25
516.975	1.92
517.406	2.81
517.836	2.28
518.267	2.81
518.697	3.29
519.127	2.69
519.558	0.84
519.988	-0.44
520.418	-0.82
520.848	-2.08
521.278	-3.29
521.708	29.25
522.138	29.88
522.567	29.93
522.997	29.73
523.427	28.65
523.857	29.5
524.286	29.62
524.716	30.37
525.145	31.05
525.575	32.01
526.004	31.64
526.433	-0.06
526.863	-1.25
527.292	0.4
527.721	0.98
528.15	0.91
528.579	0.89
529.008	1.1
529.437	-0.15
529.866	-0.57
530.295	-1.44
530.724	-0.14
531.152	-0.03
531.581	1.19
532.01	1.02
532.438	0.12
532.867	-0.35
533.295	0.35
533.723	0.09
534.152	0.6
534.58	1.18
535.008	1.73
535.436	2.68
535.865	2.23
536.293	1.35
536.721	0.61
537.149	0.96
537.576	2.08
538.004	2.29
538.432	1.97
538.86	2.75
539.287	2.13
539.715	2.09
540.143	0.43
540.57	1.03
540.998	0.7
541.425	2.37
541.852	2.25
542.28	1.63
542.707	0.49
543.134	0.93
543.561	0.76
543.988	0.78
544.415	0.56
544.842	0.15
545.269	0.15
545.696	0.64
546.123	-0.02
546.549	0.54
546.976	0.82
547.403	0.94
547.829	-0.01
548.256	-0.42
548.682	-0.12
549.108	0.91
549.535	1.43
549.961	0.92
550.387	0.6
550.813	1.48
551.24	1.18
551.666	0.13
552.092	0.35
552.518	0.77
552.943	1.71
553.369	1.08
553.795	0.75
554.221	0.67
554.646	0.86
555.072	2.42
555.498	0.47
555.923	-0.61
556.349	0.32
556.774	-0.08
557.199	-0.03
557.625	-1.44
558.05	-0.74
558.475	-1.2
558.9	-0.76
559.325	0
559.75	-0.15
560.175	-0.34
560.6	-0.35
561.025	-0.86
561.449	-0.43
561.874	-0.44
562.299	0.86
562.723	0.65
563.148	0.69
563.572	0.22
563.997	-0.41
564.421	-1.96
564.846	-1.73
565.27	-1.16
565.694	-0.67
566.118	-1.32
566.542	-0.43
566.966	-1.18
567.39	-1.21
567.814	-1.06
568.238	-0.84
568.662	-1.41
569.086	-0.54
569.509	-0.93
569.933	0.96
570.357	0.6
570.78	0.94
571.204	1.64
571.627	1.64
572.05	1.58
572.474	2.98
572.897	3.02
573.32	4.77
573.743	3.88
574.166	4.91
574.589	3
575.012	3.15
575.435	2.65
575.858	1.76
576.281	1.69
576.704	1.57
577.126	-0.42
577.549	-1.03
577.972	-3.03
578.394	-2.79
578.817	-0.78
579.239	-0.77
579.661	-0.47
580.084	1.24
580.506	1.64
580.928	1.45
581.35	1.38
581.772	1.88
582.194	2.28
582.616	2.39
583.038	1.89
583.46	0.2
583.882	0.77
584.303	-0.31
584.725	-1.72
585.147	2.29
585.568	2.78
585.99	3.38
586.411	3.93
586.833	4.31
587.254	5.02
587.675	5.58
588.096	4.67
588.518	4.32
588.939	5.1
589.36	5.62
589.781	-0.05
590.202	2.61
590.623	3.03
591.043	1.79
591.464	1.66
591.885	1.9
592.305	1.75
592.726	2.09
593.147	2.23
593.567	2.37
593.987	2.54
594.408	2.4
594.828	-0.71
595.248	-0.68
595.669	0.77
596.089	0.7
596.509	-0.37
596.929	-0.93
597.349	-0.72
597.769	-1.06
598.189	-1.32
598.608	-1.59
599.028	-1.16
599.448	-1.58
599.867	-2.28
600.287	-3.43
600.706	-3.19
601.126	-2.13
601.545	-1.27
601.965	-1.67
602.384	-1.55
602.803	-1.65
603.222	-1.35
603.641	-1.05
604.061	0.24
604.48	0
604.898	0.1
605.317	-0.26
605.736	-0.4
606.155	0.22
606.574	0.42
606.992	0.4
607.411	0.76
607.829	-0.02
608.248	-0.64
608.666	-1.54
609.085	-0.82
609.503	-0.69
609.921	-0.22
610.339	-0.59
610.758	-1.63
611.176	-1.83
611.594	-1.23
612.012	-1.47
612.43	-0.66
612.847	-0.84
613.265	0.39
613.683	-0.11
614.101	-0.09
614.518	-0.79
614.936	-1.02
615.353	-0.1
615.771	0.17
616.188	0.58
616.606	0.74
617.023	0.97
617.44	1.3
617.857	-0.29
618.274	-0.56
618.691	0.49
619.108	0.66
619.525	0.68
619.942	0.46
620.359	-0.13
620.776	-0.48
621.192	0.04
621.609	0.2
622.026	0.61
622.442	0.96
622.859	0.22
623.275	-0.84
623.691	-1.03
624.108	-1.04
624.524	-1.29
624.94	-0.62
625.356	-1.83
625.772	-2.9
626.188	-4.02
626.604	-4.54
627.02	-4.73
627.436	-3.75
627.852	-2.67
628.268	-1.97
628.683	-2.09
629.099	-2.19
629.514	-2.49
629.93	-1.27
630.345	-1.16
630.761	-1.04
631.176	-0.54
631.591	2.1
632.007	3.02
632.422	1.26
632.837	0.39
633.252	1.85
633.667	1.62
634.082	1.57
634.497	1.59
634.911	3.3
635.326	3.75
635.741	4.27
636.155	2.96
636.57	3.49
636.984	4.62
637.399	6.02
637.813	4.66
638.228	4.72
638.642	4.47
639.056	3.95
639.47	3.57
639.884	3.72
640.298	2.89
640.712	3.03
641.126	1.79
641.54	0.83
641.954	-1.36
642.368	-0.94
642.781	1.61
643.195	1.84
643.609	2.57
644.022	1.62
644.436	0.73
644.849	0.02
645.262	-1.18
645.676	-2.04
646.089	-1.75
646.502	0.1
646.915	-0.07
647.328	-1.43
647.741	-0.77
648.154	-0.5
648.567	2
648.98	2.53
649.393	2.64
649.805	3.2
650.218	3.41
650.631	4.29
651.043	4.08
651.456	4.54
651.868	4.05
652.28	2.83
652.693	0.67
653.105	-1.41
653.517	-1.6
653.929	-0.83
654.341	-0.15
654.753	0.06
655.165	-0.59
655.577	-1.45
655.989	-1.45
656.401	-2.45
656.813	-0.71
657.224	0.46
657.636	-0.07
658.047	0.75
658.459	0.59
658.87	-1.21
659.282	-0.92
659.693	-0.49
660.104	0.83
660.515	-0.11
660.926	-0.59
661.338	-1.27
661.749	-2.36
662.159	-1.11
662.57	-2.29
662.981	-2.42
663.392	-2.03
663.803	-2.19
664.213	-2.47
664.624	-3.38
665.035	-3.91
665.445	-3.85
665.855	-2.89
666.266	-0.94
666.676	-1.57
667.086	-2
667.497	-1.69
667.907	-2.02
668.317	-2.07
668.727	1.17
669.137	0.11
669.547	0.72
669.956	0.19
670.366	-0.58
670.776	-0.99
671.186	-1.9
671.595	-0.82
672.005	-1.38
672.414	0.02
672.824	0.97
673.233	-2.43
673.642	-1.26
674.052	0.2
674.461	2.06
674.87	1.81
675.279	2.72
675.688	1.4
676.097	1.6
676.506	0.94
676.915	-0.1
677.323	-0.79
677.732	-1.04
678.141	-1.63
678.549	-3.49
678.958	-4.7
679.366	-5.95
679.775	-7.45
680.183	-4.45
680.592	-5.11
681	-3.96
681.408	-3.58
681.816	-4.07
682.224	-3.62
682.632	-1.66
683.04	-0.92
683.448	-1.31
683.856	-0.29
684.264	0.9
684.671	-1.19
685.079	-1.27
685.487	-2.03
685.894	-2.8
686.302	-3.88
686.709	-4.56
687.116	-5.36
687.524	-4.49
687.931	-3.26
688.338	-1.89
688.745	-3.36
689.152	-3.06
689.559	-2.83
689.966	-0.34
690.373	0.56
690.78	1.99
691.187	3.05
691.593	3.68
692	3.08
692.407	3.34
692.813	5.61
693.22	6.6
693.626	5.62
694.032	6.44
694.439	5.18
694.845	4.24
695.251	3.43
695.657	3.44
696.063	1.41
696.469	0.96
696.875	0.37
697.281	-2.41
697.687	-3.21
698.093	-2
698.498	-1.68
698.904	-3.16
699.31	-2.48
699.715	0.19
700.12	-0.54
700.526	-0.07
700.931	0.08
701.337	1.68
701.742	2.49
702.147	2.04
702.552	2.91
702.957	0.92
703.362	1.49
703.767	1.28
704.172	-1.23
704.577	-1.72
704.981	-2.54
705.386	-2.42
705.791	-2.92
706.195	-4.93
706.6	-3.73
707.004	-5.66
707.408	-5.76
707.813	-4.72
708.217	-3.5
708.621	-3
709.025	-3.65
709.43	-2.09
709.834	-1.81
710.237	-2.53
710.641	-1.18
711.045	-1.66
711.449	0.16
711.853	4.66
712.256	3.84
712.66	3.05
713.064	3
713.467	4.76
713.87	4.79
714.274	4.6
714.677	5.08
715.08	5.09
715.484	5.68
715.887	7.63
716.29	2.9
716.693	3.65
717.096	4.44
717.499	4.29
717.901	4.26
718.304	3.32
718.707	2.18
719.109	1.7
719.512	0.52
719.915	3.14
720.317	1.36
720.719	0.79
721.122	1.13
721.524	0.87
721.926	6.64
722.328	6.15
722.731	5.24
723.133	5.64
723.535	4.93
723.937	5.64
724.338	4.77
724.74	4.66
725.142	57.15
725.544	59.81
725.945	72.87
726.347	67.88
726.748	67.55
727.15	69.76
727.551	75.45
727.952	75.02
728.354	73.95
728.755	73.41
729.156	72.74
729.557	22.09
729.958	18.23
730.359	4.72
730.76	5.07
731.161	4.82
731.562	2.36
731.962	-2.53
732.363	-2.43
732.763	-2.28
733.164	-4.83
733.564	-5.02
733.965	-2.63
734.365	-1.76
734.766	-0.53
735.166	-2.03
735.566	-0.32
735.966	1.26
736.366	1.3
736.766	1.6
737.166	1.37
737.566	1.48
737.966	2.2
738.365	1.54
738.765	1.93
739.165	0.94
739.564	0.99
739.964	-1.28
740.363	-2.28
740.763	-3.37
741.162	-1.73
741.561	-2.25
741.96	-0.72
742.36	-2.09
742.759	-1.88
743.158	-3.06
743.557	-3.19
743.955	-3.27
744.354	-2.76
744.753	-3.37
745.152	-1.27
745.55	-3.73
745.949	-3.59
746.348	-4.65
746.746	-5.7
747.144	-3.98
747.543	-4.87
747.941	-4.86
748.339	-4.6
748.737	-3.74
749.136	-2.06
749.534	-4.65
749.932	-1.55
750.33	-1.42
750.727	-2.2
751.125	-1.05
751.523	-3.15
751.921	0.47
752.318	0.74
752.716	2.95
753.113	2.39
753.511	2.07
753.908	3.76
754.305	7.29
754.703	7.65
755.1	7.76
755.497	7.55
755.894	7.47
