Data from C_1_DIV_OH_2N_Splice17_11-49-53-234.txt Node
Date: Sat Mar 14 11:49:53 EDT 2020
User: sa697716
Spectrometer: FLMS03696
Trigger mode: 0
Integration Time (sec): 3.180400E-1
Scans to average: 20
Electric dark correction enabled: true
Nonlinearity correction enabled: true
Boxcar width: 5
XAxis mode: Wavelengths
Number of Pixels in Spectrum: 2048
>>>>>Begin Spectral Data<<<<<
187.83	-231820.45
188.298	1615.86
188.766	900.41
189.233	816.58
189.701	1201.27
190.169	1732.66
190.636	635.01
191.104	529.16
191.571	105.07
192.039	-34.07
192.506	-3.02
192.974	461.19
193.441	-724.27
193.908	-251.86
194.375	-79.87
194.842	21.73
195.31	52.46
195.777	106.91
196.244	329.16
196.711	450.15
197.177	568.94
197.644	828
198.111	1421.12
198.578	1990.89
199.045	1623.47
199.511	2684.42
199.978	3150.59
200.445	2701.01
200.911	3023.17
201.378	3404.33
201.844	3090.76
202.31	5271.55
202.777	5475.83
203.243	3053
203.709	2906.9
204.176	3464.7
204.642	2849.06
205.108	2650.15
205.574	2184.76
206.04	1999.32
206.506	1847.13
206.972	1754.68
207.438	1708.1
207.903	1948.23
208.369	1730.23
208.835	1731.21
209.301	1815.11
209.766	1870.82
210.232	1855.61
210.697	2282.11
211.163	2821.86
211.628	4333.05
212.094	3647.06
212.559	4506.59
213.024	2823.74
213.49	3423.69
213.955	3371.31
214.42	3322.14
214.885	3099.81
215.35	3009.66
215.815	2896.64
216.28	3075.87
216.745	2535.18
217.21	2780.68
217.675	2574.38
218.14	2963.38
218.604	3400.51
219.069	3960.23
219.534	4222.39
219.998	5008.65
220.463	6181.55
220.927	7776.82
221.392	7455.56
221.856	7637.02
222.32	9716.75
222.785	12117.81
223.249	15342.76
223.713	17227.98
224.177	17265.66
224.642	22277.33
225.106	27568.37
225.57	30254.4
226.034	22550.29
226.497	34406.88
226.961	31103.09
227.425	36290.43
227.889	40407.4
228.353	40497.17
228.816	83781.45
229.28	80431.57
229.744	67998.6
230.207	41294.48
230.671	40666.74
231.134	67452.36
231.597	77831.97
232.061	77942.1
232.524	76181.28
232.987	52519.13
233.45	47288.83
233.914	42450.68
234.377	43521.02
234.84	39875.34
235.303	47108.93
235.766	52541.33
236.229	54339.62
236.691	34235.24
237.154	38495.85
237.617	28950.15
238.08	29654.06
238.542	34740.64
239.005	24815.74
239.468	24634.59
239.93	23212.33
240.393	21104.5
240.855	18548.67
241.317	18990.03
241.78	23119.16
242.242	23903.34
242.704	25804.28
243.166	22475.73
243.629	20366.57
244.091	23500.87
244.553	25768.42
245.015	27693.85
245.477	35849.33
245.939	52591.17
246.4	55862.89
246.862	54376.78
247.324	51331.31
247.786	57500.58
248.247	75461.34
248.709	78121.66
249.17	58401.18
249.632	55035.58
250.093	63776.93
250.555	55062.93
251.016	33549.4
251.477	31822.73
251.939	34309.15
252.4	35955.74
252.861	42799.27
253.322	39813.38
253.783	47407.99
254.244	61503.62
254.705	48530.89
255.166	43191.36
255.627	42538.19
256.088	59971.14
256.549	63690.23
257.009	54922.37
257.47	66696.21
257.931	54316.74
258.391	40652.31
258.852	41918.4
259.312	44002.26
259.773	54359.1
260.233	45936.12
260.694	38797.53
261.154	44086.65
261.614	35393.1
262.074	31684.53
262.534	32912.95
262.994	31026.27
263.455	41409.38
263.915	34893.44
264.374	32889.23
264.834	35945.72
265.294	39876.78
265.754	41281.06
266.214	39093.02
266.673	36637.44
267.133	46227.02
267.593	45911.74
268.052	56176.52
268.512	48881.89
268.971	58922.48
269.431	64611.54
269.89	57866.81
270.349	86826.22
270.809	96879.5
271.268	87135.57
271.727	195724.45
272.186	126829.37
272.645	95152.24
273.104	68725.61
273.563	99509.65
274.022	78361.17
274.481	66644.35
274.94	51299.37
275.399	38133.58
275.857	44413.48
276.316	60070.59
276.775	53443.89
277.233	52615.26
277.692	49197.63
278.15	55633.54
278.609	57180.52
279.067	52869.08
279.525	49070.22
279.984	63428.45
280.442	76120.11
280.9	74926
281.358	49279.12
281.816	45879.55
282.274	44853.91
282.732	46389.68
283.19	46601.52
283.648	40235.11
284.106	42878.97
284.564	43659.58
285.021	40445.44
285.479	30123.18
285.937	27423.26
286.394	24011.04
286.852	24686.07
287.309	25948.95
287.767	25005.23
288.224	23743.04
288.682	26018.35
289.139	28482.77
289.596	25982.91
290.053	26966.07
290.511	34031.66
290.968	41211.87
291.425	55989.91
291.882	46558.34
292.339	40524.37
292.796	40241.14
293.252	37917.99
293.709	30107.89
294.166	27014
294.623	29876.85
295.079	28692.14
295.536	28805.63
295.992	26156.02
296.449	25829.18
296.905	26834.7
297.362	25693.82
297.818	27016.95
298.274	27990.46
298.731	28519.29
299.187	28204.33
299.643	30266.02
300.099	36530.06
300.555	40074.13
301.011	33470.78
301.467	32209.68
301.923	37717.55
302.379	36826.79
302.835	36125.28
303.291	36153.41
303.746	41143.56
304.202	51912.19
304.658	52100.34
305.113	35083.19
305.569	34332.72
306.024	36580.44
306.479	34842.87
306.935	29356.03
307.39	32076.04
307.845	29619.39
308.301	29808.02
308.756	29022
309.211	27963.66
309.666	28621.24
310.121	35472.37
310.576	35983.61
311.031	35675.25
311.486	40885.62
311.94	40820.73
312.395	54491.64
312.85	102237.12
313.305	501881.77
313.759	2593623.15
314.214	187877.71
314.668	148854.73
315.123	125078.99
315.577	44791.74
316.032	39831.24
316.486	49875.41
316.94	39305.43
317.394	27348.68
317.849	21297.72
318.303	20169.91
318.757	19005.29
319.211	20986.2
319.665	18368.3
320.119	18587.95
320.572	26670.47
321.026	24890.46
321.48	20717.33
321.934	22597.03
322.387	22671.29
322.841	24472.71
323.295	21968.85
323.748	25366.67
324.202	25735.36
324.655	30866.95
325.108	43066.18
325.562	30433.76
326.015	36204.82
326.468	27338.76
326.921	30548.8
327.374	28474.68
327.827	29584.94
328.28	33475.05
328.733	22379.59
329.186	19692.32
329.639	18777.26
330.092	15843.93
330.545	15073.64
330.997	15191.58
331.45	16570.03
331.903	19417.72
332.355	33394.12
332.808	32483.33
333.26	26819.22
333.713	29115.4
334.165	29324.01
334.617	39183.47
335.069	31643.48
335.522	57229.58
335.974	63238.3
336.426	57900.03
336.878	40130.73
337.33	20322.25
337.782	19831.91
338.234	24796.01
338.686	29654.13
339.137	35071.49
339.589	32988.57
340.041	25864.07
340.493	22250.72
340.944	22806.18
341.396	24534.68
341.847	20613.33
342.299	24325.45
342.75	29684.73
343.201	25945.75
343.653	29870.91
344.104	36741.72
344.555	28922.92
345.006	45044.87
345.457	34455.52
345.908	27403.3
346.359	25773.64
346.81	21016.63
347.261	22146.15
347.712	21817.91
348.163	23423.21
348.613	23693.09
349.064	22121.93
349.515	19363.85
349.965	19843.53
350.416	23897.14
350.866	26231.77
351.317	29713.74
351.767	49155.45
352.217	62166.17
352.668	51635.52
353.118	47341.63
353.568	45674.66
354.018	36111.47
354.468	38112.19
354.918	27345.93
355.368	23946.38
355.818	33846.94
356.268	97317.04
356.718	407124.41
357.168	101331.99
357.617	50804
358.067	56441.69
358.517	52855.84
358.966	61907.96
359.416	69343.48
359.865	74998.3
360.315	89205.54
360.764	41587.84
361.213	23278.86
361.663	22077.61
362.112	27239.56
362.561	44056.13
363.01	33254.32
363.459	27975.16
363.908	30323.51
364.357	25733.26
364.806	43497.29
365.255	29938.85
365.703	27405.93
366.152	27468.98
366.601	22267.23
367.05	18070.14
367.498	16418.06
367.947	17149
368.395	17847.23
368.844	15790.04
369.292	19080.28
369.74	13166.62
370.189	20155.1
370.637	23612.21
371.085	20373.69
371.533	24795.27
371.981	23900.21
372.429	22730.91
372.877	23649.95
373.325	19807.17
373.773	20178.93
374.221	17965.13
374.669	22281.33
375.116	19301.78
375.564	19496.62
376.012	21793.66
376.459	17972.84
376.907	21479.6
377.354	25992.01
377.801	24242.97
378.249	27825.56
378.696	35569.57
379.143	43052.44
379.591	45903.9
380.038	77514.65
380.485	55914.69
380.932	60373.77
381.379	55207.08
381.826	40618.13
382.273	28916.8
382.72	25323.88
383.166	24687.93
383.613	16020.92
384.06	14454.36
384.506	16727.02
384.953	12303.94
385.4	12406.8
385.846	10870.71
386.292	10626.88
386.739	10408.94
387.185	10294.39
387.631	10294.76
388.078	9994.5
388.524	10701.11
388.97	9895.04
389.416	8252.76
389.862	8764.06
390.308	8308.88
390.754	8447.85
391.2	9151.7
391.645	9375.68
392.091	8951.1
392.537	8655.14
392.983	8675.54
393.428	8510.76
393.874	9104.21
394.319	9128.36
394.765	8644.11
395.21	8868.45
395.655	8303.94
396.101	7774.95
396.546	7012.77
396.991	7092.17
397.436	6594.59
397.881	6370.01
398.326	6052.19
398.771	5728.25
399.216	5021.11
399.661	4531.81
400.106	4524.52
400.551	4625.85
400.995	4147.54
401.44	4097.53
401.885	3846.58
402.329	3878.78
402.774	3714.21
403.218	3584.86
403.663	3452.86
404.107	3542.39
404.551	3559.56
404.995	3256.58
405.44	3143.97
405.884	3195.93
406.328	3096.62
406.772	3085.15
407.216	2811.29
407.66	2725.38
408.104	2594.25
408.547	2427.83
408.991	2352.59
409.435	2267.23
409.879	2241.23
410.322	2210.38
410.766	2130.17
411.209	2026.61
411.653	1947.66
412.096	1905.09
412.54	1902.29
412.983	1887.4
413.426	1895.55
413.869	1892.34
414.312	1854.62
414.756	1789.78
415.199	1708.38
415.642	1659.74
416.085	1659.06
416.527	1646.97
416.97	1674.37
417.413	1589.71
417.856	1576.73
418.298	1557.4
418.741	1545.66
419.184	1542.65
419.626	1602.57
420.069	1601.22
420.511	1608.46
420.953	1573.59
421.396	1558.33
421.838	1519.83
422.28	1553.27
422.722	1557.11
423.164	1581.25
423.606	1556.14
424.048	1557.16
424.49	1479.83
424.932	1477.07
425.374	1461.23
425.816	1489.97
426.258	1517.22
426.699	1531.58
427.141	1507.75
427.582	1529.81
428.024	1521.65
428.465	1512.27
428.907	1474.1
429.348	1461.13
429.789	1460.88
430.231	1427.26
430.672	1448.81
431.113	1415.77
431.554	1399.97
431.995	1370.02
432.436	1322.85
432.877	1293.8
433.318	1277.04
433.759	1276.67
434.2	1275.2
434.64	1263.17
435.081	1270.19
435.522	1205.34
435.962	1167.44
436.403	1143.72
436.843	1164.99
437.284	1146.35
437.724	1123.02
438.164	1129.55
438.604	1105.73
439.045	1066.02
439.485	1025.33
439.925	1007.29
440.365	983.79
440.805	972.88
441.245	962.2
441.685	927.41
442.125	922.88
442.564	928.52
443.004	908.46
443.444	908.65
443.883	914.51
444.323	909.6
444.762	913.37
445.202	930.65
445.641	947.63
446.081	946.46
446.52	956.43
446.959	948.34
447.398	926.22
447.837	918.01
448.276	902.49
448.716	912.08
449.154	923.37
449.593	904
450.032	899.7
450.471	886.54
450.91	888.74
451.349	885.79
451.787	883.2
452.226	899.28
452.664	899.29
453.103	903.55
453.541	903.68
453.98	902.76
454.418	911.25
454.856	897.13
455.295	895.61
455.733	902.64
456.171	909.53
456.609	910.28
457.047	910.39
457.485	922.57
457.923	924.25
458.361	912.42
458.798	915.04
459.236	912.59
459.674	921.41
460.111	925.96
460.549	918.42
460.987	916.75
461.424	917.28
461.862	912.72
462.299	900.72
462.736	899.68
463.173	903.6
463.611	893.46
464.048	891.58
464.485	898.72
464.922	891.78
465.359	886.73
465.796	870.84
466.233	864.5
466.67	857.81
467.106	854.93
467.543	847.65
467.98	837.65
468.416	819.26
468.853	813.58
469.29	790.34
469.726	782.98
470.162	764.33
470.599	758.81
471.035	752.94
471.471	735.83
471.907	734.6
472.344	730.53
472.78	733.03
473.216	741.68
473.652	732.98
474.088	732.65
474.523	729.6
474.959	735.73
475.395	730.37
475.831	725.34
476.266	729.11
476.702	726.3
477.138	717.95
477.573	715.06
478.008	712.85
478.444	715.45
478.879	720.23
479.314	722.64
479.75	721.82
480.185	724.28
480.62	730.6
481.055	734.02
481.49	739.49
481.925	750.17
482.36	761.09
482.795	779.81
483.229	799.38
483.664	814.42
484.099	816.7
484.534	828.7
484.968	836.46
485.403	838.56
485.837	837.87
486.271	836.79
486.706	837.57
487.14	831.03
487.574	819.36
488.009	814.26
488.443	808.1
488.877	817.94
489.311	821.22
489.745	831.18
490.179	839.68
490.613	854.65
491.046	861.51
491.48	869.37
491.914	870.46
492.348	878.46
492.781	884.91
493.215	889.24
493.648	893.01
494.082	902.61
494.515	905.09
494.948	915.09
495.382	924.58
495.815	932.13
496.248	940.2
496.681	958.4
497.114	975.16
497.547	989.75
497.98	1008.13
498.413	1016.39
498.846	1030.24
499.279	1043.09
499.711	1051.97
500.144	1057.09
500.577	1073.09
501.009	1090.57
501.442	1106.28
501.874	1109.59
502.306	1114.78
502.739	1126.68
503.171	1150.25
503.603	1157.5
504.036	1173.16
504.468	1184.36
504.9	1201.54
505.332	1214
505.764	1222.78
506.196	1235.12
506.627	1257.48
507.059	1277.66
507.491	1293.62
507.923	1292.77
508.354	1314.66
508.786	1331
509.217	1356.51
509.649	1378.45
510.08	1405.64
510.512	1428.24
510.943	1449.15
511.374	1464.74
511.805	1493.71
512.237	1519.84
512.668	1564.43
513.099	1601.52
513.53	1637.18
513.961	1663.82
514.391	1704.26
514.822	1744.99
515.253	1791.86
515.684	1823.98
516.114	1861.74
516.545	1886.84
516.975	1921.13
517.406	1942.59
517.836	1943.85
518.267	1951.31
518.697	1973.41
519.127	1978.69
519.558	1990.16
519.988	1993.61
520.418	2005.69
520.848	2029.75
521.278	2039.8
521.708	2040.9
522.138	2056.26
522.567	2097.79
522.997	2129.88
523.427	2148.87
523.857	2169.13
524.286	2178.12
524.716	2196.67
525.145	2220.2
525.575	2231.36
526.004	2250.07
526.433	2257.71
526.863	2256.25
527.292	2239.12
527.721	2243.7
528.15	2250.42
528.579	2251.01
529.008	2263.93
529.437	2292.07
529.866	2307.19
530.295	2326.78
530.724	2339.73
531.152	2372.87
531.581	2387.22
532.01	2407.9
532.438	2417.39
532.867	2434.32
533.295	2456.05
533.723	2463.51
534.152	2458.14
534.58	2456.3
535.008	2434.39
535.436	2435.17
535.865	2444.65
536.293	2464.59
536.721	2485.07
537.149	2517.83
537.576	2519.42
538.004	2534.68
538.432	2544.48
538.86	2542.38
539.287	2552.91
539.715	2573.08
540.143	2577.2
540.57	2572.88
540.998	2567.91
541.425	2536.76
541.852	2509.32
542.28	2506.88
542.707	2484.64
543.134	2465.44
543.561	2459.6
543.988	2448.41
544.415	2445.53
544.842	2438.02
545.269	2427.86
545.696	2429.52
546.123	2446.12
546.549	2431.05
546.976	2413.7
547.403	2412.62
547.829	2414.65
548.256	2416.44
548.682	2410.68
549.108	2400.28
549.535	2398.1
549.961	2399.79
550.387	2381.79
550.813	2372.23
551.24	2380.02
551.666	2381.53
552.092	2369.15
552.518	2360.58
552.943	2352.28
553.369	2361.33
553.795	2367.32
554.221	2367.74
554.646	2361.58
555.072	2374.68
555.498	2381.22
555.923	2392.71
556.349	2409.58
556.774	2419.13
557.199	2418.85
557.625	2426.38
558.05	2418.46
558.475	2432.53
558.9	2431.39
559.325	2420.06
559.75	2410.04
560.175	2400.68
560.6	2390.92
561.025	2389.35
561.449	2391.31
561.874	2399.23
562.299	2403.66
562.723	2413.37
563.148	2399.36
563.572	2404.31
563.997	2417.98
564.421	2427.52
564.846	2430.33
565.27	2436.94
565.694	2434.23
566.118	2450.01
566.542	2460.21
566.966	2452.13
567.39	2446.54
567.814	2432.53
568.238	2435.14
568.662	2443.3
569.086	2448.52
569.509	2460.05
569.933	2440.56
570.357	2433.91
570.78	2408.69
571.204	2392.75
571.627	2381.89
572.05	2382.06
572.474	2384.07
572.897	2366.92
573.32	2358.64
573.743	2345.89
574.166	2322.38
574.589	2323.89
575.012	2313.31
575.435	2311.41
575.858	2300.12
576.281	2285.31
576.704	2264.13
577.126	2248.73
577.549	2235.13
577.972	2222.26
578.394	2209.07
578.817	2197.53
579.239	2173.83
579.661	2156.39
580.084	2135.52
580.506	2117.49
580.928	2113.38
581.35	2098.86
581.772	2092.96
582.194	2075.42
582.616	2058.89
583.038	2039.4
583.46	2027.52
583.882	2021.67
584.303	2027.62
584.725	2022.36
585.147	2022.9
585.568	2035.31
585.99	2049.8
586.411	2056.9
586.833	2075.25
587.254	2075.2
587.675	2093.63
588.096	2108.68
588.518	2101.32
588.939	2076.93
589.36	2073.9
589.781	2062.66
590.202	2023.32
590.623	2012.3
591.043	2009.97
591.464	1992.97
591.885	1988.65
592.305	1980.59
592.726	1962.38
593.147	1965
593.567	1959.34
593.987	1949.04
594.408	1943.25
594.828	1942.26
595.248	1934.78
595.669	1909.84
596.089	1900.12
596.509	1891.82
596.929	1874.84
597.349	1876.15
597.769	1863.03
598.189	1855.08
598.608	1856.83
599.028	1858.19
599.448	1859.35
599.867	1842.52
600.287	1838.4
600.706	1832.2
601.126	1818.61
601.545	1815.68
601.965	1814.34
602.384	1806.68
602.803	1809.33
603.222	1802.92
603.641	1794.64
604.061	1789.41
604.48	1784.48
604.898	1794.78
605.317	1803.75
605.736	1807.58
606.155	1804.18
606.574	1791.83
606.992	1798.46
607.411	1793.16
607.829	1782.17
608.248	1778.44
608.666	1774.82
609.085	1773.67
609.503	1761.96
609.921	1751.94
610.339	1754.83
610.758	1754.57
611.176	1748.22
611.594	1737.33
612.012	1732.01
612.43	1735.99
612.847	1744.31
613.265	1745.32
613.683	1751.65
614.101	1753.08
614.518	1748.86
614.936	1734.84
615.353	1715.06
615.771	1712.11
616.188	1712.07
616.606	1708.02
617.023	1698.84
617.44	1679.36
617.857	1670.95
618.274	1658.57
618.691	1650.36
619.108	1638.33
619.525	1631.04
619.942	1639.24
620.359	1642.16
620.776	1634.62
621.192	1629.18
621.609	1626.57
622.026	1634.65
622.442	1641.57
622.859	1646.27
623.275	1637.2
623.691	1642.88
624.108	1656.62
624.524	1674.99
624.94	1673.89
625.356	1686.67
625.772	1703.21
626.188	1718.33
626.604	1720.76
627.02	1715.69
627.436	1713.16
627.852	1720.79
628.268	1736.56
628.683	1725.62
629.099	1714.44
629.514	1708.91
629.93	1713.93
630.345	1720.09
630.761	1713.85
631.176	1717.29
631.591	1707.9
632.007	1698.82
632.422	1697.29
632.837	1682.69
633.252	1677.99
633.667	1663.79
634.082	1650.49
634.497	1631.79
634.911	1604.16
635.326	1599.87
635.741	1576.42
636.155	1563.7
636.57	1564.21
636.984	1561.63
637.399	1561.92
637.813	1559.99
638.228	1556.85
638.642	1561.26
639.056	1547.6
639.47	1546.64
639.884	1534.29
640.298	1525.49
640.712	1521.91
641.126	1504.11
641.54	1491.89
641.954	1485.12
642.368	1467.96
642.781	1455.82
643.195	1430.97
643.609	1430
644.022	1420.73
644.436	1412.23
644.849	1395.86
645.262	1379.57
645.676	1380.38
646.089	1372.1
646.502	1349.89
646.915	1341.84
647.328	1320.33
647.741	1316.95
648.154	1298.77
648.567	1293.93
648.98	1276.56
649.393	1275.4
649.805	1270.44
650.218	1260.05
650.631	1240.62
651.043	1232.54
651.456	1225.16
651.868	1226.61
652.28	1247.52
652.693	1264.87
653.105	1271.72
653.517	1283.05
653.929	1283.3
654.341	1289.07
654.753	1273.43
655.165	1279.86
655.577	1276.69
655.989	1269.82
656.401	1258.29
656.813	1213.17
657.224	1187.79
657.636	1152.54
658.047	1129.69
658.459	1104.59
658.87	1091.67
659.282	1076.92
659.693	1051.32
660.104	1031.44
660.515	1013.51
660.926	1009.24
661.338	1003.74
661.749	993.34
662.159	980.65
662.57	973.31
662.981	965.14
663.392	954.99
663.803	957.09
664.213	951.32
664.624	944.87
665.035	945.78
665.445	927.67
665.855	917
666.266	905.61
666.676	901.37
667.086	889.63
667.497	886.75
667.907	878.12
668.317	865.7
668.727	858.86
669.137	858.2
669.547	853.97
669.956	856.14
670.366	855.9
670.776	856.7
671.186	859.49
671.595	861.43
672.005	864.38
672.414	862.13
672.824	860.1
673.233	865.16
673.642	865.88
674.052	868.64
674.461	869.73
674.87	875.08
675.279	871.61
675.688	873.07
676.097	874.34
676.506	870.93
676.915	887.2
677.323	888.95
677.732	887.38
678.141	887.72
678.549	876.71
678.958	876.67
679.366	876.41
679.775	882.61
680.183	893.94
680.592	901.72
681	909.22
681.408	902.92
681.816	913.83
682.224	926.02
682.632	939.68
683.04	975.75
683.448	1005.95
683.856	1043.96
684.264	1087.25
684.671	1128.55
685.079	1179.03
685.487	1235.02
685.894	1311.58
686.302	1376.08
686.709	1429.42
687.116	1489.9
687.524	1542
687.931	1587.44
688.338	1626.46
688.745	1660.38
689.152	1700.1
689.559	1751.51
689.966	1800.49
690.373	1824.59
690.78	1870.41
691.187	1943.32
691.593	1998.39
692	2044.16
692.407	2114.39
692.813	2199.18
693.22	2266.06
693.626	2334.1
694.032	2385.36
694.439	2469.47
694.845	2531.43
