Data from C_1_DIV_OH_2N_Splice17_11-50-19-947.txt Node
Date: Sat Mar 14 11:50:19 EDT 2020
User: sa697716
Spectrometer: FLMS03696
Trigger mode: 0
Integration Time (sec): 3.180400E-1
Scans to average: 20
Electric dark correction enabled: true
Nonlinearity correction enabled: true
Boxcar width: 5
XAxis mode: Wavelengths
Number of Pixels in Spectrum: 2048
>>>>>Begin Spectral Data<<<<<
187.83	-223111.52
188.298	1638.57
188.766	942.88
189.233	823.91
189.701	1145.47
190.169	1625.28
190.636	628.16
191.104	483.1
191.571	73.34
192.039	-39.66
192.506	-63.78
192.974	466.25
193.441	-789.41
193.908	-75.29
194.375	-57.6
194.842	-19.46
195.31	56.97
195.777	158.13
196.244	379.16
196.711	542.41
197.177	697.5
197.644	1013.09
198.111	1759.08
198.578	2499.67
199.045	1989.23
199.511	3296.28
199.978	3868.2
200.445	3275.6
200.911	3651.83
201.378	4094.45
201.844	3701.96
202.31	6349.98
202.777	6620.14
203.243	3689.95
203.709	3513.69
204.176	4207.28
204.642	3472.21
205.108	3266.5
205.574	2684.5
206.04	2461.56
206.506	2328.72
206.972	2211.79
207.438	2136.83
207.903	2436.13
208.369	2145.03
208.835	2139.02
209.301	2249.19
209.766	2328.59
210.232	2305.14
210.697	2876.55
211.163	3583.81
211.628	5463.47
212.094	4609.61
212.559	5680.07
213.024	3574.75
213.49	4372.89
213.955	4291.65
214.42	4246.73
214.885	3980.48
215.35	3841.76
215.815	3677.69
216.28	3950.67
216.745	3271.77
217.21	3601.38
217.675	3414.67
218.14	3937.23
218.604	4546.37
219.069	5346.42
219.534	5733.96
219.998	6862.73
220.463	8512.41
220.927	10800.13
221.392	10358.81
221.856	10633.78
222.32	13665.21
222.785	17031.58
223.249	21676.81
223.713	24392.46
224.177	24574.1
224.642	31821.69
225.106	39399.94
225.57	43363.04
226.034	32267.53
226.497	49237.05
226.961	44540.57
227.425	51932.09
227.889	57860.58
228.353	58034.28
228.816	120146.38
229.28	115006.51
229.744	97227.21
230.207	59018.98
230.671	58096.1
231.134	96529.94
231.597	111353.6
232.061	111545.43
232.524	108927.36
232.987	75083.2
233.45	67464.58
233.914	60484.69
234.377	62118
234.84	56808.46
235.303	67099.23
235.766	74868.72
236.229	77325.02
236.691	48739.93
237.154	54803.05
237.617	41188.36
238.08	42183.95
238.542	49417.85
239.005	35311.47
239.468	35014.33
239.93	32959.54
240.393	29925.3
240.855	26260.52
241.317	26897.37
241.78	32731.66
242.242	33779.74
242.704	36401.29
243.166	31646.4
243.629	28662.5
244.091	33026.13
244.553	36146.74
245.015	38856.33
245.477	50265.83
245.939	73678.19
246.4	78110.12
246.862	75890.79
247.324	71513.58
247.786	80104.41
248.247	105042.56
248.709	108666.17
249.17	81231.51
249.632	76458.67
250.093	88499.99
250.555	76389.34
251.016	46517.53
251.477	44100.03
251.939	47556.29
252.4	49914.26
252.861	59327.61
253.322	55121.5
253.783	65619.31
254.244	85111.65
254.705	67174.23
255.166	59800.98
255.627	58887.31
256.088	83007.18
256.549	88219.5
257.009	76016.1
257.47	92267.28
257.931	75218.71
258.391	56424.47
258.852	58175.97
259.312	61024.85
259.773	75364.76
260.233	63623.63
260.694	53658.08
261.154	60939.38
261.614	48828.63
262.074	43674.43
262.534	45364.85
262.994	42740.76
263.455	56936.84
263.915	47927.23
264.374	45152
264.834	49335.34
265.294	54732.65
265.754	56690.7
266.214	53670.84
266.673	50347.8
267.133	63557.05
267.593	63095.42
268.052	77229.96
268.512	67215.22
268.971	80992.39
269.431	88780.16
269.89	79466.58
270.349	119096.56
270.809	132725.63
271.268	119241.45
271.727	267549.88
272.186	173218.74
272.645	129831.64
273.104	93709.9
273.563	135605.69
274.022	106788.5
274.481	90781.43
274.94	69927.38
275.399	52002.73
275.857	60566.28
276.316	81987.27
276.775	72914.02
277.233	71783.39
277.692	67128.98
278.15	75842.5
278.609	77951.58
279.067	72112.18
279.525	66931.18
279.984	86487.33
280.442	103800.74
280.9	102210.31
281.358	67168.01
281.816	62539.07
282.274	61207.11
282.732	63283.87
283.19	63548.8
283.648	54795.85
284.106	58326.44
284.564	59286.74
285.021	54865.39
285.479	40861.29
285.937	37179.38
286.394	32554.27
286.852	33505.69
287.309	35165.32
287.767	33851.04
288.224	32163.74
288.682	35280.5
289.139	38616.73
289.596	35310.76
290.053	36655.74
290.511	46252.25
290.968	55954.56
291.425	75995.09
291.882	63102.75
292.339	54849.88
292.796	54496.44
293.252	51333.85
293.709	40707.79
294.166	36502.45
294.623	40339.08
295.079	38730.07
295.536	38815.88
295.992	35225.76
296.449	34809.48
296.905	36139.32
297.362	34650.15
297.818	36431.48
298.274	37715
298.731	38443.68
299.187	38013.75
299.643	40792.93
300.099	49267.35
300.555	54046.63
301.011	45164.12
301.467	43383.37
301.923	50826.42
302.379	49581.87
302.835	48651.32
303.291	48689.51
303.746	55421.37
304.202	69959.72
304.658	70181.95
305.113	47198.48
305.569	46219.5
306.024	49254.94
306.479	47014.32
306.935	39565.52
307.39	43199.94
307.845	39848.03
308.301	40080.11
308.756	39007.66
309.211	37580.49
309.666	38481.11
310.121	47664.28
310.576	48391.45
311.031	47976.82
311.486	54915.36
311.94	54898.44
312.395	73361.81
312.85	137988.84
313.305	678440.28
313.759	3501850.8
314.214	253453.41
314.668	200471.38
315.123	168302.88
315.577	60214.58
316.032	53501.71
316.486	66981.31
316.94	52710.26
317.394	36691.75
317.849	28445.02
318.303	26909.85
318.757	25375.32
319.211	28029.29
319.665	24532.77
320.119	24824.81
320.572	35600.27
321.026	33244.36
321.48	27636.83
321.934	30176.08
322.387	30217.52
322.841	32622.59
323.295	29273.27
323.748	33783.59
324.202	34239.74
324.655	41094.88
325.108	57354.02
325.562	40500.25
326.015	48193
326.468	36406.07
326.921	40665.24
327.374	37902.69
327.827	39439.86
328.28	44636.93
328.733	29872.81
329.186	26292.67
329.639	25049.65
330.092	21142.48
330.545	20142.54
330.997	20281.04
331.45	22125.77
331.903	25910.36
332.355	44595.78
332.808	43372.29
333.26	35772.11
333.713	38781.33
334.165	39028.56
334.617	52132.78
335.069	42139.61
335.522	76236.47
335.974	84292.05
336.426	77169.56
336.878	53554.99
337.33	27108.11
337.782	26464.71
338.234	33081.67
338.686	39621.1
339.137	46919.48
339.589	44169.7
340.041	34611.86
340.493	29715.91
340.944	30456.53
341.396	32773.92
341.847	27499.2
342.299	32426.58
342.75	39563.03
343.201	34642.16
343.653	39875.37
344.104	49096.34
344.555	38659.81
345.006	60226.88
345.457	46007.09
345.908	36606.62
346.359	34404
346.81	28034.93
347.261	29588.37
347.712	29138.65
348.163	31247.5
348.613	31538.53
349.064	29418.79
349.515	25780.87
349.965	26427.74
350.416	31865.58
350.866	34939.27
351.317	39578.91
351.767	65581.09
352.217	82878.98
352.668	68855.53
353.118	63123.26
353.568	61009.95
354.018	48179.67
354.468	50722.93
354.918	36368.62
355.368	31848.48
355.818	44999.75
356.268	129534.68
356.718	541656.92
357.168	134703.33
357.617	67625.22
358.067	75211.03
358.517	70488.03
358.966	82642.48
359.416	92520.07
359.865	100102.58
360.315	119371.52
360.764	55662.09
361.213	31145.91
361.663	29549.79
362.112	36493.86
362.561	58893.13
363.01	44412.74
363.459	37407.53
363.908	40555.26
364.357	34472.14
364.806	58184.71
365.255	39925.98
365.703	36560.42
366.152	36653.37
366.601	29701.44
367.05	24106.1
367.498	21862.62
367.947	22852.68
368.395	23766.2
368.844	21001.47
369.292	25398.89
369.74	17536.13
370.189	26912.66
370.637	31565.08
371.085	27229.61
371.533	33151.86
371.981	31948.61
372.429	30452.78
372.877	31766.06
373.325	26571.85
373.773	27129.08
374.221	24100.56
374.669	29918.52
375.116	25854.41
375.564	26074.47
376.012	29132.72
376.459	23988.62
376.907	28671.31
377.354	34698.44
377.801	32251.65
378.249	37026.27
378.696	47283.34
379.143	57242.71
379.591	61027.66
380.038	103003.77
380.485	74351.5
380.932	80266.36
381.379	73275.33
381.826	53841.52
382.273	38241.55
382.72	33489.93
383.166	32598.13
383.613	21155.17
384.06	19094.62
384.506	22085.36
384.953	16229.07
385.4	16342.32
385.846	14313.33
386.292	13980.98
386.739	13690.34
387.185	13564.29
387.631	13559.15
388.078	13133.58
388.524	14036.67
388.97	12937.27
389.416	10771.29
389.862	11442.37
390.308	10831.29
390.754	10983.89
391.2	11914.77
391.645	12184.88
392.091	11599.78
392.537	11189.14
392.983	11225.28
393.428	10987.01
393.874	11768.05
394.319	11779.85
394.765	11142.7
395.21	11428.65
395.655	10684.11
396.101	9988.72
396.546	8998.42
396.991	9078.18
397.436	8414.19
397.881	8104.95
398.326	7681.2
398.771	7254.54
399.216	6338.61
399.661	5701.84
400.106	5671.3
400.551	5796.95
400.995	5188.48
401.44	5129.75
401.885	4808.78
402.329	4847.89
402.774	4637.17
403.218	4470.58
403.663	4298.99
404.107	4410.14
404.551	4430.59
404.995	4057.46
405.44	3905.13
405.884	3956.08
406.328	3819.09
406.772	3805.61
407.216	3466.42
407.66	3348.82
408.104	3179.63
408.547	2969.86
408.991	2868.68
409.435	2761.87
409.879	2715.76
410.322	2678.05
410.766	2578.05
411.209	2446.28
411.653	2341.43
412.096	2283.57
412.54	2281.35
412.983	2262.95
413.426	2263.32
413.869	2258.84
414.312	2206.82
414.756	2128.15
415.199	2029.5
415.642	1970.91
416.085	1969.44
416.527	1956.62
416.97	1988.21
417.413	1883.95
417.856	1864.09
418.298	1844.69
418.741	1831.2
419.184	1828.26
419.626	1904.72
420.069	1900.55
420.511	1908.21
420.953	1865.37
421.396	1844.94
421.838	1798.28
422.28	1839.44
422.722	1846.9
423.164	1872.93
423.606	1841.22
424.048	1841.78
424.49	1747.6
424.932	1740.74
425.374	1720.22
425.816	1753.5
426.258	1790.26
426.699	1813.32
427.141	1786.01
427.582	1815.58
428.024	1808.64
428.465	1801.1
428.907	1757.55
429.348	1738.47
429.789	1736.91
430.231	1700.33
430.672	1721.39
431.113	1681.84
431.554	1655.71
431.995	1618.76
432.436	1560.78
432.877	1525.22
433.318	1498.75
433.759	1489.99
434.2	1492.07
434.64	1479.47
435.081	1483.95
435.522	1408.68
435.962	1357.85
436.403	1329.5
436.843	1349.21
437.284	1322.63
437.724	1291.28
438.164	1298.68
438.604	1273.75
439.045	1224.73
439.485	1172.62
439.925	1149.09
440.365	1122.6
440.805	1110.13
441.245	1096.52
441.685	1056.33
442.125	1050.38
442.564	1059.37
443.004	1034.77
443.444	1033.71
443.883	1036.89
444.323	1034.56
444.762	1042.39
445.202	1058.05
445.641	1078.12
446.081	1077.08
446.52	1088.55
446.959	1079.36
447.398	1051.84
447.837	1041.49
448.276	1025.87
448.716	1039.04
449.154	1048.85
449.593	1023.49
450.032	1022.1
450.471	1005.28
450.91	1007.09
451.349	1006.1
451.787	1004.24
452.226	1021.27
452.664	1024.05
453.103	1026.87
453.541	1025.99
453.98	1024.38
454.418	1031.93
454.856	1015.47
455.295	1014.21
455.733	1022.28
456.171	1029.11
456.609	1032.14
457.047	1033.56
457.485	1046.5
457.923	1047.38
458.361	1034.79
458.798	1039.97
459.236	1038.25
459.674	1047.85
460.111	1054.83
460.549	1045.31
460.987	1042.87
461.424	1040.41
461.862	1035.91
462.299	1021.46
462.736	1020.52
463.173	1025.43
463.611	1012.75
464.048	1010.67
464.485	1017.51
464.922	1007.56
465.359	1001.64
465.796	980.63
466.233	972.59
466.67	962.35
467.106	959.3
467.543	950.27
467.98	937.91
468.416	915.94
468.853	908.93
469.29	883.52
469.726	873.8
470.162	852.8
470.599	849.16
471.035	841.41
471.471	822.61
471.907	819.29
472.344	814.79
472.78	816.54
473.216	826.95
473.652	816.52
474.088	814.5
474.523	811.48
474.959	817.74
475.395	808.19
475.831	802.93
476.266	805.96
476.702	803.86
477.138	794.63
477.573	791.5
478.008	787.44
478.444	790.54
478.879	796.14
479.314	799.25
479.75	798.67
480.185	802.97
480.62	810.52
481.055	814.96
481.49	820.11
481.925	833.12
482.36	846.24
482.795	870.17
483.229	894.71
483.664	914.1
484.099	918.86
484.534	933.26
484.968	942.03
485.403	946.46
485.837	947.13
486.271	946.2
486.706	947.75
487.14	938.24
487.574	923.96
488.009	917.19
488.443	910.92
488.877	919.86
489.311	923.88
489.745	935.71
490.179	943.27
490.613	959.2
491.046	968.42
491.48	975.97
491.914	979.8
492.348	988.42
492.781	994.01
493.215	997.09
493.648	1000.95
494.082	1010.18
494.515	1011.98
494.948	1024.64
495.382	1033.87
495.815	1041.88
496.248	1050.3
496.681	1069.49
497.114	1087.61
497.547	1103.54
497.98	1123.02
498.413	1132.06
498.846	1147.57
499.279	1163
499.711	1171.21
500.144	1176.33
500.577	1191.72
501.009	1210.47
501.442	1225.91
501.874	1229.31
502.306	1235.57
502.739	1247.62
503.171	1272.88
503.603	1279.75
504.036	1295.22
504.468	1305.76
504.9	1325.22
505.332	1338.7
505.764	1346.67
506.196	1359.19
506.627	1382.67
507.059	1403.62
507.491	1419.69
507.923	1418.09
508.354	1440.54
508.786	1457.05
509.217	1484.3
509.649	1507.75
510.08	1537.09
510.512	1562.46
510.943	1584.81
511.374	1602.45
511.805	1632.72
512.237	1661.7
512.668	1709.09
513.099	1750.44
513.53	1790.89
513.961	1820.75
514.391	1866.73
514.822	1912.8
515.253	1965.77
515.684	2002.59
516.114	2044.44
516.545	2073.64
516.975	2111.23
517.406	2137.51
517.836	2138.2
518.267	2145.51
518.697	2169.44
519.127	2172.4
519.558	2181.83
519.988	2183.52
520.418	2196.89
520.848	2219.33
521.278	2230.13
521.708	2228.57
522.138	2242.05
522.567	2285.78
522.997	2318.96
523.427	2338.76
523.857	2360.88
524.286	2373.73
524.716	2392.21
525.145	2415.06
525.575	2427.89
526.004	2446.14
526.433	2455.88
526.863	2454.69
527.292	2434.79
527.721	2439.63
528.15	2445.97
528.579	2444.96
529.008	2457.03
529.437	2488.67
529.866	2506.47
530.295	2529.58
530.724	2544.76
531.152	2581.87
531.581	2598.62
532.01	2624.01
532.438	2634.66
532.867	2654.59
533.295	2678.95
533.723	2686.94
534.152	2683.06
534.58	2681.01
535.008	2657.01
535.436	2657.52
535.865	2669.37
536.293	2692.03
536.721	2714.65
537.149	2752.46
537.576	2754.58
538.004	2773.49
538.432	2783.64
538.86	2779.37
539.287	2791.69
539.715	2812.67
540.143	2818.4
540.57	2811.59
540.998	2804.69
541.425	2769.17
541.852	2737.51
542.28	2735.33
542.707	2710.62
543.134	2690.1
543.561	2683.76
543.988	2671.37
544.415	2668.33
544.842	2659.11
545.269	2647.35
545.696	2648.89
546.123	2667.34
546.549	2650.93
546.976	2631.09
547.403	2629.03
547.829	2631.46
548.256	2633.86
548.682	2627.54
549.108	2614.76
549.535	2612.33
549.961	2613.97
550.387	2593.68
550.813	2583.76
551.24	2591.43
551.666	2591.98
552.092	2577.49
552.518	2565.26
552.943	2554.77
553.369	2563.1
553.795	2570.2
554.221	2570.89
554.646	2565.79
555.072	2580.24
555.498	2588.07
555.923	2600.71
556.349	2620.61
556.774	2633.12
557.199	2636.03
557.625	2644.49
558.05	2636.61
558.475	2651.51
558.9	2649.69
559.325	2637.56
559.75	2627.35
560.175	2617.49
560.6	2608.53
561.025	2606.77
561.449	2608.19
561.874	2617.14
562.299	2623.58
562.723	2634.25
563.148	2621.67
563.572	2629.21
563.997	2644.92
564.421	2656.4
564.846	2658.94
565.27	2666.54
565.694	2664.27
566.118	2682.17
566.542	2693.44
566.966	2686.69
567.39	2682.45
567.814	2668.07
568.238	2669.15
568.662	2679.27
569.086	2683.71
569.509	2696.01
569.933	2675.27
570.357	2667.91
570.78	2639.36
571.204	2622.85
571.627	2610.98
572.05	2609.8
572.474	2611.67
572.897	2595.17
573.32	2584.4
573.743	2573.27
574.166	2547.85
574.589	2549.59
575.012	2537.92
575.435	2537.07
575.858	2524.08
576.281	2506.38
576.704	2483.32
577.126	2465.43
577.549	2449.14
577.972	2434.72
578.394	2418.34
578.817	2406.56
579.239	2378.3
579.661	2358.66
580.084	2335.42
580.506	2315.34
580.928	2309.37
581.35	2293.71
581.772	2287.44
582.194	2267.79
582.616	2250.55
583.038	2231
583.46	2217.67
583.882	2213.71
584.303	2221.13
584.725	2215.31
585.147	2216.1
585.568	2231.65
585.99	2249.58
586.411	2258.32
586.833	2280.64
587.254	2281.67
587.675	2301.36
588.096	2320.49
588.518	2311.48
588.939	2287.32
589.36	2284.13
589.781	2273.73
590.202	2230.46
590.623	2217.8
591.043	2216.7
591.464	2198.18
591.885	2193.32
592.305	2184.37
592.726	2163.12
593.147	2166.12
593.567	2157.41
593.987	2147.9
594.408	2139.16
594.828	2138.55
595.248	2128.86
595.669	2099.9
596.089	2089.83
596.509	2080.35
596.929	2061.23
597.349	2062.28
597.769	2048.71
598.189	2040.02
598.608	2041.28
599.028	2044.78
599.448	2045.76
599.867	2028.65
600.287	2023.12
600.706	2016.2
601.126	2002.32
601.545	2000.67
601.965	1999.61
602.384	1991.59
602.803	1996.6
603.222	1989.54
603.641	1979.89
604.061	1973.61
604.48	1967.49
604.898	1980.32
605.317	1988.11
605.736	1992.38
606.155	1988.52
606.574	1975.63
606.992	1984.53
607.411	1977.95
607.829	1967.07
608.248	1963.38
608.666	1961.22
609.085	1961.32
609.503	1948.78
609.921	1939.58
610.339	1942.97
610.758	1943.15
611.176	1936.7
611.594	1922.84
612.012	1918.34
612.43	1922.05
612.847	1931.75
613.265	1932.4
613.683	1939.11
614.101	1941.97
614.518	1938.77
614.936	1924.52
615.353	1902.98
615.771	1899.91
616.188	1901.24
616.606	1895.46
617.023	1887.19
617.44	1867.93
617.857	1859.79
618.274	1848.34
618.691	1839.25
619.108	1825.48
619.525	1816.5
619.942	1826.93
620.359	1830.08
620.776	1823.5
621.192	1817.42
621.609	1813.25
622.026	1821.31
622.442	1829.26
622.859	1834.25
623.275	1824.92
623.691	1833.61
624.108	1850.22
624.524	1870.42
624.94	1869.78
625.356	1883.27
625.772	1904.15
626.188	1923.36
626.604	1927.5
627.02	1921.5
627.436	1918.15
627.852	1926.89
628.268	1944.07
628.683	1931.73
629.099	1919.51
629.514	1913.81
629.93	1919.88
630.345	1925.96
630.761	1921.05
631.176	1923.29
631.591	1915.06
632.007	1905.19
632.422	1903.18
632.837	1886.97
633.252	1881.68
633.667	1867.22
634.082	1854.25
634.497	1834.67
634.911	1804.79
635.326	1797.27
635.741	1773.29
636.155	1757.38
636.57	1758.03
636.984	1755.92
637.399	1756.35
637.813	1756.04
638.228	1752.42
638.642	1756.26
639.056	1740.1
639.47	1739.42
639.884	1726.88
640.298	1717.01
640.712	1715.99
641.126	1698.1
641.54	1685.37
641.954	1677.36
642.368	1657.27
642.781	1644.59
643.195	1618.32
643.609	1617.67
644.022	1608.78
644.436	1601.5
644.849	1583.6
645.262	1565.29
645.676	1567.99
646.089	1559.84
646.502	1538.12
646.915	1531.01
647.328	1506.75
647.741	1503.43
648.154	1484.49
648.567	1478.55
648.98	1458.59
649.393	1458.21
649.805	1452.74
650.218	1441.16
650.631	1419.31
651.043	1409.31
651.456	1402.22
651.868	1404.06
652.28	1428.44
652.693	1449.03
653.105	1460.17
653.517	1475.48
653.929	1477.11
654.341	1485.33
654.753	1468.07
655.165	1476.48
655.577	1473.94
655.989	1466.03
656.401	1455.78
656.813	1402.62
657.224	1373.71
657.636	1332.18
658.047	1305.23
658.459	1276.61
658.87	1263.83
659.282	1247.09
659.693	1217.04
660.104	1195.05
660.515	1175.86
660.926	1171.04
661.338	1168.07
661.749	1159.35
662.159	1146.34
662.57	1139.66
662.981	1133.09
663.392	1120.5
663.803	1125.03
664.213	1122.03
664.624	1115.55
665.035	1119.98
665.445	1101.33
665.855	1089.88
666.266	1077.52
666.676	1072.84
667.086	1058.9
667.497	1055.75
667.907	1047.92
668.317	1034.49
668.727	1027.42
669.137	1028.41
669.547	1023.28
669.956	1026.39
670.366	1028.87
670.776	1029.7
671.186	1035.03
671.595	1040.27
672.005	1045.38
672.414	1044.19
672.824	1041.71
673.233	1049.24
673.642	1051.81
674.052	1055.77
674.461	1057.57
674.87	1063.99
675.279	1059.89
675.688	1061.79
676.097	1063.02
676.506	1058.76
676.915	1077.77
677.323	1080.67
677.732	1077.47
678.141	1077.4
678.549	1061.96
678.958	1061.5
679.366	1059.81
679.775	1067.89
680.183	1080.98
680.592	1089.86
681	1097.62
681.408	1087.74
681.816	1099.31
682.224	1111.45
682.632	1125.66
683.04	1168.49
683.448	1203.72
683.856	1246.9
684.264	1295.46
684.671	1341.98
685.079	1398.01
685.487	1460.54
685.894	1549.33
686.302	1621.55
686.709	1680.32
687.116	1748.02
687.524	1803.74
687.931	1849.86
688.338	1889.76
688.745	1924.75
689.152	1964.86
689.559	2018.46
689.966	2071.53
690.373	2093.67
690.78	2141.96
