Data from C_1_HIR_IL_4N_Splice17_11-51-51-959.txt Node
Date: Sat Mar 14 11:51:51 EDT 2020
User: sa697716
Spectrometer: FLMS03696
Trigger mode: 0
Integration Time (sec): 3.180400E-1
Scans to average: 20
Electric dark correction enabled: true
Nonlinearity correction enabled: true
Boxcar width: 5
XAxis mode: Wavelengths
Number of Pixels in Spectrum: 2048
>>>>>Begin Spectral Data<<<<<
187.83	-295731.06
188.298	2208.34
188.766	1156.06
189.233	1046.76
189.701	1467.86
190.169	2060.87
190.636	778.35
191.104	628.33
191.571	65.36
192.039	-60.28
192.506	-74.2
192.974	408.45
193.441	-606.51
193.908	-220.24
194.375	-49.51
194.842	36.46
195.31	86.63
195.777	162.3
196.244	389.99
196.711	475.3
197.177	615.84
197.644	885.32
198.111	1535.07
198.578	2171.01
199.045	1741.54
199.511	2848.47
199.978	3309.84
200.445	2839.44
200.911	3174.51
201.378	3576.7
201.844	3253.17
202.31	5558.45
202.777	5775.58
203.243	3234.76
203.709	3087.9
204.176	3702.33
204.642	3064.19
205.108	2879.05
205.574	2343.9
206.04	2128.23
206.506	1965.57
206.972	1860.73
207.438	1784.74
207.903	2034.13
208.369	1785.76
208.835	1781.83
209.301	1858.36
209.766	1905.55
210.232	1883.76
210.697	2337.43
211.163	2858.53
211.628	4343.48
212.094	3646.81
212.559	4498.79
213.024	2820.43
213.49	3426.71
213.955	3348.15
214.42	3303.71
214.885	3053.01
215.35	2914.57
215.815	2782.83
216.28	2955.7
216.745	2408.53
217.21	2587.02
217.675	2383.02
218.14	2652.29
218.604	2950.17
219.069	3374.1
219.534	3514.89
219.998	4088.37
220.463	4951.13
220.927	6112.31
221.392	5765.67
221.856	5842.92
222.32	7364.76
222.785	9069.86
223.249	11454.35
223.713	12795.11
224.177	12771.83
224.642	16413.32
225.106	20217.65
225.57	22104.28
226.034	16445.32
226.497	25044.27
226.961	22595.96
227.425	26359.58
227.889	29296.85
228.353	29310.56
228.816	60581.09
229.28	58011.19
229.744	48926.48
230.207	29768.77
230.671	29275.71
231.134	48438.98
231.597	55876.56
232.061	55931.24
232.524	54526.29
232.987	37567.23
233.45	33793.22
233.914	30269.67
234.377	31012.41
234.84	28383.24
235.303	33458.88
235.766	37394.4
236.229	38618.4
236.691	24311.14
237.154	27310.55
237.617	20559.76
238.08	21037.77
238.542	24603.13
239.005	17611.02
239.468	17487.27
239.93	16479.06
240.393	14972.54
240.855	13155.49
241.317	13490.55
241.78	16424.06
242.242	17005.29
242.704	18345.91
243.166	15977.26
243.629	14496.91
244.091	16687.77
244.553	18280.4
245.015	19657.04
245.477	25434.8
245.939	37226.31
246.4	39490.01
246.862	38395.43
247.324	36135.24
247.786	40420.68
248.247	52972.14
248.709	54818.01
249.17	41030.87
249.632	38657.67
250.093	44818.39
250.555	38726.58
251.016	23631.77
251.477	22405.11
251.939	24161.93
252.4	25358.28
252.861	30173.52
253.322	28095.11
253.783	33418.73
254.244	43359.4
254.705	34184.29
255.166	30361.14
255.627	29889.85
256.088	42153.79
256.549	44788.26
257.009	38590.93
257.47	46862.41
257.931	38193.28
258.391	28612.7
258.852	29510.24
259.312	30940.55
259.773	38230.28
260.233	32373.49
260.694	27326.14
261.154	31014.32
261.614	24906.24
262.074	22285.78
262.534	23155.88
262.994	21836.97
263.455	29120.48
263.915	24522.73
264.374	23134.13
264.834	25286.73
265.294	28035.79
265.754	29034.5
266.214	27505.55
266.673	25796.23
267.133	32577.33
267.593	32332.42
268.052	39579.19
268.512	34439.42
268.971	41559.21
269.431	45550.31
269.89	40794.68
270.349	61168.53
270.809	68222.2
271.268	61348.74
271.727	137575.72
272.186	89083.83
272.645	66821.94
273.104	48203.75
273.563	69817.12
274.022	54951.01
274.481	46772.54
274.94	36055.46
275.399	26816.6
275.857	31223.56
276.316	42254.44
276.775	37641.78
277.233	37082.31
277.692	34728.38
278.15	39286.32
278.609	40421.89
279.067	37412.3
279.525	34748.77
279.984	44849.51
280.442	53899.41
280.9	53149.21
281.358	34935.62
281.816	32561.02
282.274	31926.87
282.732	33011.42
283.19	33198.12
283.648	28660.72
284.106	30532.95
284.564	31066.87
285.021	28820.63
285.479	21479.3
285.937	19551.61
286.394	17153.63
286.852	17645.27
287.309	18552.68
287.767	17901.87
288.224	17014.71
288.682	18671.5
289.139	20494.9
289.596	18740.08
290.053	19470.04
290.511	24545.29
290.968	29756.14
291.425	40413.71
291.882	33608.44
292.339	29197.72
292.796	29008.97
293.252	27332.1
293.709	21681.08
294.166	19442.31
294.623	21503.09
295.079	20641.77
295.536	20742.41
295.992	18836.32
296.449	18605.96
296.905	19319.37
297.362	18518.01
297.818	19473.5
298.274	20194.28
298.731	20605.26
299.187	20364.09
299.643	21847.42
300.099	26422.68
300.555	28997.11
301.011	24245.4
301.467	23371.28
301.923	27384.94
302.379	26740.81
302.835	26245.56
303.291	26265.32
303.746	29857.4
304.202	37722.21
304.658	37862.06
305.113	25490.81
305.569	24954.82
306.024	26595.02
306.479	25336.4
306.935	21353.39
307.39	23339.01
307.845	21566.02
308.301	21716.27
308.756	21170.48
309.211	20400.27
309.666	20918.32
310.121	25922.37
310.576	26341
311.031	26110.08
311.486	29903.16
311.94	29892.88
312.395	39982.81
312.85	75092.38
313.305	369548.27
313.759	1913752.04
314.214	138709.8
314.668	109942.06
315.123	92521.97
315.577	33122.76
316.032	29526.49
316.486	36999.69
316.94	29171.56
317.394	20313.64
317.849	15788.14
318.303	14928.89
318.757	14085.98
319.211	15579.64
319.665	13622.08
320.119	13782.28
320.572	19782
321.026	18450.7
321.48	15379.56
321.934	16793.6
322.387	16817.61
322.841	18186.83
323.295	16346.48
323.748	18806.86
324.202	19089.21
324.655	22956.85
325.108	32097.16
325.562	22705.29
326.015	26991.68
326.468	20376.59
326.921	22793.02
327.374	21246.45
327.827	22103.6
328.28	25018.08
328.733	16786.24
329.186	14754.99
329.639	14039.86
330.092	11832.92
330.545	11264.99
330.997	11366.64
331.45	12429.77
331.903	14569.94
332.355	25121.11
332.808	24446.79
333.26	20200.55
333.713	21948.1
334.165	22135.92
334.617	29581.74
335.069	23899.48
335.522	43180.49
335.974	47858.88
336.426	43728.63
336.878	30297.07
337.33	15358.43
337.782	14958.98
338.234	18705.15
338.686	22376.11
339.137	26471.77
339.589	24976.58
340.041	19572.65
340.493	16839.04
340.944	17206.48
341.396	18503.87
341.847	15545.93
342.299	18348.76
342.75	22403.03
343.201	19598.79
343.653	22497.18
344.104	27694.6
344.555	21760.98
345.006	33902.14
345.457	25927.2
345.908	20655.34
346.359	19483.93
346.81	15875.12
347.261	16722.78
347.712	16486.58
348.163	17673.54
348.613	17890.76
349.064	16674.94
349.515	14606.05
349.965	14982.02
350.416	18038.73
350.866	19752.15
351.317	22325.05
351.767	36971.87
352.217	46737.75
352.668	38828.88
353.118	35554.61
353.568	34342.73
354.018	27197.76
354.468	28668.15
354.918	20555.99
355.368	18007.7
355.818	25446.85
356.268	73154.29
356.718	305984
357.168	76100.15
357.617	38211.87
358.067	42497.52
358.517	39800.36
358.966	46651.75
359.416	52356.66
359.865	56657.76
360.315	67462.13
360.764	31502.4
361.213	17666.94
361.663	16750.01
362.112	20694.32
362.561	33358.69
363.01	25174.96
363.459	21209.77
363.908	22935
364.357	19502.72
364.806	32939.14
365.255	22655.97
365.703	20754.26
366.152	20770.76
366.601	16863.61
367.05	13691.17
367.498	12482.75
367.947	13055.58
368.395	13593.37
368.844	12047.48
369.292	14523.72
369.74	10041.74
370.189	15406.64
370.637	18129.32
371.085	15697.35
371.533	19155.52
371.981	18486.65
372.429	17613.6
372.877	18384.62
373.325	15417.75
373.773	15772.34
374.221	14088.42
374.669	17535.52
375.116	15213.37
375.564	15348.58
376.012	17182.06
376.459	14213.15
376.907	17047.76
377.354	20710.53
377.801	19384.94
378.249	22340.67
378.696	28655.83
379.143	34855.09
379.591	37261.09
380.038	63279
380.485	45988.87
380.932	49923.31
381.379	45751.55
381.826	33792.19
382.273	24100.3
382.72	21145.46
383.166	20662.42
383.613	13445.84
384.06	12169.48
384.506	14122.24
384.953	10389.95
385.4	10488.06
385.846	9223.28
386.292	9029.33
386.739	8873.73
387.185	8794.37
387.631	8820.91
388.078	8574.2
388.524	9192.39
388.97	8493.39
389.416	7095.07
389.862	7556.15
390.308	7176.27
390.754	7278.07
391.2	7901.68
391.645	8082.61
392.091	7728.27
392.537	7467.02
392.983	7496.98
393.428	7359.09
393.874	7874.25
394.319	7899.59
394.765	7491.78
395.21	7686.59
395.655	7202.91
396.101	6743.61
396.546	6077.15
396.991	6126.88
397.436	5683.01
397.881	5488.62
398.326	5196.23
398.771	4913.66
399.216	4294.41
399.661	3852.55
400.106	3828.85
400.551	3905.88
400.995	3491.6
401.44	3445.05
401.885	3233.34
402.329	3259.47
402.774	3110.95
403.218	2998.33
403.663	2878.19
404.107	2941.63
404.551	2954.96
404.995	2701.19
405.44	2599.96
405.884	2631.27
406.328	2538.6
406.772	2517.31
407.216	2282.35
407.66	2200.12
408.104	2087.18
408.547	1952.39
408.991	1884.3
409.435	1808.45
409.879	1778.41
410.322	1747.95
410.766	1683.57
411.209	1596.19
411.653	1530.78
412.096	1497.64
412.54	1495.99
412.983	1482.08
413.426	1481.41
413.869	1478.69
414.312	1447.46
414.756	1391.66
415.199	1325.88
415.642	1284.48
416.085	1287
416.527	1275.06
416.97	1292.79
417.413	1223.44
417.856	1207.77
418.298	1193.07
418.741	1183.85
419.184	1179.16
419.626	1226.33
420.069	1223.29
420.511	1227.32
420.953	1198.04
421.396	1185.98
421.838	1155.06
422.28	1179.23
422.722	1184.31
423.164	1199.75
423.606	1176.73
424.048	1174.22
424.49	1116.36
424.932	1112.09
425.374	1098.15
425.816	1115.39
426.258	1133.08
426.699	1143.06
427.141	1124.87
427.582	1139.22
428.024	1132.15
428.465	1124.61
428.907	1095.62
429.348	1080.94
429.789	1077.35
430.231	1051.57
430.672	1063.64
431.113	1041.37
431.554	1023.49
431.995	997.08
432.436	962.17
432.877	938.15
433.318	923.7
433.759	920.12
434.2	920.26
434.64	910.95
435.081	915.06
435.522	868.5
435.962	835.39
436.403	819.11
436.843	832.1
437.284	813.97
437.724	793.77
438.164	793.52
438.604	776.61
439.045	745.73
439.485	715.02
439.925	697.85
440.365	677.16
440.805	667.39
441.245	658.94
441.685	634.99
442.125	629.15
442.564	633.17
443.004	617.62
443.444	614.74
443.883	616.24
444.323	610.98
444.762	611.12
445.202	620.27
445.641	630.28
446.081	624.76
446.52	627.91
446.959	621.14
447.398	604.86
447.837	596.88
448.276	585.74
448.716	591.03
449.154	595.51
449.593	582.59
450.032	580.17
450.471	568.89
450.91	567.74
451.349	565.45
451.787	563.35
452.226	570.32
452.664	570.96
453.103	570.41
453.541	566.04
453.98	563.49
454.418	565.87
454.856	557.42
455.295	556.37
455.733	561.76
456.171	564.37
456.609	564.73
457.047	564.58
457.485	572.87
457.923	574.74
458.361	567.35
458.798	569.96
459.236	568.69
459.674	570.98
460.111	573.69
460.549	567.7
460.987	564.69
461.424	562.62
461.862	559.8
462.299	551.91
462.736	552.16
463.173	554.8
463.611	549.88
464.048	547.99
464.485	553.78
464.922	548.82
465.359	546.83
465.796	541.69
466.233	538.31
466.67	533.62
467.106	532.06
467.543	525.02
467.98	518.74
468.416	504.91
468.853	502.74
469.29	487.4
469.726	482.19
470.162	468.52
470.599	461.67
471.035	457.02
471.471	446.22
471.907	442.63
472.344	440.1
472.78	439.87
473.216	444.27
473.652	436.85
474.088	433.99
474.523	431.53
474.959	436.12
475.395	431.14
475.831	428.55
476.266	429.97
476.702	427.26
477.138	421.62
477.573	420.55
478.008	418.18
478.444	419.75
478.879	424.3
479.314	425.35
479.75	423.49
480.185	424.52
480.62	426.38
481.055	427.59
481.49	430.43
481.925	436.28
482.36	443.8
482.795	455.62
483.229	467.72
483.664	476.71
484.099	479.38
484.534	486.38
484.968	491.26
485.403	492.65
485.837	491.45
486.271	490.84
486.706	490.71
487.14	484.46
487.574	476.42
488.009	471.51
488.443	466.39
488.877	470.55
489.311	471.74
489.745	477.13
490.179	481.19
490.613	490.49
491.046	493.32
491.48	497.19
491.914	497.13
492.348	501.01
492.781	504.28
493.215	506.8
493.648	506.95
494.082	510.48
494.515	510.45
494.948	516.21
495.382	519.48
495.815	523.12
496.248	527.39
496.681	537.48
497.114	546.22
497.547	553.69
497.98	563.26
498.413	568.42
498.846	577.12
499.279	583.61
499.711	587.76
500.144	589.89
500.577	599.55
501.009	607.64
501.442	615.19
501.874	616.63
502.306	618.77
502.739	626.18
503.171	638.21
503.603	642.15
504.036	651.4
504.468	657.67
504.9	668.6
505.332	674.59
505.764	680.48
506.196	687.86
506.627	702
507.059	714.94
507.491	723.06
507.923	724.94
508.354	738.91
508.786	749.86
509.217	766.07
509.649	780.27
510.08	798.88
510.512	815.78
510.943	832.33
511.374	845.14
511.805	864.78
512.237	885.01
512.668	913.88
513.099	939.42
513.53	966.17
513.961	988.03
514.391	1018.98
514.822	1051.4
515.253	1086.28
515.684	1111.44
516.114	1140.17
516.545	1163.37
516.975	1190.25
517.406	1211.22
517.836	1218.68
518.267	1228.98
518.697	1249.9
519.127	1259.15
519.558	1269.5
519.988	1277.16
520.418	1291.37
520.848	1312.02
521.278	1324.77
521.708	1345.69
522.138	1362.3
522.567	1394.73
522.997	1421.81
523.427	1439.61
523.857	1458.47
524.286	1473.7
524.716	1491.07
525.145	1511.8
525.575	1525.68
526.004	1542.21
526.433	1539.27
526.863	1542.35
527.292	1536.04
527.721	1545.03
528.15	1553.17
528.579	1556.36
529.008	1568.03
529.437	1591.55
529.866	1606.6
530.295	1624.13
530.724	1637.27
531.152	1665.75
531.581	1680.98
532.01	1699.24
532.438	1708.38
532.867	1724.14
533.295	1742.67
533.723	1749.91
534.152	1750.25
534.58	1751.57
535.008	1739.13
535.436	1743.14
535.865	1751.24
536.293	1765.9
536.721	1782.56
537.149	1807.39
537.576	1810.39
538.004	1824.74
538.432	1832.91
538.86	1832.32
539.287	1840.04
539.715	1852.82
540.143	1856.13
540.57	1852.6
540.998	1850.27
541.425	1828.75
541.852	1809.45
542.28	1808.02
542.707	1792.73
543.134	1780.27
543.561	1774.69
543.988	1766.65
544.415	1767.01
544.842	1761.01
545.269	1754.53
545.696	1755.53
546.123	1768.31
546.549	1758.34
546.976	1746.65
547.403	1744.86
547.829	1746.22
548.256	1748.19
548.682	1744.62
549.108	1736.14
549.535	1736.16
549.961	1738.11
550.387	1725.24
550.813	1718.94
551.24	1724.71
551.666	1724.51
552.092	1714.73
552.518	1708.42
552.943	1702.34
553.369	1708.74
553.795	1713.28
554.221	1712.49
554.646	1707.83
555.072	1716.65
555.498	1720
555.923	1725.88
556.349	1738.65
556.774	1745.81
557.199	1743.44
557.625	1747.46
558.05	1740.63
558.475	1748.75
558.9	1745.83
559.325	1736.03
559.75	1727.56
560.175	1719.06
560.6	1711.52
561.025	1707.47
561.449	1705.81
561.874	1709.21
562.299	1711.36
562.723	1715.11
563.148	1702.99
563.572	1704.65
563.997	1711.21
564.421	1713.39
564.846	1709.78
565.27	1710.11
565.694	1704.81
566.118	1712.92
566.542	1716.77
566.966	1706.44
567.39	1698.82
567.814	1685
568.238	1681.24
568.662	1682.23
569.086	1680.46
569.509	1684.99
569.933	1668.3
570.357	1657.59
570.78	1633.77
571.204	1618.81
571.627	1605.99
572.05	1600.9
572.474	1597.47
572.897	1581.38
573.32	1570.81
573.743	1558.99
574.166	1538.73
574.589	1534.81
575.012	1525.73
575.435	1522.4
575.858	1510.7
576.281	1498.12
576.704	1481.56
577.126	1468.24
577.549	1456.67
577.972	1445.49
578.394	1434.3
578.817	1426.39
579.239	1407.08
579.661	1391.58
580.084	1375.33
580.506	1361.79
580.928	1355.45
581.35	1343.55
581.772	1337.34
582.194	1323.05
582.616	1309.75
583.038	1293.91
583.46	1282.26
583.882	1277.41
584.303	1279.2
584.725	1273.47
585.147	1272.53
585.568	1280.12
585.99	1288.13
586.411	1290.89
586.833	1302.13
587.254	1301.56
587.675	1313.26
588.096	1322.19
588.518	1316.07
588.939	1300.39
589.36	1297.97
589.781	1286.39
590.202	1260.84
590.623	1251.67
591.043	1248.27
591.464	1236.24
591.885	1232.11
592.305	1225.44
592.726	1213.01
593.147	1212.84
593.567	1208.01
593.987	1200.72
594.408	1196.56
594.828	1194.61
595.248	1189.43
595.669	1174.95
596.089	1168.47
596.509	1163.1
596.929	1151.27
597.349	1151.23
597.769	1142.65
598.189	1137.27
598.608	1136.98
599.028	1139.87
599.448	1139.16
599.867	1127.93
600.287	1123.73
600.706	1120.21
601.126	1111.18
601.545	1110.31
601.965	1107.7
602.384	1103.1
602.803	1104
603.222	1099.35
603.641	1091.85
604.061	1087.29
604.48	1082.25
604.898	1087.13
605.317	1089.34
605.736	1090.01
606.155	1086.49
606.574	1078.13
606.992	1080.72
607.411	1074.83
607.829	1066.88
608.248	1062.13
608.666	1058.92
609.085	1058.28
609.503	1050.12
609.921	1043.36
610.339	1042.41
610.758	1039.47
611.176	1033.5
611.594	1024.66
612.012	1020.37
612.43	1020.48
612.847	1023.28
613.265	1021.79
613.683	1022.66
614.101	1020.96
614.518	1016.85
614.936	1008.51
615.353	996.39
615.771	993.53
616.188	992.33
616.606	988.34
617.023	982.85
617.44	971.17
617.857	964.27
618.274	956.81
618.691	951.03
619.108	942.58
619.525	935.63
619.942	938.85
620.359	938.3
620.776	933.43
621.192	930.21
621.609	927.2
622.026	931.77
622.442	936.17
622.859	937.78
623.275	931.89
623.691	934.9
624.108	943.76
624.524	953.36
624.94	954.4
625.356	960.94
625.772	969.05
626.188	978.18
626.604	979.06
627.02	975.94
627.436	973.91
627.852	979.1
628.268	988.67
628.683	981.88
629.099	975.37
629.514	970.84
629.93	974.44
630.345	978.11
630.761	973.48
631.176	975.39
631.591	971.15
632.007	965.97
632.422	963.05
632.837	952.44
633.252	949.34
633.667	941.38
634.082	933.7
634.497	921.93
634.911	906.45
635.326	902.95
635.741	888.95
636.155	879.74
636.57	878.77
636.984	876.95
637.399	878.26
637.813	876.07
638.228	873.06
638.642	873.52
639.056	863.92
639.47	862.18
639.884	854.16
640.298	846.43
640.712	843.68
641.126	833.21
641.54	825.73
641.954	818.49
642.368	807.72
642.781	800.68
643.195	787.73
643.609	786.93
644.022	781
644.436	775.72
644.849	766.54
645.262	756.33
645.676	755.6
646.089	751.05
646.502	740.13
646.915	736.38
647.328	725.16
647.741	723.65
648.154	714.1
648.567	711.49
648.98	701.95
649.393	701.66
649.805	698.06
650.218	692.42
650.631	681.46
651.043	675.39
651.456	670.98
651.868	669.29
652.28	679.1
652.693	686.54
653.105	690.55
653.517	696.68
653.929	697.02
654.341	700.96
654.753	692.95
655.165	695.63
655.577	695.57
655.989	690.84
656.401	685.31
656.813	661.39
657.224	647.64
657.636	627.22
658.047	615.64
658.459	601.73
658.87	594.1
659.282	585.26
659.693	572.53
660.104	562.63
660.515	553.89
660.926	552.03
661.338	549.52
661.749	546.12
662.159	541.73
662.57	538.06
662.981	535.52
663.392	531.62
663.803	535.79
664.213	534.2
664.624	531
665.035	533.31
665.445	525.33
665.855	522.8
666.266	518.44
666.676	517.01
667.086	512.75
667.497	513.94
667.907	512.14
668.317	506.37
668.727	505.95
669.137	508.12
669.547	507.98
669.956	511.03
670.366	511.7
670.776	514.01
671.186	516.88
671.595	520.72
672.005	523.64
672.414	524.26
672.824	525.96
673.233	529.04
673.642	531.06
674.052	534.22
674.461	536.66
674.87	541.34
675.279	540.23
675.688	542.71
676.097	543.93
676.506	543.09
676.915	554.12
677.323	555.8
677.732	555.62
678.141	556.63
678.549	549.78
678.958	549.76
679.366	549.05
679.775	551.93
680.183	559.7
680.592	563.75
681	567.47
681.408	562.97
681.816	568.49
682.224	574.48
682.632	579.75
683.04	600.34
683.448	616.01
683.856	636.34
684.264	660.72
684.671	682.56
685.079	708.42
685.487	737.01
685.894	776.57
686.302	808.65
686.709	835.8
687.116	868.87
687.524	895.69
687.931	919.45
688.338	941.04
688.745	957.63
689.152	977.31
689.559	1008.63
689.966	1040.83
690.373	1060.2
690.78	1092.6
691.187	1140.86
691.593	1180.75
692	1217.28
692.407	1270.1
692.813	1334.67
693.22	1390.57
693.626	1447.57
694.032	1495.57
694.439	1564.96
694.845	1621.55
695.251	1693.11
695.657	1761.7
696.063	1857.7
696.469	1934.11
696.875	2007.21
697.281	2057.22
697.687	2114.54
698.093	2167.28
698.498	2250.18
698.904	2319.27
699.31	2415.13
699.715	2490.87
