Data from C_1_DEC_NC_4N_Splice17_11-44-00-526.txt Node
Date: Sat Mar 14 11:44:00 EDT 2020
User: sa697716
Spectrometer: FLMS03696
Trigger mode: 0
Integration Time (sec): 3.180400E-1
Scans to average: 20
Electric dark correction enabled: true
Nonlinearity correction enabled: true
Boxcar width: 5
XAxis mode: Wavelengths
Number of Pixels in Spectrum: 2048
>>>>>Begin Spectral Data<<<<<
187.83	-121956.36
188.298	885.66
188.766	570.76
189.233	477.7
189.701	705.72
190.169	977.81
190.636	356.55
191.104	294.44
191.571	16.82
192.039	-49.64
192.506	31.49
192.974	299.51
193.441	-664.59
193.908	-98.47
194.375	-0.74
194.842	64.98
195.31	86.15
195.777	123.14
196.244	213.3
196.711	105.7
197.177	96.83
197.644	67.96
198.111	85.21
198.578	83.16
199.045	49.02
199.511	25.64
199.978	-40.75
200.445	-3.04
200.911	-28.76
201.378	-95.67
201.844	-30.16
202.31	-91.54
202.777	-72.55
203.243	-64.09
203.709	-71.66
204.176	-99.63
204.642	-70.25
205.108	-41.19
205.574	-48.23
206.04	-69.95
206.506	-71.01
206.972	-93.53
207.438	-100.7
207.903	-119.35
208.369	-67.39
208.835	-34.61
209.301	-33.05
209.766	-54.73
210.232	-63.17
210.697	-90.07
211.163	-128.97
211.628	-217.81
212.094	-160.79
212.559	-91.94
213.024	-30.06
213.49	-20.51
213.955	-40.3
214.42	-70.66
214.885	-48.19
215.35	-44.44
215.815	56.03
216.28	74.23
216.745	56.95
217.21	84.46
217.675	35.06
218.14	27.32
218.604	3.48
219.069	-1.24
219.534	38.52
219.998	16.85
220.463	25.72
220.927	-66.73
221.392	-45.97
221.856	-21.61
222.32	-83.84
222.785	-65.09
223.249	-85.29
223.713	-98.57
224.177	-94.25
224.642	-196.91
225.106	-226.44
225.57	-272.88
226.034	-132.67
226.497	-225.77
226.961	-152.38
227.425	-134.21
227.889	-200.64
228.353	-199.68
228.816	-465.85
229.28	-332.2
229.744	-190.28
230.207	-44.32
230.671	-6.91
231.134	-172.16
231.597	-90.51
232.061	-154.49
232.524	-167.41
232.987	-90.79
233.45	-63.99
233.914	-35.27
234.377	-111.45
234.84	-131.61
235.303	-208.86
235.766	-260.21
236.229	-258.1
236.691	-199.35
237.154	-262.36
237.617	-187.68
238.08	-219.38
238.542	-279.74
239.005	-192.75
239.468	-170.42
239.93	-149.8
240.393	-125.95
240.855	-103.92
241.317	-122.46
241.78	-158.82
242.242	-137.29
242.704	-114.84
243.166	-74.68
243.629	-29.35
244.091	-27.33
244.553	-31.43
245.015	-17.45
245.477	-33.99
245.939	-96.33
246.4	-64.69
246.862	-70.96
247.324	-50.27
247.786	-112.46
248.247	-225.74
248.709	-386.82
249.17	-300.88
249.632	-190.94
250.093	-163.78
250.555	-108.48
251.016	-5.09
251.477	3.71
251.939	6.15
252.4	-27.69
252.861	-53.3
253.322	-21.04
253.783	-31.29
254.244	-61.65
254.705	-122.47
255.166	-173
255.627	-185.58
256.088	-276.24
256.549	-319.43
257.009	-292.4
257.47	-327.68
257.931	-288.51
258.391	-192.28
258.852	-195.56
259.312	-212.68
259.773	-271.48
260.233	-147.65
260.694	-99.15
261.154	-139.86
261.614	-48.27
262.074	-35.27
262.534	-23.45
262.994	14.79
263.455	-15.49
263.915	7.13
264.374	5.68
264.834	8.7
265.294	-43.24
265.754	-43.86
266.214	-33.4
266.673	-61.05
267.133	-90.02
267.593	-125.98
268.052	-165.11
268.512	-146.19
268.971	-104.06
269.431	-94.52
269.89	-67.41
270.349	-62.8
270.809	-53.16
271.268	-32.44
271.727	-109.54
272.186	-43.68
272.645	9.57
273.104	-45
273.563	-40.01
274.022	-147.48
274.481	-92.62
274.94	-53.84
275.399	-65.8
275.857	-119.38
276.316	-186.14
276.775	-179.32
277.233	-179.58
277.692	-146.83
278.15	-148.95
278.609	-119.48
279.067	-101.71
279.525	-74.8
279.984	-147.25
280.442	-143.09
280.9	-54.49
281.358	-28.83
281.816	-12.72
282.274	-13.49
282.732	-64.4
283.19	-76.74
283.648	-95.71
284.106	-103.88
284.564	-134.88
285.021	-102.3
285.479	-95.47
285.937	-118.12
286.394	-83.56
286.852	-103.57
287.309	-107.42
287.767	-64.74
288.224	-47.23
288.682	-55.43
289.139	-50.25
289.596	-44.61
290.053	-71.39
290.511	-104.21
290.968	-106.58
291.425	-204.09
291.882	-88.05
292.339	-66.46
292.796	-97.24
293.252	-97.78
293.709	-34.96
294.166	-27.32
294.623	-40.23
295.079	-27.85
295.536	0.76
295.992	-3.22
296.449	5.91
296.905	8.73
297.362	37.31
297.818	36.96
298.274	57.85
298.731	26.56
299.187	19.01
299.643	12.65
300.099	-5.95
300.555	-20.5
301.011	-15.1
301.467	59.92
301.923	-2.49
302.379	-23.92
302.835	-18.02
303.291	-36.33
303.746	-66.66
304.202	-93.66
304.658	-113.4
305.113	-56.8
305.569	-58.45
306.024	-91.89
306.479	-179.88
306.935	-115.01
307.39	-162.4
307.845	-155.43
308.301	-121.77
308.756	-111.01
309.211	-86.26
309.666	-68.14
310.121	-33.91
310.576	-63.88
311.031	-54.03
311.486	-98.17
311.94	-139.42
312.395	-179.63
312.85	-416.5
313.305	-3203.56
313.759	-11055.92
314.214	-847.13
314.668	-750.91
315.123	-636.22
315.577	-146.24
316.032	-127.86
316.486	-175.47
316.94	-102.17
317.394	-39.41
317.849	-14.78
318.303	-16.2
318.757	-17.15
319.211	-29.68
319.665	-11.19
320.119	-16.19
320.572	-62.57
321.026	-14.01
321.48	4.63
321.934	-20.75
322.387	-32.64
322.841	-30.97
323.295	31.74
323.748	-13.17
324.202	-3.14
324.655	14.55
325.108	67.09
325.562	68.23
326.015	32.95
326.468	17.48
326.921	44.87
327.374	51.39
327.827	78.65
328.28	36.95
328.733	45.14
329.186	50.79
329.639	49.65
330.092	15.36
330.545	29.99
330.997	38.6
331.45	75.01
331.903	106.61
332.355	119.26
332.808	67.76
333.26	56.77
333.713	69.29
334.165	17.74
334.617	-43.22
335.069	-98.36
335.522	-319.25
335.974	-347.32
336.426	-369.62
336.878	-374.91
337.33	-146.74
337.782	-136.05
338.234	-144.5
338.686	-203.99
339.137	-216.09
339.589	-195.98
340.041	-84.12
340.493	-67.94
340.944	-90.61
341.396	-83.92
341.847	-4.72
342.299	18.76
342.75	57.58
343.201	-9.45
343.653	-38.34
344.104	-93.23
344.555	-67.67
345.006	-200.64
345.457	-33.4
345.908	-46.59
346.359	-38.43
346.81	-57.78
347.261	-85.68
347.712	-117.32
348.163	-122.08
348.613	-43.51
349.064	-10.28
349.515	-13.29
349.965	23.72
350.416	-34.91
350.866	-22.62
351.317	-81.99
351.767	-108.89
352.217	-170.14
352.668	-102.04
353.118	-27.97
353.568	-191.48
354.018	-109.25
354.468	-84.04
354.918	-54.88
355.368	-20.32
355.818	-52.69
356.268	-72.77
356.718	431.66
357.168	273.71
357.617	112.62
358.067	30.51
358.517	86.74
358.966	67.29
359.416	154.81
359.865	30.27
360.315	-27.21
360.764	19.71
361.213	-2.71
361.663	-94.1
362.112	-181.46
362.561	-341.28
363.01	-230.89
363.459	-206.56
363.908	-233.61
364.357	-183.23
364.806	-289.84
365.255	-206.29
365.703	-164
366.152	-162.12
366.601	-86.45
367.05	-45.32
367.498	-13.19
367.947	-42.8
368.395	-49.27
368.844	-38.18
369.292	-96.62
369.74	-50.6
370.189	-112.12
370.637	-146.46
371.085	-128.05
371.533	-195.75
371.981	-221.56
372.429	-191.45
372.877	-182.51
373.325	-142.87
373.773	-171.82
374.221	-141.46
374.669	-202.85
375.116	-168.28
375.564	-179.3
376.012	-218.88
376.459	-162.45
376.907	-209.6
377.354	-272.62
377.801	-222.34
378.249	-227.45
378.696	-312.24
379.143	-390.41
379.591	-421.49
380.038	-642.89
380.485	-356.87
380.932	-393.18
381.379	-228.57
381.826	-51.34
382.273	-53.13
382.72	-89.8
383.166	-86.38
383.613	-29.6
384.06	-21.49
384.506	-21.07
384.953	-18.46
385.4	-40.94
385.846	-40.21
386.292	-68.07
386.739	-85.2
387.185	-87.18
387.631	-90.78
388.078	-62.41
388.524	-71.53
388.97	-68.71
389.416	-46.23
389.862	-37.76
390.308	-28.66
390.754	-11.78
391.2	-15.85
391.645	-20.87
392.091	8.39
392.537	23.95
392.983	6.9
393.428	34.79
393.874	34
394.319	46.3
394.765	53.44
395.21	40.78
395.655	39.78
396.101	49.42
396.546	56.24
396.991	37.2
397.436	36.54
397.881	28.45
398.326	11.72
398.771	22.76
399.216	11.52
399.661	6.16
400.106	14.74
400.551	17.26
400.995	17.8
401.44	16
401.885	15.83
402.329	12.45
402.774	13.86
403.218	26.17
403.663	22.35
404.107	23.76
404.551	24.92
404.995	21.82
405.44	16.43
405.884	8.84
406.328	1.98
406.772	1.25
407.216	0.86
407.66	2.08
408.104	-10.35
408.547	-11.01
408.991	-11.27
409.435	-11.99
409.879	-7.53
410.322	-6.63
410.766	-1.46
411.209	5.78
411.653	5.47
412.096	11.49
412.54	6.76
412.983	8.99
413.426	11.98
413.869	11.04
414.312	15.99
414.756	11.64
415.199	10.97
415.642	12.01
416.085	11.07
416.527	9.65
416.97	5.49
417.413	8.28
417.856	5.28
418.298	2.87
418.741	-0.01
419.184	-6.5
419.626	-12.28
420.069	-12.68
420.511	-12.9
420.953	-11.09
421.396	-9.1
421.838	-8.49
422.28	-7.27
422.722	-3.13
423.164	-5.36
423.606	-4.6
424.048	-4.9
424.49	-1.27
424.932	-1.68
425.374	-5.2
425.816	-8.01
426.258	-10.61
426.699	-12.35
427.141	-10.97
427.582	-14.67
428.024	-14.49
428.465	-14.54
428.907	-13.25
429.348	-12.64
429.789	-9.26
430.231	-4.47
430.672	-4.05
431.113	-1.87
431.554	-2.25
431.995	-6.37
432.436	-1.39
432.877	-1.1
433.318	2.5
433.759	3.28
434.2	3.43
434.64	1.93
435.081	0.14
435.522	-0.74
435.962	-1.61
436.403	1.42
436.843	0.79
437.284	-2.37
437.724	-4.22
438.164	-9.05
438.604	-9.54
439.045	-7.23
439.485	-4.89
439.925	-6.7
440.365	-6.82
440.805	-6.1
441.245	-6.63
441.685	-5
442.125	-6.32
442.564	-5.57
443.004	-3.37
443.444	-4.17
443.883	-4.23
444.323	-7.26
444.762	-8.74
445.202	-9.6
445.641	-7.49
446.081	-8.8
446.52	-7.38
446.959	-5.74
447.398	-2.99
447.837	-3.13
448.276	-2.98
448.716	-2.03
449.154	-3.72
449.593	-0.69
450.032	0.43
450.471	-1.27
450.91	-2.09
451.349	-0.8
451.787	-2.03
452.226	-3.64
452.664	-3.95
453.103	-4.16
453.541	-6.3
453.98	-2.99
454.418	-4.67
454.856	-2.5
455.295	-3.02
455.733	-1.51
456.171	-3.47
456.609	-1.56
457.047	-1.13
457.485	1.19
457.923	3.32
458.361	2.58
458.798	2.01
459.236	2.23
459.674	0.14
460.111	1.02
460.549	1.71
460.987	0.77
461.424	0.1
461.862	0.16
462.299	-0.23
462.736	0.2
463.173	1.34
463.611	4.4
464.048	6.07
464.485	7.34
464.922	6.45
465.359	4.63
465.796	13.97
466.233	14.37
466.67	16.12
467.106	17.11
467.543	15.17
467.98	13.35
468.416	10.41
468.853	9.34
469.29	7.97
469.726	6.99
470.162	7.65
470.599	0.73
471.035	-0.56
471.471	-1.2
471.907	-3.8
472.344	-3.6
472.78	-1.85
473.216	-2.33
473.652	-2.08
474.088	-3.14
474.523	-2.19
474.959	-3.19
475.395	-3.75
475.831	-2.8
476.266	-3.34
476.702	-2.95
477.138	-2.75
477.573	-2.9
478.008	-2.05
478.444	-1.82
478.879	0.33
479.314	0.84
479.75	1.55
480.185	1.94
480.62	1.72
481.055	1.88
481.49	2.88
481.925	3.38
482.36	5.57
482.795	4.25
483.229	3.41
483.664	3.07
484.099	3.08
484.534	3.64
484.968	3.6
485.403	3.33
485.837	2.05
486.271	1.46
486.706	1.37
487.14	-0.67
487.574	0.33
488.009	0.56
488.443	-0.04
488.877	0.62
489.311	-0.32
489.745	-0.08
490.179	0.11
490.613	2.69
491.046	1.98
491.48	1.95
491.914	2.77
492.348	2.21
492.781	2.23
493.215	2.05
493.648	0.95
494.082	1.06
494.515	1.43
494.948	2.15
495.382	0.18
495.815	0.72
496.248	1.01
496.681	0.04
497.114	-0.5
497.547	-0.42
497.98	1.01
498.413	2.21
498.846	2.94
499.279	2.28
499.711	1.72
500.144	1.52
500.577	2.37
501.009	1.89
501.442	2.69
501.874	3.23
502.306	2.91
502.739	4.65
503.171	4.03
503.603	3.98
504.036	3.71
504.468	3.89
504.9	4.14
505.332	3.51
505.764	3.84
506.196	3.26
506.627	3.64
507.059	3.88
507.491	0.9
507.923	0.87
508.354	0.92
508.786	1.51
509.217	1.54
509.649	1.94
510.08	1.52
510.512	2.36
510.943	2.81
511.374	2.94
511.805	2.94
512.237	2.98
512.668	2.34
513.099	1.16
513.53	0.38
513.961	0.45
514.391	0.07
514.822	1.83
515.253	0.93
515.684	1.06
516.114	1.2
516.545	1.67
516.975	1.62
517.406	1.57
517.836	2.51
518.267	3.28
518.697	4.08
519.127	3.82
519.558	2.69
519.988	2.46
520.418	1.37
520.848	0.33
521.278	-0.48
521.708	33.09
522.138	35
522.567	34.05
522.997	34.07
523.427	33.07
523.857	33.81
524.286	33.57
524.716	34.18
525.145	35.29
525.575	36.27
526.004	36.36
526.433	3.5
526.863	1.49
527.292	3.51
527.721	3.85
528.15	3.69
528.579	3.68
529.008	3.93
529.437	2.87
529.866	2.17
530.295	1.22
530.724	2.31
531.152	2.44
531.581	3.54
532.01	2.91
532.438	1.79
532.867	1.5
533.295	1.63
533.723	1.67
534.152	2.04
534.58	2.37
535.008	2.75
535.436	3.47
535.865	3.22
536.293	1.91
536.721	1.21
537.149	1.66
537.576	2.86
538.004	3.01
538.432	2.02
538.86	2.57
539.287	2.12
539.715	1.98
540.143	0.67
540.57	1.2
540.998	1.66
541.425	3.77
541.852	4.33
542.28	3.77
542.707	3.35
543.134	4.28
543.561	4.03
543.988	4.59
544.415	4.71
544.842	4.05
545.269	3.55
545.696	4.28
546.123	3.28
546.549	3.1
546.976	2.9
547.403	3.45
547.829	2.19
548.256	1.63
548.682	1.43
549.108	2.14
549.535	2.41
549.961	2.17
550.387	1.66
550.813	2.8
551.24	2.71
551.666	2.41
552.092	1.67
552.518	2.4
552.943	3.43
553.369	3.03
553.795	2.8
554.221	3.05
554.646	3.19
555.072	4.39
555.498	2.44
555.923	1.66
556.349	2.22
556.774	1.78
557.199	0.92
557.625	0.02
558.05	0.63
558.475	0.39
558.9	0.66
559.325	1.5
559.75	1.29
560.175	1.4
560.6	1.58
561.025	1.27
561.449	1.73
561.874	2.47
562.299	3.38
562.723	2.32
563.148	1.91
563.572	1.44
563.997	0.92
564.421	-0.68
564.846	-1.31
565.27	-1.04
565.694	-1.31
566.118	-1.32
566.542	-0.16
566.966	-0.21
567.39	0.44
567.814	0.84
568.238	1.11
568.662	0.9
569.086	1.72
569.509	1.2
569.933	2.17
570.357	2.3
570.78	2.31
571.204	2.95
571.627	2.53
572.05	2.26
572.474	3.54
572.897	3.49
573.32	4.48
573.743	3.92
574.166	5.97
574.589	5.03
575.012	5.39
575.435	5.55
575.858	4.64
576.281	4.88
576.704	4.53
577.126	2.98
577.549	2.73
577.972	0.9
578.394	1.06
578.817	2.04
579.239	2.44
579.661	2.8
580.084	3.3
580.506	3.36
580.928	2.96
581.35	4.04
581.772	4.76
582.194	4.89
582.616	5.22
583.038	4.64
583.46	2.46
583.882	2.21
584.303	0.54
584.725	-0.51
585.147	4.26
585.568	4.68
585.99	4.83
586.411	5.02
586.833	5.25
587.254	6.05
587.675	6.46
588.096	6.63
588.518	6.26
588.939	7.03
589.36	7.45
589.781	1.34
590.202	3.7
590.623	3.61
591.043	2.4
591.464	2.19
591.885	2.66
592.305	2.44
592.726	2.4
593.147	2.51
593.567	2.97
593.987	3.07
594.408	3.23
594.828	0.26
595.248	0.71
595.669	2.02
596.089	2.05
596.509	0.57
596.929	0.53
597.349	1.16
597.769	1.21
598.189	0.76
598.608	0.51
599.028	0.41
599.448	-0.24
599.867	-1.03
600.287	-1.88
600.706	-1.29
601.126	-0.19
601.545	0.94
601.965	0.39
602.384	0.39
602.803	0.68
603.222	1.43
603.641	1.33
604.061	2.77
604.48	2.8
604.898	2.85
605.317	2.36
605.736	2.41
606.155	2.47
606.574	2.27
606.992	1.92
607.411	1.91
607.829	0.53
608.248	0.26
608.666	-0.81
609.085	-0.41
609.503	-0.61
609.921	0.33
610.339	-0.16
610.758	-0.89
611.176	-0.86
611.594	0.05
612.012	-0.32
612.43	1
612.847	1.08
613.265	2.17
613.683	1.84
614.101	2.23
614.518	1.63
614.936	1.57
615.353	2.37
615.771	2.85
616.188	2.99
616.606	3.11
617.023	2.91
617.44	3.17
617.857	1.77
618.274	1.59
618.691	1.57
619.108	1.5
619.525	1.34
619.942	1.07
620.359	1.17
620.776	0.69
621.192	1.69
621.609	2.14
622.026	2.89
622.442	3.98
622.859	4.03
623.275	3.64
623.691	2.9
624.108	3.7
624.524	3.05
624.94	2.31
625.356	2.19
625.772	1.41
626.188	0.33
626.604	-0.74
627.02	-1.75
627.436	-1.88
627.852	-0.84
628.268	-0.37
628.683	-1.17
629.099	-1.04
629.514	-1.14
629.93	-1.19
630.345	-1.56
630.761	-1.67
631.176	-1.33
631.591	1.15
632.007	1.86
632.422	0.47
632.837	0.04
633.252	1.35
633.667	1.46
634.082	1.95
634.497	2.75
634.911	4.82
635.326	5.61
635.741	6.38
636.155	5.29
636.57	5.79
636.984	6.22
637.399	7.97
637.813	7.14
638.228	6.72
638.642	6
639.056	5.34
639.47	4.68
639.884	3.98
640.298	3.07
640.712	2.86
641.126	1.58
641.54	1.9
641.954	-0.92
642.368	-0.18
642.781	2.94
643.195	3.38
643.609	3.56
644.022	2.62
644.436	3.06
644.849	2.3
645.262	1.72
645.676	1.46
646.089	1.18
646.502	3.09
646.915	1.26
647.328	-0.8
647.741	-0.42
648.154	-0.29
648.567	2.21
648.98	1.94
649.393	2.16
649.805	2.33
650.218	2.41
650.631	2.58
651.043	2.17
651.456	3.62
651.868	3.15
652.28	1.9
652.693	1.25
653.105	-1.24
653.517	-1.51
653.929	-0.43
654.341	-0.02
654.753	0.49
655.165	-0.03
655.577	0.4
655.989	-0.01
656.401	-1.45
656.813	0.59
657.224	0.51
657.636	-0.84
658.047	0.82
658.459	0.64
658.87	-1.05
659.282	-1.08
659.693	-0.25
660.104	-0.41
660.515	-0.57
660.926	-0.06
661.338	-0.75
661.749	-1.43
662.159	1.27
662.57	-0.53
662.981	-0.83
663.392	-0.06
663.803	0.26
664.213	-0.13
664.624	-0.65
665.035	-1.18
665.445	-1.37
665.855	-0.27
666.266	1.33
666.676	0.18
667.086	0.24
667.497	1.01
667.907	1.41
668.317	0.61
668.727	4.14
669.137	3.26
669.547	3.27
669.956	2.94
670.366	2.18
670.776	1.6
671.186	0.89
671.595	1.26
672.005	-0.02
672.414	0.04
672.824	0.78
673.233	-2.87
673.642	-2.09
674.052	-1.57
674.461	0.17
674.87	-0.25
675.279	0.9
675.688	-0.08
676.097	1.37
676.506	2.52
676.915	1.37
677.323	1.01
677.732	1
678.141	0.44
678.549	-0.55
678.958	-2.53
679.366	-2.34
679.775	-4.04
680.183	-0.54
680.592	-1.7
681	-2.17
681.408	-1.35
681.816	-0.31
682.224	-0.34
682.632	1.46
683.04	2.78
683.448	3.78
683.856	3.79
684.264	4.83
684.671	1.94
685.079	1.24
685.487	0.83
685.894	0.32
686.302	-1.82
686.709	-1.79
687.116	-2.95
687.524	-3.3
687.931	-1.73
688.338	-1.31
688.745	-2.03
689.152	-2.59
689.559	-1.37
689.966	0.7
690.373	1.71
690.78	3.21
691.187	3.54
691.593	4.94
692	4.27
692.407	3.22
692.813	5.18
693.22	6.47
693.626	6.32
694.032	6.69
694.439	5.54
694.845	5.46
695.251	4.21
695.657	3.8
696.063	1.89
696.469	2.8
696.875	3.17
697.281	1.64
697.687	0.78
698.093	1.7
698.498	2.1
698.904	1.4
699.31	1.28
699.715	4.49
700.12	4.22
700.526	5.08
700.931	4.22
701.337	4.45
701.742	5.23
702.147	4.66
702.552	5.2
702.957	3.68
703.362	3.15
703.767	2.49
704.172	-0.35
704.577	-0.24
704.981	-1.25
705.386	-0.81
705.791	-1.39
706.195	-3.12
706.6	-2.61
707.004	-4.39
707.408	-4.61
707.813	-2.97
708.217	-1.99
708.621	-1.34
709.025	-1.92
709.43	0.46
709.834	0.98
710.237	1.48
710.641	1.61
711.045	2.92
711.449	5.11
711.853	9.27
712.256	7.92
712.66	8.09
713.064	8.15
713.467	9.75
713.87	8.98
714.274	8.96
714.677	9.54
715.08	11.18
715.484	10.97
715.887	13.11
716.29	8.81
716.693	10.71
717.096	10.59
717.499	10.86
717.901	10.39
718.304	9.42
718.707	8.58
719.109	7.23
719.512	4.11
719.915	6.3
720.317	2.52
720.719	0.71
721.122	-0.23
721.524	0.42
721.926	4.31
722.328	3.86
722.731	3.79
723.133	4.12
723.535	4.03
723.937	6.53
724.338	6.95
724.74	9.87
725.142	66.49
725.544	70.54
725.945	83.86
726.347	80.17
726.748	80.74
727.15	80.71
727.551	84.39
727.952	82.8
728.354	81.06
728.755	79.01
729.156	76.97
729.557	22.98
729.958	18.21
730.359	4.46
730.76	4.48
731.161	2.96
731.562	2.65
731.962	-1.78
732.363	-0.43
732.763	-0.63
733.164	-3.17
733.564	-2.91
733.965	-1.91
734.365	-1.03
734.766	-0.06
735.166	-0.68
735.566	1.99
735.966	2.86
736.366	4.39
736.766	4.69
737.166	4.17
737.566	6.26
737.966	6.32
738.365	6.35
738.765	7.99
739.165	7.48
739.564	7.94
739.964	5.93
740.363	5.09
740.763	3.74
741.162	4.45
741.561	5.17
741.96	5.05
742.36	3.55
742.759	3.85
743.158	1.69
743.557	0.87
743.955	-0.04
744.354	-0.56
744.753	-1.44
745.152	0.35
745.55	-0.79
745.949	0.04
746.348	-0.38
746.746	-1.18
747.144	1.02
747.543	1.11
747.941	-0.38
748.339	0.44
748.737	2.43
749.136	3.83
749.534	1.02
749.932	3.21
750.33	2.24
750.727	1.23
751.125	4.01
751.523	3.08
751.921	5.99
752.318	7.85
752.716	8.8
753.113	7.51
753.511	7.39
753.908	9.61
754.305	13.29
754.703	14.08
755.1	15.65
755.497	14.59
755.894	13.44
756.291	10.63
756.688	10.98
757.085	9.33
757.482	11.36
757.878	13.85
758.275	15.66
758.672	6.1
759.068	4.58
759.465	1.49
759.861	-3.21
760.258	-5.5
760.654	-6.2
761.05	-2.36
761.447	-1.23
761.843	-3.15
762.239	-5.12
762.635	-10.49
763.031	-11.39
