Data from C_1_DIV_IL_4N_Splice17_11-59-43-890.txt Node
Date: Sat Mar 14 11:59:43 EDT 2020
User: sa697716
Spectrometer: FLMS03696
Trigger mode: 0
Integration Time (sec): 3.180400E-1
Scans to average: 20
Electric dark correction enabled: true
Nonlinearity correction enabled: true
Boxcar width: 5
XAxis mode: Wavelengths
Number of Pixels in Spectrum: 2048
>>>>>Begin Spectral Data<<<<<
187.83	-158532.73
188.298	1180.96
188.766	689.33
189.233	596.94
189.701	896.74
190.169	1215.43
190.636	502.81
191.104	486.39
191.571	119.99
192.039	-2.14
192.506	-26.79
192.974	506.55
193.441	-820.4
193.908	-313.8
194.375	-111.65
194.842	0.92
195.31	28.84
195.777	117.91
196.244	295.28
196.711	356.46
197.177	443.63
197.644	613.28
198.111	1096.82
198.578	1511.2
199.045	1189.55
199.511	1938.59
199.978	2203.31
200.445	1892.58
200.911	2094.98
201.378	2323.91
201.844	2093.28
202.31	3541.55
202.777	3688.95
203.243	2015.2
203.709	1910.25
204.176	2313.66
204.642	1913.43
205.108	1810.57
205.574	1453.78
206.04	1322.01
206.506	1246.39
206.972	1188.12
207.438	1159.85
207.903	1305.63
208.369	1153.37
208.835	1156.73
209.301	1214.1
209.766	1229.72
210.232	1210.53
210.697	1527.98
211.163	1897.19
211.628	2862.44
212.094	2405.52
212.559	2992.74
213.024	1897.77
213.49	2343.82
213.955	2293.99
214.42	2244.4
214.885	2106.71
215.35	2044.48
215.815	1979.74
216.28	2124.62
216.745	1750.32
217.21	1909.96
217.675	1745.56
218.14	1970.37
218.604	2218.42
219.069	2560.93
219.534	2725.18
219.998	3207.97
220.463	3921.53
220.927	4864.35
221.392	4626.15
221.856	4736.5
222.32	6006.3
222.785	7492.97
223.249	9517.97
223.713	10665.79
224.177	10711.9
224.642	13807.81
225.106	17086.73
225.57	18773.9
226.034	14025.47
226.497	21403.47
226.961	19346.21
227.425	22635.28
227.889	25161.56
228.353	25206.68
228.816	52181.8
229.28	50156.68
229.744	42319.8
230.207	25769.65
230.671	25367.55
231.134	41972.06
231.597	48526.21
232.061	48599.92
232.524	47459.05
232.987	32787.99
233.45	29579.97
233.914	26593.11
234.377	27281.5
234.84	25069.09
235.303	29601.32
235.766	33078.58
236.229	34249.26
236.691	21575.17
237.154	24291.71
237.617	18293.36
238.08	18757
238.542	21970.78
239.005	15718.81
239.468	15620.48
239.93	14714.98
240.393	13379.06
240.855	11769.07
241.317	12066.82
241.78	14696.13
242.242	15199.09
242.704	16417.75
243.166	14293.11
243.629	12995.43
244.091	15002.35
244.553	16451.11
245.015	17683.1
245.477	22888.17
245.939	33560.85
246.4	35665.61
246.862	34711.8
247.324	32762.46
247.786	36700.58
248.247	48175.03
248.709	49723.63
249.17	37226.74
249.632	35098.21
250.093	40729.88
250.555	35231.23
251.016	21500.32
251.477	20408.14
251.939	22043.03
252.4	23130.45
252.861	27519.82
253.322	25597.25
253.783	30487.91
254.244	39528.05
254.705	31157.23
255.166	27737.15
255.627	27321.96
256.088	38568.21
256.549	40980.62
257.009	35307.53
257.47	42871.45
257.931	34965.47
258.391	26220.95
258.852	27084.55
259.312	28402.57
259.773	35136.93
260.233	29711.43
260.694	25082.74
261.154	28495.37
261.614	22887.46
262.074	20490.93
262.534	21296.07
262.994	20071.74
263.455	26771.7
263.915	22541.6
264.374	21273.86
264.834	23252.96
265.294	25816.34
265.754	26744.15
266.214	25330.63
266.673	23765.8
267.133	29997.13
267.593	29811.08
268.052	36505.02
268.512	31787.6
268.971	38360.76
269.431	42064.63
269.89	37696.02
270.349	56484.4
270.809	63026.74
271.268	56636.53
271.727	127005.69
272.186	82310.65
272.645	61745.62
273.104	44583.5
273.563	64569.92
274.022	50860.46
274.481	43303.81
274.94	33352.3
275.399	24812.01
275.857	28935.1
276.316	39165.89
276.775	34850.75
277.233	34355.8
277.692	32195.75
278.15	36435.57
278.609	37479.82
279.067	34694.39
279.525	32246.55
279.984	41694.13
280.442	50078.79
280.9	49287.27
281.358	32447.09
281.816	30275.26
282.274	29628.95
282.732	30609.08
283.19	30773.96
283.648	26585.11
284.106	28298.07
284.564	28751.06
285.021	26647.8
285.479	19878.1
285.937	18105.22
286.394	15902.79
286.852	16376.22
287.309	17205.75
287.767	16632.18
288.224	15804.11
288.682	17320.98
289.139	19041.15
289.596	17447.95
290.053	18135.44
290.511	22888.95
290.968	27764.53
291.425	37626.74
291.882	31324.49
292.339	27284.43
292.796	27069.01
293.252	25547.83
293.709	20316.96
294.166	18195.87
294.623	20089.78
295.079	19297.18
295.536	19408.09
295.992	17652.07
296.449	17475.75
296.905	18147.16
297.362	17426.75
297.818	18343.43
298.274	19040.4
298.731	19408.24
299.187	19224.4
299.643	20657.39
300.099	24998.92
300.555	27403.86
301.011	22900.91
301.467	22065.06
301.923	25836.91
302.379	25204.27
302.835	24744.15
303.291	24781.8
303.746	28201.39
304.202	35639.79
304.658	35802.81
305.113	24081.45
305.569	23620.57
306.024	25160.66
306.479	23967.25
306.935	20216.38
307.39	22081.58
307.845	20411.51
308.301	20525.31
308.756	20012.53
309.211	19250.53
309.666	19717.87
310.121	24468.66
310.576	24823.08
311.031	24614.41
311.486	28182.33
311.94	28180.5
312.395	37695.63
312.85	70829.08
313.305	347860.14
313.759	1798727.7
314.214	130285.85
314.668	103152.31
315.123	86627.17
315.577	31016.9
316.032	27595.61
316.486	34631.56
316.94	27294.97
317.394	18994.16
317.849	14739.18
318.303	13959.72
318.757	13189.52
319.211	14584.01
319.665	12784.06
320.119	12962.62
320.572	18625.83
321.026	17414.33
321.48	14488.86
321.934	15803.06
322.387	15850.97
322.841	17143.81
323.295	15385.59
323.748	17705.07
324.202	17986.63
324.655	21593.55
325.108	30128.99
325.562	21275.03
326.015	25275.01
326.468	19114.27
326.921	21402.07
327.374	19972.86
327.827	20789.84
328.28	23598.89
328.733	15827.74
329.186	13944.98
329.639	13308.29
330.092	11228.98
330.545	10702.44
330.997	10797.88
331.45	11812.56
331.903	13836.84
332.355	23813.65
332.808	23142.67
333.26	19090.29
333.713	20739.31
334.165	20857.53
334.617	27806.21
335.069	22474.45
335.522	40648.97
335.974	45003.79
336.426	41077.69
336.878	28490.94
337.33	14456.45
337.782	14143.04
338.234	17714.08
338.686	21178.64
339.137	25136.68
339.589	23671.7
340.041	18621.31
340.493	16024.32
340.944	16423.63
341.396	17703.95
341.847	14896.81
342.299	17597.22
342.75	21499.49
343.201	18805.74
343.653	21655.24
344.104	26654.23
344.555	21041.96
345.006	32714.14
345.457	25069.03
345.908	19944.84
346.359	18777.32
346.81	15308.16
347.261	16118.54
347.712	15905.32
348.163	17091.39
348.613	17343
349.064	16194.54
349.515	14191.57
349.965	14571.39
350.416	17572.47
350.866	19362.4
351.317	21942.14
351.767	36406.71
352.217	46138.12
352.668	38288.21
353.118	35119.86
353.568	33909.93
354.018	26883.27
354.468	28420.17
354.918	20409
355.368	17876.84
355.818	25254.5
356.268	72675.83
356.718	304742.22
357.168	75956.59
357.617	38165.67
358.067	42442.19
358.517	39812.59
358.966	46760.73
359.416	52569.06
359.865	57003.46
360.315	68082.26
360.764	31821.98
361.213	17855.35
361.663	16935.95
362.112	20929.09
362.561	33896
363.01	25642.1
363.459	21638.56
363.908	23482.58
364.357	19974.98
364.806	33810.79
365.255	23261.67
365.703	21410.34
366.152	21570.53
366.601	17550.23
367.05	14288.36
367.498	13048.62
367.947	13691.1
368.395	14316.66
368.844	12710.8
369.292	15391.98
369.74	10697.91
370.189	16473.77
370.637	19379.99
371.085	16789.53
371.533	20551.96
371.981	19940.72
372.429	19081.17
372.877	19999.03
373.325	16840.69
373.773	17274.06
374.221	15485.18
374.669	19287.4
375.116	16821.72
375.564	17046.23
376.012	19166.68
376.459	15906.98
376.907	19135.89
377.354	23288.52
377.801	21835.45
378.249	25192.41
378.696	32378.42
379.143	39411.77
379.591	42295.41
380.038	72013.9
380.485	52485.21
380.932	57125.76
381.379	52550.95
381.826	38928.1
382.273	27889.98
382.72	24566.48
383.166	24130.01
383.613	15758.61
384.06	14277.59
384.506	16604.43
384.953	12220.79
385.4	12350.75
385.846	10877.76
386.292	10660.34
386.739	10480.47
387.185	10393.35
387.631	10415.72
388.078	10117.56
388.524	10850.3
388.97	10051.56
389.416	8406.99
389.862	8957.87
390.308	8511
390.754	8638.95
391.2	9399.79
391.645	9628.28
392.091	9202.93
392.537	8904.73
392.983	8935.28
393.428	8787.12
393.874	9428.76
394.319	9450.05
394.765	8973.74
395.21	9230.08
395.655	8664.93
396.101	8115.83
396.546	7324.87
396.991	7400.4
397.436	6870.47
397.881	6635.32
398.326	6286.7
398.771	5927.52
399.216	5195.41
399.661	4673.74
400.106	4642.87
400.551	4740.94
400.995	4238.9
401.44	4190.1
401.885	3926.52
402.329	3962.57
402.774	3791.48
403.218	3651.65
403.663	3518.74
404.107	3596.78
404.551	3616.55
404.995	3311.94
405.44	3186.7
405.884	3225.96
406.328	3113.34
406.772	3099.67
407.216	2814.52
407.66	2715.15
408.104	2577.45
408.547	2406.44
408.991	2328.07
409.435	2231.28
409.879	2195.46
410.322	2158.22
410.766	2080.23
411.209	1972.14
411.653	1887.21
412.096	1840.64
412.54	1837.21
412.983	1821.81
413.426	1821.87
413.869	1813.26
414.312	1775.13
414.756	1705.26
415.199	1622.69
415.642	1572.31
416.085	1570.91
416.527	1557.25
416.97	1581.65
417.413	1497.47
417.856	1481.79
418.298	1462.87
418.741	1453.85
419.184	1450.94
419.626	1510.48
420.069	1512.75
420.511	1518.27
420.953	1484.76
421.396	1471.25
421.838	1434.57
422.28	1464.53
422.722	1466.76
423.164	1487.89
423.606	1458.6
424.048	1454.27
424.49	1380.25
424.932	1371
425.374	1351.92
425.816	1375.29
426.258	1398.2
426.699	1413.17
427.141	1392.13
427.582	1413.29
428.024	1407.08
428.465	1398.56
428.907	1363.6
429.348	1346.61
429.789	1344.19
430.231	1312.29
430.672	1325.25
431.113	1292.65
431.554	1270.24
431.995	1238.97
432.436	1191.51
432.877	1161.11
433.318	1139.91
433.759	1130.47
434.2	1130.29
434.64	1115.91
435.081	1117.4
435.522	1056.17
435.962	1016.77
436.403	993.01
436.843	1003.83
437.284	983.52
437.724	958.48
438.164	961.97
438.604	942.5
439.045	904.39
439.485	866.26
439.925	847.09
440.365	827.96
440.805	817.11
441.245	806.62
441.685	776.61
442.125	770.71
442.564	774.77
443.004	756.18
443.444	755.4
443.883	756.37
444.323	751.3
444.762	753.1
445.202	762.37
445.641	775.1
446.081	772
446.52	779.74
446.959	770.86
447.398	751.31
447.837	743.06
448.276	729.46
448.716	737.95
449.154	744.63
449.593	730.83
450.032	729.05
450.471	715.63
450.91	715.78
451.349	714.88
451.787	712.34
452.226	723.2
452.664	722.89
453.103	725.27
453.541	722.92
453.98	721.83
454.418	724.62
454.856	714.26
455.295	713.58
455.733	719.18
456.171	722.26
456.609	725.17
457.047	725.48
457.485	737.04
457.923	737.31
458.361	727.9
458.798	730.49
459.236	729.69
459.674	734.31
460.111	738.5
460.549	731.78
460.987	729.79
461.424	725.73
461.862	721.78
462.299	709.92
462.736	709.01
463.173	712.46
463.611	705.26
464.048	703.06
464.485	708.69
464.922	701.22
465.359	697.32
465.796	687.03
466.233	682.69
466.67	676.82
467.106	675.4
467.543	668.31
467.98	659.69
468.416	643.56
468.853	638.25
469.29	619.13
469.726	612.96
470.162	597.02
470.599	590.05
471.035	584.75
471.471	570.72
471.907	567.23
472.344	564.9
472.78	566.79
473.216	573.97
473.652	567.87
474.088	567.33
474.523	566.99
474.959	572.88
475.395	568.09
475.831	563.97
476.266	566.71
476.702	565.75
477.138	559.06
477.573	555.93
478.008	552.06
478.444	553.43
478.879	558.03
479.314	559.27
479.75	558.69
480.185	560.99
480.62	566.46
481.055	569.49
481.49	572.92
481.925	581.96
482.36	593.35
482.795	610.85
483.229	628.03
483.664	641.1
484.099	644.3
484.534	654.2
484.968	661
485.403	663.08
485.837	663.09
486.271	662.7
486.706	662.69
487.14	655.6
487.574	645.47
488.009	640.06
488.443	634.9
488.877	641.03
489.311	642.97
489.745	651.17
490.179	657.09
490.613	669.19
491.046	674.73
491.48	680.62
491.914	680.25
492.348	684.98
492.781	689.61
493.215	691.37
493.648	692.93
494.082	697.81
494.515	697.17
494.948	704.26
495.382	709.14
495.815	713.33
496.248	718.17
496.681	731.59
497.114	743.05
497.547	752.13
497.98	764.53
498.413	769.91
498.846	780.1
499.279	788.17
499.711	793.36
500.144	794.42
500.577	804.57
501.009	814.69
501.442	823.09
501.874	823.29
502.306	824.87
502.739	831.01
503.171	845.17
503.603	847.52
504.036	856.29
504.468	860.01
504.9	870.61
505.332	875.7
505.764	878.48
506.196	883.39
506.627	895.98
507.059	907.73
507.491	914.78
507.923	911.02
508.354	922.72
508.786	929.92
509.217	944.9
509.649	956.54
510.08	971.78
510.512	984.46
510.943	996.43
511.374	1004.46
511.805	1019.2
512.237	1033.45
512.668	1059.68
513.099	1081.94
513.53	1103.84
513.961	1118.42
514.391	1143.22
514.822	1168.97
515.253	1198.25
515.684	1218.13
516.114	1240.59
516.545	1255.81
516.975	1275.79
517.406	1287.96
517.836	1285.43
518.267	1287.39
518.697	1300.03
519.127	1299.86
519.558	1302.77
519.988	1301.84
520.418	1306.55
520.848	1319.09
521.278	1323.43
521.708	1337.27
522.138	1344.17
522.567	1367.86
522.997	1385.98
523.427	1395.74
523.857	1407.06
524.286	1411.66
524.716	1421.4
525.145	1433.32
525.575	1438.08
526.004	1446.77
526.433	1434.48
526.863	1431.33
527.292	1420.02
527.721	1422.96
528.15	1424.6
528.579	1422.87
529.008	1430.25
529.437	1446.35
529.866	1455.28
530.295	1467.52
530.724	1476.39
531.152	1496.89
531.581	1507.26
532.01	1520.14
532.438	1524.59
532.867	1535.6
533.295	1550.3
533.723	1555.25
534.152	1553.36
534.58	1552.52
535.008	1538.18
535.436	1538.75
535.865	1544.49
536.293	1555.69
536.721	1568.39
537.149	1590.23
537.576	1592.41
538.004	1601.09
538.432	1605.59
538.86	1603.94
539.287	1609.72
539.715	1621.95
540.143	1624.03
540.57	1622.38
540.998	1619.72
541.425	1600.99
541.852	1581.96
542.28	1580.66
542.707	1566.55
543.134	1554.89
543.561	1550.08
543.988	1544.03
544.415	1542.59
544.842	1536.58
545.269	1528.96
545.696	1530.42
546.123	1539.63
546.549	1530.09
546.976	1517.59
547.403	1516.64
547.829	1517.5
548.256	1519.63
548.682	1516.1
549.108	1509.03
549.535	1508.74
549.961	1508.67
550.387	1495.98
550.813	1490.88
551.24	1496.36
551.666	1497.44
552.092	1488.6
552.518	1483.21
552.943	1477.17
553.369	1481.94
553.795	1486.95
554.221	1487.49
554.646	1484.84
555.072	1494.39
555.498	1498.69
555.923	1505.08
556.349	1517.94
556.774	1525.95
557.199	1527.53
557.625	1532.24
558.05	1528.37
558.475	1536.95
558.9	1536.12
559.325	1531.04
559.75	1526.78
560.175	1523.22
560.6	1519.18
561.025	1517.65
561.449	1519.94
561.874	1524.79
562.299	1529.18
562.723	1536.12
563.148	1527.94
563.572	1532.54
563.997	1540.85
564.421	1546.56
564.846	1546.09
565.27	1551.03
565.694	1550.01
566.118	1560.88
566.542	1569.62
566.966	1566.1
567.39	1563.91
567.814	1557.71
568.238	1560.05
568.662	1567.56
569.086	1572.19
569.509	1581.54
569.933	1571.02
570.357	1567.19
570.78	1551.02
571.204	1541.46
571.627	1535.12
572.05	1535.62
572.474	1537.81
572.897	1528.4
573.32	1523.46
573.743	1516.67
574.166	1502.53
574.589	1504.14
575.012	1498.91
575.435	1499.59
575.858	1493.41
576.281	1485.9
576.704	1473.15
577.126	1463.24
577.549	1455.42
577.972	1446.55
578.394	1437.65
578.817	1432.76
579.239	1416.36
579.661	1406.01
580.084	1393.7
580.506	1383.41
580.928	1379.61
581.35	1371.53
581.772	1368.18
582.194	1356.81
582.616	1347.79
583.038	1336.41
583.46	1328.12
583.882	1326.17
584.303	1331.01
584.725	1328.98
585.147	1331.88
585.568	1342.01
585.99	1353.05
586.411	1359.96
586.833	1373.28
587.254	1374.94
587.675	1389.05
588.096	1399.78
588.518	1396.88
588.939	1381.31
589.36	1379.33
589.781	1369.88
590.202	1345.48
590.623	1338.19
591.043	1337.08
591.464	1327.24
591.885	1325.13
592.305	1319.61
592.726	1307.63
593.147	1308.48
593.567	1304.95
593.987	1298.2
594.408	1293.24
594.828	1292.12
595.248	1287.48
595.669	1271.03
596.089	1265.79
596.509	1260.58
596.929	1249.67
597.349	1251.07
597.769	1243.02
598.189	1237.43
598.608	1239.72
599.028	1241.56
599.448	1241.85
599.867	1231.07
600.287	1227.54
600.706	1224.1
601.126	1215.32
601.545	1213.75
601.965	1213.8
602.384	1210.23
602.803	1214.25
603.222	1210.44
603.641	1205.82
604.061	1203.04
604.48	1199.96
604.898	1208.33
605.317	1213.33
605.736	1216.77
606.155	1215.36
606.574	1207.49
606.992	1212.57
607.411	1209.13
607.829	1202.02
608.248	1200.04
608.666	1198.57
609.085	1199.41
609.503	1192.2
609.921	1186.97
610.339	1189.79
610.758	1189.9
611.176	1186.95
611.594	1178.96
612.012	1176.45
612.43	1180.65
612.847	1188.05
613.265	1190.39
613.683	1196.02
614.101	1198.85
614.518	1195.85
614.936	1187.67
615.353	1175.63
615.771	1174.66
616.188	1176.3
616.606	1174.58
617.023	1169.71
617.44	1157.43
617.857	1151.61
618.274	1144.14
618.691	1139.12
619.108	1132.81
619.525	1127.69
619.942	1134.33
620.359	1136.69
620.776	1133.73
621.192	1130.72
621.609	1128.74
622.026	1135.19
622.442	1141.79
622.859	1145.13
623.275	1138.39
623.691	1143.99
624.108	1153.78
624.524	1166.55
624.94	1166.88
625.356	1174.92
625.772	1187
626.188	1197.86
626.604	1199.29
627.02	1195.49
627.436	1194.32
627.852	1200.99
628.268	1211.41
628.683	1204.62
629.099	1198.11
629.514	1193.39
629.93	1197.34
630.345	1200.5
630.761	1197.32
631.176	1200.55
631.591	1195.28
632.007	1189.46
632.422	1188.26
632.837	1178.55
633.252	1176.06
633.667	1166.51
634.082	1158.74
634.497	1147.49
634.911	1131.42
635.326	1127.67
635.741	1112.95
636.155	1104.44
636.57	1105.86
636.984	1105.91
637.399	1108.37
637.813	1109.21
638.228	1110.04
638.642	1115.59
639.056	1107.55
639.47	1109.02
639.884	1104.6
640.298	1101.12
640.712	1103.03
641.126	1093.53
641.54	1087.25
641.954	1083.27
642.368	1073.96
642.781	1068.98
643.195	1055.04
643.609	1057.47
644.022	1053.22
644.436	1049.94
644.849	1040.28
645.262	1029.08
645.676	1031.89
646.089	1030.05
646.502	1018.61
646.915	1015.05
647.328	999.44
647.741	998.72
648.154	987.25
648.567	986.16
648.98	974.33
649.393	975.5
649.805	973.6
650.218	967.14
650.631	952.52
651.043	946.67
651.456	941.04
651.868	941.73
652.28	956.77
652.693	970.7
653.105	976.6
653.517	987.26
653.929	986.67
654.341	992.15
654.753	981.18
655.165	986.94
655.577	985.43
655.989	981.9
656.401	975.85
656.813	942.53
657.224	923.22
657.636	897.4
658.047	880.76
658.459	864.26
658.87	856.06
659.282	845.5
659.693	827.47
660.104	814.14
660.515	801.91
660.926	799.68
661.338	797.54
661.749	792.65
662.159	783.74
662.57	779.23
662.981	774.84
663.392	768.89
663.803	772.16
664.213	769.19
664.624	763.78
665.035	766.99
665.445	754.89
665.855	747.69
666.266	740.25
666.676	738.18
667.086	728.94
667.497	727.24
667.907	720.42
668.317	712.27
668.727	708.99
669.137	710
669.547	706.41
669.956	707.66
670.366	708.21
670.776	708.26
671.186	710.62
671.595	712.74
672.005	715.32
672.414	713.5
672.824	711.78
673.233	714.7
673.642	715.46
674.052	717.57
674.461	718.6
674.87	723.74
675.279	720.23
675.688	721.07
676.097	722.67
676.506	719.07
676.915	731.96
677.323	733.55
677.732	730.67
678.141	729.7
678.549	718.69
678.958	717.63
679.366	716.3
679.775	721.15
680.183	730.7
680.592	736.22
681	740.61
681.408	734
681.816	740.88
682.224	749.61
682.632	758.83
683.04	786.3
683.448	809.39
683.856	836.15
684.264	867.18
684.671	894.95
685.079	930.39
685.487	970.81
685.894	1026.95
686.302	1070.62
686.709	1105.46
687.116	1146.48
687.524	1180.43
687.931	1206.35
688.338	1227.81
688.745	1244.3
689.152	1264.24
689.559	1293.33
689.966	1320.73
690.373	1327.41
690.78	1353.14
691.187	1397.79
691.593	1428.35
692	1451.58
692.407	1491.57
692.813	1544.36
693.22	1583.34
693.626	1624.86
694.032	1654.33
694.439	1704.9
694.845	1743.65
695.251	1792.98
695.657	1834.89
696.063	1904.6
696.469	1953.05
696.875	1998.45
697.281	2018.5
