Data from C_1_DIV_WI_4N_Splice17_11-47-54-510.txt Node
Date: Sat Mar 14 11:47:54 EDT 2020
User: sa697716
Spectrometer: FLMS03696
Trigger mode: 0
Integration Time (sec): 3.180400E-1
Scans to average: 20
Electric dark correction enabled: true
Nonlinearity correction enabled: true
Boxcar width: 5
XAxis mode: Wavelengths
Number of Pixels in Spectrum: 2048
>>>>>Begin Spectral Data<<<<<
187.83	-186700.37
188.298	1484.91
188.766	894.05
189.233	798.89
189.701	1081.99
190.169	1594.93
190.636	580.69
191.104	423.84
191.571	54.98
192.039	-59.28
192.506	-79.99
192.974	355.9
193.441	-480.38
193.908	112.83
194.375	37.72
194.842	50.52
195.31	154.62
195.777	168.3
196.244	265.84
196.711	251.72
197.177	280.58
197.644	373.18
198.111	596.17
198.578	857.85
199.045	678.77
199.511	1093.45
199.978	1250.19
200.445	1075.35
200.911	1144.64
201.378	1257.53
201.844	1176.05
202.31	2003.38
202.777	2104.38
203.243	1200.09
203.709	1139.54
204.176	1351.71
204.642	1125.16
205.108	1068.61
205.574	875.92
206.04	781.53
206.506	732.45
206.972	667.78
207.438	639.97
207.903	709.73
208.369	630.64
208.835	633.99
209.301	671.3
209.766	669.23
210.232	662.78
210.697	810.05
211.163	1018.8
211.628	1530.41
212.094	1324.37
212.559	1688.59
213.024	1084.39
213.49	1361.65
213.955	1333.86
214.42	1282.6
214.885	1246.92
215.35	1223.03
215.815	1239.48
216.28	1334.74
216.745	1111.47
217.21	1231.81
217.675	1130.25
218.14	1295.42
218.604	1481.01
219.069	1737.98
219.534	1893.79
219.998	2241.85
220.463	2773.85
220.927	3432.63
221.392	3287.25
221.856	3387.58
222.32	4318.8
222.785	5404.21
223.249	6862.24
223.713	7698.8
224.177	7761.55
224.642	9983.11
225.106	12332.77
225.57	13542.03
226.034	10166.36
226.497	15537.36
226.961	14082.39
227.425	16429.53
227.889	18292.43
228.353	18359.54
228.816	37968.22
229.28	36356.33
229.744	30722.45
230.207	18696.87
230.671	18427.1
231.134	30462.44
231.597	35239.66
232.061	35263.57
232.524	34412.46
232.987	23674
233.45	21331.7
233.914	19142.01
234.377	19589.79
234.84	17958.12
235.303	21190.68
235.766	23582.03
236.229	24328.43
236.691	15323.99
237.154	17203.12
237.617	12943.68
238.08	13270.69
238.542	15480.33
239.005	11070.99
239.468	10991
239.93	10333.97
240.393	9384.9
240.855	8240.99
241.317	8430.3
241.78	10224.69
242.242	10565.67
242.704	11410.05
243.166	9931.6
243.629	9040.48
244.091	10399.1
244.553	11391.43
245.015	12231.36
245.477	15793.23
245.939	23093.44
246.4	24495.93
246.862	23756.68
247.324	22368.49
247.786	24974.01
248.247	32719.55
248.709	33705.12
249.17	25208.29
249.632	23764.18
250.093	27536.97
250.555	23785.23
251.016	14525.06
251.477	13782.81
251.939	14900.23
252.4	15609.36
252.861	18561.59
253.322	17229.36
253.783	20479.34
254.244	26526.41
254.705	20876.91
255.166	18539.57
255.627	18229.54
256.088	25655.21
256.549	27211.64
257.009	23377.31
257.47	28368.6
257.931	23082.96
258.391	17313.04
258.852	17854.71
259.312	18717.83
259.773	23148.16
260.233	19598.02
260.694	16539.78
261.154	18769.49
261.614	15086.05
262.074	13494.83
262.534	14030.8
262.994	13220.92
263.455	17598.3
263.915	14829.31
264.374	13949.83
264.834	15200
265.294	16851.88
265.754	17452.77
266.214	16532.35
266.673	15489.53
267.133	19554.43
267.593	19386.64
268.052	23715.83
268.512	20610.49
268.971	24819.1
269.431	27225.25
269.89	24354.09
270.349	36479.36
270.809	40593.12
271.268	36452.69
271.727	81540.8
272.186	52759.99
272.645	39504.65
273.104	28467.19
273.563	41197.61
274.022	32351.77
274.481	27500.33
274.94	21185.82
275.399	15724.74
275.857	18291.01
276.316	24672.48
276.775	21931.81
277.233	21551.25
277.692	20180.6
278.15	22796.76
278.609	23420.89
279.067	21662.9
279.525	20101.41
279.984	25929.96
280.442	31095.6
280.9	30683.35
281.358	20164.32
281.816	18776.63
282.274	18377.83
282.732	18925.71
283.19	19004.28
283.648	16377.23
284.106	17429.63
284.564	17715.25
285.021	16404.14
285.479	12203.75
285.937	11070.27
286.394	9729.77
286.852	9992.51
287.309	10473.53
287.767	10112.37
288.224	9597.36
288.682	10523.57
289.139	11534.09
289.596	10536.61
290.053	10930.56
290.511	13784.61
290.968	16708.2
291.425	22630.67
291.882	18846.49
292.339	16425.09
292.796	16278.9
293.252	15323.33
293.709	12175.42
294.166	10904.9
294.623	12026.11
295.079	11541.33
295.536	11586.66
295.992	10504.25
296.449	10367.85
296.905	10770.12
297.362	10327.67
297.818	10855.5
298.274	11260.74
298.731	11454.89
299.187	11337.47
299.643	12177.23
300.099	14692.48
300.555	16093.99
301.011	13445.61
301.467	12984.32
301.923	15172.58
302.379	14777.18
302.835	14495.46
303.291	14499.5
303.746	16460.44
304.202	20727.96
304.658	20748.58
305.113	13945.58
305.569	13666.39
306.024	14523.7
306.479	13777.24
306.935	11604.94
307.39	12646.35
307.845	11652.87
308.301	11722.81
308.756	11414.63
309.211	10972.22
309.666	11233.62
310.121	13937.01
310.576	14100.12
311.031	13965.46
311.486	15939.86
311.94	15893.38
312.395	21208.32
312.85	39823.59
313.305	194882.43
313.759	1010205.44
314.214	73270.5
314.668	58020.03
315.123	48830.53
315.577	17522.63
316.032	15577.87
316.486	19568.9
316.94	15451.63
317.394	10784.64
317.849	8383.05
318.303	7922.93
318.757	7442.84
319.211	8220.96
319.665	7190.32
320.119	7248.39
320.572	10363.64
321.026	9695.02
321.48	8038.61
321.934	8742.06
322.387	8727.8
322.841	9414.76
323.295	8474.08
323.748	9755.2
324.202	9890.85
324.655	11846.6
325.108	16547.17
325.562	11688.79
326.015	13866.13
326.468	10449.98
326.921	11674.18
327.374	10889.47
327.827	11333.09
328.28	12839.57
328.733	8598.26
329.186	7539.73
329.639	7189.14
330.092	6059.98
330.545	5754.4
330.997	5797.88
331.45	6358.23
331.903	7447.91
332.355	12749.53
332.808	12377.67
333.26	10156.11
333.713	11000.16
334.165	11071.59
334.617	14737.87
335.069	11846.6
335.522	21453.54
335.974	23746.79
336.426	21610.38
336.878	14890.1
337.33	7570.22
337.782	7364.75
338.234	9214.7
338.686	10995.68
339.137	13000.3
339.589	12231.38
340.041	9602.68
340.493	8226.07
340.944	8398.35
341.396	9048.42
341.847	7628.27
342.299	9015.85
342.75	11023.3
343.201	9643.25
343.653	11093.41
344.104	13635.06
344.555	10758.24
345.006	16734.27
345.457	12839.51
345.908	10167.89
346.359	9570.58
346.81	7806.89
347.261	8208.07
347.712	8064.37
348.163	8625.42
348.613	8774.29
349.064	8182.79
349.515	7139.59
349.965	7309.16
350.416	8786.7
350.866	9638.35
351.317	10895.97
351.767	17975.89
352.217	22664.03
352.668	18839.77
353.118	17233.03
353.568	16497.88
354.018	13035.45
354.468	13787.49
354.918	9879.18
355.368	8630.98
355.818	12219.91
356.268	35068.75
356.718	147242.64
357.168	36670.23
357.617	18407.76
358.067	20515.32
358.517	19211.56
358.966	22551.09
359.416	25237.19
359.865	27309.69
360.315	32496.82
360.764	15156.78
361.213	8484.1
361.663	8008.27
362.112	9882.29
362.561	15918.2
363.01	11964.28
363.459	10050.29
363.908	10871.36
364.357	9234.94
364.806	15630.55
365.255	10745.84
365.703	9862.12
366.152	9909.79
366.601	8014.27
367.05	6502.38
367.498	5904.69
367.947	6170.48
368.395	6449.53
368.844	5707.59
369.292	6844.31
369.74	4708.7
370.189	7186.91
370.637	8414.14
371.085	7226.18
371.533	8814.34
371.981	8493.87
372.429	8124.46
372.877	8480.26
373.325	7108.54
373.773	7240.83
374.221	6465.41
374.669	8061.97
375.116	6999.27
375.564	7083.08
376.012	7933.97
376.459	6575.61
376.907	7871
377.354	9536.87
377.801	8934.8
378.249	10308.34
378.696	13231.37
379.143	16124.38
379.591	17170.95
380.038	29103.26
380.485	21076.86
380.932	22830.02
381.379	20992.86
381.826	15551.19
382.273	11056.41
382.72	9650.58
383.166	9449.78
383.613	6137.71
384.06	5541.55
384.506	6443.35
384.953	4758.79
385.4	4788.07
385.846	4208.16
386.292	4092.21
386.739	3990.11
387.185	3942.49
387.631	3952.72
388.078	3831.57
388.524	4112.17
388.97	3813.75
389.416	3184.21
389.862	3386.99
390.308	3222.54
390.754	3272.86
391.2	3556.56
391.645	3650.53
392.091	3523.31
392.537	3412.39
392.983	3410.39
393.428	3372.23
393.874	3599.79
394.319	3620.98
394.765	3440.62
395.21	3524.98
395.655	3302.56
396.101	3094.34
396.546	2793.29
396.991	2806.28
397.436	2601.67
397.881	2518.49
398.326	2368.93
398.771	2239.67
399.216	1944.33
399.661	1746.85
400.106	1740.55
400.551	1783.45
400.995	1594.29
401.44	1574.78
401.885	1474.62
402.329	1496.06
402.774	1430.71
403.218	1389.99
403.663	1339.84
404.107	1373.9
404.551	1382.11
404.995	1264.37
405.44	1210.08
405.884	1223.32
406.328	1174.96
406.772	1167.85
407.216	1056.82
407.66	1016.01
408.104	955.98
408.547	891
408.991	864.15
409.435	827.93
409.879	818.61
410.322	811.02
410.766	783.29
411.209	748.46
411.653	717.44
412.096	702.83
412.54	700.09
412.983	694.95
413.426	698.38
413.869	695.73
414.312	680.74
414.756	652.5
415.199	620.78
415.642	602.31
416.085	601.72
416.527	595.22
416.97	601.01
417.413	573.24
417.856	565.99
418.298	558.37
418.741	553.68
419.184	552.08
419.626	570.39
420.069	567.46
420.511	569.21
420.953	555.97
421.396	549.79
421.838	534.07
422.28	545.09
422.722	546.57
423.164	551.74
423.606	542.19
424.048	540.68
424.49	515.44
424.932	513.61
425.374	507.6
425.816	515.24
426.258	525.43
426.699	532.2
427.141	524.86
427.582	530.6
428.024	524.72
428.465	518.53
428.907	506.03
429.348	500.53
429.789	501.61
430.231	490.97
430.672	498.43
431.113	485.7
431.554	478.72
431.995	464.81
432.436	451.32
432.877	444.24
433.318	438.6
433.759	435.64
434.2	436.43
434.64	428.97
435.081	429.9
435.522	407.92
435.962	393.44
436.403	385.22
436.843	390.01
437.284	381.27
437.724	369.61
438.164	369.16
438.604	359.78
439.045	347.53
439.485	335.39
439.925	327.18
440.365	317.04
440.805	313.23
441.245	309.93
441.685	297.73
442.125	294.33
442.564	295.8
443.004	290.38
443.444	290.15
443.883	287.49
444.323	283.48
444.762	281.2
445.202	284.41
445.641	290.42
446.081	286.16
446.52	290.8
446.959	288.12
447.398	283.56
447.837	279.02
448.276	274.78
448.716	280
449.154	283.55
449.593	279.22
450.032	279.61
450.471	271
450.91	271.42
451.349	269.86
451.787	268.35
452.226	269.95
452.664	270.51
453.103	270.17
453.541	268.51
453.98	269.29
454.418	271.55
454.856	268
455.295	269.68
455.733	272.96
456.171	273.08
456.609	274
457.047	274.83
457.485	279.38
457.923	279.26
458.361	273.68
458.798	272.63
459.236	270.59
459.674	271.14
460.111	271.81
460.549	268.24
460.987	266.91
461.424	265.95
461.862	264
462.299	259.87
462.736	260.93
463.173	261.53
463.611	260.28
464.048	260.82
464.485	263.78
464.922	262.4
465.359	259.82
465.796	262.04
466.233	260.93
466.67	260.68
467.106	260.68
467.543	257.38
467.98	254.67
468.416	247.34
468.853	243.9
469.29	235.92
469.726	232
470.162	227.54
470.599	220.38
471.035	217
471.471	210.69
471.907	207.82
472.344	206.04
472.78	207.53
473.216	208.44
473.652	206.88
474.088	206.02
474.523	205.99
474.959	206.8
475.395	205.22
475.831	204.28
476.266	204.09
476.702	203.64
477.138	201.98
477.573	199.71
478.008	199.69
478.444	200.82
478.879	202.69
479.314	203.58
479.75	203.11
480.185	203.47
480.62	204.2
481.055	205.19
481.49	205.81
481.925	207.87
482.36	213.41
482.795	218.45
483.229	223.26
483.664	227.11
484.099	227.66
484.534	231.6
484.968	233.63
485.403	234.2
485.837	233.28
486.271	233.46
486.706	233.21
487.14	229.14
487.574	225.5
488.009	222.55
488.443	220.8
488.877	222.56
489.311	222.64
489.745	224.43
490.179	226.1
490.613	231.03
491.046	232.06
491.48	233.36
491.914	233.98
492.348	235.19
492.781	236.88
493.215	236.69
493.648	235.72
494.082	236.84
494.515	236.84
494.948	239.14
495.382	238.8
495.815	239.39
496.248	241.21
496.681	243.86
497.114	246.34
497.547	249.15
497.98	253.37
498.413	256.32
498.846	258.66
499.279	260.58
499.711	261.2
500.144	261.47
500.577	265.13
501.009	267.56
501.442	270.32
501.874	270.4
502.306	269.87
502.739	272.9
503.171	276.33
503.603	276.57
504.036	278.89
504.468	279.52
504.9	282.63
505.332	283.09
505.764	284.29
506.196	285.54
506.627	289.54
507.059	293.27
507.491	293.21
507.923	292.04
508.354	296.96
508.786	299.77
509.217	304.96
509.649	309.59
510.08	315.17
510.512	320.02
510.943	324.36
511.374	327.8
511.805	333.8
512.237	339.39
512.668	348.41
513.099	355.52
513.53	363.67
513.961	370.93
514.391	379.85
514.822	391.52
515.253	402.83
515.684	411.17
516.114	420.75
516.545	427.99
516.975	436.73
517.406	443.57
517.836	445.64
518.267	448.38
518.697	454.88
519.127	457.46
519.558	459.13
519.988	459.94
520.418	463.4
520.848	468.22
521.278	471.64
521.708	488.97
522.138	493.01
522.567	502.84
522.997	511.41
523.427	516.41
523.857	522.48
524.286	526.22
524.716	532.79
525.145	540.17
525.575	545.73
526.004	550.32
526.433	538.68
526.863	539.6
527.292	537.95
527.721	540.97
528.15	543.11
528.579	544.08
529.008	548.98
529.437	555.77
529.866	560.1
530.295	566.03
530.724	571.31
531.152	580.02
531.581	585.18
532.01	591.11
532.438	593.74
532.867	598.96
533.295	605.49
533.723	608.08
534.152	608.25
534.58	609.03
535.008	604.53
535.436	606.19
535.865	608.68
536.293	614.18
536.721	619.3
537.149	628
537.576	630.22
538.004	634.76
538.432	637.43
538.86	637.44
539.287	639.94
539.715	644.21
540.143	644.55
540.57	644.97
540.998	643.08
541.425	637.61
541.852	631.13
542.28	630.2
542.707	624.31
543.134	618.98
543.561	617.28
543.988	614.75
544.415	614.32
544.842	611.91
545.269	608.39
545.696	609.79
546.123	612.41
546.549	608.45
546.976	603.16
547.403	603.07
547.829	603.4
548.256	604.19
548.682	602.46
549.108	600.14
549.535	599.91
549.961	600.32
550.387	595.1
550.813	593.2
551.24	594.87
551.666	595.39
552.092	591.68
552.518	588.99
552.943	586.45
553.369	588.51
553.795	590.18
554.221	590.46
554.646	589.04
555.072	592.79
555.498	593.19
555.923	595.35
556.349	599.98
556.774	602.38
557.199	602.27
557.625	603.52
558.05	600.55
558.475	602.46
558.9	601.52
559.325	598.49
559.75	595.48
560.175	593.39
560.6	590.57
561.025	588.34
561.449	587.72
561.874	588.5
562.299	589.63
562.723	591.76
563.148	588.33
563.572	588.17
563.997	590.22
564.421	590.5
564.846	589.19
565.27	590.19
565.694	589.65
566.118	592.89
566.542	595.93
566.966	593.25
567.39	591.06
567.814	586.58
568.238	586.3
568.662	586.91
569.086	587.51
569.509	588.64
569.933	583.53
570.357	579.93
570.78	573.16
571.204	568.07
571.627	563.03
572.05	561.85
572.474	562.17
572.897	556.64
573.32	554.38
573.743	550.48
574.166	545.17
574.589	543.79
575.012	540.8
575.435	538.77
575.858	535.11
576.281	531.42
576.704	525.45
577.126	519.59
577.549	515.52
577.972	511.34
578.394	507.26
578.817	505.34
579.239	498.62
579.661	494.14
580.084	489.33
580.506	484.71
580.928	482.8
581.35	478.24
581.772	476.91
582.194	472.62
582.616	467.07
583.038	461.81
583.46	456.25
583.882	454.6
584.303	453.8
584.725	451.12
585.147	454.25
585.568	457.27
585.99	461.11
586.411	462.52
586.833	466.38
587.254	467.93
587.675	471.73
588.096	474.48
588.518	473.13
588.939	468.74
589.36	468.6
589.781	461.39
590.202	454.01
590.623	450.79
591.043	448.92
591.464	444.81
591.885	443.87
592.305	441.96
592.726	438.99
593.147	439.17
593.567	437.8
593.987	434.85
594.408	432.8
594.828	430.04
595.248	428.64
595.669	424.24
596.089	422.29
596.509	419.19
596.929	415.04
597.349	414.92
597.769	411.47
598.189	409
598.608	409.47
599.028	410.25
599.448	409.55
599.867	405.12
600.287	402.83
600.706	401.46
601.126	398.8
601.545	398.71
601.965	397.93
602.384	395.99
602.803	396.72
603.222	395.37
603.641	393.14
604.061	392.75
604.48	391.66
604.898	393.5
605.317	394.06
605.736	393.87
606.155	393.28
606.574	390.13
606.992	391.78
607.411	390.42
607.829	386.72
608.248	384.98
608.666	383.64
609.085	383.19
609.503	381.05
609.921	379.72
610.339	380.68
610.758	379.65
611.176	378.79
611.594	375.82
612.012	374.78
612.43	376.33
612.847	378.51
613.265	379.5
613.683	381.22
614.101	380.59
614.518	379.14
614.936	375.39
615.353	371.52
615.771	370.79
616.188	371.34
616.606	369.5
617.023	367.54
617.44	363.07
617.857	359.85
618.274	356.95
618.691	356.35
619.108	353.88
619.525	352.03
619.942	353.39
620.359	353.53
620.776	351.32
621.192	350.54
621.609	350.19
622.026	352.62
622.442	353.99
622.859	353.75
623.275	350.85
623.691	352
624.108	356.03
624.524	359.57
624.94	359.35
625.356	362.12
625.772	365.29
626.188	367.9
626.604	367.01
627.02	366.51
627.436	367.19
627.852	370.1
628.268	373.68
628.683	370
629.099	367.86
629.514	366.08
629.93	366.89
630.345	368.39
630.761	366.91
631.176	368.77
631.591	368.03
632.007	366.44
632.422	364.55
632.837	360.45
633.252	359.98
633.667	356.58
634.082	354.47
634.497	351.51
634.911	347.43
635.326	346.34
635.741	340.78
636.155	335.92
636.57	335.89
636.984	335.79
637.399	337.85
637.813	337
638.228	336.2
638.642	336.81
639.056	333.55
639.47	331.34
639.884	328.88
640.298	327.28
640.712	327.73
641.126	323.86
641.54	320.87
641.954	316.39
642.368	313.38
642.781	313.09
643.195	307.49
643.609	307.38
644.022	306.74
644.436	305.06
644.849	300.76
645.262	296.71
645.676	295.99
646.089	295.66
646.502	293.37
646.915	292.17
647.328	287.11
647.741	287.58
648.154	283.43
648.567	283.37
648.98	280.2
649.393	280.76
649.805	280.79
650.218	279.22
650.631	274.27
651.043	272.8
651.456	271.49
651.868	271.3
652.28	274.69
652.693	278.35
653.105	278.63
653.517	280.97
653.929	281.86
654.341	283.1
654.753	280.58
655.165	282.59
655.577	282.18
655.989	281.35
656.401	278.83
656.813	271.51
657.224	267.11
657.636	259.56
658.047	256.7
658.459	251.56
658.87	248.81
659.282	245.68
659.693	240.96
660.104	238.23
660.515	234.61
660.926	234.2
661.338	233.13
661.749	231.84
662.159	231.72
662.57	229.39
662.981	229.1
663.392	228.62
663.803	230.88
664.213	230.74
664.624	229.66
665.035	231.63
665.445	228.79
665.855	227.77
666.266	227.29
666.676	226.26
667.086	224.37
667.497	225.28
667.907	223.77
668.317	221.17
668.727	223.22
669.137	222.71
669.547	222.47
669.956	223.72
670.366	224.35
670.776	224.64
671.186	226.19
671.595	228.41
672.005	229.43
672.414	231.27
672.824	232.31
673.233	231.48
673.642	233.24
674.052	234.48
674.461	236.57
674.87	238.49
675.279	238.59
675.688	238.93
676.097	240.49
676.506	240
676.915	243.4
677.323	244.33
677.732	245.09
678.141	245.42
678.549	242.43
678.958	241.86
679.366	241.25
679.775	241.73
680.183	246.71
680.592	247.57
681	249.42
681.408	247.7
681.816	249.76
682.224	251.53
682.632	254.66
683.04	263.37
683.448	270.16
683.856	280.17
684.264	290.87
684.671	297.15
685.079	306.74
685.487	316.43
685.894	330.99
686.302	341.69
686.709	351.71
687.116	363.55
687.524	374.05
687.931	382.69
688.338	388.57
688.745	391.29
689.152	397.56
689.559	408.3
689.966	420.55
690.373	425.42
690.78	436.42
691.187	451.72
691.593	464.23
692	471.97
692.407	488.18
692.813	509.9
693.22	528.55
693.626	546.44
694.032	562.65
694.439	585.18
694.845	602.43
695.251	624.88
695.657	647.22
696.063	677.57
696.469	702.74
696.875	726.06
697.281	740.16
697.687	758.2
698.093	775.55
698.498	801.96
698.904	823.07
699.31	855.39
699.715	881.7
700.12	915.08
700.526	925.13
700.931	952.42
701.337	974.39
701.742	991.81
702.147	1022.95
702.552	1037.66
702.957	1062.76
703.362	1076.2
703.767	1091.93
704.172	1110.51
704.577	1100.09
704.981	1123.04
705.386	1136.19
705.791	1139.73
706.195	1169.19
706.6	1180.9
707.004	1214.22
707.408	1209.2
707.813	1225.8
708.217	1228.62
708.621	1234.64
709.025	1274.51
709.43	1282.1
709.834	1308.44
710.237	1338.79
710.641	1339.51
711.045	1352.87
