Data from C_1_DEC_OH_4N_Splice17_11-55-55-352.txt Node
Date: Sat Mar 14 11:55:55 EDT 2020
User: sa697716
Spectrometer: FLMS03696
Trigger mode: 0
Integration Time (sec): 3.180400E-1
Scans to average: 20
Electric dark correction enabled: true
Nonlinearity correction enabled: true
Boxcar width: 5
XAxis mode: Wavelengths
Number of Pixels in Spectrum: 2048
>>>>>Begin Spectral Data<<<<<
187.83	-249491.76
188.298	1847.51
188.766	1011.61
189.233	903.05
189.701	1319.8
190.169	1820.42
190.636	704.5
191.104	587.76
191.571	102.97
192.039	-32.66
192.506	55.94
192.974	481.62
193.441	-579.98
193.908	-45.55
194.375	-20.9
194.842	84.82
195.31	190.76
195.777	164.69
196.244	353.04
196.711	403.49
197.177	532.34
197.644	771.4
198.111	1313.33
198.578	1799.95
199.045	1436.34
199.511	2360.16
199.978	2740.31
200.445	2352.05
200.911	2633.54
201.378	2938.59
201.844	2681.39
202.31	4549.99
202.777	4689.84
203.243	2600.58
203.709	2497.11
204.176	2980.06
204.642	2452.14
205.108	2294.26
205.574	1861.15
206.04	1693.88
206.506	1596.22
206.972	1508.84
207.438	1468.92
207.903	1682.12
208.369	1496.03
208.835	1487.57
209.301	1573.21
209.766	1608.53
210.232	1588.99
210.697	1960.61
211.163	2409.17
211.628	3647.95
212.094	3055.64
212.559	3738.12
213.024	2337.18
213.49	2834.14
213.955	2763.21
214.42	2675.6
214.885	2497.89
215.35	2405.13
215.815	2317.23
216.28	2466.24
216.745	2004.27
217.21	2177.34
217.675	2002.56
218.14	2252.14
218.604	2518.39
219.069	2898.79
219.534	3059.4
219.998	3593.05
220.463	4378.09
220.927	5418.12
221.392	5122.51
221.856	5199.27
222.32	6560.56
222.785	8149.85
223.249	10269.51
223.713	11498.3
224.177	11509.84
224.642	14749.31
225.106	18130.17
225.57	19821.44
226.034	14725.69
226.497	22385.89
226.961	20224.55
227.425	23585.41
227.889	26097.39
228.353	26109.66
228.816	53801.67
229.28	51488.73
229.744	43500.67
230.207	26410.19
230.671	25949.71
231.134	42983
231.597	49610.75
232.061	49631.33
232.524	48298.99
232.987	33329.4
233.45	30030.8
233.914	26968.33
234.377	27627.26
234.84	25259.43
235.303	29800.23
235.766	33274.95
236.229	34323.85
236.691	21608.5
237.154	24269.27
237.617	18264.92
238.08	18671.85
238.542	21850.35
239.005	15603.81
239.468	15487.21
239.93	14596.89
240.393	13270.25
240.855	11633.36
241.317	11914.35
241.78	14501.62
242.242	14976.41
242.704	16180.1
243.166	14097.03
243.629	12769.15
244.091	14717.6
244.553	16135.75
245.015	17375.57
245.477	22454.55
245.939	32947.34
246.4	34943.65
246.862	33942.23
247.324	32018.75
247.786	35857
248.247	46997.32
248.709	48623.57
249.17	36375.04
249.632	34272.17
250.093	39677.29
250.555	34273.09
251.016	20917.7
251.477	19868.9
251.939	21470.2
252.4	22524.44
252.861	26794.86
253.322	24927.26
253.783	29677.99
254.244	38508.96
254.705	30359.46
255.166	27009.57
255.627	26606.96
256.088	37508.43
256.549	39850.96
257.009	34268.96
257.47	41570.81
257.931	33851.23
258.391	25385.36
258.852	26157.96
259.312	27437.94
259.773	33901.33
260.233	28639.51
260.694	24152.82
261.154	27429.31
261.614	22040.11
262.074	19753.29
262.534	20564.75
262.994	19396.68
263.455	25849.66
263.915	21811.85
264.374	20551.64
264.834	22441.88
265.294	24909.23
265.754	25846.23
266.214	24467.59
266.673	22938.84
267.133	28947.56
267.593	28710.44
268.052	35111.7
268.512	30543.64
268.971	36825.84
269.431	40392.35
269.89	36235.37
270.349	54354.71
270.809	60619.06
271.268	54570.2
271.727	122393.84
272.186	79335.93
272.645	59533.06
273.104	42986.47
273.563	62287.82
274.022	49015.17
274.481	41732.67
274.94	32137.22
275.399	23886.74
275.857	27845.6
276.316	37626.58
276.775	33496.52
277.233	33012.67
277.692	30893.63
278.15	34955.27
278.609	35976.35
279.067	33323.2
279.525	30951.91
279.984	39968.53
280.442	48052.64
280.9	47375.74
281.358	31187.66
281.816	29091.17
282.274	28468.27
282.732	29438.78
283.19	29605.29
283.648	25565.1
284.106	27237.4
284.564	27711.31
285.021	25712.4
285.479	19169.48
285.937	17412.77
286.394	15290.63
286.852	15716.1
287.309	16517.04
287.767	15953.98
288.224	15171.17
288.682	16632.48
289.139	18243.51
289.596	16684.17
290.053	17330.42
290.511	21857.72
290.968	26520.75
291.425	36002.77
291.882	29985.93
292.339	26124.86
292.796	25945.35
293.252	24465.66
293.709	19451.09
294.166	17428.1
294.623	19266.94
295.079	18478.16
295.536	18554.84
295.992	16836.46
296.449	16643.59
296.905	17303.95
297.362	16574.61
297.818	17438.52
298.274	18074.99
298.731	18404.44
299.187	18223
299.643	19561.89
300.099	23672.51
300.555	25980.87
301.011	21749.42
301.467	20964.84
301.923	24532.68
302.379	23993.77
302.835	23565.98
303.291	23621.17
303.746	26916.32
304.202	33985.54
304.658	34166.02
305.113	23001.73
305.569	22535.19
306.024	24002.71
306.479	22833.24
306.935	19251.62
307.39	21002.23
307.845	19399.04
308.301	19514.77
308.756	19012.42
309.211	18329.85
309.666	18748.21
310.121	23260.25
310.576	23605.32
311.031	23419.82
311.486	26856.23
311.94	26812.08
312.395	35832.73
312.85	67283.02
313.305	330246.39
313.759	1708023.59
314.214	123671.79
314.668	98151.37
315.123	82458
315.577	29579.95
316.032	26305.75
316.486	32920.6
316.94	25992.12
317.394	18114.12
317.849	14067.53
318.303	13321.71
318.757	12579.56
319.211	13907.87
319.665	12170.52
320.119	12338.11
320.572	17674.41
321.026	16502.82
321.48	13753.13
321.934	14995.5
322.387	15008.91
322.841	16218.71
323.295	14555.05
323.748	16762.36
324.202	17003.99
324.655	20405.57
325.108	28432.3
325.562	20100.16
326.015	23922.17
326.468	18078.47
326.921	20197.21
327.374	18824.52
327.827	19603.1
328.28	22204.86
328.733	14874.83
329.186	13074.9
329.639	12459.02
330.092	10519.97
330.545	10012.94
330.997	10079.01
331.45	11003.5
331.903	12905.39
332.355	22212.34
332.808	21563.63
333.26	17803.76
333.713	19320.41
334.165	19454.94
334.617	25987.41
335.069	20970.25
335.522	37918.14
335.974	42004.03
336.426	38315.39
336.878	26506.02
337.33	13457.63
337.782	13158.58
338.234	16476.95
338.686	19698.97
339.137	23313.57
339.589	21921.39
340.041	17203.53
340.493	14782.17
340.944	15139.69
341.396	16323
341.847	13728.62
342.299	16192.01
342.75	19762.19
343.201	17249.22
343.653	19850.66
344.104	24424.83
344.555	19250.45
345.006	29932.65
345.457	22984.8
345.908	18268.75
346.359	17210.75
346.81	14034.79
347.261	14784.78
347.712	14546.49
348.163	15602
348.613	15767.41
349.064	14732.27
349.515	12892.9
349.965	13238.12
350.416	15904.94
350.866	17456.47
351.317	19730.21
351.767	32641.64
352.217	41191.25
352.668	34236.59
353.118	31391.2
353.568	30255.97
354.018	23933.33
354.468	25241.81
354.918	18084.71
355.368	15787.01
355.818	22265.62
356.268	63965.87
356.718	267998.05
357.168	66696.53
357.617	33447.74
358.067	37143.87
358.517	34858.63
358.966	40795.56
359.416	45819.74
359.865	49614.77
360.315	59144.15
360.764	27652.94
361.213	15515.38
361.663	14670.05
362.112	18130.26
362.561	29215.49
363.01	22051.08
363.459	18551.27
363.908	20082.43
364.357	17020.93
364.806	28654.56
365.255	19713.08
365.703	18024.66
366.152	18054.65
366.601	14659.03
367.05	11898.57
367.498	10834.3
367.947	11335.13
368.395	11771.78
368.844	10431.85
369.292	12572.21
369.74	8703.1
370.189	13325.38
370.637	15628.52
371.085	13452.97
371.533	16347.05
371.981	15730.72
372.429	15002.72
372.877	15593.06
373.325	13058.66
373.773	13322.32
374.221	11880.99
374.669	14727.42
375.116	12715.79
375.564	12810.55
376.012	14329.74
376.459	11819.88
376.907	14135.93
377.354	17066.65
377.801	15911.17
378.249	18296.3
378.696	23268.92
379.143	28125.69
379.591	29942.42
380.038	50802.98
380.485	36682.8
380.932	39574.56
381.379	36250.65
381.826	26686.82
382.273	18945.96
382.72	16574.97
383.166	16158.08
383.613	10521.44
384.06	9490.67
384.506	10989.34
384.953	8039.14
385.4	8101.92
385.846	7106.54
386.292	6917.47
386.739	6764.07
387.185	6695.91
387.631	6692.87
388.078	6491.28
388.524	6940.63
388.97	6391.85
389.416	5333.42
389.862	5672.22
390.308	5373.39
390.754	5450.62
391.2	5911.42
391.645	6051.04
392.091	5787.99
392.537	5586.35
392.983	5587.86
393.428	5478.19
393.874	5873.13
394.319	5884.49
394.765	5588.62
395.21	5725.16
395.655	5345.2
396.101	4993.06
396.546	4489.58
396.991	4509.87
397.436	4184.52
397.881	4037.65
398.326	3823.26
398.771	3618.62
399.216	3160.75
399.661	2835.66
400.106	2826.16
400.551	2892.57
400.995	2595.39
401.44	2566.2
401.885	2411.98
402.329	2436.67
402.774	2332.61
403.218	2256.15
403.663	2165.55
404.107	2218
404.551	2231.81
404.995	2046.37
405.44	1968.44
405.884	1994.29
406.328	1925.27
406.772	1914.56
407.216	1736.64
407.66	1673.36
408.104	1584
408.547	1478.42
408.991	1428.9
409.435	1371.25
409.879	1347.45
410.322	1329.65
410.766	1279.57
411.209	1217.9
411.653	1166.08
412.096	1143.49
412.54	1142.5
412.983	1133.54
413.426	1136.91
413.869	1134.23
414.312	1111.64
414.756	1068.78
415.199	1017.48
415.642	990.43
416.085	988.76
416.527	979.68
416.97	994.69
417.413	945.18
417.856	932.8
418.298	920.75
418.741	911.65
419.184	907.48
419.626	945.1
420.069	944.81
420.511	949.23
420.953	929.45
421.396	922.73
421.838	896.95
422.28	916.32
422.722	921.97
423.164	935.98
423.606	922.81
424.048	922.2
424.49	877.66
424.932	873.93
425.374	858.26
425.816	872.79
426.258	889.93
426.699	899.35
427.141	885.42
427.582	898.13
428.024	891.95
428.465	886.17
428.907	864.49
429.348	851.23
429.789	850.04
430.231	832.08
430.672	842.43
431.113	820.63
431.554	806.85
431.995	786.96
432.436	758.72
432.877	742.05
433.318	730.75
433.759	726.59
434.2	728.03
434.64	719.71
435.081	722.35
435.522	686.4
435.962	661.78
436.403	648.9
436.843	656.19
437.284	640.91
437.724	622.05
438.164	619.78
438.604	605.02
439.045	581.31
439.485	559.95
439.925	547.51
440.365	531.59
440.805	523.48
441.245	517.53
441.685	499.33
442.125	495.23
442.564	498.42
443.004	488.23
443.444	487.28
443.883	487.75
444.323	481.89
444.762	480.62
445.202	485.38
445.641	495.2
446.081	491.2
446.52	494.82
446.959	490.33
447.398	479.62
447.837	473.17
448.276	464.33
448.716	469.29
449.154	471.16
449.593	461.39
450.032	461.39
450.471	450.67
450.91	449.12
451.349	447.25
451.787	444.75
452.226	450.1
452.664	449.79
453.103	449.31
453.541	446.81
453.98	445.78
454.418	448.9
454.856	441.29
455.295	439.92
455.733	443.56
456.171	445.21
456.609	445.26
457.047	444.57
457.485	450.28
457.923	452.14
458.361	444.8
458.798	444.9
459.236	442.42
459.674	444.81
460.111	447.98
460.549	443.82
460.987	441.49
461.424	439.88
461.862	437.6
462.299	431.17
462.736	430.17
463.173	432.52
463.611	431.4
464.048	431.5
464.485	434.83
464.922	431.29
465.359	427.93
465.796	425.26
466.233	423.44
466.67	421.64
467.106	422.05
467.543	418.53
467.98	413.1
468.416	400.91
468.853	397.51
469.29	385.63
469.726	380.6
470.162	371.52
470.599	364.63
471.035	360.42
471.471	350.75
471.907	347
472.344	344.15
472.78	345.67
473.216	348.88
473.652	344.88
474.088	343.48
474.523	342.31
474.959	343.92
475.395	341.06
475.831	338.32
476.266	339.38
476.702	337.16
477.138	332.61
477.573	329.83
478.008	328.57
478.444	328.94
478.879	332.12
479.314	333.08
479.75	332.52
480.185	332.02
480.62	333.73
481.055	334.86
481.49	338.06
481.925	343.07
482.36	349.29
482.795	357.97
483.229	367.15
483.664	373.51
484.099	374.23
484.534	379.63
484.968	384.3
485.403	386.22
485.837	385.57
486.271	384.25
486.706	383.7
487.14	378.99
487.574	372.77
488.009	369.04
488.443	365.94
488.877	369.55
489.311	371.29
489.745	375.26
490.179	378.44
490.613	385.62
491.046	388.28
491.48	391.48
491.914	392.15
492.348	395.07
492.781	398.36
493.215	399.49
493.648	400.2
494.082	402.9
494.515	403.76
494.948	408.88
495.382	411.45
495.815	415.21
496.248	419.09
496.681	426.77
497.114	434.28
497.547	440.47
497.98	449.14
498.413	454.06
498.846	460.52
499.279	465.56
499.711	468.73
500.144	470.9
500.577	478.6
501.009	486.25
501.442	494.39
501.874	497.46
502.306	500.36
502.739	507.97
503.171	518.67
503.603	523.96
504.036	532.69
504.468	539.03
504.9	548.79
505.332	555.86
505.764	562.31
506.196	569.82
506.627	581.64
507.059	594.23
507.491	602.51
507.923	605.47
508.354	618.97
508.786	630.12
509.217	645.71
509.649	659.79
510.08	675.83
510.512	691.12
510.943	706.06
511.374	719.16
511.805	736.65
512.237	754.94
512.668	781.75
513.099	805.06
513.53	829.19
513.961	849.73
514.391	878.16
514.822	907.77
515.253	939.9
515.684	963.46
516.114	990.62
516.545	1012.22
516.975	1036.28
517.406	1055.59
517.836	1063.13
518.267	1073.81
518.697	1092.77
519.127	1102.17
519.558	1113.76
519.988	1120.3
520.418	1132.83
520.848	1150.91
521.278	1162.71
521.708	1188.9
522.138	1203.61
522.567	1233.07
522.997	1258.14
523.427	1274.2
523.857	1291.53
524.286	1302.79
524.716	1319.47
525.145	1339.87
525.575	1352.85
526.004	1367.51
526.433	1359.41
526.863	1362.51
527.292	1357.51
527.721	1364.32
528.15	1371.82
528.579	1374.24
529.008	1386.34
529.437	1407.41
529.866	1419.47
530.295	1435.67
530.724	1447.75
531.152	1472.18
531.581	1485.52
532.01	1501.92
532.438	1510.89
532.867	1525.35
533.295	1544.03
533.723	1550.21
534.152	1549.58
534.58	1550.68
535.008	1538.1
535.436	1542.66
535.865	1550.08
536.293	1563.54
536.721	1577.31
537.149	1599.51
537.576	1601.26
538.004	1611.94
538.432	1619.74
538.86	1619.22
539.287	1626.05
539.715	1639.45
540.143	1642.09
540.57	1640.69
540.998	1639.39
541.425	1621.15
541.852	1603.26
542.28	1603.28
542.707	1589.74
543.134	1577.69
543.561	1574.26
543.988	1568.53
544.415	1567.76
544.842	1561.99
545.269	1555.54
545.696	1556.51
546.123	1567.4
546.549	1558.5
546.976	1547.5
547.403	1547.27
547.829	1548.64
548.256	1550.77
548.682	1547.14
549.108	1540.89
549.535	1540.2
549.961	1540.95
550.387	1529.28
550.813	1523.02
551.24	1528.79
551.666	1529.31
552.092	1520.03
552.518	1514.38
552.943	1508.62
553.369	1514.27
553.795	1518.56
554.221	1519.2
554.646	1516.08
555.072	1524.01
555.498	1527.34
555.923	1532.64
556.349	1543.62
556.774	1549.35
557.199	1549.14
557.625	1552.92
558.05	1546.48
558.475	1551.57
558.9	1548.27
559.325	1539.1
559.75	1530.98
560.175	1523.43
560.6	1516.35
561.025	1511.84
561.449	1509.53
561.874	1511.73
562.299	1512.16
562.723	1515.2
563.148	1505.15
563.572	1504.7
563.997	1509.98
564.421	1511.5
564.846	1509.39
565.27	1508.97
565.694	1504.66
566.118	1510.65
566.542	1513.02
566.966	1504.18
567.39	1496.46
567.814	1484.17
568.238	1481.22
568.662	1481.01
569.086	1479.48
569.509	1481.63
569.933	1465.58
570.357	1455.79
570.78	1436.38
571.204	1422.68
571.627	1411.14
572.05	1407.68
572.474	1404.73
572.897	1391.93
573.32	1383.7
573.743	1373.15
574.166	1354.99
574.589	1351.44
575.012	1341.26
575.435	1337.26
575.858	1327.18
576.281	1315.22
576.704	1298.76
577.126	1285.31
577.549	1273.53
577.972	1261.36
578.394	1250.31
578.817	1243.21
579.239	1226.16
579.661	1214.16
580.084	1199.76
580.506	1187.05
580.928	1181.51
581.35	1169.95
581.772	1164.27
582.194	1151.81
582.616	1141.37
583.038	1128.48
583.46	1117.56
583.882	1113.94
584.303	1114.57
584.725	1109.79
585.147	1111.38
585.568	1117.41
585.99	1125.8
586.411	1129.48
586.833	1139.44
587.254	1139.53
587.675	1148.93
588.096	1156.72
588.518	1150.99
588.939	1137.63
589.36	1134.04
589.781	1122.51
590.202	1101.49
590.623	1093.76
591.043	1089.79
591.464	1080
591.885	1076.11
592.305	1069.95
592.726	1059.53
593.147	1061.51
593.567	1057.41
593.987	1051.81
594.408	1047.22
594.828	1044.48
595.248	1039.72
595.669	1026.52
596.089	1019.63
596.509	1013.27
596.929	1002.91
597.349	1002.21
597.769	992.94
598.189	986.95
598.608	986.95
599.028	987.43
599.448	985.74
599.867	975.49
600.287	972.04
600.706	968.71
601.126	960.87
601.545	959.45
601.965	957.8
602.384	952.66
602.803	954.24
603.222	949.04
603.641	943.45
604.061	940.76
604.48	937
604.898	939.92
605.317	941.64
605.736	941.48
606.155	938.46
606.574	930.2
606.992	931.98
607.411	926.2
607.829	918.65
608.248	914.41
608.666	910.37
609.085	908.23
609.503	901.56
609.921	895.52
610.339	895.6
610.758	892.16
611.176	888.12
611.594	880.59
612.012	877.11
612.43	877.95
612.847	880.42
613.265	879.5
613.683	880.31
614.101	878.16
614.518	873.17
614.936	863.95
615.353	852.9
615.771	848.53
616.188	846.67
616.606	842.37
617.023	836.27
617.44	826.03
617.857	819.24
618.274	812.36
618.691	808.16
619.108	801.97
619.525	797.06
619.942	800.29
620.359	800.45
620.776	796.42
621.192	793.09
621.609	790.77
622.026	794.07
622.442	797.19
622.859	797.29
623.275	791.36
623.691	793.35
624.108	801.05
624.524	809.4
624.94	809.08
625.356	814.2
625.772	822.5
626.188	830.23
626.604	831.3
627.02	829.26
627.436	829.46
627.852	835.01
628.268	843.17
628.683	836.73
629.099	831.62
629.514	828.8
629.93	831.72
630.345	833.69
630.761	830.23
631.176	831.33
631.591	826.95
632.007	823.27
632.422	820.77
632.837	812.1
633.252	810.57
633.667	803.15
634.082	796.3
634.497	787.96
634.911	775.95
635.326	772.87
635.741	760
636.155	752.39
636.57	751.45
636.984	749.37
637.399	750.34
637.813	747.46
638.228	745.32
638.642	745.75
639.056	737.27
639.47	734.8
639.884	726.93
640.298	722.15
640.712	719.07
641.126	708.84
641.54	700.98
641.954	693.46
642.368	684.56
642.781	677.87
643.195	664.91
643.609	663.07
644.022	656.37
644.436	652.26
644.849	642.53
645.262	632.65
645.676	630.83
646.089	625.96
646.502	615.76
646.915	609.85
647.328	597.5
647.741	595.52
648.154	585.97
648.567	583.92
648.98	575.43
649.393	574.42
649.805	571.16
650.218	566.11
650.631	557.21
651.043	554.22
651.456	550.01
651.868	549.5
652.28	556.87
652.693	563.69
653.105	565.59
653.517	569.43
653.929	569.17
654.341	572.28
654.753	565.07
655.165	566.29
655.577	562.95
655.989	559.99
656.401	555.06
656.813	535.85
657.224	524.06
657.636	508.02
658.047	498.11
658.459	487.28
658.87	480.63
659.282	473.15
659.693	462.06
660.104	454.58
660.515	446.62
660.926	443.89
661.338	441.58
661.749	437.15
662.159	432.83
662.57	429.15
662.981	426.37
663.392	422.88
663.803	425.13
664.213	424.12
664.624	421.19
665.035	422.52
665.445	416.47
665.855	414.12
666.266	411.76
666.676	410.98
667.086	407.37
667.497	407.83
667.907	405.6
668.317	401.1
668.727	402.07
669.137	402.95
669.547	402.94
669.956	405.46
670.366	407.03
670.776	409.64
671.186	412.04
671.595	415.38
672.005	416.86
672.414	417.61
672.824	418.19
673.233	419.46
673.642	422.27
674.052	425.34
674.461	428.51
674.87	431.04
675.279	429.34
675.688	429.64
676.097	431.14
676.506	430.56
676.915	439.2
677.323	441.8
677.732	442.36
678.141	443.05
678.549	437.25
678.958	435.82
679.366	436.49
679.775	439.11
680.183	447.62
680.592	451.13
681	455.18
681.408	452.48
681.816	456.63
682.224	460.81
682.632	466.51
683.04	483.44
683.448	498.62
683.856	516.03
684.264	537.09
684.671	554.37
685.079	577.09
685.487	602.77
685.894	637.84
686.302	668.35
686.709	693.83
687.116	725.01
687.524	751.96
687.931	775.41
688.338	796.46
688.745	814.88
689.152	838.62
689.559	869.69
689.966	903.46
690.373	924.61
690.78	958.82
691.187	1007.2
691.593	1046.44
692	1084.29
692.407	1135.78
692.813	1200.21
693.22	1253.58
693.626	1310.09
694.032	1359.83
694.439	1426.89
694.845	1484.45
695.251	1553.75
695.657	1619.84
696.063	1709.76
696.469	1781.03
696.875	1849.83
697.281	1895.98
697.687	1951.71
698.093	1998.67
698.498	2073.92
698.904	2137.47
699.31	2223.7
699.715	2290.87
700.12	2380.09
700.526	2411.97
700.931	2484.09
701.337	2543.48
701.742	2587.84
702.147	2674.33
