Data from C_1_DIV_PA_2N_Splice17_12-01-36-375.txt Node
Date: Sat Mar 14 12:01:36 EDT 2020
User: sa697716
Spectrometer: FLMS03696
Trigger mode: 0
Integration Time (sec): 3.180400E-1
Scans to average: 20
Electric dark correction enabled: true
Nonlinearity correction enabled: true
Boxcar width: 5
XAxis mode: Wavelengths
Number of Pixels in Spectrum: 2048
>>>>>Begin Spectral Data<<<<<
187.83	-277714.71
188.298	1921.41
188.766	1083.64
189.233	956.99
189.701	1303.6
190.169	1740.15
190.636	608.58
191.104	446.84
191.571	22.69
192.039	-116.84
192.506	-159.65
192.974	235.53
193.441	-712.1
193.908	-109.14
194.375	-56.75
194.842	-23.07
195.31	-3.84
195.777	109.35
196.244	327.35
196.711	451.04
197.177	596.49
197.644	873.22
198.111	1526.36
198.578	2210.13
199.045	1759.24
199.511	2896.42
199.978	3404
200.445	2885.47
200.911	3209.54
201.378	3598.37
201.844	3276.3
202.31	5562.11
202.777	5828.23
203.243	3246.15
203.709	3088.49
204.176	3698.83
204.642	3040.22
205.108	2822.53
205.574	2305.89
206.04	2109.48
206.506	1961.2
206.972	1849.85
207.438	1805.06
207.903	2043.9
208.369	1782.44
208.835	1759.52
209.301	1848.32
209.766	1890.21
210.232	1866.81
210.697	2302.04
211.163	2839.83
211.628	4315.12
212.094	3607.56
212.559	4398.47
213.024	2735.96
213.49	3354.81
213.955	3294.06
214.42	3207.79
214.885	2990.3
215.35	2876.87
215.815	2772.47
216.28	2934.82
216.745	2370.5
217.21	2561.59
217.675	2348.43
218.14	2602.72
218.604	2886.97
219.069	3275.29
219.534	3422.89
219.998	3966.02
220.463	4807.44
220.927	5900.35
221.392	5550.58
221.856	5632.39
222.32	7113.54
222.785	8789.98
223.249	11104.78
223.713	12412.17
224.177	12444.95
224.642	16022.59
225.106	19799.95
225.57	21688.45
226.034	16158.9
226.497	24642.04
226.961	22321.95
227.425	25998.34
227.889	28923.31
228.353	29051.44
228.816	60183.07
229.28	57748.24
229.744	48818.74
230.207	29749.13
230.671	29365.49
231.134	48801.12
231.597	56549.54
232.061	56748.21
232.524	55619.78
232.987	38432.83
233.45	34705.05
233.914	31222.58
234.377	32097.68
234.84	29490.01
235.303	34874.81
235.766	39045.66
236.229	40517.12
236.691	25586.89
237.154	28852.45
237.617	21759.68
238.08	22369.6
238.542	26242.34
239.005	18826.35
239.468	18740.24
239.93	17699.94
240.393	16121.24
240.855	14176.96
241.317	14544.06
241.78	17727.08
242.242	18339.6
242.704	19827.31
243.166	17265
243.629	15683.84
244.091	18078.64
244.553	19820.3
245.015	21317.46
245.477	27625.6
245.939	40553.08
246.4	43085.53
246.862	41936.33
247.324	39604.41
247.786	44388.88
248.247	58313.21
248.709	60327.76
249.17	45184.35
249.632	42628.54
250.093	49493.14
250.555	42783.31
251.016	26099.27
251.477	24741.93
251.939	26717.15
252.4	28053.56
252.861	33380.42
253.322	31060.37
253.783	37025.68
254.244	48082.29
254.705	37955.72
255.166	33747.96
255.627	33260.24
256.088	46933.01
256.549	49942.57
257.009	43019.86
257.47	52270.19
257.931	42626.07
258.391	31968.3
258.852	32953.55
259.312	34576.82
259.773	42721.6
260.233	36153.33
260.694	30498.48
261.154	34650.91
261.614	27814.52
262.074	24896.15
262.534	25853.99
262.994	24358.68
263.455	32492.02
263.915	27390.91
264.374	25805.6
264.834	28198.32
265.294	31258.47
265.754	32407.84
266.214	30702.42
266.673	28795.31
267.133	36347.53
267.593	36082.44
268.052	44171.08
268.512	38440
268.971	46337.62
269.431	50801.01
269.89	45537.47
270.349	68374.85
270.809	76254.59
271.268	68550.68
271.727	153858.01
272.186	99714.37
272.645	74850.13
273.104	54062.85
273.563	78250.44
274.022	61588.31
274.481	52362.15
274.94	40326.79
275.399	29988.29
275.857	34942.33
276.316	47304.25
276.775	42120.67
277.233	41501.3
277.692	38857.82
278.15	43974.83
278.609	45251.71
279.067	41932.25
279.525	39055.67
279.984	50514.12
280.442	60661.8
280.9	59781.16
281.358	39333.15
281.816	36661.69
282.274	35950.28
282.732	37181.01
283.19	37396.66
283.648	32324.97
284.106	34479.86
284.564	35079.99
285.021	32536.47
285.479	24289.82
285.937	22148.82
286.394	19449.11
286.852	20031.73
287.309	21065.68
287.767	20350.11
288.224	19372.52
288.682	21275.47
289.139	23364.76
289.596	21399.19
290.053	22281.61
290.511	28142.11
290.968	34144.35
291.425	46410.87
291.882	38697.73
292.339	33739.97
292.796	33567.12
293.252	31666.41
293.709	25180.75
294.166	22588.27
294.623	24979.87
295.079	23989.78
295.536	24128.17
295.992	21932.65
296.449	21720.77
296.905	22579.42
297.362	21643.22
297.818	22787.46
298.274	23668.54
298.731	24184.21
299.187	23975.5
299.643	25774.8
300.099	31220.67
300.555	34298.61
301.011	28722.5
301.467	27670.93
301.923	32453.43
302.379	31784.08
302.835	31244.93
303.291	31293.68
303.746	35608.75
304.202	45035.76
304.658	45321.65
305.113	30532.02
305.569	29967.81
306.024	31967.82
306.479	30520.19
306.935	25790.35
307.39	28196.57
307.845	26106.57
308.301	26303.08
308.756	25655.91
309.211	24713.29
309.666	25323.64
310.121	31402.82
310.576	31888.74
311.031	31673.33
311.486	36341.16
311.94	36328
312.395	48584.34
312.85	91356.74
313.305	449178.77
313.759	2325980.61
314.214	168757.41
314.668	133908.14
315.123	112810.43
315.577	40450.31
316.032	36004.06
316.486	45117.71
316.94	35558.69
317.394	24758.04
317.849	19219.88
318.303	18216.48
318.757	17177.85
319.211	19010.94
319.665	16654.29
320.119	16850.54
320.572	24200.29
321.026	22604.74
321.48	18814.18
321.934	20554.71
322.387	20614.48
322.841	22291.44
323.295	20048.38
323.748	23149.37
324.202	23474.72
324.655	28175.42
325.108	39345.58
325.562	27799.96
326.015	33080.64
326.468	25040.16
326.921	28022.32
327.374	26191.18
327.827	27285.7
328.28	30881.86
328.733	20699.12
329.186	18223.18
329.639	17393.64
330.092	14689.35
330.545	14007.51
330.997	14132.08
331.45	15434.86
331.903	18074.34
332.355	31071.38
332.808	30227.2
333.26	24992.39
333.713	27157.85
334.165	27391.51
334.617	36620.67
335.069	29617.49
335.522	53503.52
335.974	59263.06
336.426	54174.45
336.878	37547.05
337.33	19039.92
337.782	18576.12
338.234	23228.83
338.686	27815.1
339.137	32970.15
339.589	31035.13
340.041	24354.65
340.493	20967.53
340.944	21467.33
341.396	23132.09
341.847	19464.96
342.299	22987.92
342.75	28075.7
343.201	24595
343.653	28257.56
344.104	34743.94
344.555	27359.31
345.006	42572.77
345.457	32544.51
345.908	25944.52
346.359	24392.07
346.81	19889.83
347.261	20959.11
347.712	20654.2
348.163	22144.71
348.613	22433.88
349.064	20975.21
349.515	18371.96
349.965	18866.06
350.416	22742.2
350.866	24914.35
351.317	28229.78
351.767	46750.66
352.217	59129.7
352.668	49134.94
353.118	45060.06
353.568	43496.19
354.018	34375.19
354.468	36243.09
354.918	26013.13
355.368	22802.03
355.818	32241.35
356.268	92831.49
356.718	388877.09
357.168	96892.84
357.617	48595.83
358.067	54058.07
358.517	50682.67
358.966	59394.72
359.416	66635.73
359.865	72079.86
360.315	85902.53
360.764	40135.95
361.213	22472.92
361.663	21292.22
362.112	26297.34
362.561	42551.58
363.01	32165.49
363.459	27158.32
363.908	29492.39
364.357	25084.62
364.806	42422.8
365.255	29202.08
365.703	26766.55
366.152	26874.6
366.601	21814.75
367.05	17728.38
367.498	16153.02
367.947	16920.97
368.395	17615.72
368.844	15619.02
369.292	18900.54
369.74	13077.29
370.189	20085.15
370.637	23606.59
371.085	20401.05
371.533	24918.23
371.981	24118.44
372.429	23035.81
372.877	24015.78
373.325	20118.09
373.773	20584.66
374.221	18389.19
374.669	22906.3
375.116	19846.32
375.564	20074.05
376.012	22529.55
376.459	18627.56
376.907	22297.93
377.354	27050.36
377.801	25321.83
378.249	29238.83
378.696	37450.62
379.143	45420.52
379.591	48546.53
380.038	82268.28
380.485	59559.15
380.932	64544.76
381.379	59186.93
381.826	43678.57
382.273	31123.22
382.72	27270.1
383.166	26616.76
383.613	17298.08
384.06	15657.35
384.506	18150.2
384.953	13389.68
385.4	13537.24
385.846	11881.82
386.292	11610.93
386.739	11385.22
387.185	11294.72
387.631	11314.28
388.078	11004.28
388.524	11794.72
388.97	10912.2
389.416	9100.55
389.862	9691.71
390.308	9185.02
390.754	9349.73
391.2	10180.09
391.645	10442.47
392.091	9974.17
392.537	9645.04
392.983	9681.16
393.428	9517.27
393.874	10211.63
394.319	10268.88
394.765	9728.58
395.21	10016.44
395.655	9387.43
396.101	8792.5
396.546	7933.27
396.991	8022.23
397.436	7477.32
397.881	7222.12
398.326	6859.14
398.771	6488.56
399.216	5681.66
399.661	5127.24
400.106	5119.98
400.551	5245.63
400.995	4716.22
401.44	4677.17
401.885	4405.7
402.329	4452.54
402.774	4281.74
403.218	4141.94
403.663	3999.18
404.107	4122.04
404.551	4162.29
404.995	3824.39
405.44	3698.76
405.884	3762.49
406.328	3655.3
406.772	3653.18
407.216	3337.46
407.66	3232.76
408.104	3085.42
408.547	2898.28
408.991	2808.74
409.435	2711.88
409.879	2681.16
410.322	2649.85
410.766	2561.95
411.209	2440.36
411.653	2346.66
412.096	2299.87
412.54	2306.93
412.983	2295.13
413.426	2303.07
413.869	2308.47
414.312	2264.07
414.756	2183.43
415.199	2089.32
415.642	2029.52
416.085	2033.35
416.527	2020.99
416.97	2058.73
417.413	1954.05
417.856	1939.05
418.298	1922.65
418.741	1913.45
419.184	1914.96
419.626	2000.04
420.069	2001.77
420.511	2016.56
420.953	1975.01
421.396	1961.22
421.838	1913.52
422.28	1958.44
422.722	1966.89
423.164	1999.95
423.606	1965.45
424.048	1967.61
424.49	1869.32
424.932	1862.3
425.374	1838.3
425.816	1870.7
426.258	1908.45
426.699	1932.95
427.141	1907.72
427.582	1943.35
428.024	1934.5
428.465	1927.37
428.907	1876.99
429.348	1858.47
429.789	1860.86
430.231	1823.23
430.672	1853.4
431.113	1812.01
431.554	1785.91
431.995	1744.13
432.436	1676.84
432.877	1637.37
433.318	1608.01
433.759	1601.99
434.2	1602.22
434.64	1583.91
435.081	1590.06
435.522	1504.21
435.962	1449.27
436.403	1415.39
436.843	1435.46
437.284	1409.17
437.724	1374.61
438.164	1379.03
438.604	1351.71
439.045	1297.63
439.485	1242.11
439.925	1214.38
440.365	1183.3
440.805	1165.29
441.245	1148.57
441.685	1103.89
442.125	1094.16
442.564	1100.67
443.004	1074.81
443.444	1069.07
443.883	1070.09
444.323	1061.68
444.762	1063.56
445.202	1074.54
445.641	1090.15
446.081	1083.39
446.52	1089.78
446.959	1075.18
447.398	1042.37
447.837	1026.48
448.276	1005
448.716	1011.35
449.154	1018.09
449.593	991.08
450.032	987.3
450.471	968.69
450.91	967.96
451.349	962.43
451.787	957.03
452.226	971.17
452.664	969.74
453.103	969.26
453.541	965.82
453.98	961.92
454.418	966.96
454.856	949.57
455.295	945.49
455.733	951.01
456.171	955.92
456.609	956.1
457.047	955.92
457.485	968.72
457.923	971.27
458.361	957.7
458.798	960.26
459.236	958.36
459.674	965.08
460.111	970.33
460.549	961.06
460.987	958.31
461.424	956.13
461.862	951.24
462.299	935.81
462.736	933.83
463.173	938.46
463.611	927.25
464.048	923.89
464.485	932.5
464.922	924.2
465.359	920.27
465.796	904.32
466.233	896.27
466.67	887.08
467.106	885.48
467.543	878.49
467.98	867.16
468.416	846.41
468.853	839.08
469.29	812.72
469.726	803.84
470.162	780.83
470.599	773.27
471.035	766
471.471	747.22
471.907	742.9
472.344	737.33
472.78	737.7
473.216	746.44
473.652	736.65
474.088	734.6
474.523	730.91
474.959	737.32
475.395	729.21
475.831	723.5
476.266	725.83
476.702	722.15
477.138	713.31
477.573	709.89
478.008	705.45
478.444	706.56
478.879	710.81
479.314	712.75
479.75	712.21
480.185	714.4
480.62	720.18
481.055	723.12
481.49	727.73
481.925	736.77
482.36	748.4
482.795	767.8
483.229	789.51
483.664	805.18
484.099	807.45
484.534	817.46
484.968	824.3
485.403	825.75
485.837	823.05
486.271	819.06
486.706	817.35
487.14	807.12
487.574	792.7
488.009	782.24
488.443	773.36
488.877	779.25
489.311	779.24
489.745	785.87
490.179	789.17
490.613	800.03
491.046	803.86
491.48	806.45
491.914	802.94
492.348	804.77
492.781	805.98
493.215	803.91
493.648	799.26
494.082	800.89
494.515	795.92
494.948	799.73
495.382	799.73
495.815	798.94
496.248	799.2
496.681	806.43
497.114	812.61
497.547	815.66
497.98	822.53
498.413	822.47
498.846	824.6
499.279	825.22
499.711	821.6
500.144	815.88
500.577	817.78
501.009	819.1
501.442	819.72
501.874	811.03
502.306	803.72
502.739	800.51
503.171	803.71
503.603	797.02
504.036	795.61
504.468	790.28
504.9	790.56
505.332	785.51
505.764	779.19
506.196	775.16
506.627	776.95
507.059	777.44
507.491	772.57
507.923	759.82
508.354	760.94
508.786	758.09
509.217	760.46
509.649	760.03
510.08	763.08
510.512	764.33
510.943	763.73
511.374	760.87
511.805	764.22
512.237	767.17
512.668	778.63
513.099	784.4
513.53	791.78
513.961	795.07
514.391	805.32
514.822	816.72
515.253	828.75
515.684	834.07
516.114	841.7
516.545	844.67
516.975	850.76
517.406	852.45
517.836	845.58
518.267	841.08
518.697	843.81
519.127	837.93
519.558	833.98
519.988	828.96
520.418	828.15
520.848	831.46
521.278	830.81
521.708	850.52
522.138	853.03
522.567	865.24
522.997	874.1
523.427	877.73
523.857	882.84
524.286	884.56
524.716	889.29
525.145	895.83
525.575	899.33
526.004	903.37
526.433	880.71
526.863	877.94
527.292	871.22
527.721	873.22
528.15	873.82
528.579	873.5
529.008	877.64
529.437	888.01
529.866	894.39
530.295	901.78
530.724	908.11
531.152	921.89
531.581	928.75
532.01	936.74
532.438	939.54
532.867	946.59
533.295	955.07
533.723	957.79
534.152	956.23
534.58	955.5
535.008	946.13
535.436	947.39
535.865	950.61
536.293	957.18
536.721	964.83
537.149	978.23
537.576	979.79
538.004	986.44
538.432	990.31
538.86	989.68
539.287	993.54
539.715	1001.64
540.143	1002.19
540.57	1000.15
540.998	998.76
541.425	987.82
541.852	975.86
542.28	974.95
542.707	965.27
543.134	958.35
543.561	955.3
543.988	950.8
544.415	949.26
544.842	946.11
545.269	941.93
545.696	942.36
546.123	947.83
546.549	942.31
546.976	934.81
547.403	934.72
547.829	935.02
548.256	935.55
548.682	933.7
549.108	931.1
549.535	930.62
549.961	930.83
550.387	923.04
550.813	921.26
551.24	924.56
551.666	925.39
552.092	920.61
552.518	916.53
552.943	913.44
553.369	916.25
553.795	917.51
554.221	917.02
554.646	915.83
555.072	921.8
555.498	922.19
555.923	926.26
556.349	933.06
556.774	936.03
557.199	936.04
557.625	938.31
558.05	935.1
558.475	939.67
558.9	939.3
559.325	934.79
559.75	930.78
560.175	927.37
560.6	922.9
561.025	920.64
561.449	921.46
561.874	923.82
562.299	926.2
562.723	930
563.148	924.49
563.572	925.01
563.997	929.17
564.421	930.51
564.846	930.79
565.27	933.18
565.694	932.3
566.118	937.9
566.542	942.24
566.966	938.15
567.39	934.86
567.814	929.93
568.238	930.36
568.662	933.2
569.086	935.91
569.509	939.77
569.933	932.48
570.357	928.51
570.78	919.28
571.204	913.67
571.627	909.42
572.05	909.9
572.474	911.52
572.897	906.6
573.32	904.29
573.743	900.26
574.166	891.92
574.589	893.2
575.012	891.14
575.435	890.49
575.858	887.01
576.281	883.34
576.704	876.09
577.126	870.55
577.549	865.8
577.972	861.54
578.394	857.8
578.817	857.24
579.239	848.51
579.661	843.85
580.084	838.58
580.506	833.8
580.928	832.73
581.35	829.41
581.772	828.07
582.194	822.77
582.616	817.37
583.038	810.77
583.46	804.97
583.882	805.2
584.303	808.18
584.725	806.57
585.147	811.17
585.568	817.64
585.99	824.35
586.411	829.74
586.833	838.9
587.254	840.45
587.675	848.67
588.096	856.3
588.518	853.98
588.939	846.91
589.36	846.76
589.781	838.15
590.202	825.39
590.623	821.49
591.043	820.54
591.464	814.62
591.885	813.83
592.305	810.64
592.726	803.68
593.147	804.86
593.567	801.49
593.987	797.63
594.408	795.46
594.828	793.3
595.248	791.46
595.669	781.71
596.089	777.61
596.509	773.69
596.929	767.37
597.349	768.21
597.769	763.31
598.189	760.24
598.608	761
599.028	762.97
599.448	763.02
599.867	755.7
600.287	754.03
600.706	752.64
601.126	748.66
601.545	749.9
601.965	749.51
602.384	747.18
602.803	749.35
603.222	747.94
603.641	744.4
604.061	744.34
604.48	743.76
604.898	750
605.317	753.95
605.736	756.86
606.155	756.15
606.574	753.27
606.992	758.25
607.411	756.85
607.829	753.25
608.248	754.14
608.666	753.94
609.085	755.83
609.503	752.23
609.921	751.07
610.339	754.27
610.758	755.99
611.176	755.97
611.594	753.32
612.012	754.79
612.43	760.94
612.847	767.02
613.265	771.18
613.683	775.99
614.101	780.17
614.518	780.99
614.936	778
615.353	772.79
615.771	773.8
616.188	776.18
616.606	777.11
617.023	775.01
617.44	768.76
617.857	765.71
618.274	763.33
618.691	761.38
619.108	757.01
619.525	754.84
619.942	760.12
620.359	763.78
620.776	762.68
621.192	761.78
621.609	762.09
622.026	767.06
622.442	773.11
622.859	775.73
623.275	773.31
623.691	778.67
624.108	787.83
624.524	797.73
624.94	797.9
625.356	804.46
625.772	813.17
626.188	820.94
626.604	822.99
627.02	820.58
627.436	819.96
627.852	824.45
628.268	831.83
628.683	826.52
629.099	821.7
629.514	819.59
629.93	822.36
630.345	824.98
630.761	821.73
631.176	824.82
631.591	822.43
632.007	819.5
632.422	818.75
632.837	812.29
633.252	811.72
633.667	806.11
634.082	801.18
634.497	795.25
634.911	785.18
635.326	786.25
635.741	777.61
636.155	774.47
636.57	778.99
636.984	782.43
637.399	788.21
637.813	791.14
638.228	795.09
638.642	803.53
639.056	802.55
639.47	808.75
639.884	808.75
640.298	810.47
640.712	814.73
641.126	812.9
641.54	813.03
641.954	816.05
642.368	815.42
642.781	818.39
643.195	812.64
643.609	819.91
644.022	822.6
644.436	827.41
644.849	826.02
645.262	824.83
645.676	832.64
646.089	836.72
646.502	832.55
646.915	834.56
647.328	827.74
647.741	832.33
648.154	827.54
648.567	831.96
648.98	826.56
649.393	831.81
649.805	833.18
650.218	830.06
650.631	821.19
651.043	819.32
651.456	817.7
651.868	820.66
652.28	837.02
652.693	851.59
653.105	859.65
653.517	870.58
653.929	875.7
654.341	885.99
654.753	881.32
655.165	891.42
655.577	894.7
655.989	896.95
656.401	895.52
656.813	870.35
657.224	858.78
657.636	839.91
658.047	831.09
658.459	819.56
658.87	817.82
659.282	814.27
659.693	802.12
660.104	795.7
660.515	790.27
660.926	795.85
661.338	800.61
661.749	802.51
662.159	801.38
662.57	805.52
662.981	809.2
663.392	808.79
663.803	820.36
664.213	826.61
664.624	828.85
665.035	838.45
665.445	831.35
665.855	831.3
666.266	830.59
666.676	834.72
667.086	830.21
667.497	835.27
667.907	834.48
668.317	829.44
668.727	829.95
669.137	836.83
669.547	838.79
669.956	847.45
670.366	853.35
670.776	858.37
671.186	865.5
671.595	872.47
672.005	878.04
672.414	880.46
672.824	880.93
673.233	887.61
673.642	891.23
674.052	895.12
674.461	897.11
674.87	904.53
675.279	901.29
675.688	904.25
676.097	905.74
676.506	902.3
676.915	916.5
677.323	918.56
677.732	915.67
678.141	913.16
678.549	900.98
678.958	898.34
679.366	894.18
679.775	896.98
680.183	904.53
680.592	908.39
681	911.15
681.408	899.51
681.816	903.31
682.224	906.89
682.632	910.3
683.04	933.43
683.448	949.78
683.856	971.27
684.264	995.41
684.671	1014.06
685.079	1036.19
685.487	1060.06
685.894	1100.06
686.302	1122.25
686.709	1133.81
687.116	1149.23
687.524	1154.29
687.931	1150.86
688.338	1141.09
688.745	1126.9
689.152	1115.08
689.559	1111.71
689.966	1106.82
690.373	1085.85
690.78	1080.68
691.187	1091.57
691.593	1090.62
692	1086.7
692.407	1097.26
692.813	1116.8
693.22	1125.65
693.626	1136.59
694.032	1142.31
694.439	1164.61
694.845	1177.45
695.251	1202.25
695.657	1222.55
696.063	1262.31
696.469	1290.82
696.875	1316.97
697.281	1329.25
697.687	1350.5
698.093	1369.02
698.498	1407.44
698.904	1437.98
699.31	1488.05
699.715	1526.89
700.12	1581.69
700.526	1600.24
700.931	1647.19
701.337	1687.75
701.742	1718.09
702.147	1777.62
702.552	1809.76
702.957	1859.38
703.362	1889.37
703.767	1922.52
