Data from C_1_DIV_WI_4N_Splice17_11-48-06-387.txt Node
Date: Sat Mar 14 11:48:06 EDT 2020
User: sa697716
Spectrometer: FLMS03696
Trigger mode: 0
Integration Time (sec): 3.180400E-1
Scans to average: 20
Electric dark correction enabled: true
Nonlinearity correction enabled: true
Boxcar width: 5
XAxis mode: Wavelengths
Number of Pixels in Spectrum: 2048
>>>>>Begin Spectral Data<<<<<
187.83	-219351.55
188.298	1656.46
188.766	901.6
189.233	780.14
189.701	1077.8
190.169	1602.64
190.636	572.9
191.104	495.67
191.571	116.18
192.039	0.76
192.506	-23.65
192.974	474.49
193.441	-661.95
193.908	-200.22
194.375	-60.07
194.842	-13.97
195.31	85.99
195.777	109.35
196.244	293.94
196.711	429.85
197.177	588.61
197.644	851.04
198.111	1493.82
198.578	2099.51
199.045	1697.29
199.511	2783.43
199.978	3245.39
200.445	2750.64
200.911	3062.62
201.378	3462.82
201.844	3115.72
202.31	5329.71
202.777	5585.83
203.243	3101.99
203.709	2955.07
204.176	3514.38
204.642	2906.99
205.108	2712.19
205.574	2226.4
206.04	2035.06
206.506	1898.65
206.972	1817.65
207.438	1750.9
207.903	1997.09
208.369	1766.42
208.835	1764.55
209.301	1857.14
209.766	1911.8
210.232	1920.07
210.697	2409.6
211.163	3018.68
211.628	4610.39
212.094	3892.77
212.559	4801.91
213.024	3012.01
213.49	3685.96
213.955	3650.31
214.42	3605.26
214.885	3383.51
215.35	3253.87
215.815	3117.71
216.28	3333.65
216.745	2769.89
217.21	3065.87
217.675	2920.06
218.14	3375.61
218.604	3909.82
219.069	4601.86
219.534	4959.36
219.998	5944.12
220.463	7395.24
220.927	9379.92
221.392	9007.28
221.856	9241.3
222.32	11831.74
222.785	14712.46
223.249	18749.5
223.713	21052.91
224.177	21141.72
224.642	27277
225.106	33730.53
225.57	37021.75
226.034	27521.95
226.497	41966.9
226.961	37930.21
227.425	44167.92
227.889	49208.18
228.353	49240.73
228.816	102012.04
229.28	97798.56
229.744	82688.22
230.207	50210.5
230.671	49374.07
231.134	81941.61
231.597	94492.87
232.061	94660.08
232.524	92513.83
232.987	63739.6
233.45	57307
233.914	51390.68
234.377	52709.57
234.84	48195.61
235.303	56869.16
235.766	63488.72
236.229	65555.41
236.691	41310.45
237.154	46443.84
237.617	34890.41
238.08	35678.25
238.542	41771.02
239.005	29820.21
239.468	29554.3
239.93	27832.56
240.393	25281.41
240.855	22161.85
241.317	22698.4
241.78	27599.09
242.242	28454
242.704	30652.57
243.166	26653.42
243.629	24132.64
244.091	27773.77
244.553	30424.03
245.015	32654.95
245.477	42201.63
245.939	61863.79
246.4	65590.47
246.862	63711.37
247.324	60037.29
247.786	67218.75
248.247	88185.88
248.709	91205.68
249.17	68225.97
249.632	64160.1
250.093	74361.13
250.555	64174.87
251.016	39093.04
251.477	37039.67
251.939	39945.23
252.4	41906.85
252.861	49831.54
253.322	46271.62
253.783	55011.64
254.244	71272.36
254.705	56224.37
255.166	50025.27
255.627	49218.38
256.088	69343
256.549	73685.64
257.009	63425.46
257.47	76924.4
257.931	62632.56
258.391	46953.8
258.852	48414.96
259.312	50783.71
259.773	62708.48
260.233	52885.98
260.694	44592.42
261.154	50600.62
261.614	40524.97
262.074	36258.72
262.534	37652.8
262.994	35472.05
263.455	47277.65
263.915	39788.79
264.374	37449.52
264.834	40889.34
265.294	45367.59
265.754	46973.74
266.214	44446.87
266.673	41660.76
267.133	52571.19
267.593	52184.69
268.052	63815.35
268.512	55477.79
268.971	66830.21
269.431	73248.72
269.89	65525.85
270.349	98129.95
270.809	109417.32
271.268	98400.71
271.727	220719.95
272.186	142806.41
272.645	106956.4
273.104	77181.92
273.563	111710.96
274.022	87917.78
274.481	74703.07
274.94	57521.03
275.399	42743.1
275.857	49735.76
276.316	67220.74
276.775	59787.96
277.233	58835.3
277.692	55020.95
278.15	62150.1
278.609	63821.62
279.067	59010.2
279.525	54760.67
279.984	70682.44
280.442	84801.8
280.9	83423.85
281.358	54805.25
281.816	51001.73
282.274	49901.97
282.732	51574.13
283.19	51790.63
283.648	44672.22
284.106	47567.57
284.564	48373.51
285.021	44806.66
285.479	33356.8
285.937	30346.38
286.394	26561.59
286.852	27326.15
287.309	28690.6
287.767	27648.09
288.224	26232.51
288.682	28741.27
289.139	31469.14
289.596	28734.49
290.053	29817.21
290.511	37603.07
290.968	45551.76
291.425	61865.76
291.882	51402.11
292.339	44701.77
292.796	44362.3
293.252	41831.48
293.709	33162.95
294.166	29714.67
294.623	32829.84
295.079	31507.22
295.536	31621.68
295.992	28675.48
296.449	28315.55
296.905	29379.37
297.362	28115.68
297.818	29552.63
298.274	30611.92
298.731	31200.78
299.187	30844.05
299.643	33105.48
300.099	39980.73
300.555	43819.52
301.011	36594.8
301.467	35180.89
301.923	41187.71
302.379	40176.3
302.835	39422.79
303.291	39398.99
303.746	44810.43
304.202	56539.65
304.658	56701.02
305.113	38101.94
305.569	37291.98
306.024	39737.86
306.479	37854.42
306.935	31868.28
307.39	34825.77
307.845	32082.65
308.301	32255.71
308.756	31387.19
309.211	30210.56
309.666	30926.69
310.121	38310.27
310.576	38879.05
311.031	38497.11
311.486	44090.44
311.94	43987.79
312.395	58698.84
312.85	110447.9
313.305	542338.47
313.759	2798421.53
314.214	202567.64
314.668	160203.99
315.123	134580.81
315.577	48130.68
316.032	42750.69
316.486	53495.14
316.94	42150.03
317.394	29291.95
317.849	22716.74
318.303	21487.35
318.757	20288.28
319.211	22381.1
319.665	19596.85
320.119	19827.17
320.572	28437.2
321.026	26533.91
321.48	22059.34
321.934	24074.98
322.387	24132.15
322.841	26023.47
323.295	23327.46
323.748	26881.06
324.202	27260.12
324.655	32655.08
325.108	45547.84
325.562	32138.5
326.015	38176.85
326.468	28845.32
326.921	32145.01
327.374	29916.19
327.827	31109.56
328.28	35218.39
328.733	23546.95
329.186	20682.26
329.639	19702.22
330.092	16580.75
330.545	15760.52
330.997	15877.39
331.45	17307.81
331.903	20260.3
332.355	34859.04
332.808	33871.93
333.26	27936.66
333.713	30292.2
334.165	30493.85
334.617	40663.33
335.069	32897.42
335.522	59538.94
335.974	65867.91
336.426	60124.59
336.878	41715.5
337.33	21108.11
337.782	20592.7
338.234	25713.06
338.686	30744.21
339.137	36418.15
339.589	34262.03
340.041	26790.11
340.493	22971.79
340.944	23481.85
341.396	25275.29
341.847	21218.72
342.299	25000.05
342.75	30451.69
343.201	26665.41
343.653	30648.23
344.104	37681.23
344.555	29644.8
345.006	46206.8
345.457	35357.63
345.908	28120.21
346.359	26423.81
346.81	21506.45
347.261	22649.01
347.712	22306.7
348.163	23910.2
348.613	24163.21
349.064	22520.41
349.515	19707.13
349.965	20168.61
350.416	24271.48
350.866	26625.72
351.317	30110.75
351.767	49823.46
352.217	62978.91
352.668	52259.19
353.118	47755.79
353.568	46132.91
354.018	36444.5
354.468	38407.93
354.918	27520.9
355.368	24067.82
355.818	33979.95
356.268	97856.54
356.718	408680.9
357.168	101725.78
357.617	50986.83
358.067	56756.7
358.517	53079.12
358.966	62115.12
359.416	69552.64
359.865	75209.17
360.315	89592.07
360.764	41756.62
361.213	23330.42
361.663	22175.13
362.112	27356.04
362.561	44193.31
363.01	33304.83
363.459	28042.18
363.908	30387.52
364.357	25811.42
364.806	43563.97
365.255	29966.7
365.703	27431.82
366.152	27471.33
366.601	22244.43
367.05	18055.11
367.498	16413.67
367.947	17177.92
368.395	17870.49
368.844	15810.69
369.292	19077.73
369.74	13199.54
370.189	20185.1
370.637	23715.76
371.085	20505.56
371.533	24976.55
371.981	24100.2
372.429	22925.31
372.877	23900.48
373.325	20009.79
373.773	20453.27
374.221	18235.36
374.669	22622.32
375.116	19628.87
375.564	19816.98
376.012	22197.11
376.459	18349.02
376.907	21974.33
377.354	26714.57
377.801	24956.39
378.249	28726.73
378.696	36792.9
379.143	44714.45
379.591	47904.29
380.038	81074.52
380.485	58786.77
380.932	63755.73
381.379	58430.54
381.826	43054.71
382.273	30657.6
382.72	26915.79
383.166	26325.86
383.613	17125.64
384.06	15457.97
384.506	17919.9
384.953	13229.04
385.4	13349.95
385.846	11713.58
386.292	11464.43
386.739	11262.23
387.185	11184.28
387.631	11189.22
388.078	10850.22
388.524	11611.3
388.97	10749.01
389.416	8967.93
389.862	9533.2
390.308	9036.21
390.754	9179.76
391.2	9957.02
391.645	10195.36
392.091	9719.3
392.537	9400.91
392.983	9447.78
393.428	9274.31
393.874	9949.87
394.319	9955.93
394.765	9421.93
395.21	9677.19
395.655	9063.65
396.101	8478.79
396.546	7642.43
396.991	7726.44
397.436	7166.11
397.881	6909.41
398.326	6552.53
398.771	6174.47
399.216	5410
399.661	4862.91
400.106	4831.26
400.551	4927.53
400.995	4411.73
401.44	4360.29
401.885	4078.89
402.329	4108.39
402.774	3928.6
403.218	3779.99
403.663	3632.84
404.107	3719.08
404.551	3740.26
404.995	3427.68
405.44	3301.88
405.884	3344.97
406.328	3226.06
406.772	3209.61
407.216	2920.53
407.66	2818.86
408.104	2680.23
408.547	2505.6
408.991	2418.93
409.435	2322.75
409.879	2284.66
410.322	2247.49
410.766	2166.8
411.209	2052.17
411.653	1964.91
412.096	1919.41
412.54	1915.05
412.983	1897.72
413.426	1897.26
413.869	1894.41
414.312	1851.75
414.756	1780.21
415.199	1693.2
415.642	1637.71
416.085	1639.27
416.527	1624.2
416.97	1645.84
417.413	1558.52
417.856	1537.36
418.298	1520.86
418.741	1507.43
419.184	1506.06
419.626	1566.15
420.069	1564.66
420.511	1568.25
420.953	1529.78
421.396	1515.88
421.838	1474.39
422.28	1506.36
422.722	1511.98
423.164	1531.09
423.606	1503.81
424.048	1501.31
424.49	1423.54
424.932	1414.95
425.374	1398.25
425.816	1423.63
426.258	1448.94
426.699	1464.71
427.141	1439.93
427.582	1462.84
428.024	1454.73
428.465	1444.49
428.907	1404.02
429.348	1388.15
429.789	1386.98
430.231	1353.47
430.672	1368.66
431.113	1334.24
431.554	1311.91
431.995	1281.29
432.436	1232.41
432.877	1202.14
433.318	1181.77
433.759	1178.71
434.2	1177.53
434.64	1166.03
435.081	1170.11
435.522	1109.71
435.962	1072.01
436.403	1048.92
436.843	1063.72
437.284	1043.08
437.724	1016.54
438.164	1020.67
438.604	998.41
439.045	959.77
439.485	919.07
439.925	899.86
440.365	877.88
440.805	863.97
441.245	852.39
441.685	819.7
442.125	812.9
442.564	817.69
443.004	797.38
443.444	793.41
443.883	792.78
444.323	787.4
444.762	788.27
445.202	797.88
445.641	811.7
446.081	806.67
446.52	811.78
446.959	803.16
447.398	781.05
447.837	769.69
448.276	755.46
448.716	763.34
449.154	766.77
449.593	748.07
450.032	744.55
450.471	728.75
450.91	728.77
451.349	726.37
451.787	722.44
452.226	733.57
452.664	733.31
453.103	734.83
453.541	733.44
453.98	732.73
454.418	736.9
454.856	723.61
455.295	723.15
455.733	728.61
456.171	732.03
456.609	732.72
457.047	732.63
457.485	741.61
457.923	743.54
458.361	733.49
458.798	735.39
459.236	733.01
459.674	738.31
460.111	741.16
460.549	733.14
460.987	730.65
461.424	728.34
461.862	724.85
462.299	715.01
462.736	712.61
463.173	715.05
463.611	707.49
464.048	705.7
464.485	710.95
464.922	704.2
465.359	700.21
465.796	688.1
466.233	682.17
466.67	674.76
467.106	672.62
467.543	665.83
467.98	656.61
468.416	640.44
468.853	635.67
469.29	617.04
469.726	610.21
470.162	594.31
470.599	588.81
471.035	582.82
471.471	569.89
471.907	566.06
472.344	561.75
472.78	562.91
473.216	567.52
473.652	560.28
474.088	558.92
474.523	555.8
474.959	560.56
475.395	553.67
475.831	550.74
476.266	551.92
476.702	550.35
477.138	543.24
477.573	539.73
478.008	537.29
478.444	537.45
478.879	541.02
479.314	543.48
479.75	541.61
480.185	544.62
480.62	548.84
481.055	551.66
481.49	554.79
481.925	562.73
482.36	572.53
482.795	587.35
483.229	604.16
483.664	615.88
484.099	617.89
484.534	627.59
484.968	632.81
485.403	633.14
485.837	631.32
486.271	628.47
486.706	627.34
487.14	619.28
487.574	609.21
488.009	602.66
488.443	596.64
488.877	601.48
489.311	602.55
489.745	608.36
490.179	612.05
490.613	621.94
491.046	626.31
491.48	630.17
491.914	629.79
492.348	633.13
492.781	635.33
493.215	635.89
493.648	635.94
494.082	638.83
494.515	637.23
494.948	643.52
495.382	646.17
495.815	648.82
496.248	652.16
496.681	661.66
497.114	670.16
497.547	677
497.98	686.71
498.413	689.76
498.846	697.2
499.279	703.64
499.711	704.8
500.144	704.54
500.577	711.88
501.009	719.61
501.442	726.54
501.874	725.38
502.306	725.14
502.739	730.02
503.171	740.37
503.603	740.92
504.036	746.74
504.468	750.63
504.9	758.64
505.332	762.41
505.764	763.91
506.196	766.83
506.627	777.83
507.059	788.68
507.491	793.96
507.923	791.01
508.354	801.8
508.786	808.99
509.217	822.23
509.649	833.9
510.08	848.91
510.512	861.94
510.943	875.37
511.374	884.69
511.805	899.69
512.237	914.91
512.668	941.24
513.099	962.97
513.53	985.65
513.961	1002.67
514.391	1028.79
514.822	1056.22
515.253	1086.48
515.684	1107.72
516.114	1132.78
516.545	1152.45
516.975	1175.48
517.406	1191.74
517.836	1195.35
518.267	1202.08
518.697	1219.2
519.127	1224.3
519.558	1230.99
519.988	1235.28
520.418	1244.79
520.848	1260.3
521.278	1267.96
521.708	1273.84
522.138	1285.56
522.567	1312.97
522.997	1335.57
523.427	1350.12
523.857	1366.33
524.286	1378
524.716	1392.53
525.145	1410.57
525.575	1421.81
526.004	1435.68
526.433	1442.82
526.863	1444.99
527.292	1437.72
527.721	1443.55
528.15	1449.45
528.579	1450.77
529.008	1459.16
529.437	1479.73
529.866	1491.82
530.295	1507.36
530.724	1518.81
531.152	1542.61
531.581	1555.77
532.01	1572.33
532.438	1580.88
532.867	1594.05
533.295	1611.06
533.723	1618.31
534.152	1617.64
534.58	1618.33
535.008	1605.8
535.436	1608.77
535.865	1615.95
536.293	1628.83
536.721	1643.13
537.149	1666.67
537.576	1670.22
538.004	1681.62
538.432	1689.48
538.86	1688.2
539.287	1695.65
539.715	1707.92
540.143	1711.58
540.57	1709.89
540.998	1707.25
541.425	1687.43
541.852	1668.69
542.28	1666.75
542.707	1652.92
543.134	1640.42
543.561	1636.96
543.988	1629.6
544.415	1629.11
544.842	1623.55
545.269	1615.29
545.696	1616.36
546.123	1627.37
546.549	1617.52
546.976	1606.69
547.403	1604.99
547.829	1606.14
548.256	1607.27
548.682	1603.71
549.108	1595.71
549.535	1593.61
549.961	1595
550.387	1582.98
550.813	1577.58
551.24	1582.53
551.666	1582.14
552.092	1572.97
552.518	1566.51
552.943	1560.53
553.369	1566.3
553.795	1570.95
554.221	1571.89
554.646	1568.23
555.072	1576.28
555.498	1578.82
555.923	1585.54
556.349	1597.56
556.774	1605.19
557.199	1605.2
557.625	1609.24
558.05	1604.05
558.475	1611.23
558.9	1607.98
559.325	1599
559.75	1592.19
560.175	1585.45
560.6	1578.33
561.025	1574.48
561.449	1573.2
561.874	1576.02
562.299	1577.51
562.723	1580.49
563.148	1569.95
563.572	1571.88
563.997	1578.91
564.421	1582.17
564.846	1581.23
565.27	1582.21
565.694	1576.75
566.118	1583.63
566.542	1588.44
566.966	1580.83
567.39	1575.13
567.814	1564.77
568.238	1563.41
568.662	1565.77
569.086	1565.22
569.509	1568.79
569.933	1554.29
570.357	1547.06
570.78	1528.44
571.204	1515.11
571.627	1505.57
572.05	1501.59
572.474	1500.01
572.897	1486.76
573.32	1478.8
573.743	1468.53
574.166	1452.46
574.589	1450.35
575.012	1443.05
575.435	1440.23
575.858	1431.75
576.281	1420.3
576.704	1406.21
577.126	1393.28
577.549	1382.66
577.972	1373
578.394	1363.73
578.817	1355.82
579.239	1338.58
579.661	1325.22
580.084	1310.22
580.506	1297.58
580.928	1292.65
581.35	1282.84
581.772	1277.96
582.194	1266
582.616	1254.18
583.038	1240.39
583.46	1230.51
583.882	1227.94
584.303	1229.68
584.725	1225.5
585.147	1226.24
585.568	1234.31
585.99	1242.8
586.411	1247.51
586.833	1258.22
587.254	1258.19
587.675	1269.11
588.096	1277.65
588.518	1271.85
588.939	1258.67
589.36	1256.37
589.781	1247.05
590.202	1223.81
590.623	1215.84
591.043	1212.68
591.464	1201.29
591.885	1197.89
592.305	1192.32
592.726	1180.51
593.147	1180.78
593.567	1175.54
593.987	1168.72
594.408	1162.73
594.828	1159.72
595.248	1153.57
595.669	1138.68
596.089	1133.03
596.509	1127.37
596.929	1116.18
597.349	1116.29
597.769	1107.24
598.189	1102.28
598.608	1103.04
599.028	1103.79
599.448	1103.14
599.867	1092.84
600.287	1088.34
600.706	1084.6
601.126	1076.21
601.545	1075.29
601.965	1073.75
602.384	1069.53
602.803	1071.28
603.222	1066.96
603.641	1062.31
604.061	1058.42
604.48	1054.94
604.898	1060.18
605.317	1064.13
605.736	1065.6
606.155	1063.74
606.574	1056.49
606.992	1060.41
607.411	1056.58
607.829	1049.23
608.248	1046.26
608.666	1044.36
609.085	1043.88
609.503	1038
609.921	1032.95
610.339	1033.98
610.758	1032.23
611.176	1029.33
611.594	1022.75
612.012	1019.29
612.43	1022.06
612.847	1027.76
613.265	1029.08
613.683	1032.24
614.101	1033.56
614.518	1030.05
614.936	1022.18
615.353	1010.94
615.771	1007.37
616.188	1006.47
616.606	1004.17
617.023	998.55
617.44	986.36
617.857	980.62
618.274	973.68
618.691	967.44
619.108	959.13
619.525	953.66
619.942	957.62
620.359	959.15
620.776	955.35
621.192	951.15
621.609	950
622.026	954.92
622.442	958.99
622.859	961.23
623.275	956.42
623.691	961.51
624.108	971.34
624.524	982.83
624.94	982.81
625.356	990.7
625.772	1000.55
626.188	1008.83
626.604	1009.92
627.02	1006.22
627.436	1005.21
627.852	1011.55
628.268	1020.04
628.683	1011.65
629.099	1005.04
629.514	1000.78
629.93	1003.2
630.345	1006.87
630.761	1003.32
631.176	1005.69
631.591	1001.09
632.007	995.11
632.422	992.15
632.837	984.31
633.252	982.94
633.667	974.53
634.082	967.39
634.497	957.04
634.911	942.12
635.326	937.75
635.741	923.34
636.155	914.77
636.57	915.63
636.984	913.52
637.399	913.32
637.813	911.69
638.228	909.16
638.642	910.94
639.056	902.18
639.47	900.25
639.884	893.92
640.298	887.86
640.712	886.26
641.126	875.55
641.54	868.79
641.954	863.64
642.368	855.02
642.781	850.63
643.195	838.64
643.609	839.12
644.022	835.97
644.436	833.27
644.849	826.05
645.262	818.52
645.676	820.69
646.089	817.46
646.502	806.92
646.915	802.38
647.328	789.13
647.741	787.83
648.154	778.51
648.567	776.77
648.98	767.74
649.393	768.49
649.805	766.06
650.218	761.14
650.631	750.43
651.043	746.12
651.456	742.5
651.868	744.39
652.28	757.46
652.693	767.56
653.105	773.62
653.517	780.62
653.929	782
654.341	786.85
654.753	778
655.165	783.47
655.577	783.5
655.989	781.74
656.401	776.26
656.813	750.94
657.224	736.6
657.636	715.59
658.047	704.37
658.459	691.67
658.87	686.57
659.282	679.26
659.693	665.05
660.104	654.78
660.515	645.94
660.926	646.61
661.338	646.33
661.749	644.51
662.159	640.09
662.57	638.9
662.981	636.43
663.392	632.03
663.803	638.18
664.213	639.61
664.624	638.71
665.035	642.83
665.445	633.56
665.855	629.57
666.266	625.43
666.676	625.55
667.086	620.14
667.497	622.11
667.907	620.16
668.317	614.33
668.727	613.44
669.137	616.39
669.547	616.27
669.956	620.3
670.366	623.35
670.776	625.96
671.186	630.49
671.595	634.75
672.005	638.23
672.414	638.38
672.824	637.9
673.233	641.68
673.642	643.51
674.052	647.4
674.461	650.4
674.87	655.42
675.279	654.41
675.688	657.03
676.097	658.9
676.506	657.53
676.915	670.64
677.323	674.26
677.732	674.51
678.141	676.02
678.549	668.1
678.958	667.72
679.366	666.41
679.775	669.97
680.183	678.01
680.592	681.77
681	685.87
681.408	678.44
681.816	684.09
682.224	689.55
682.632	696.08
683.04	718.42
683.448	735.9
683.856	760.03
684.264	786.49
684.671	808.52
685.079	837.84
685.487	868.82
685.894	914.15
686.302	948.4
686.709	975.28
687.116	1006.55
687.524	1031.44
687.931	1051.65
688.338	1065.56
688.745	1076.61
689.152	1092.75
689.559	1117.24
689.966	1143.27
690.373	1154.13
690.78	1178.64
691.187	1220.91
691.593	1253.18
692	1281.11
692.407	1326.31
692.813	1384.76
693.22	1430.85
693.626	1479.17
694.032	1518.87
694.439	1578.54
694.845	1625.98
695.251	1689.79
695.657	1746.56
696.063	1829.68
696.469	1895.38
696.875	1957.29
697.281	1994.64
697.687	2044.15
698.093	2084.8
698.498	2155.97
