Data from C_1_DEC_ON_6N_Splice17_11-53-58-417.txt Node
Date: Sat Mar 14 11:53:58 EDT 2020
User: sa697716
Spectrometer: FLMS03696
Trigger mode: 0
Integration Time (sec): 3.180400E-1
Scans to average: 20
Electric dark correction enabled: true
Nonlinearity correction enabled: true
Boxcar width: 5
XAxis mode: Wavelengths
Number of Pixels in Spectrum: 2048
>>>>>Begin Spectral Data<<<<<
187.83	-196534.11
188.298	1483.34
188.766	826.38
189.233	684.47
189.701	964.56
190.169	1386.13
190.636	461.25
191.104	397.9
191.571	27.85
192.039	-89.41
192.506	-124.69
192.974	252.12
193.441	-416.35
193.908	-70.11
194.375	-61.57
194.842	-42.25
195.31	-1.36
195.777	111.41
196.244	316.88
196.711	359.83
197.177	453.04
197.644	598.97
198.111	1032.34
198.578	1456.52
199.045	1181.41
199.511	1904.54
199.978	2207.13
200.445	1883.59
200.911	2058.13
201.378	2304.1
201.844	2115.95
202.31	3600.29
202.777	3791.84
203.243	2120.88
203.709	2022.87
204.176	2413.56
204.642	2008.97
205.108	1896.59
205.574	1546.89
206.04	1405.77
206.506	1299.68
206.972	1234.37
207.438	1181.82
207.903	1336.29
208.369	1174.87
208.835	1161.74
209.301	1203.4
209.766	1222.44
210.232	1208.75
210.697	1495.68
211.163	1833.02
211.628	2729.03
212.094	2255.41
212.559	2796.33
213.024	1728.38
213.49	2092.88
213.955	2040.21
214.42	1977.64
214.885	1837.72
215.35	1725.53
215.815	1657.62
216.28	1742.98
216.745	1419.94
217.21	1504.4
217.675	1322.52
218.14	1441.05
218.604	1530.09
219.069	1671.36
219.534	1699.78
219.998	1882.25
220.463	2208.69
220.927	2566.78
221.392	2343.79
221.856	2309.01
222.32	2803.69
222.785	3406.26
223.249	4184.75
223.713	4615.56
224.177	4569.75
224.642	5760.05
225.106	7045.95
225.57	7609.77
226.034	5689.07
226.497	8620.91
226.961	7721.18
227.425	8967.63
227.889	9856.18
228.353	9849.88
228.816	20152.32
229.28	19124.95
229.744	16012.15
230.207	9730.8
230.671	9542.21
231.134	15564.85
231.597	17870.6
232.061	17808.56
232.524	17257.14
232.987	11873.55
233.45	10663.98
233.914	9561.82
234.377	9730.7
234.84	8894.84
235.303	10432.5
235.766	11600.58
236.229	11951.23
236.691	7496.3
237.154	8382.84
237.617	6338.28
238.08	6460.39
238.542	7521.45
239.005	5372.49
239.468	5352.21
239.93	5050.52
240.393	4601.01
240.855	4056.8
241.317	4149.38
241.78	5039
242.242	5227.21
242.704	5663.21
243.166	4947.49
243.629	4528.81
244.091	5224.64
244.553	5716.68
245.015	6143.53
245.477	7907.76
245.939	11563.53
246.4	12307.67
246.862	11957.07
247.324	11269.46
247.786	12531.73
248.247	16405.83
248.709	16813.38
249.17	12573.55
249.632	11923.47
250.093	13897.41
250.555	12041.56
251.016	7363.84
251.477	6988.45
251.939	7561.11
252.4	7908.76
252.861	9394.8
253.322	8741.37
253.783	10401.33
254.244	13467.62
254.705	10585.43
255.166	9385.01
255.627	9221.36
256.088	13013.08
256.549	13793.34
257.009	11834.05
257.47	14343.81
257.931	11638.56
258.391	8748.01
258.852	9005.94
259.312	9408.91
259.773	11567.68
260.233	9779.67
260.694	8244.91
261.154	9278.88
261.614	7481.43
262.074	6667.72
262.534	6936.74
262.994	6543.46
263.455	8656.43
263.915	7286.32
264.374	6848.62
264.834	7469.51
265.294	8209.52
265.754	8468.73
266.214	8008.9
266.673	7468.39
267.133	9402.57
267.593	9267.8
268.052	11291.75
268.512	9779.71
268.971	11818.59
269.431	12959.71
269.89	11558.83
270.349	17310.35
270.809	19322.05
271.268	17359.94
271.727	38755.9
272.186	25052.3
272.645	18804.54
273.104	13508.38
273.563	19557.36
274.022	15293.21
274.481	12985.17
274.94	10022.26
275.399	7428.99
275.857	8610.5
276.316	11620.16
276.775	10332.17
277.233	10182.13
277.692	9573.09
278.15	10889.12
278.609	11255.19
279.067	10407.89
279.525	9708.99
279.984	12532.74
280.442	15114.33
280.9	15016.44
281.358	9897.43
281.816	9265.15
282.274	9108.8
282.732	9379.24
283.19	9407.52
283.648	8123.42
284.106	8659.51
284.564	8801.71
285.021	8196.11
285.479	6122.09
285.937	5531.59
286.394	4884.71
286.852	5023.1
287.309	5282.5
287.767	5146.36
288.224	4918.78
288.682	5392.6
289.139	5956.57
289.596	5471.68
290.053	5679.11
290.511	7164.23
290.968	8751.04
291.425	11852.05
291.882	9933.4
292.339	8648.67
292.796	8534.63
293.252	8051.36
293.709	6433.95
294.166	5752.11
294.623	6355.49
295.079	6103.09
295.536	6148.15
295.992	5576.38
296.449	5529.47
296.905	5726.46
297.362	5528.71
297.818	5835.17
298.274	6084.45
298.731	6173.68
299.187	6126.73
299.643	6573.73
300.099	7966.87
300.555	8752.22
301.011	7332.09
301.467	7125.89
301.923	8351.36
302.379	8164.22
302.835	8003.81
303.291	8010.93
303.746	9155.12
304.202	11603.14
304.658	11694.06
305.113	7894.75
305.569	7752.72
306.024	8281.92
306.479	7839.23
306.935	6648.75
307.39	7242.26
307.845	6724.11
308.301	6797.57
308.756	6610.79
309.211	6365.4
309.666	6518.16
310.121	8115.7
310.576	8237.58
311.031	8155.85
311.486	9327.35
311.94	9298.09
312.395	12466.85
312.85	23414.58
313.305	114425.32
313.759	598879.62
314.214	43450.25
314.668	34506.57
315.123	29147.3
315.577	10498.33
316.032	9386.07
316.486	11751.96
316.94	9329.4
317.394	6518.97
317.849	5080.18
318.303	4820.22
318.757	4549.06
319.211	5047.9
319.665	4429.68
320.119	4484.89
320.572	6406.55
321.026	5993.63
321.48	5014.21
321.934	5428.87
322.387	5438.45
322.841	5884.62
323.295	5323.23
323.748	6089.68
324.202	6168.54
324.655	7407.38
325.108	10392.47
325.562	7371.88
326.015	8741.68
326.468	6624.48
326.921	7467.94
327.374	7000.46
327.827	7297.24
328.28	8230
328.733	5567.64
329.186	4910.99
329.639	4693.67
330.092	3941.84
330.545	3765.21
330.997	3816.46
331.45	4173.76
331.903	4885.39
332.355	8367.69
332.808	8146.71
333.26	6724.86
333.713	7299.85
334.165	7367.55
334.617	9782.08
335.069	7858.2
335.522	14194.01
335.974	15744.16
336.426	14335.64
336.878	9935.06
337.33	5061.44
337.782	4933.68
338.234	6234.86
338.686	7463.43
339.137	8834.63
339.589	8366.13
340.041	6604.66
340.493	5648.5
340.944	5771.66
341.396	6247.48
341.847	5275.57
342.299	6243.48
342.75	7653.47
343.201	6637.99
343.653	7607.67
344.104	9305.64
344.555	7317.27
345.006	11314.75
345.457	8766.84
345.908	6947.62
346.359	6545.47
346.81	5317.39
347.261	5559.73
347.712	5461.94
348.163	5857.48
348.613	5964.68
349.064	5606.7
349.515	4906.52
349.965	5066.99
350.416	6060.23
350.866	6648.87
351.317	7509.5
351.767	12426.54
352.217	15687.53
352.668	13033.22
353.118	11976.2
353.568	11466.69
354.018	9051.37
354.468	9592.93
354.918	6892.35
355.368	6050.52
355.818	8602.58
356.268	24666.7
356.718	103939.78
357.168	25996.83
357.617	13075.45
358.067	14504.8
358.517	13653.66
358.966	16124.76
359.416	18146.16
359.865	19540.22
360.315	23289.45
360.764	10850.43
361.213	6128.56
361.663	5777.4
362.112	7123.21
362.561	11502.74
363.01	8749.93
363.459	7381.71
363.908	7963.81
364.357	6790.12
364.806	11459.76
365.255	7877.46
365.703	7261.36
366.152	7249.04
366.601	5896.47
367.05	4811.76
367.498	4396.27
367.947	4577.78
368.395	4771.4
368.844	4239.01
369.292	5092.95
369.74	3559.17
370.189	5447.05
370.637	6389.77
371.085	5527.67
371.533	6714.64
371.981	6455.45
372.429	6186.47
372.877	6434.26
373.325	5400.84
373.773	5532.09
374.221	4923.25
374.669	6108.31
375.116	5301.29
375.564	5358.78
376.012	6008.75
376.459	5008.08
376.907	6016.71
377.354	7246.55
377.801	6828.76
378.249	7856.32
378.696	10001.99
379.143	12152.01
379.591	12904.33
380.038	21909.87
380.485	15902.57
380.932	17199.04
381.379	15859.36
381.826	11780.13
382.273	8425.32
382.72	7329.32
383.166	7162.67
383.613	4671.25
384.06	4239.29
384.506	4918.06
384.953	3617.88
385.4	3627.49
385.846	3183.27
386.292	3076.93
386.739	3006.2
387.185	2965.58
387.631	2977.93
388.078	2912.88
388.524	3119.17
388.97	2885.24
389.416	2430.09
389.862	2598.08
390.308	2479.86
390.754	2527.46
391.2	2759.87
391.645	2831.95
392.091	2740.78
392.537	2675.42
392.983	2677.83
393.428	2671.68
393.874	2865.06
394.319	2894.95
394.765	2763.08
395.21	2847.64
395.655	2684.41
396.101	2523.52
396.546	2284.08
396.991	2307.34
397.436	2144.81
397.881	2077.34
398.326	1959.7
398.771	1868.95
399.216	1629.76
399.661	1472.4
400.106	1480.92
400.551	1527.64
400.995	1374.37
401.44	1366.82
401.885	1288.11
402.329	1303.76
402.774	1255.12
403.218	1228.63
403.663	1187.03
404.107	1229.25
404.551	1243.21
404.995	1138.14
405.44	1095.79
405.884	1115.7
406.328	1082.54
406.772	1083.15
407.216	993.01
407.66	963.88
408.104	912.97
408.547	856.49
408.991	831.02
409.435	803.06
409.879	795.56
410.322	791.29
410.766	765.59
411.209	731.78
411.653	705.31
412.096	695.32
412.54	696.23
412.983	692.84
413.426	699.07
413.869	699.32
414.312	690.55
414.756	668.47
415.199	636.32
415.642	623.12
416.085	627.42
416.527	621.98
416.97	630.17
417.413	601.52
417.856	596.96
418.298	592.92
418.741	588
419.184	582.79
419.626	604.09
420.069	605.51
420.511	610.32
420.953	595.99
421.396	593.05
421.838	578.52
422.28	591.76
422.722	596.37
423.164	601.54
423.606	593.08
424.048	594.2
424.49	569.46
424.932	569.1
425.374	558.84
425.816	568.18
426.258	579.2
426.699	587.02
427.141	582.04
427.582	588.11
428.024	585.83
428.465	583.2
428.907	569.74
429.348	561.31
429.789	562.76
430.231	555.99
430.672	565.61
431.113	553.24
431.554	544.96
431.995	528.77
432.436	513.54
432.877	504.6
433.318	498.66
433.759	495.76
434.2	496.86
434.64	491.02
435.081	490.94
435.522	466.36
435.962	450.42
436.403	444.59
436.843	450.36
437.284	442.29
437.724	431.09
438.164	430.06
438.604	422.96
439.045	409.45
439.485	395.95
439.925	388.44
440.365	379.24
440.805	373.71
441.245	369.47
441.685	357.15
442.125	353
442.564	356.34
443.004	350.92
443.444	350.48
443.883	350.32
444.323	344.85
444.762	344.25
445.202	349.51
445.641	357.7
446.081	354.78
446.52	358.95
446.959	358.96
447.398	351.26
447.837	346.94
448.276	340.28
448.716	345.91
449.154	350.9
449.593	346.18
450.032	345.04
450.471	338.47
450.91	338.29
451.349	340.25
451.787	337.5
452.226	341.8
452.664	342.41
453.103	344.28
453.541	342.95
453.98	343.81
454.418	344.76
454.856	341.97
455.295	340.95
455.733	345.84
456.171	347.05
456.609	349.01
457.047	349.27
457.485	355.09
457.923	357.15
458.361	352.61
458.798	352.9
459.236	352.57
459.674	353.45
460.111	356.33
460.549	353.21
460.987	351.69
461.424	350.19
461.862	348.63
462.299	345.05
462.736	345.3
463.173	347.32
463.611	346.21
464.048	345.96
464.485	349.98
464.922	346.46
465.359	343.4
465.796	344.44
466.233	343.17
466.67	342.3
467.106	341.88
467.543	338.25
467.98	334.22
468.416	325.01
468.853	323.76
469.29	313.59
469.726	310.95
470.162	303.46
470.599	295.4
471.035	291.72
471.471	283.51
471.907	280.57
472.344	278.66
472.78	278.29
473.216	281.13
473.652	278.14
474.088	277.33
474.523	277.15
474.959	279.97
475.395	277
475.831	276.93
476.266	279.27
476.702	277.96
477.138	274.93
477.573	274.98
478.008	273.28
478.444	274.05
478.879	277.5
479.314	278.47
479.75	277.34
480.185	277.98
480.62	278.47
481.055	279.23
481.49	281.66
481.925	285.83
482.36	291.35
482.795	299.75
483.229	306.75
483.664	313.01
484.099	314.45
484.534	320.6
484.968	325.47
485.403	327.43
485.837	327.04
486.271	326.89
486.706	328.43
487.14	324.81
487.574	320.5
488.009	318.67
488.443	316.38
488.877	320.91
489.311	322.45
489.745	326.94
490.179	331.25
490.613	340.06
491.046	344.23
491.48	347.88
491.914	349.8
492.348	353.89
492.781	358.24
493.215	360.98
493.648	362.67
494.082	367.79
494.515	370.35
494.948	376.91
495.382	380.87
495.815	386.32
496.248	391.96
496.681	401.82
497.114	411.01
497.547	419.46
497.98	430.32
498.413	438.48
498.846	447.41
499.279	455.45
499.711	461.45
500.144	467.21
500.577	477.01
501.009	486.7
501.442	496.84
501.874	502.46
502.306	507.57
502.739	517.62
503.171	530.68
503.603	537.51
504.036	548.49
504.468	556.99
504.9	568.64
505.332	577.76
505.764	586.21
506.196	595.51
506.627	610.25
507.059	624.81
507.491	634.93
507.923	639.61
508.354	654.99
508.786	667.11
509.217	684.7
509.649	700.74
510.08	719
510.512	736.16
510.943	752.01
511.374	765
511.805	783.73
512.237	801.92
512.668	829.54
513.099	854.05
513.53	879.1
513.961	898.68
514.391	926.97
514.822	957.04
515.253	988.5
515.684	1012.87
516.114	1038.96
516.545	1059.94
516.975	1084.68
517.406	1101.74
517.836	1107.19
518.267	1116.45
518.697	1134.49
519.127	1140.46
519.558	1149.17
519.988	1155.42
520.418	1166.51
520.848	1183.46
521.278	1193.44
521.708	1203.73
522.138	1215.38
522.567	1242.76
522.997	1264.73
523.427	1279.5
523.857	1294.75
524.286	1305.03
524.716	1318.86
525.145	1335.09
525.575	1345.57
526.004	1358.4
526.433	1361.19
526.863	1364.27
527.292	1357.33
527.721	1363.19
528.15	1368.77
528.579	1370.39
529.008	1379.8
529.437	1399
529.866	1410.57
530.295	1424.68
530.724	1435.72
531.152	1458.28
531.581	1469.89
532.01	1485.03
532.438	1492.17
532.867	1504.45
533.295	1520.63
533.723	1525.97
534.152	1524.11
534.58	1524.69
535.008	1512.6
535.436	1515.1
535.865	1522.09
536.293	1534.93
536.721	1548.05
537.149	1569.81
537.576	1572.19
538.004	1582.51
538.432	1588.95
538.86	1588.24
539.287	1594.6
539.715	1607.01
540.143	1609.7
540.57	1607.11
540.998	1604.31
541.425	1585.91
541.852	1568.06
542.28	1566.55
542.707	1553.87
543.134	1542.46
543.561	1538.58
543.988	1532.15
544.415	1531.29
544.842	1525.15
545.269	1518.14
545.696	1518.91
546.123	1529.23
546.549	1520.55
546.976	1509.34
547.403	1507.67
547.829	1509.33
548.256	1511.53
548.682	1507.99
549.108	1501.23
549.535	1500.41
549.961	1501.84
550.387	1490.52
550.813	1485.6
551.24	1489.97
551.666	1490.95
552.092	1483.38
552.518	1477.26
552.943	1471.66
553.369	1477.59
553.795	1482.25
554.221	1483.41
554.646	1480.75
555.072	1488.55
555.498	1491.02
555.923	1498.34
556.349	1509.07
556.774	1514.72
557.199	1514.98
557.625	1518.18
558.05	1511.26
558.475	1517.35
558.9	1514.66
559.325	1507.26
559.75	1501.03
560.175	1494.31
560.6	1488.05
561.025	1486.02
561.449	1485.73
561.874	1488.55
562.299	1490.21
562.723	1495.43
563.148	1486.55
563.572	1488.16
563.997	1494.21
564.421	1497.27
564.846	1497.09
565.27	1498.79
565.694	1495.05
566.118	1502.84
566.542	1508.31
566.966	1502.33
567.39	1498.29
567.814	1488.1
568.238	1487.47
568.662	1490.55
569.086	1491.24
569.509	1495.93
569.933	1480.45
570.357	1473.71
570.78	1455.81
571.204	1443.66
571.627	1433.37
572.05	1429.61
572.474	1427.53
572.897	1415.64
573.32	1407.66
573.743	1397.96
574.166	1381.91
574.589	1381.91
575.012	1374.05
575.435	1371
575.858	1362
576.281	1351.92
576.704	1337.43
577.126	1326.87
577.549	1316.54
577.972	1306.15
578.394	1296.6
578.817	1290.41
579.239	1273.31
579.661	1260.86
580.084	1247.54
580.506	1235.53
580.928	1231.22
581.35	1221.79
581.772	1216.3
582.194	1204.39
582.616	1194.27
583.038	1181.59
583.46	1170.42
583.882	1166.97
584.303	1168.97
584.725	1163.95
585.147	1164.24
585.568	1170.68
585.99	1178.18
586.411	1181.64
586.833	1191.34
587.254	1191.17
587.675	1200.98
588.096	1209.45
588.518	1203.75
588.939	1189.51
589.36	1186.88
589.781	1177.81
590.202	1156.56
590.623	1148.44
591.043	1146.32
591.464	1136.63
591.885	1133.2
592.305	1127.87
592.726	1116.85
593.147	1117.67
593.567	1113.43
593.987	1107.17
594.408	1102.62
594.828	1099.52
595.248	1094.87
595.669	1080.17
596.089	1073.65
596.509	1067.37
596.929	1056.99
597.349	1058.18
597.769	1050.58
598.189	1046.48
598.608	1047.19
599.028	1048.56
599.448	1048.14
599.867	1038.75
600.287	1035.86
600.706	1033.18
601.126	1025.33
601.545	1024.25
601.965	1021.82
602.384	1017.05
602.803	1017.49
603.222	1013.66
603.641	1007.5
604.061	1003.83
604.48	999.97
604.898	1004.58
605.317	1006.37
605.736	1006.92
606.155	1004.07
606.574	995.94
606.992	998.03
607.411	993.25
607.829	985.44
608.248	981.76
608.666	979.21
609.085	977.31
609.503	969.95
609.921	964.69
610.339	964.85
610.758	962.2
611.176	957.39
611.594	949.52
612.012	945.36
612.43	946.38
612.847	950.34
613.265	949.06
613.683	950.73
614.101	949.82
614.518	944.67
614.936	937.06
615.353	925.83
615.771	922.81
616.188	922.43
616.606	919.55
617.023	913.03
617.44	902.02
617.857	895.62
618.274	888.06
618.691	881.99
619.108	874.58
619.525	868.3
619.942	870.91
620.359	871.69
620.776	866.68
621.192	863.4
621.609	861.64
622.026	864.11
622.442	867.44
622.859	869.07
623.275	863.15
623.691	866.23
624.108	873.7
624.524	883.39
624.94	883.19
625.356	889.53
625.772	896.73
626.188	903.59
626.604	905.24
627.02	903.29
627.436	901.72
627.852	906.91
628.268	915.56
628.683	909.25
629.099	903.76
629.514	899.12
629.93	901.38
630.345	904.22
630.761	901.26
631.176	902.86
631.591	898.18
632.007	893.01
632.422	891.14
632.837	882.31
633.252	880.42
633.667	872.47
634.082	864.71
634.497	854.52
634.911	840.09
635.326	836.3
635.741	823.04
636.155	813.46
636.57	813.08
636.984	810.96
637.399	810.02
637.813	806.95
638.228	803.3
638.642	804.2
639.056	795.27
639.47	793.91
639.884	786.43
640.298	779.77
640.712	776.99
641.126	765.59
641.54	756.38
641.954	749.45
642.368	738.68
642.781	731.74
643.195	718.04
643.609	715.37
644.022	707.54
644.436	701.35
644.849	691.14
645.262	681.15
645.676	679.46
646.089	675.28
646.502	663.78
646.915	657.35
647.328	643.23
647.741	640.06
648.154	629.34
648.567	626.16
648.98	616.15
649.393	613.58
649.805	609.06
650.218	602.09
650.631	590.35
651.043	585.46
651.456	580.72
651.868	580.07
652.28	588.15
652.693	594.6
653.105	596.33
653.517	599.94
653.929	598.85
654.341	599.58
654.753	592.04
655.165	593.41
655.577	589.85
655.989	585.64
656.401	578.42
656.813	556.8
657.224	543.47
657.636	524.59
658.047	513.18
658.459	499.6
658.87	492.72
659.282	482.98
659.693	468.91
660.104	458.59
660.515	447.42
660.926	442.61
661.338	437.51
661.749	430.82
662.159	423.53
662.57	417.48
662.981	413.08
663.392	405.8
663.803	405.38
664.213	402.49
664.624	397.73
665.035	396.98
665.445	389.02
665.855	384.52
666.266	379.41
666.676	376.86
667.086	370.69
667.497	368.78
667.907	365.27
668.317	359.36
668.727	357.64
669.137	356.51
669.547	355.06
669.956	355.69
670.366	354.98
670.776	355.9
671.186	356.64
671.595	357.91
672.005	358.97
672.414	359.88
672.824	360.53
673.233	361.85
673.642	363.72
674.052	366.22
674.461	369.16
674.87	371.49
675.279	371.38
675.688	372.63
676.097	375.25
676.506	374.29
676.915	380.88
677.323	382.45
677.732	381.84
678.141	381.87
678.549	377.36
678.958	376.86
679.366	377.89
679.775	380.58
680.183	388.36
680.592	392.73
681	398.36
681.408	398.08
681.816	405.63
682.224	412.51
682.632	422.39
683.04	440.7
683.448	456.11
683.856	476.01
684.264	499.74
684.671	521.57
685.079	547.34
685.487	576.55
685.894	615.55
686.302	648.44
686.709	680.97
687.116	717.6
687.524	750.93
687.931	782.6
688.338	810.89
688.745	836.16
689.152	864.12
689.559	900.95
689.966	937.92
690.373	961.87
690.78	999.38
691.187	1050.33
691.593	1090.7
692	1127.76
692.407	1179.61
692.813	1241.65
693.22	1292.6
693.626	1345.43
694.032	1390.37
694.439	1453.43
694.845	1506.24
695.251	1567.76
695.657	1624.34
696.063	1706.06
696.469	1769.82
696.875	1829.56
697.281	1866.53
697.687	1911.54
698.093	1949.58
698.498	2014.72
698.904	2066.55
699.31	2140.59
699.715	2197.76
700.12	2276.9
700.526	2298.19
700.931	2359.45
701.337	2406.53
701.742	2439.46
702.147	2511.57
702.552	2543.64
702.957	2599.61
703.362	2623.3
703.767	2652.89
704.172	2690.52
704.577	2656.61
704.981	2700.84
705.386	2720.07
705.791	2719.09
706.195	2784.66
706.6	2795.43
707.004	2862.83
707.408	2840.23
707.813	2865.9
