Data from C_1_DIV_WI_4N_Splice17_11-48-08-587.txt Node
Date: Sat Mar 14 11:48:08 EDT 2020
User: sa697716
Spectrometer: FLMS03696
Trigger mode: 0
Integration Time (sec): 3.180400E-1
Scans to average: 20
Electric dark correction enabled: true
Nonlinearity correction enabled: true
Boxcar width: 5
XAxis mode: Wavelengths
Number of Pixels in Spectrum: 2048
>>>>>Begin Spectral Data<<<<<
187.83	-279019.39
188.298	1984.27
188.766	1079.35
189.233	907.39
189.701	1270.67
190.169	1778.3
190.636	665.88
191.104	499.38
191.571	75.36
192.039	-13.15
192.506	4.63
192.974	368.91
193.441	-697.08
193.908	-209.99
194.375	-55.22
194.842	-8.03
195.31	47.69
195.777	142.43
196.244	322.29
196.711	454.48
197.177	595.16
197.644	827.51
198.111	1409.21
198.578	2003.48
199.045	1624.85
199.511	2635.73
199.978	3047.32
200.445	2567.69
200.911	2839.67
201.378	3183.64
201.844	2878.23
202.31	4879.44
202.777	5109.44
203.243	2868.77
203.709	2740.55
204.176	3266.98
204.642	2709
205.108	2548.89
205.574	2103.63
206.04	1941.24
206.506	1836.46
206.972	1754.74
207.438	1695.44
207.903	1953.26
208.369	1711.54
208.835	1708.21
209.301	1787.77
209.766	1836.69
210.232	1839.5
210.697	2322.8
211.163	2901.87
211.628	4449.59
212.094	3749.85
212.559	4637.52
213.024	2891.04
213.49	3559.63
213.955	3507.72
214.42	3480.24
214.885	3260.77
215.35	3152.91
215.815	3025.99
216.28	3247.83
216.745	2693.82
217.21	2971.11
217.675	2824.18
218.14	3275.97
218.604	3800.98
219.069	4498.01
219.534	4859.39
219.998	5845.66
220.463	7280.08
220.927	9239.98
221.392	8879.91
221.856	9125.35
222.32	11703.64
222.785	14592.51
223.249	18583.34
223.713	20897.19
224.177	21023.86
224.642	27168.82
225.106	33606.64
225.57	36854.81
226.034	27420.05
226.497	41790.75
226.961	37798.57
227.425	44098.87
227.889	49168.25
228.353	49274.27
228.816	101960.36
229.28	97710.58
229.744	82572.06
230.207	50163.45
230.671	49464.6
231.134	82207.06
231.597	94888.11
232.061	95144.83
232.524	92934.53
232.987	63988.48
233.45	57558.47
233.914	51668.15
234.377	53028.11
234.84	48547.17
235.303	57293.65
235.766	63941.55
236.229	66027.86
236.691	41605.25
237.154	46736.81
237.617	35119.2
238.08	36005.44
238.542	42191.79
239.005	30134.69
239.468	29883.88
239.93	28118.39
240.393	25532.39
240.855	22371.2
241.317	22911.78
241.78	27888.99
242.242	28797.46
242.704	31060.28
243.166	27000.12
243.629	24444.52
244.091	28151.26
244.553	30860.53
245.015	33168.52
245.477	42919.1
245.939	62980.94
246.4	66809.08
246.862	64915.84
247.324	61219.43
247.786	68610.74
248.247	90032.53
248.709	93186.08
249.17	69652.24
249.632	65497.2
250.093	75896.84
250.555	65566.84
251.016	39960.54
251.477	37902.97
251.939	40880.17
252.4	42884.2
252.861	50995.71
253.322	47420.01
253.783	56462.8
254.244	73282.59
254.705	57876.45
255.166	51496.14
255.627	50694.5
256.088	71469.46
256.549	75887.45
257.009	65413.03
257.47	79393.58
257.931	64624.84
258.391	48384.55
258.852	49838.83
259.312	52310.39
259.773	64587.03
260.233	54583.15
260.694	46037.67
261.154	52298.49
261.614	41948.49
262.074	37526.19
262.534	38982.8
262.994	36760.72
263.455	49047.35
263.915	41389.61
264.374	38993.52
264.834	42618.56
265.294	47266.58
265.754	48986.11
266.214	46393.44
266.673	43511.19
267.133	54956.36
267.593	54550.03
268.052	66744.81
268.512	58062.73
268.971	69888.54
269.431	76597.73
269.89	68534.5
270.349	102735.77
270.809	114456.28
271.268	102788.11
271.727	230623.38
272.186	149190.9
272.645	111882.86
273.104	80736.76
273.563	116802.24
274.022	91911.48
274.481	78131.65
274.94	60150.99
275.399	44702.91
275.857	52055.08
276.316	70416.73
276.775	62610.25
277.233	61670.71
277.692	57633.47
278.15	65098.62
278.609	66876.91
279.067	61867.11
279.525	57379.87
279.984	74090.2
280.442	88889.6
280.9	87429.62
281.358	57439.31
281.816	53446.92
282.274	52246.73
282.732	53970.14
283.19	54229.43
283.648	46769.74
284.106	49752.96
284.564	50608.7
285.021	46860.38
285.479	34894.33
285.937	31738.38
286.394	27782.87
286.852	28579.45
287.309	30014.23
287.767	28919.35
288.224	27456.53
288.682	30108.15
289.139	32999.91
289.596	30144.73
290.053	31321.06
290.511	39544.55
290.968	47930.41
291.425	65127.66
291.882	54106.44
292.339	47059.14
292.796	46753.78
293.252	44045.49
293.709	34940.7
294.166	31291.49
294.623	34580.78
295.079	33178.05
295.536	33272.36
295.992	30173.32
296.449	29782.92
296.905	30914.89
297.362	29606.27
297.818	31123.19
298.274	32235.59
298.731	32857.78
299.187	32488.48
299.643	34848.29
300.099	42078.87
300.555	46079.09
301.011	38482.37
301.467	37028.53
301.923	43383.97
302.379	42289.52
302.835	41459.85
303.291	41469.15
303.746	47100.82
304.202	59418.66
304.658	59612.73
305.113	40041.43
305.569	39212.23
306.024	41799.87
306.479	39834.84
306.935	33494.42
307.39	36597.59
307.845	33779.61
308.301	33910.15
308.756	33052.71
309.211	31796.77
309.666	32514.31
310.121	40283.62
310.576	40895.01
311.031	40498.71
311.486	46304.19
311.94	46266.36
312.395	61748.84
312.85	115827.75
313.305	569739.43
313.759	2940058.04
314.214	212964.15
314.668	168624.65
315.123	141606.53
315.577	50685.49
316.032	45051.08
316.486	56375.44
316.94	44388.24
317.394	30870.03
317.849	23982.67
318.303	22697.87
318.757	21397.71
319.211	23635.44
319.665	20682.47
320.119	20932.27
320.572	29996.61
321.026	27988.3
321.48	23294.75
321.934	25419.13
322.387	25478.86
322.841	27492.52
323.295	24641.59
323.748	28413.18
324.202	28791.54
324.655	34530.89
325.108	48120
325.562	33959.68
326.015	40343.31
326.468	30459.14
326.921	34014.61
327.374	31672.25
327.827	32912.36
328.28	37196.24
328.733	24840.75
329.186	21830.35
329.639	20794.95
330.092	17521.12
330.545	16647.02
330.997	16756.56
331.45	18274.95
331.903	21342.51
332.355	36633.56
332.808	35574.35
333.26	29332.08
333.713	31817.48
334.165	32004.46
334.617	42687.37
335.069	34509.16
335.522	62408.41
335.974	69038.41
336.426	63049.84
336.878	43767.54
337.33	22193.36
337.782	21653.48
338.234	27068.24
338.686	32390.99
339.137	38383.76
339.589	36122.81
340.041	28304.1
340.493	24307.74
340.944	24871.14
341.396	26748.57
341.847	22437.58
342.299	26454
342.75	32244.89
343.201	28198.52
343.653	32401.14
344.104	39780.91
344.555	31279.55
345.006	48669.84
345.457	37220.41
345.908	29577.78
346.359	27820.17
346.81	22648.02
347.261	23844.96
347.712	23484.37
348.163	25176.94
348.613	25431.49
349.064	23728.52
349.515	20762.98
349.965	21252.14
350.416	25550.3
350.866	28045.66
351.317	31684.4
351.767	52422.7
352.217	66170.39
352.668	54896.27
353.118	50223.78
353.568	48473.07
354.018	38236.02
354.468	40296.49
354.918	28884.09
355.368	25267.5
355.818	35686.42
356.268	102521.87
356.718	428306.76
357.168	106485.55
357.617	53368.49
358.067	59412.34
358.517	55608.31
358.966	65237.96
359.416	73051.42
359.865	79001.71
360.315	94100.16
360.764	43785.65
361.213	24548.82
361.663	23274.68
362.112	28771.83
362.561	46430.71
363.01	34959.3
363.459	29467.14
363.908	31903.14
364.357	27070.26
364.806	45705.71
365.255	31397.74
365.703	28767.79
366.152	28764.54
366.601	23318.45
367.05	18906.26
367.498	17185.33
367.947	17989.3
368.395	18690.8
368.844	16534.4
369.292	19964.46
369.74	13786.92
370.189	21116.51
370.637	24775.36
371.085	21396.97
371.533	26079.14
371.981	25181.78
372.429	23970.26
372.877	24977.7
373.325	20929.3
373.773	21373.25
374.221	19054.56
374.669	23697.83
375.116	20562.64
375.564	20781.03
376.012	23306.9
376.459	19277.29
376.907	23034.03
377.354	28005.91
377.801	26138.96
378.249	30088.76
378.696	38561.39
379.143	46808.42
379.591	50049.26
380.038	84619.73
380.485	61235.88
380.932	66201.05
381.379	60569.9
381.826	44710.03
382.273	31853.6
382.72	27966.55
383.166	27314.32
383.613	17722.39
384.06	16008.05
384.506	18550.47
384.953	13694.78
385.4	13845.21
385.846	12163.98
386.292	11909.66
386.739	11694.46
387.185	11580.94
387.631	11576.24
388.078	11238.54
388.524	12054.8
388.97	11141.51
389.416	9285.62
389.862	9862.25
390.308	9331.54
390.754	9480.01
391.2	10280.43
391.645	10531.04
392.091	10054.74
392.537	9728.2
392.983	9745.29
393.428	9560.14
393.874	10249.83
394.319	10271.91
394.765	9723
395.21	9984.08
395.655	9342.4
396.101	8747.52
396.546	7870.34
396.991	7939.68
397.436	7378.63
397.881	7122.13
398.326	6750.19
398.771	6360.73
399.216	5564.33
399.661	5007.7
400.106	4979.19
400.551	5083.6
400.995	4541.65
401.44	4481.08
401.885	4201.93
402.329	4226.74
402.774	4046.26
403.218	3893.57
403.663	3746.36
404.107	3833.84
404.551	3848.36
404.995	3521.42
405.44	3390.04
405.884	3434.43
406.328	3321.66
406.772	3305.38
407.216	3004.98
407.66	2894
408.104	2748.63
408.547	2569.98
408.991	2482.65
409.435	2387.23
409.879	2350.51
410.322	2313.43
410.766	2226.63
411.209	2107.24
411.653	2015.36
412.096	1967.05
412.54	1962.2
412.983	1947.18
413.426	1944.05
413.869	1939.77
414.312	1897.23
414.756	1825.31
415.199	1737.16
415.642	1685.93
416.085	1687.51
416.527	1673.9
416.97	1696.52
417.413	1609.66
417.856	1588.17
418.298	1571.72
418.741	1560.37
419.184	1554.77
419.626	1617.36
420.069	1616.86
420.511	1621.74
420.953	1581.55
421.396	1564.93
421.838	1525.6
422.28	1556.85
422.722	1561.3
423.164	1580.8
423.606	1550.1
424.048	1546.95
424.49	1464.6
424.932	1453.95
425.374	1432.21
425.816	1457.22
426.258	1481.99
426.699	1497.38
427.141	1474.85
427.582	1498
428.024	1491.85
428.465	1480.78
428.907	1440.27
429.348	1425.27
429.789	1422.51
430.231	1392.16
430.672	1410.2
431.113	1379.02
431.554	1357.12
431.995	1325.8
432.436	1277.01
432.877	1246.6
433.318	1223.93
433.759	1218.08
434.2	1217.24
434.64	1205.2
435.081	1208.08
435.522	1144.21
435.962	1101.44
436.403	1075.84
436.843	1088.28
437.284	1063.23
437.724	1032.84
438.164	1038.75
438.604	1017.54
439.045	975.99
439.485	934.28
439.925	913.71
440.365	891.26
440.805	878.68
441.245	865.11
441.685	831.82
442.125	827.69
442.564	833.87
443.004	812.8
443.444	810.84
443.883	812.01
444.323	805.84
444.762	808.23
445.202	818.96
445.641	830.68
446.081	826.96
446.52	832.82
446.959	820.6
447.398	797.75
447.837	787.03
448.276	770.85
448.716	777.81
449.154	783.5
449.593	763.01
450.032	758.35
450.471	744.05
450.91	742.9
451.349	739.2
451.787	737.06
452.226	747.43
452.664	745.05
453.103	746.66
453.541	744.68
453.98	742.84
454.418	747.19
454.856	733.95
455.295	732.63
455.733	738.01
456.171	743.58
456.609	743.48
457.047	743.2
457.485	753.65
457.923	754.39
458.361	742.42
458.798	745.07
459.236	743.5
459.674	749.61
460.111	753.42
460.549	745.78
460.987	742.36
461.424	739.61
461.862	735.81
462.299	725.75
462.736	724.46
463.173	728.43
463.611	719.93
464.048	717.83
464.485	723.5
464.922	715.71
465.359	712.01
465.796	700.03
466.233	695.6
466.67	690.07
467.106	688.96
467.543	682.99
467.98	674.17
468.416	657.7
468.853	652.83
469.29	633.57
469.726	627.83
470.162	611.84
470.599	606.18
471.035	600.99
471.471	585.69
471.907	581.95
472.344	576.27
472.78	575.94
473.216	582.47
473.652	574.2
474.088	571.47
474.523	568.1
474.959	572.17
475.395	565.91
475.831	560.75
476.266	563.27
476.702	560.77
477.138	553.97
477.573	552.18
478.008	548.79
478.444	550.73
478.879	554.93
479.314	555.95
479.75	554.85
480.185	556.87
480.62	561.91
481.055	563.56
481.49	567.16
481.925	575.45
482.36	584.8
482.795	600.18
483.229	615.02
483.664	627.35
484.099	630.35
484.534	640.16
484.968	645.72
485.403	646.72
485.837	645.5
486.271	642.68
486.706	643.08
487.14	635.66
487.574	625.72
488.009	619.69
488.443	613.41
488.877	617.71
489.311	617.8
489.745	624.01
490.179	628.75
490.613	639.6
491.046	643.62
491.48	646.6
491.914	645.74
492.348	648.55
492.781	651.5
493.215	652.54
493.648	653.22
494.082	656.97
494.515	655.33
494.948	661.09
495.382	663.23
495.815	666.7
496.248	670.14
496.681	680.31
497.114	688.72
497.547	695.93
497.98	705.4
498.413	709.15
498.846	716.24
499.279	722.88
499.711	723.9
500.144	723.86
500.577	730.44
501.009	737.65
501.442	743.81
501.874	743.16
502.306	742.92
502.739	746.33
503.171	756.86
503.603	757.53
504.036	762.78
504.468	766.21
504.9	774.22
505.332	778.27
505.764	779.69
506.196	783.36
506.627	794.42
507.059	803.61
507.491	809.95
507.923	806.45
508.354	817.29
508.786	824.48
509.217	837.31
509.649	848.01
510.08	862.25
510.512	874.48
510.943	885.78
511.374	892.97
511.805	908.74
512.237	923.07
512.668	948.39
513.099	969.01
513.53	990.93
513.961	1006.63
514.391	1031.73
514.822	1058.58
515.253	1088.27
515.684	1108.62
516.114	1132.23
516.545	1148.78
516.975	1170.63
517.406	1185.1
517.836	1188.03
518.267	1192.39
518.697	1208.48
519.127	1211.85
519.558	1217.11
519.988	1219.75
520.418	1229.14
520.848	1244
521.278	1250.95
521.708	1255.42
522.138	1266.16
522.567	1292.26
522.997	1313.96
523.427	1326.42
523.857	1341.67
524.286	1349.89
524.716	1362.23
525.145	1378.4
525.575	1388.74
526.004	1401.52
526.433	1406.14
526.863	1406.78
527.292	1398.58
527.721	1403.88
528.15	1408.53
528.579	1409.64
529.008	1420.23
529.437	1439.83
529.866	1450.99
530.295	1464.11
530.724	1474.46
531.152	1497.6
531.581	1510.38
532.01	1525.71
532.438	1532.98
532.867	1546.08
533.295	1561.94
533.723	1567.48
534.152	1566.66
534.58	1566.26
535.008	1553.72
535.436	1556.99
535.865	1563.42
536.293	1575.68
536.721	1589.01
537.149	1611.14
537.576	1613.39
538.004	1623.93
538.432	1630.49
538.86	1630.5
539.287	1637.46
539.715	1650.24
540.143	1652.14
540.57	1650.05
540.998	1646.78
541.425	1627.5
541.852	1609.4
542.28	1608.56
542.707	1594.66
543.134	1582.95
543.561	1578.01
543.988	1571.93
544.415	1570.78
544.842	1566.14
545.269	1559.14
545.696	1560.45
546.123	1570.44
546.549	1560.93
546.976	1549.66
547.403	1548.68
547.829	1550.04
548.256	1551.14
548.682	1546.46
549.108	1539
549.535	1537
549.961	1537.77
550.387	1525.45
550.813	1519.4
551.24	1524.74
551.666	1524.86
552.092	1515.65
552.518	1508.41
552.943	1502.57
553.369	1508.21
553.795	1513.01
554.221	1513.38
554.646	1510.48
555.072	1519.39
555.498	1523.21
555.923	1530.11
556.349	1541.17
556.774	1547.22
557.199	1547.83
557.625	1552.58
558.05	1547.12
558.475	1554.64
558.9	1553.25
559.325	1545.4
559.75	1538.39
560.175	1532.5
560.6	1525.92
561.025	1522.59
561.449	1523.03
561.874	1525.86
562.299	1527.91
562.723	1532.64
563.148	1522.65
563.572	1524.54
563.997	1531.18
564.421	1534.69
564.846	1533.56
565.27	1535.95
565.694	1532.46
566.118	1540.8
566.542	1546.8
566.966	1540.42
567.39	1535.35
567.814	1525.83
568.238	1523.28
568.662	1526.78
569.086	1527.8
569.509	1533.11
569.933	1517.57
570.357	1512.16
570.78	1493.36
571.204	1481.9
571.627	1472.7
572.05	1469.54
572.474	1468.67
572.897	1459.21
573.32	1451.86
573.743	1442.43
574.166	1426.77
574.589	1427.1
575.012	1419.1
575.435	1417.9
575.858	1409.01
576.281	1397.55
576.704	1383.97
577.126	1371.68
577.549	1360.94
577.972	1351.59
578.394	1342.18
578.817	1335.06
579.239	1317.87
579.661	1306.3
580.084	1292.08
580.506	1280.26
580.928	1276.58
581.35	1267.42
581.772	1263.14
582.194	1252.08
582.616	1241.87
583.038	1229.15
583.46	1219.76
583.882	1216.49
584.303	1218.67
584.725	1214.47
585.147	1215.06
585.568	1222.31
585.99	1230.76
586.411	1235.17
586.833	1245.52
587.254	1245.67
587.675	1256.89
588.096	1265.64
588.518	1261.16
588.939	1246.78
589.36	1244.76
589.781	1235.58
590.202	1213.3
590.623	1205.26
591.043	1203.23
591.464	1192.6
591.885	1189.76
592.305	1184.69
592.726	1174.43
593.147	1174.84
593.567	1171.15
593.987	1164.98
594.408	1160.5
594.828	1158.61
595.248	1153.62
595.669	1139.08
596.089	1133.05
596.509	1127.66
596.929	1116.75
597.349	1116.65
597.769	1108.37
598.189	1102.76
598.608	1103.42
599.028	1105.1
599.448	1105
599.867	1094.71
600.287	1090.91
600.706	1087.37
601.126	1079.01
601.545	1077.45
601.965	1076.15
602.384	1072.09
602.803	1074.13
603.222	1069.97
603.641	1064.78
604.061	1061.41
604.48	1059.04
604.898	1065.11
605.317	1068.47
605.736	1069.55
606.155	1067.87
606.574	1060.75
606.992	1065.24
607.411	1061.39
607.829	1055.06
608.248	1052.79
608.666	1050.88
609.085	1049.58
609.503	1043.27
609.921	1039.47
610.339	1040.79
610.758	1040.63
611.176	1036.6
611.594	1029.3
612.012	1027.14
612.43	1029.47
612.847	1034.26
613.265	1036.11
613.683	1040.7
614.101	1041.52
614.518	1037.56
614.936	1030.27
615.353	1019.11
615.771	1017.03
616.188	1017.44
616.606	1015.6
617.023	1010.48
617.44	999.38
617.857	993.73
618.274	986.39
618.691	981.64
619.108	975.09
619.525	970.38
619.942	975.23
620.359	977.72
620.776	973.46
621.192	969.47
621.609	968.36
622.026	973.04
622.442	976.93
622.859	979.76
623.275	974.64
623.691	978.49
624.108	987.5
624.524	998.48
624.94	998.36
625.356	1006.65
625.772	1016.71
626.188	1025.69
626.604	1027.4
627.02	1024.59
627.436	1023.16
627.852	1028.56
628.268	1038.46
628.683	1031.92
629.099	1025.57
629.514	1021.84
629.93	1024.03
630.345	1026.99
630.761	1023.27
631.176	1025.32
631.591	1020.76
632.007	1015.64
632.422	1013.35
632.837	1003.41
633.252	1000.2
633.667	991.11
634.082	983.98
634.497	973
634.911	958
635.326	955.02
635.741	942
636.155	932.86
636.57	933.91
636.984	933.37
637.399	934.33
637.813	932.95
638.228	931.46
638.642	933.96
639.056	926.38
639.47	926.58
639.884	919.2
640.298	914.5
640.712	914.97
641.126	905
641.54	897.91
641.954	894.66
642.368	886.37
642.781	882.49
643.195	869.36
643.609	870.79
644.022	866.75
644.436	865.31
644.849	856.7
645.262	848.39
645.676	851.45
646.089	848.92
646.502	838.98
646.915	836.82
647.328	824.12
647.741	823.72
648.154	814.32
648.567	813.59
648.98	804.43
649.393	805.3
649.805	803.42
650.218	797.9
650.631	786.88
651.043	782.75
651.456	778.15
651.868	779.06
652.28	792.62
652.693	804.21
653.105	809.65
653.517	817.83
653.929	819.71
654.341	824.09
654.753	814.66
655.165	820.2
655.577	818.44
655.989	816.31
656.401	811.94
656.813	784.68
657.224	770.55
657.636	749.44
658.047	737.44
658.459	723.21
658.87	718.66
659.282	712.3
659.693	698.56
660.104	689.33
660.515	680.55
660.926	679.74
661.338	680.81
661.749	677.62
662.159	671.98
662.57	669.11
662.981	667.74
663.392	663.68
663.803	667.98
664.213	668.15
664.624	666.68
665.035	671.11
665.445	662.76
665.855	658.44
666.266	653.97
666.676	654.98
667.086	651.18
667.497	653.22
667.907	650.86
668.317	645.33
668.727	645
669.137	647.56
669.547	647.08
669.956	651.65
670.366	653.75
670.776	657.36
671.186	660.61
671.595	664.49
672.005	668.31
672.414	668.21
672.824	668.34
673.233	672.25
673.642	675.02
674.052	678.98
674.461	681.83
674.87	687.54
675.279	685.53
675.688	688.78
676.097	690.26
676.506	688.56
676.915	701.75
677.323	704.35
677.732	703.07
678.141	702.32
678.549	694.13
678.958	693.26
679.366	693.07
679.775	697.58
680.183	706.1
680.592	710.46
681	713.75
681.408	705.56
681.816	709.9
682.224	716.32
682.632	724.61
683.04	747.43
683.448	765.44
683.856	788.6
684.264	815.11
684.671	837.39
685.079	867.24
685.487	898.78
685.894	945.74
686.302	983.8
686.709	1010.59
687.116	1042.07
687.524	1067.07
687.931	1087.31
688.338	1101.95
688.745	1112.74
689.152	1128.2
689.559	1151.13
689.966	1175.72
690.373	1182.63
690.78	1204.57
691.187	1245.54
691.593	1275.61
692	1301.78
692.407	1343.76
692.813	1398.01
693.22	1439.73
693.626	1484.13
694.032	1520.26
694.439	1576.68
694.845	1623.41
695.251	1682
695.657	1734.32
696.063	1813.7
696.469	1873.28
696.875	1931.16
697.281	1963.26
697.687	2005.47
698.093	2042.67
698.498	2109.06
