Data from C_1_HIR_IL_4N_Splice17_11-52-16-648.txt Node
Date: Sat Mar 14 11:52:16 EDT 2020
User: sa697716
Spectrometer: FLMS03696
Trigger mode: 0
Integration Time (sec): 3.180400E-1
Scans to average: 20
Electric dark correction enabled: true
Nonlinearity correction enabled: true
Boxcar width: 5
XAxis mode: Wavelengths
Number of Pixels in Spectrum: 2048
>>>>>Begin Spectral Data<<<<<
187.83	-272703.87
188.298	1932.8
188.766	1059.59
189.233	911.36
189.701	1290.2
190.169	1804.01
190.636	643.38
191.104	475.45
191.571	42.33
192.039	-59.81
192.506	-59.07
192.974	239.06
193.441	-415.85
193.908	20.91
194.375	-27.38
194.842	15.13
195.31	105.97
195.777	130.46
196.244	318.18
196.711	400.9
197.177	527.7
197.644	766.5
198.111	1326.32
198.578	1872.97
199.045	1539.05
199.511	2505.61
199.978	2905.91
200.445	2483.29
200.911	2780.26
201.378	3127.5
201.844	2874.65
202.31	4922.55
202.777	5188.15
203.243	2889.01
203.709	2759.6
204.176	3247.29
204.642	2702.33
205.108	2543.29
205.574	2068.56
206.04	1892.68
206.506	1767.66
206.972	1649.72
207.438	1587.35
207.903	1796.39
208.369	1576.87
208.835	1574.02
209.301	1645.94
209.766	1686.35
210.232	1669.31
210.697	2063.12
211.163	2533.17
211.628	3816.87
212.094	3217.55
212.559	3974.98
213.024	2456.28
213.49	2970.02
213.955	2882.48
214.42	2819.95
214.885	2628.41
215.35	2515.88
215.815	2424.32
216.28	2571.62
216.745	2080.86
217.21	2255.48
217.675	2066.34
218.14	2320.11
218.604	2603.51
219.069	2985.26
219.534	3155.76
219.998	3690.53
220.463	4499.52
220.927	5581.51
221.392	5277.62
221.856	5376.79
222.32	6791.72
222.785	8411.05
223.249	10626.39
223.713	11912.3
224.177	11939.27
224.642	15326.74
225.106	18880.53
225.57	20660.38
226.034	15335.62
226.497	23399.2
226.961	21127.15
227.425	24614.21
227.889	27321.33
228.353	27362.04
228.816	56494.4
229.28	54110.1
229.744	45632.41
230.207	27685.75
230.671	27246.85
231.134	45086.64
231.597	51962.55
232.061	51984.13
232.524	50734.37
232.987	34982.81
233.45	31457.34
233.914	28233.18
234.377	28956.5
234.84	26514.65
235.303	31351.53
235.766	35024.54
236.229	36235.57
236.691	22829.26
237.154	25671.11
237.617	19317.41
238.08	19795.52
238.542	23209.72
239.005	16605.94
239.468	16479
239.93	15553.2
240.393	14124.35
240.855	12379.39
241.317	12687.09
241.78	15434.64
242.242	15963.57
242.704	17240.56
243.166	15014.21
243.629	13641.14
244.091	15713.31
244.553	17224.1
245.015	18481.59
245.477	23919.44
245.939	35104.74
246.4	37259.84
246.862	36223.04
247.324	34149.15
247.786	38250.82
248.247	50191.02
248.709	51851.35
249.17	38830.09
249.632	36643.9
250.093	42563.86
250.555	36818.35
251.016	22488.7
251.477	21350.93
251.939	23070.67
252.4	24254.64
252.861	28869.39
253.322	26872.93
253.783	32000.93
254.244	41543.29
254.705	32775.64
255.166	29198.5
255.627	28754.73
256.088	40563.57
256.549	43098.66
257.009	37162.22
257.47	45095.38
257.931	36723.09
258.391	27521.43
258.852	28396.24
259.312	29742.82
259.773	36736.8
260.233	31063.17
260.694	26244.85
261.154	29785.73
261.614	23937.26
262.074	21427.69
262.534	22286.86
262.994	21023.92
263.455	28062.32
263.915	23664.49
264.374	22330.28
264.834	24399.92
265.294	27066.75
265.754	28047.76
266.214	26574
266.673	24910.38
267.133	31417.86
267.593	31218.33
268.052	38254.53
268.512	33300.13
268.971	40145.52
269.431	44046.73
269.89	39465.7
270.349	59156.91
270.809	66013.86
271.268	59447.6
271.727	133439.99
272.186	86551.78
272.645	64863.67
273.104	46826.65
273.563	67833.26
274.022	53419.68
274.481	45458.98
274.94	35033.01
275.399	26072.84
275.857	30368.36
276.316	41084.49
276.775	36594.52
277.233	36044.73
277.692	33766.43
278.15	38174.05
278.609	39219.85
279.067	36300.63
279.525	33758.45
279.984	43606.82
280.442	52363.3
280.9	51606.85
281.358	33926.85
281.816	31616.38
282.274	30992.49
282.732	32061.85
283.19	32241.14
283.648	27864.1
284.106	29706.62
284.564	30193.21
285.021	28032.6
285.479	20893.86
285.937	19011.96
286.394	16702
286.852	17198.38
287.309	18064.56
287.767	17428.07
288.224	16585.08
288.682	18202.95
289.139	19976.89
289.596	18291.31
290.053	18989.59
290.511	24001.78
290.968	29098.25
291.425	39512.42
291.882	32914.3
292.339	28685.81
292.796	28483.25
293.252	26865.39
293.709	21330.4
294.166	19122.44
294.623	21138.54
295.079	20316.36
295.536	20403.41
295.992	18542.52
296.449	18336.17
296.905	19025.55
297.362	18222.17
297.818	19176.13
298.274	19903.62
298.731	20301.78
299.187	20095.36
299.643	21582.59
300.099	26124.77
300.555	28683.97
301.011	23978.45
301.467	23102.02
301.923	27056.79
302.379	26449.24
302.835	25988.36
303.291	26001.64
303.746	29600.41
304.202	37387.42
304.658	37551.2
305.113	25257.36
305.569	24730.68
306.024	26390.95
306.479	25126.44
306.935	21209.83
307.39	23164.71
307.845	21411.45
308.301	21531.29
308.756	20987.72
309.211	20245.68
309.666	20717.83
310.121	25700.34
310.576	26119
311.031	25911.56
311.486	29666.61
311.94	29642.29
312.395	39641.66
312.85	74395.52
313.305	365497.72
313.759	1889482.88
314.214	136847.18
314.668	108638.45
315.123	91399.74
315.577	32722.2
316.032	29077.78
316.486	36459.8
316.94	28762.17
317.394	20015.45
317.849	15555.27
318.303	14748.55
318.757	13928.07
319.211	15410.51
319.665	13479.8
320.119	13648.51
320.572	19588.15
321.026	18287.71
321.48	15237.75
321.934	16610.1
322.387	16650.75
322.841	17992.98
323.295	16178.71
323.748	18671.89
324.202	18935.67
324.655	22767.74
325.108	31810.85
325.562	22501.96
326.015	26759.86
326.468	20234.99
326.921	22636.44
327.374	21128.53
327.827	22001.88
328.28	24902.38
328.733	16660.25
329.186	14647.5
329.639	13956.9
330.092	11766.94
330.545	11195.98
330.997	11308.82
331.45	12368.43
331.903	14499.93
332.355	24948.83
332.808	24267.42
333.26	20046.63
333.713	21795.84
334.165	22012.35
334.617	29433.08
335.069	23795.05
335.522	43075.47
335.974	47666.08
336.426	43570.22
336.878	30260.94
337.33	15359.4
337.782	15004.62
338.234	18809.72
338.686	22534.87
339.137	26638.8
339.589	25077.6
340.041	19698.12
340.493	16957.03
340.944	17372
341.396	18717.97
341.847	15750.24
342.299	18610.22
342.75	22757.74
343.201	19871.6
343.653	22834.45
344.104	28110.69
344.555	22133.51
345.006	34424.52
345.457	26332.8
345.908	20959.76
346.359	19724.44
346.81	16042.7
347.261	16918.24
347.712	16652.67
348.163	17895.35
348.613	18118.2
349.064	16947.64
349.515	14852.83
349.965	15219.87
350.416	18365.51
350.866	20161.9
351.317	22819.46
351.767	37814.76
352.217	47753.78
352.668	39620.66
353.118	36223.09
353.568	34973.57
354.018	27667.82
354.468	29180.16
354.918	20933.44
355.368	18315.97
355.818	25900.85
356.268	74508.78
356.718	311469.87
357.168	77580.22
357.617	38941.14
358.067	43422.79
358.517	40631.14
358.966	47595.38
359.416	53386.03
359.865	57890.87
360.315	68847.63
360.764	32180.47
361.213	18025.41
361.663	17119.79
362.112	21128.87
362.561	34190.15
363.01	25733.09
363.459	21703.6
363.908	23474.91
364.357	19953.38
364.806	33711.17
365.255	23223.7
365.703	21250.21
366.152	21286.91
366.601	17258.09
367.05	14031.4
367.498	12750.11
367.947	13349.62
368.395	13905.34
368.844	12329.32
369.292	14890.45
369.74	10293.62
370.189	15763.45
370.637	18518.58
371.085	15978.56
371.533	19479.73
371.981	18774.05
372.429	17917.64
372.877	18695.99
373.325	15663.79
373.773	16012.26
374.221	14266.02
374.669	17707.08
375.116	15347.98
375.564	15490.83
376.012	17397.63
376.459	14398.86
376.907	17273.24
377.354	20935.8
377.801	19576.38
378.249	22570.67
378.696	28935.22
379.143	35084.52
379.591	37479.67
380.038	63650.22
380.485	46110.44
380.932	49957.2
381.379	45774.72
381.826	33709.42
382.273	24046.86
382.72	21109.66
383.166	20610.99
383.613	13385.87
384.06	12131.35
384.506	14092.35
384.953	10373.99
385.4	10473.15
385.846	9191.43
386.292	8986.11
386.739	8819.8
387.185	8752.76
387.631	8750.57
388.078	8499.98
388.524	9112.02
388.97	8415.42
389.416	7017.4
389.862	7464.07
390.308	7075.87
390.754	7187.25
391.2	7809.89
391.645	8000.27
392.091	7635.97
392.537	7383.02
392.983	7397.87
393.428	7260.28
393.874	7788.52
394.319	7825.75
394.765	7401.81
395.21	7599.37
395.655	7111.33
396.101	6648.54
396.546	5994.53
396.991	6048.22
397.436	5614.26
397.881	5418.83
398.326	5129.21
398.771	4837.83
399.216	4226.38
399.661	3803.31
400.106	3787.59
400.551	3864.77
400.995	3456.47
401.44	3416.51
401.885	3203.3
402.329	3229.95
402.774	3088.18
403.218	2984.47
403.663	2868.26
404.107	2935.53
404.551	2950.15
404.995	2698.98
405.44	2601.5
405.884	2635.28
406.328	2541.77
406.772	2527.28
407.216	2299.04
407.66	2222.24
408.104	2104.57
408.547	1967.39
408.991	1899.93
409.435	1825.36
409.879	1793.85
410.322	1767.51
410.766	1701.79
411.209	1615.44
411.653	1547.59
412.096	1511.44
412.54	1507.68
412.983	1494.8
413.426	1496.31
413.869	1493.35
414.312	1462.99
414.756	1410.78
415.199	1342.79
415.642	1305.27
416.085	1305.4
416.527	1295.16
416.97	1313.44
417.413	1244.54
417.856	1231.04
418.298	1218.6
418.741	1209.09
419.184	1204.06
419.626	1252.53
420.069	1253.36
420.511	1259.85
420.953	1233.49
421.396	1222.41
421.838	1192.11
422.28	1219.88
422.722	1226.66
423.164	1244.04
423.606	1224.41
424.048	1226.1
424.49	1164.2
424.932	1157.27
425.374	1139.94
425.816	1158.59
426.258	1180.58
426.699	1194.05
427.141	1175.97
427.582	1191.31
428.024	1183.01
428.465	1173.91
428.907	1142.81
429.348	1129.81
429.789	1131.72
430.231	1107.3
430.672	1120.63
431.113	1093.1
431.554	1073.74
431.995	1045.51
432.436	1008.6
432.877	986.64
433.318	969.48
433.759	965.23
434.2	964.8
434.64	952.5
435.081	954.35
435.522	904.98
435.962	870.77
436.403	852.88
436.843	864.73
437.284	846.21
437.724	823.29
438.164	825.91
438.604	807.07
439.045	774.91
439.485	744.21
439.925	729.94
440.365	711.77
440.805	702.64
441.245	693.37
441.685	667.29
442.125	663.42
442.564	666.12
443.004	652.37
443.444	651.65
443.883	653.45
444.323	646.29
444.762	644.53
445.202	651.87
445.641	662.76
446.081	658.74
446.52	663.09
446.959	654.45
447.398	638.88
447.837	627.85
448.276	613.58
448.716	619.41
449.154	624.03
449.593	609.22
450.032	607.01
450.471	594.96
450.91	594.69
451.349	592.84
451.787	589.69
452.226	597.51
452.664	598.15
453.103	600.2
453.541	597.64
453.98	595.65
454.418	599.77
454.856	589.66
455.295	590.5
455.733	595.25
456.171	598.44
456.609	599.24
457.047	599.07
457.485	607.51
457.923	608.75
458.361	599.21
458.798	601.52
459.236	600.55
459.674	604.73
460.111	606.42
460.549	599.46
460.987	597.01
461.424	594.85
461.862	592.14
462.299	583.78
462.736	582.82
463.173	585.41
463.611	580.47
464.048	578.71
464.485	582.66
464.922	578.12
465.359	575.86
465.796	569.49
466.233	565.55
466.67	560.81
467.106	558.6
467.543	553.15
467.98	546.82
468.416	532.19
468.853	528.37
469.29	513.86
469.726	508.46
470.162	494.79
470.599	487.91
471.035	483.35
471.471	471.37
471.907	468.75
472.344	465.15
472.78	465.9
473.216	471.76
473.652	465.88
474.088	465.23
474.523	462.35
474.959	466.12
475.395	460.74
475.831	457.45
476.266	459.47
476.702	457.5
477.138	453.23
477.573	451.06
478.008	447.41
478.444	448.55
478.879	451.7
479.314	453.35
479.75	453.61
480.185	455.61
480.62	459.69
481.055	460.88
481.49	463.92
481.925	469.27
482.36	476.59
482.795	489.96
483.229	502.96
483.664	512.37
484.099	514.05
484.534	521.8
484.968	527.26
485.403	527.83
485.837	526.55
486.271	525.42
486.706	525.67
487.14	519.98
487.574	511.38
488.009	506.91
488.443	502.64
488.877	507.49
489.311	508.28
489.745	513.23
490.179	517.83
490.613	528.31
491.046	531.32
491.48	535.13
491.914	534.75
492.348	538.72
492.781	540.82
493.215	540.96
493.648	540.88
494.082	543.32
494.515	542.96
494.948	548.08
495.382	549.28
495.815	551.95
496.248	554.88
496.681	563.42
497.114	570.08
497.547	576.74
497.98	584.8
498.413	588.04
498.846	594.84
499.279	599.5
499.711	600.78
500.144	601.59
500.577	609.01
501.009	616.47
501.442	623.22
501.874	623.72
502.306	623.87
502.739	629.96
503.171	640.61
503.603	641.68
504.036	647.88
504.468	652.01
504.9	660.41
505.332	664.34
505.764	666.75
506.196	671.13
506.627	681.45
507.059	691.41
507.491	697.16
507.923	695.6
508.354	706.71
508.786	714.84
509.217	728.57
509.649	739.71
510.08	754.32
510.512	767.23
510.943	779.22
511.374	788.1
511.805	803.05
512.237	818.14
512.668	843.16
513.099	864.57
513.53	886.03
513.961	902.03
514.391	927.52
514.822	953.88
515.253	981.86
515.684	1003
516.114	1027.52
516.545	1045.94
516.975	1068.18
517.406	1083.69
517.836	1088.26
518.267	1095.99
518.697	1113.01
519.127	1118.99
519.558	1127.74
519.988	1132.94
520.418	1143.84
520.848	1159.55
521.278	1168.4
521.708	1189.61
522.138	1201.88
522.567	1227.75
522.997	1250.32
523.427	1264.35
523.857	1280.3
524.286	1290.58
524.716	1306.17
525.145	1323.36
525.575	1334.17
526.004	1348.68
526.433	1341.23
526.863	1343.42
527.292	1337.91
527.721	1343.64
528.15	1349.48
528.579	1351.68
529.008	1361.99
529.437	1380.63
529.866	1392.4
530.295	1407.93
530.724	1419.48
531.152	1442.07
531.581	1455.67
532.01	1471.26
532.438	1478.98
532.867	1492.66
533.295	1507.92
533.723	1512.91
534.152	1512.27
534.58	1513.48
535.008	1501.64
535.436	1503.33
535.865	1510.4
536.293	1522.78
536.721	1536.23
537.149	1558.73
537.576	1561.68
538.004	1573.39
538.432	1581.41
538.86	1580.35
539.287	1586.63
539.715	1598.89
540.143	1602.93
540.57	1601.31
540.998	1598.58
541.425	1580.48
541.852	1562.93
542.28	1562.19
542.707	1549.24
543.134	1537.6
543.561	1535.26
543.988	1529.82
544.415	1529.42
544.842	1524.61
545.269	1518.22
545.696	1519.83
546.123	1531.45
546.549	1522.55
546.976	1510.5
547.403	1509.22
547.829	1510.07
548.256	1511.5
548.682	1507.48
549.108	1501.19
549.535	1500.68
549.961	1501.87
550.387	1491.27
550.813	1484.96
551.24	1489.9
551.666	1491.17
552.092	1482.64
552.518	1477.97
552.943	1472.34
553.369	1478.19
553.795	1481.47
554.221	1480.78
554.646	1478.15
555.072	1484.58
555.498	1487.95
555.923	1494.56
556.349	1505.6
556.774	1511.22
557.199	1510.16
557.625	1513.17
558.05	1507.15
558.475	1514.65
558.9	1512.51
559.325	1503.94
559.75	1498.14
560.175	1490.97
560.6	1483.98
561.025	1480.98
561.449	1481.39
561.874	1483.54
562.299	1486.05
562.723	1490.33
563.148	1480.67
563.572	1482.07
563.997	1487.49
564.421	1489.05
564.846	1487.19
565.27	1487.45
565.694	1483.45
566.118	1490.27
566.542	1495.43
566.966	1487.73
567.39	1480.89
567.814	1469.19
568.238	1466.91
568.662	1468.37
569.086	1469.12
569.509	1472.89
569.933	1459.95
570.357	1452.39
570.78	1433.49
571.204	1421.16
571.627	1411.11
572.05	1408.01
572.474	1404.98
572.897	1392.61
573.32	1385.11
573.743	1374.97
574.166	1359.17
574.589	1356.57
575.012	1347.85
575.435	1344.95
575.858	1334.58
576.281	1323.41
576.704	1308.99
577.126	1297.61
577.549	1286.66
577.972	1276.78
578.394	1266.24
578.817	1259.15
579.239	1242.13
579.661	1230.65
580.084	1216.18
580.506	1204.7
580.928	1199.82
581.35	1188.91
581.772	1184.73
582.194	1173.6
582.616	1162.57
583.038	1150.18
583.46	1140.76
583.882	1137.75
584.303	1139.15
584.725	1135.58
585.147	1137.1
585.568	1143.59
585.99	1151.69
586.411	1155.03
586.833	1165.19
587.254	1165.38
587.675	1176.02
588.096	1184.13
588.518	1178.45
588.939	1164.02
589.36	1160.69
589.781	1151.4
590.202	1131.12
590.623	1125.36
591.043	1122.86
591.464	1112.4
591.885	1108.86
592.305	1103.26
592.726	1092.67
593.147	1094.15
593.567	1090.55
593.987	1085.02
594.408	1080.33
594.828	1077.94
595.248	1072.65
595.669	1059.67
596.089	1055.08
596.509	1050.6
596.929	1040.29
597.349	1039.99
597.769	1031.23
598.189	1026.63
598.608	1027.43
599.028	1028.59
599.448	1027.15
599.867	1017.48
600.287	1013.32
600.706	1009.44
601.126	1001.77
601.545	1000.85
601.965	1000.32
602.384	996.97
602.803	998.49
603.222	993.67
603.641	988.05
604.061	986.01
604.48	982.13
604.898	987.63
605.317	989.93
605.736	989.97
606.155	987.14
606.574	978.73
606.992	982.09
607.411	978.08
607.829	972.06
608.248	968.94
608.666	966.89
609.085	966.19
609.503	959.19
609.921	954.4
610.339	955.69
610.758	954.11
611.176	949.68
611.594	941.69
612.012	939.03
612.43	941.38
612.847	945.38
613.265	944.06
613.683	946.15
614.101	946.27
614.518	942.99
614.936	935.27
615.353	923.64
615.771	921.87
616.188	921.38
616.606	917.17
617.023	910.55
617.44	899.11
617.857	893.44
618.274	886.61
618.691	881.92
619.108	874.81
619.525	869.51
619.942	874.7
620.359	875.36
620.776	871.43
621.192	868.99
621.609	867.44
622.026	872.11
622.442	876.3
622.859	878.57
623.275	872.95
623.691	875.83
624.108	884.06
624.524	893.11
624.94	893.8
625.356	900.58
625.772	908.99
626.188	917.08
626.604	918.54
627.02	916.13
627.436	915.54
627.852	921.09
628.268	930.98
628.683	924.53
629.099	918.03
629.514	914.08
629.93	917
630.345	920.34
630.761	916.37
631.176	919.76
631.591	915.43
632.007	910.08
632.422	907.9
632.837	899.14
633.252	897.91
633.667	890.55
634.082	883.61
634.497	874.24
634.911	860.44
635.326	858.39
635.741	845.46
636.155	837.67
636.57	838.97
636.984	838.14
637.399	839.24
637.813	837.46
638.228	837.21
638.642	840.03
639.056	832.81
639.47	832.35
639.884	826.31
640.298	821.32
640.712	820.85
641.126	812.09
641.54	805.69
641.954	801.75
642.368	794.1
642.781	789.44
643.195	777.43
643.609	777.06
644.022	774.13
644.436	771.68
644.849	764.25
645.262	755.63
645.676	756.32
646.089	754.56
646.502	745.39
646.915	741.96
647.328	731.63
647.741	730.89
648.154	723.23
648.567	721.06
648.98	713.2
649.393	713.32
649.805	712.51
650.218	707.31
650.631	696.68
651.043	692.44
651.456	690.04
651.868	690.13
652.28	703.03
652.693	712.95
653.105	718.6
653.517	725.39
653.929	727.44
654.341	732.12
654.753	725.67
655.165	730.74
655.577	729.21
655.989	726.63
656.401	721.61
656.813	696.89
657.224	683.73
657.636	664.34
658.047	653.3
658.459	640.34
658.87	634.29
659.282	627.61
659.693	614.86
660.104	606.48
660.515	597.77
660.926	596.98
661.338	596.79
661.749	593.2
662.159	588.81
662.57	586.81
662.981	585.32
663.392	582.59
663.803	587.13
664.213	587.05
664.624	585.73
665.035	589.69
665.445	582.62
665.855	580.23
666.266	577.64
666.676	577.51
667.086	573.37
667.497	575.31
667.907	571.71
668.317	566.12
668.727	566.71
669.137	569.4
669.547	569.96
669.956	573.36
670.366	576.14
670.776	578.58
671.186	582.75
671.595	585.69
672.005	589.15
672.414	590.42
672.824	590.45
673.233	593.56
673.642	595.42
674.052	597.98
674.461	601.71
674.87	605.62
675.279	604.64
675.688	606.03
676.097	607.9
676.506	605.33
676.915	616.72
677.323	619.75
677.732	618.26
678.141	617.19
678.549	608.08
678.958	605.83
679.366	603.98
679.775	606.5
680.183	613.86
680.592	617.51
681	619.79
681.408	613.12
681.816	616.13
682.224	620.27
682.632	626.2
683.04	646.7
683.448	662.27
683.856	681.46
684.264	704.77
684.671	724.08
685.079	748.4
685.487	775.14
685.894	814.04
686.302	844.41
686.709	868.46
687.116	895.69
687.524	916.42
687.931	932.92
688.338	948.24
688.745	958.65
689.152	971.43
689.559	993.06
689.966	1016.26
690.373	1025.81
690.78	1048.85
691.187	1088.04
691.593	1119.34
692	1146.31
692.407	1189.85
692.813	1242.11
693.22	1284.59
693.626	1330.94
694.032	1369.66
694.439	1427.95
694.845	1472.83
695.251	1532.19
695.657	1586.76
696.063	1665.63
696.469	1729.61
696.875	1788.39
697.281	1828.2
697.687	1875.14
698.093	1917.63
698.498	1988.61
698.904	2046.11
699.31	2128.32
699.715	2190.74
700.12	2275.61
