Data from C_1_DIV_IL_4N_Splice17_11-59-23-110.txt Node
Date: Sat Mar 14 11:59:23 EDT 2020
User: sa697716
Spectrometer: FLMS03696
Trigger mode: 0
Integration Time (sec): 3.180400E-1
Scans to average: 20
Electric dark correction enabled: true
Nonlinearity correction enabled: true
Boxcar width: 5
XAxis mode: Wavelengths
Number of Pixels in Spectrum: 2048
>>>>>Begin Spectral Data<<<<<
187.83	-297815.77
188.298	2186.47
188.766	1204.19
189.233	1107.36
189.701	1468.57
190.169	1961.1
190.636	706.43
191.104	619.14
191.571	144.72
192.039	-15.54
192.506	87.26
192.974	542.84
193.441	-908.43
193.908	-206.95
194.375	-13.38
194.842	57.99
195.31	99.8
195.777	146.67
196.244	343.04
196.711	404.05
197.177	486.85
197.644	691.94
198.111	1177.91
198.578	1622.47
199.045	1292.77
199.511	2088.66
199.978	2395.57
200.445	2038.2
200.911	2249.41
201.378	2525.29
201.844	2311.1
202.31	3931.61
202.777	4074.95
203.243	2268.49
203.709	2196.31
204.176	2632.5
204.642	2159.63
205.108	2018.73
205.574	1653.45
206.04	1513.85
206.506	1420.1
206.972	1344.77
207.438	1308
207.903	1507.04
208.369	1318.55
208.835	1301.89
209.301	1354.48
209.766	1393.52
210.232	1377.1
210.697	1707.47
211.163	2110.44
211.628	3165.54
212.094	2655.6
212.559	3278.07
213.024	2048.82
213.49	2502.81
213.955	2460.39
214.42	2417.81
214.885	2253.38
215.35	2171.56
215.815	2101
216.28	2234.74
216.745	1838
217.21	2017.6
217.675	1886.32
218.14	2144
218.604	2440.58
219.069	2835.55
219.534	3022.78
219.998	3576.3
220.463	4414.27
220.927	5522.88
221.392	5278.71
221.856	5399.68
222.32	6868.02
222.785	8540.24
223.249	10806.88
223.713	12146.89
224.177	12222.68
224.642	15806.18
225.106	19556.54
225.57	21437.22
226.034	15956.87
226.497	24305.29
226.961	22025.08
227.425	25688.85
227.889	28545.8
228.353	28671.2
228.816	59282.54
229.28	56854.38
229.744	47888.42
230.207	29130.08
230.671	28691.08
231.134	47603.28
231.597	54979.67
232.061	55038.22
232.524	53801.19
232.987	37126.35
233.45	33448.12
233.914	30041.38
234.377	30816.63
234.84	28241.27
235.303	33337.62
235.766	37243.05
236.229	38506.29
236.691	24268.21
237.154	27259.92
237.617	20494.68
238.08	20982.53
238.542	24572.13
239.005	17569.89
239.468	17426.1
239.93	16413.83
240.393	14900.86
240.855	13076.85
241.317	13391.76
241.78	16306.11
242.242	16877.45
242.704	18253.08
243.166	15884.82
243.629	14426.05
244.091	16615.32
244.553	18213.05
245.015	19603.85
245.477	25394.37
245.939	37267.88
246.4	39602.11
246.862	38498.62
247.324	36277.64
247.786	40574.38
248.247	53209.58
248.709	54899.23
249.17	41070.54
249.632	38696.71
250.093	44831.64
250.555	38686.83
251.016	23599.45
251.477	22382.18
251.939	24136.96
252.4	25353.68
252.861	30151.1
253.322	28084.51
253.783	33458.96
254.244	43451.45
254.705	34301.6
255.166	30554.11
255.627	30110.62
256.088	42408.07
256.549	45007.13
257.009	38797.39
257.47	47070.5
257.931	38351.8
258.391	28725.26
258.852	29608.6
259.312	31037.93
259.773	38342.2
260.233	32403.19
260.694	27358.37
261.154	31072.38
261.614	24952.86
262.074	22335.92
262.534	23213.05
262.994	21898.38
263.455	29193.96
263.915	24618.67
264.374	23207.32
264.834	25348.48
265.294	28116.17
265.754	29120.94
266.214	27594.16
266.673	25881.15
267.133	32699.64
267.593	32496.06
268.052	39798.35
268.512	34654.61
268.971	41789.63
269.431	45850.18
269.89	41093.19
270.349	61643.89
270.809	68776.17
271.268	61846.31
271.727	138795.6
272.186	89907.13
272.645	67381.08
273.104	48622.85
273.563	70408.84
274.022	55443.53
274.481	47164.28
274.94	36367.55
275.399	27066.96
275.857	31547.07
276.316	42708.22
276.775	38046.5
277.233	37479.72
277.692	35096.44
278.15	39670.39
278.609	40799.56
279.067	37748.31
279.525	35082.22
279.984	45281.59
280.442	54317.31
280.9	53481.99
281.358	35206.4
281.816	32757
282.274	32038.5
282.732	33129.17
283.19	33332.94
283.648	28777.76
284.106	30683.33
284.564	31204.65
285.021	28940.92
285.479	21580.59
285.937	19652.92
286.394	17212.82
286.852	17725.75
287.309	18651.87
287.767	17998.39
288.224	17104.23
288.682	18774.26
289.139	20588.36
289.596	18819.74
290.053	19557.44
290.511	24692.82
290.968	29970.11
291.425	40745.93
291.882	33930.87
292.339	29554.91
292.796	29375.88
293.252	27685.12
293.709	21991.93
294.166	19713.95
294.623	21830.37
295.079	20962.83
295.536	21053.79
295.992	19117.7
296.449	18892.54
296.905	19636.73
297.362	18824.47
297.818	19794.44
298.274	20538.49
298.731	20924.45
299.187	20715.32
299.643	22217.95
300.099	26866.83
300.555	29471.55
301.011	24618.91
301.467	23731.07
301.923	27784.97
302.379	27144.02
302.835	26666.85
303.291	26679.69
303.746	30350.88
304.202	38332.13
304.658	38540.35
305.113	25883.47
305.569	25368.53
306.024	27039.76
306.479	25724.22
306.935	21679.46
307.39	23636.47
307.845	21806.14
308.301	21956.61
308.756	21398.19
309.211	20619.23
309.666	21089.69
310.121	26193.52
310.576	26561.95
311.031	26332.35
311.486	30170.64
311.94	30155.47
312.395	40366.43
312.85	75801.96
313.305	372528.66
313.759	1928651.54
314.214	139770.24
314.668	110908.46
315.123	93217.65
315.577	33407.48
316.032	29705.2
316.486	37188.6
316.94	29315.78
317.394	20374.21
317.849	15821.2
318.303	14960.77
318.757	14108.93
319.211	15571.87
319.665	13606.25
320.119	13784.24
320.572	19769.48
321.026	18467
321.48	15372.01
321.934	16785.66
322.387	16821.88
322.841	18166.62
323.295	16313.3
323.748	18782.76
324.202	19042.35
324.655	22843.53
325.108	31915.35
325.562	22543.78
326.015	26787.91
326.468	20246.95
326.921	22615.78
327.374	21097.6
327.827	21982.72
328.28	24893.66
328.733	16687.88
329.186	14692.17
329.639	14017.67
330.092	11804.69
330.545	11243.78
330.997	11348.66
331.45	12415.05
331.903	14539.77
332.355	25032.58
332.808	24331.54
333.26	20072.63
333.713	21792.76
334.165	21953.58
334.617	29291.17
335.069	23643.75
335.522	42748.48
335.974	47240.62
336.426	43104.26
336.878	29832.8
337.33	15113.53
337.782	14746.61
338.234	18451.79
338.686	22051.89
339.137	26064.91
339.589	24564.46
340.041	19298.12
340.493	16609.98
340.944	17025.25
341.396	18339.14
341.847	15421.17
342.299	18180.34
342.75	22170.68
343.201	19406.94
343.653	22345.8
344.104	27512.55
344.555	21625.19
345.006	33652.13
345.457	25741.31
345.908	20474.15
346.359	19275.07
346.81	15711.75
347.261	16567.8
347.712	16348.83
348.163	17521.8
348.613	17746.7
349.064	16568.99
349.515	14525.27
349.965	14866.72
350.416	17892.34
350.866	19636.43
351.317	22178.05
351.767	36727.23
352.217	46404.33
352.668	38555.75
353.118	35367.25
353.568	34194.27
354.018	27062.27
354.468	28531.53
354.918	20492.43
355.368	17961.59
355.818	25382.38
356.268	73112.05
356.718	306859.03
357.168	76464.62
357.617	38390.27
358.067	42639.11
358.517	39887.74
358.966	46840.75
359.416	52681.85
359.865	57121.83
360.315	68038.63
360.764	31827.73
361.213	17838.31
361.663	16883.46
362.112	20866.95
362.561	33753.13
363.01	25568.62
363.459	21557.94
363.908	23341.95
364.357	19887.04
364.806	33625.13
365.255	23172.28
365.703	21276.21
366.152	21386.62
366.601	17398.13
367.05	14159.94
367.498	12916.84
367.947	13532.14
368.395	14149.43
368.844	12594.04
369.292	15225.11
369.74	10573.87
370.189	16283.9
370.637	19163.1
371.085	16597.24
371.533	20329.48
371.981	19704.34
372.429	18847.02
372.877	19730.18
373.325	16591.21
373.773	17003.71
374.221	15192.1
374.669	18923.2
375.116	16452.56
375.564	16690.9
376.012	18770.48
376.459	15555.39
376.907	18714.14
377.354	22767.65
377.801	21337.64
378.249	24595.63
378.696	31622.18
379.143	38612.21
379.591	41419.83
380.038	70406.86
380.485	51113.5
380.932	55536.3
381.379	51027.26
381.826	37773
382.273	27003.4
382.72	23749.51
383.166	23290.92
383.613	15157.99
384.06	13723.05
384.506	15960.85
384.953	11798.4
385.4	11955.49
385.846	10522.04
386.292	10314.62
386.739	10126.9
387.185	10055.76
387.631	10104.91
388.078	9845.58
388.524	10563.77
388.97	9787.23
389.416	8172.03
389.862	8698.71
390.308	8251.18
390.754	8393.37
391.2	9124.88
391.645	9354.15
392.091	8947.67
392.537	8662.54
392.983	8684.77
393.428	8554.48
393.874	9178.53
394.319	9215.74
394.765	8727.57
395.21	8983.77
395.655	8430.47
396.101	7886.69
396.546	7118.54
396.991	7190.8
397.436	6678.29
397.881	6450.72
398.326	6100.42
398.771	5749.35
399.216	5027.48
399.661	4527.86
400.106	4490.98
400.551	4587.46
400.995	4106.72
401.44	4049.28
401.885	3796.04
402.329	3818.25
402.774	3652.25
403.218	3522.17
403.663	3387.01
404.107	3471.69
404.551	3485.56
404.995	3193.26
405.44	3063.79
405.884	3105.74
406.328	3003.59
406.772	2984.01
407.216	2710.41
407.66	2611.22
408.104	2476.56
408.547	2313.93
408.991	2231.96
409.435	2143.94
409.879	2107.35
410.322	2074.38
410.766	1996.9
411.209	1890.84
411.653	1811.41
412.096	1770.76
412.54	1770.15
412.983	1755.37
413.426	1755.29
413.869	1749.18
414.312	1710.51
414.756	1645.33
415.199	1568.18
415.642	1517.35
416.085	1514.98
416.527	1498.96
416.97	1517.53
417.413	1435.42
417.856	1418.29
418.298	1401.74
418.741	1389.55
419.184	1386.45
419.626	1443.2
420.069	1441.93
420.511	1448.61
420.953	1417.97
421.396	1405.44
421.838	1369.91
422.28	1398.88
422.722	1404.77
423.164	1423.25
423.606	1399.38
424.048	1395.49
424.49	1325.17
424.932	1316.46
425.374	1298.85
425.816	1319.48
426.258	1342.89
426.699	1353.47
427.141	1330.53
427.582	1347.96
428.024	1339.02
428.465	1329.84
428.907	1292.07
429.348	1274.77
429.789	1271.11
430.231	1240.08
430.672	1253.24
431.113	1219.1
431.554	1199.88
431.995	1167.62
432.436	1121.06
432.877	1093.9
433.318	1073.6
433.759	1068.35
434.2	1066.58
434.64	1056.09
435.081	1058.85
435.522	1002.35
435.962	966.68
436.403	944.88
436.843	958.03
437.284	937.86
437.724	911.01
438.164	912.41
438.604	891.92
439.045	856.89
439.485	818.75
439.925	799.39
440.365	779.28
440.805	768.48
441.245	758.9
441.685	731.31
442.125	726.2
442.564	729.98
443.004	712.75
443.444	710.88
443.883	712.04
444.323	708.52
444.762	709.79
445.202	718.74
445.641	731.36
446.081	725.68
446.52	729.86
446.959	722.21
447.398	705.3
447.837	696.26
448.276	682.98
448.716	688.6
449.154	694.8
449.593	678.62
450.032	676.17
450.471	662.02
450.91	662.52
451.349	661.07
451.787	658.52
452.226	667.84
452.664	667.78
453.103	669.88
453.541	670.56
453.98	668.03
454.418	672.39
454.856	661.9
455.295	662.54
455.733	669.2
456.171	672.62
456.609	674.3
457.047	675.18
457.485	685.46
457.923	687.61
458.361	677.59
458.798	679.37
459.236	678.01
459.674	682.89
460.111	685.47
460.549	678.8
460.987	677.29
461.424	674.74
461.862	671.3
462.299	661.71
462.736	660.23
463.173	662.37
463.611	656.25
464.048	654.72
464.485	659.56
464.922	654.08
465.359	649.64
465.796	639.7
466.233	634.51
466.67	629.87
467.106	627.84
467.543	621.53
467.98	613.17
468.416	597.88
468.853	593.72
469.29	576.18
469.726	569.04
470.162	554.69
470.599	548.42
471.035	543.26
471.471	529.63
471.907	525.95
472.344	521.41
472.78	522.49
473.216	528.67
473.652	521.48
474.088	521.04
474.523	520.19
474.959	524.5
475.395	519.41
475.831	515.62
476.266	517.81
476.702	516.49
477.138	511.4
477.573	510.01
478.008	507.08
478.444	509.18
478.879	513.15
479.314	514.13
479.75	512.87
480.185	515.05
480.62	519.64
481.055	522.28
481.49	526.72
481.925	533.82
482.36	542.16
482.795	557.44
483.229	571.74
483.664	583.21
484.099	585.64
484.534	594.99
484.968	600.5
485.403	602.52
485.837	601.81
486.271	599
486.706	600.94
487.14	595.04
487.574	586.24
488.009	581.4
488.443	576.38
488.877	583.17
489.311	585.53
489.745	593.74
490.179	599.31
490.613	610.6
491.046	616.58
491.48	620.81
491.914	621.73
492.348	626.04
492.781	630.83
493.215	633.39
493.648	634.3
494.082	639.27
494.515	639.12
494.948	646.66
495.382	651
495.815	655.82
496.248	661.49
496.681	674.06
497.114	684.9
497.547	694.61
497.98	706.52
498.413	712.8
498.846	722.16
499.279	730.83
499.711	734.97
500.144	737.95
500.577	747.49
501.009	757.7
501.442	766.04
501.874	767.85
502.306	769.29
502.739	776.08
503.171	789.58
503.603	792.97
504.036	801.52
504.468	806.96
504.9	817.57
505.332	824.57
505.764	828.61
506.196	834.94
506.627	847.56
507.059	859.83
507.491	867.61
507.923	865.7
508.354	879.51
508.786	888.41
509.217	904
509.649	916.69
510.08	932.55
510.512	946.7
510.943	959.73
511.374	969.77
511.805	987.36
512.237	1003.89
512.668	1032.04
513.099	1055.12
513.53	1078.55
513.961	1095.49
514.391	1122.09
514.822	1150.41
515.253	1181.42
515.684	1203
516.114	1228.01
516.545	1244.8
516.975	1266.06
517.406	1280.25
517.836	1280.15
518.267	1284.47
518.697	1299.07
519.127	1302.18
519.558	1306.73
519.988	1307.94
520.418	1314.58
520.848	1327.48
521.278	1333.51
521.708	1348.9
522.138	1358.65
522.567	1383.79
522.997	1402.99
523.427	1414.34
523.857	1426.8
524.286	1433.99
524.716	1445.21
525.145	1459.58
525.575	1466.94
526.004	1477.09
526.433	1467.83
526.863	1465.85
527.292	1456.43
527.721	1461.68
528.15	1464.92
528.579	1463.72
529.008	1471.89
529.437	1489.83
529.866	1500.94
530.295	1514.82
530.724	1526.09
531.152	1547.37
531.581	1558.98
532.01	1572.99
532.438	1578.08
532.867	1590.83
533.295	1606.43
533.723	1610.62
534.152	1608.65
534.58	1608.15
535.008	1592.77
535.436	1592.56
535.865	1599.69
536.293	1611.24
536.721	1624.93
537.149	1647.06
537.576	1648.55
538.004	1658.41
538.432	1665.97
538.86	1664.3
539.287	1669.32
539.715	1681.65
540.143	1684.16
540.57	1680.62
540.998	1677.32
541.425	1656.98
541.852	1637.77
542.28	1636.04
542.707	1622.08
543.134	1608.6
543.561	1605.06
543.988	1598.97
544.415	1599.21
544.842	1593.9
545.269	1586.33
545.696	1587.71
546.123	1597.68
546.549	1588.52
546.976	1576.96
547.403	1576.48
547.829	1577.1
548.256	1577.2
548.682	1573.26
549.108	1566.02
549.535	1564.4
549.961	1565.85
550.387	1554.17
550.813	1549.32
551.24	1554.59
551.666	1555.05
552.092	1546.43
552.518	1541.6
552.943	1536.1
553.369	1541.62
553.795	1545.58
554.221	1546.63
554.646	1543.59
555.072	1551.28
555.498	1555.47
555.923	1562.58
556.349	1574.16
556.774	1581.1
557.199	1581.34
557.625	1586.86
558.05	1582.02
558.475	1590.99
558.9	1590.24
559.325	1583.66
559.75	1578.03
560.175	1571.67
560.6	1566.31
561.025	1564.76
561.449	1565.23
561.874	1570.05
562.299	1573.9
562.723	1579.83
563.148	1570.8
563.572	1573.26
563.997	1583.41
564.421	1588.84
564.846	1589.35
565.27	1593.26
565.694	1592.22
566.118	1603.17
566.542	1610.1
566.966	1605.56
567.39	1601.52
567.814	1592.8
568.238	1594.08
568.662	1597.87
569.086	1601.59
569.509	1610.13
569.933	1597.78
570.357	1594.15
570.78	1576.29
571.204	1566.77
571.627	1558.53
572.05	1559.13
572.474	1561.49
572.897	1551.54
573.32	1545.65
573.743	1537.72
574.166	1521.87
574.589	1522.85
575.012	1515.81
575.435	1516.39
575.858	1508.47
576.281	1498.66
576.704	1485.19
577.126	1473.69
577.549	1464.63
577.972	1456.3
578.394	1447.03
578.817	1440.85
579.239	1423.4
579.661	1411.36
580.084	1397.19
580.506	1385.58
580.928	1382.08
581.35	1372.78
581.772	1369.11
582.194	1358.14
582.616	1346.76
583.038	1334.11
583.46	1324.85
583.882	1322.99
584.303	1326.83
584.725	1323.52
585.147	1325.38
585.568	1334.73
585.99	1345.89
586.411	1351.42
586.833	1363.06
587.254	1363.97
587.675	1377.11
588.096	1387.51
588.518	1382.32
588.939	1367
589.36	1364.89
589.781	1355.97
590.202	1330.83
590.623	1322.85
591.043	1321.15
591.464	1310.08
591.885	1308.19
592.305	1303.73
592.726	1291.89
593.147	1293.48
593.567	1289.37
593.987	1283.28
594.408	1279.62
594.828	1278.85
595.248	1273.36
595.669	1257.89
596.089	1252.93
596.509	1247.75
596.929	1235.67
597.349	1237.79
597.769	1228.53
598.189	1222.74
598.608	1223.56
599.028	1225.51
599.448	1226.15
599.867	1214.8
600.287	1210.53
600.706	1206.89
601.126	1198.44
601.545	1197.85
601.965	1197.04
602.384	1193.79
602.803	1197.6
603.222	1193.26
603.641	1186.58
604.061	1183.53
604.48	1180.65
604.898	1188.53
605.317	1193.41
605.736	1195.58
606.155	1192.95
606.574	1183.8
606.992	1187.41
607.411	1182.83
607.829	1176.14
608.248	1172.79
608.666	1169.73
609.085	1169.43
609.503	1161.85
609.921	1155.53
610.339	1156.85
610.758	1156.43
611.176	1152.6
611.594	1145.47
612.012	1142.46
612.43	1145.42
612.847	1151.8
613.265	1153.24
613.683	1157.4
614.101	1159.51
614.518	1156.62
614.936	1148.12
615.353	1136.33
615.771	1135.15
616.188	1135.33
616.606	1132.01
617.023	1125.91
617.44	1114.2
617.857	1108.28
618.274	1101.22
618.691	1094.93
619.108	1087.31
619.525	1082.94
619.942	1088.19
620.359	1089.95
620.776	1085.72
621.192	1082.99
621.609	1082.36
622.026	1087.8
622.442	1092.71
622.859	1095.26
623.275	1088.59
623.691	1092.96
624.108	1103.05
624.524	1116.46
624.94	1116.73
625.356	1126.47
625.772	1137.59
626.188	1147.97
626.604	1149.58
627.02	1147.02
627.436	1145.23
627.852	1152.55
628.268	1163.97
628.683	1155.41
629.099	1146.31
629.514	1141.76
629.93	1144.39
630.345	1149.11
630.761	1144.9
631.176	1148.02
631.591	1141.95
632.007	1136.98
632.422	1135.78
632.837	1125.72
633.252	1123.4
633.667	1114.78
634.082	1107.43
634.497	1095.9
634.911	1078.67
635.326	1075
635.741	1060.42
636.155	1052.3
636.57	1053.93
636.984	1052.98
637.399	1053.83
637.813	1054.01
638.228	1053.41
638.642	1057.43
639.056	1049.44
639.47	1050.06
639.884	1044.49
640.298	1039.8
640.712	1039.17
641.126	1027.87
641.54	1019.76
641.954	1015.56
642.368	1006.28
642.781	1000.44
643.195	985.75
643.609	986.71
644.022	982.15
644.436	978.49
644.849	968.5
645.262	958.21
645.676	960.17
646.089	957.78
646.502	945.16
646.915	939.74
647.328	924.98
647.741	922.95
648.154	910.83
648.567	907.51
648.98	895.71
649.393	894.51
649.805	891.22
650.218	884.75
650.631	870.31
651.043	865.7
651.456	859.9
651.868	860.18
652.28	874.4
652.693	886.35
653.105	891.83
653.517	899.19
653.929	900.88
654.341	905.5
654.753	894.22
655.165	899.98
655.577	896.99
655.989	893.77
656.401	885.69
656.813	854.43
657.224	837.64
657.636	812.82
658.047	797.26
658.459	778.25
658.87	770.48
659.282	760.02
659.693	742.41
660.104	730.07
660.515	717.12
660.926	714.29
661.338	710.34
661.749	703.22
662.159	694.99
662.57	690.85
662.981	687.23
663.392	680.32
663.803	683.24
664.213	679
664.624	674.29
665.035	676.24
665.445	665.69
665.855	659.45
666.266	652.71
666.676	650.37
667.086	641.6
667.497	640.61
667.907	634.89
668.317	626.7
668.727	624.49
669.137	624.82
669.547	622.22
669.956	623.28
670.366	624.92
670.776	625.16
671.186	626.94
671.595	629.42
672.005	631.19
672.414	629.73
672.824	627.77
673.233	629.69
673.642	630.21
674.052	632.99
674.461	635.17
674.87	638.78
675.279	636.46
675.688	637.04
676.097	638.58
676.506	635.74
676.915	648.67
677.323	650.92
677.732	649.39
678.141	648.81
678.549	639.46
678.958	638.92
679.366	637.92
679.775	642.78
680.183	652.88
680.592	657.39
681	662.99
681.408	656.18
681.816	662.92
682.224	670.74
682.632	679.98
683.04	704.87
683.448	724.51
683.856	750.99
684.264	780.49
684.671	806.91
685.079	840.1
685.487	876.55
685.894	927.79
686.302	969.2
686.709	1003.27
687.116	1043.76
687.524	1077.77
687.931	1105.95
688.338	1128.68
688.745	1147.89
689.152	1171.56
689.559	1203.05
689.966	1234.36
690.373	1248.03
690.78	1277.52
691.187	1326.2
691.593	1360.08
692	1389.5
692.407	1434.89
692.813	1491.84
693.22	1536.31
693.626	1580.08
694.032	1615.68
694.439	1672.06
694.845	1714.25
695.251	1770.53
695.657	1819.05
696.063	1895.61
696.469	1949.22
696.875	2000.88
697.281	2028.29
697.687	2062.34
698.093	2091.69
