Data from C_1_DEC_VA_2N_Splice17_11-57-24-392.txt Node
Date: Sat Mar 14 11:57:24 EDT 2020
User: sa697716
Spectrometer: FLMS03696
Trigger mode: 0
Integration Time (sec): 3.180400E-1
Scans to average: 20
Electric dark correction enabled: true
Nonlinearity correction enabled: true
Boxcar width: 5
XAxis mode: Wavelengths
Number of Pixels in Spectrum: 2048
>>>>>Begin Spectral Data<<<<<
187.83	-289882.85
188.298	2160.87
188.766	1172.17
189.233	1093.95
189.701	1522.23
190.169	1971.2
190.636	719.78
191.104	576.03
191.571	103.78
192.039	-20.68
192.506	-51.26
192.974	347
193.441	-582.93
193.908	-81.52
194.375	19.42
194.842	114.44
195.31	125.02
195.777	117.6
196.244	316.63
196.711	434.14
197.177	561.24
197.644	769.71
198.111	1351.04
198.578	1915.46
199.045	1531.97
199.511	2489.34
199.978	2909.85
200.445	2479.95
200.911	2787.15
201.378	3102.46
201.844	2789.18
202.31	4785.77
202.777	5034.27
203.243	2787.38
203.709	2678.32
204.176	3212.08
204.642	2672.56
205.108	2494.24
205.574	2035.23
206.04	1855.12
206.506	1755.72
206.972	1670.86
207.438	1611.06
207.903	1836.46
208.369	1616.61
208.835	1615.8
209.301	1684.53
209.766	1722.12
210.232	1700.49
210.697	2119.94
211.163	2621.45
211.628	3940.1
212.094	3297.27
212.559	4066.43
213.024	2514.95
213.49	3053.64
213.955	2938.2
214.42	2893.84
214.885	2686.29
215.35	2585.87
215.815	2472.78
216.28	2610.87
216.745	2123.68
217.21	2298.13
217.675	2107.5
218.14	2374.06
218.604	2670.3
219.069	3060.84
219.534	3198.67
219.998	3715.59
220.463	4485.38
220.927	5535.6
221.392	5203.71
221.856	5266.88
222.32	6627.48
222.785	8181.47
223.249	10273.06
223.713	11435.01
224.177	11429.6
224.642	14680.75
225.106	18091.63
225.57	19795.75
226.034	14731.15
226.497	22479.19
226.961	20356.56
227.425	23728.53
227.889	26301.12
228.353	26398.78
228.816	54579.65
229.28	52239.34
229.744	44089.38
230.207	26802.58
230.671	26343.78
231.134	43597.03
231.597	50219.29
232.061	50135.48
232.524	48882.99
232.987	33700.56
233.45	30311.19
233.914	27207.96
234.377	27940.36
234.84	25554.27
235.303	30140.11
235.766	33638.14
236.229	34708.78
236.691	21884.96
237.154	24592.9
237.617	18508.31
238.08	18950.04
238.542	22201.85
239.005	15853.39
239.468	15716.22
239.93	14829.17
240.393	13488.38
240.855	11843.93
241.317	12136.57
241.78	14760.7
242.242	15283.73
242.704	16518.36
243.166	14386.21
243.629	13046.36
244.091	15063.99
244.553	16520.68
245.015	17749.81
245.477	22945.87
245.939	33657.97
246.4	35772.33
246.862	34778.98
247.324	32758.67
247.786	36639.03
248.247	48058.52
248.709	49649.24
249.17	37153.72
249.632	35050.09
250.093	40691.62
250.555	35204.23
251.016	21522.22
251.477	20435.33
251.939	22057.8
252.4	23173.84
252.861	27596.55
253.322	25675.8
253.783	30616.4
254.244	39705.75
254.705	31291.81
255.166	27836.71
255.627	27397.1
256.088	38619.14
256.549	41021.02
257.009	35381.86
257.47	42906.44
257.931	34973.23
258.391	26240.87
258.852	27040.6
259.312	28349.82
259.773	35045.43
260.233	29612.41
260.694	25023.35
261.154	28368.88
261.614	22777.6
262.074	20385.76
262.534	21200.19
262.994	19978.6
263.455	26627.68
263.915	22453.29
264.374	21170.78
264.834	23128.92
265.294	25629.78
265.754	26530.11
266.214	25148.58
266.673	23579.2
267.133	29758.61
267.593	29557.38
268.052	36156.16
268.512	31441.81
268.971	37897.51
269.431	41573.3
269.89	37218.54
270.349	55840.03
270.809	62251.49
271.268	55978.23
271.727	125298.3
272.186	81143.79
272.645	60841.76
273.104	43910.35
273.563	63585.37
274.022	50038.18
274.481	42534.82
274.94	32774.42
275.399	24360.51
275.857	28392.33
276.316	38393.84
276.775	34253.93
277.233	33733.09
277.692	31565.24
278.15	35726.79
278.609	36738.07
279.067	34009.17
279.525	31591.94
279.984	40800.44
280.442	49020.68
280.9	48294.66
281.358	31784.17
281.816	29615.8
282.274	29001.88
282.732	29978.42
283.19	30141.79
283.648	26057.78
284.106	27743.91
284.564	28210.95
285.021	26167.66
285.479	19506.85
285.937	17744.94
286.394	15556.92
286.852	15998.15
287.309	16796.75
287.767	16237.15
288.224	15426.3
288.682	16919.16
289.139	18557.58
289.596	16993.38
290.053	17655.44
290.511	22258.9
290.968	27020.16
291.425	36667.92
291.882	30533.61
292.339	26626.04
292.796	26419.57
293.252	24928.35
293.709	19791.34
294.166	17759.08
294.623	19650.38
295.079	18857.28
295.536	18962.64
295.992	17190.83
296.449	16998.74
296.905	17642.64
297.362	16928.55
297.818	17807.17
298.274	18457.8
298.731	18826.51
299.187	18634.98
299.643	19975.51
300.099	24152.97
300.555	26480.81
301.011	22147.65
301.467	21367.33
301.923	25045.24
302.379	24430.16
302.835	23995.14
303.291	24028.77
303.746	27351.73
304.202	34542.54
304.658	34734.84
305.113	23413.71
305.569	22972.27
306.024	24502.38
306.479	23339.41
306.935	19689.17
307.39	21501.91
307.845	19866.24
308.301	20008.83
308.756	19494.07
309.211	18783.88
309.666	19244.21
310.121	23873.61
310.576	24238.63
311.031	24057.61
311.486	27542.12
311.94	27530.05
312.395	36809.19
312.85	69161.93
313.305	339504.71
313.759	1758413.68
314.214	127390.39
314.668	100946.89
315.123	84806.2
315.577	30412.68
316.032	27075.82
316.486	33943.76
316.94	26800.4
317.394	18682.5
317.849	14517.39
318.303	13745.48
318.757	12955.7
319.211	14337.52
319.665	12558.11
320.119	12705.54
320.572	18240.26
321.026	17023.65
321.48	14167.54
321.934	15442.84
322.387	15492.73
322.841	16725.91
323.295	15057.99
323.748	17358.43
324.202	17605.23
324.655	21145.37
325.108	29595.65
325.562	20875.25
326.015	24806.5
326.468	18754.71
326.921	20966.55
327.374	19551.2
327.827	20404.13
328.28	23084.85
328.733	15470.41
329.186	13620.6
329.639	12986.75
330.092	10931.3
330.545	10425.36
330.997	10522.79
331.45	11510.48
331.903	13474.11
332.355	23168.25
332.808	22507.08
333.26	18561.75
333.713	20157.01
334.165	20325.62
334.617	27147.55
335.069	21984.87
335.522	39781.77
335.974	44061.69
336.426	40285.83
336.878	27995.54
337.33	14203.62
337.782	13866.98
338.234	17387.18
338.686	20786.02
339.137	24587.05
339.589	23095.53
340.041	18089.39
340.493	15516.45
340.944	15881.76
341.396	17087.82
341.847	14341.94
342.299	16934.81
342.75	20676.61
343.201	18062.68
343.653	20801.04
344.104	25576.39
344.555	20143.58
345.006	31334.28
345.457	24013.02
345.908	19101.89
346.359	17981.82
346.81	14662.86
347.261	15452.49
347.712	15204.1
348.163	16288.86
348.613	16490.71
349.064	15399.75
349.515	13499.72
349.965	13849.97
350.416	16662.22
350.866	18280.57
351.317	20659.83
351.767	34165.7
352.217	43115.05
352.668	35798.6
353.118	32762.05
353.568	31546.52
354.018	24925.99
354.468	26289.95
354.918	18853.67
355.368	16493.18
355.818	23296.11
356.268	66983.16
356.718	280840.6
357.168	69913.31
357.617	35077.34
358.067	39038.91
358.517	36605.89
358.966	42940.35
359.416	48135.59
359.865	52125.88
360.315	62181.74
360.764	29056.6
361.213	16282.07
361.663	15428.44
362.112	19024.95
362.561	30699.84
363.01	23195.28
363.459	19559.29
363.908	21176.56
364.357	17978.93
364.806	30302.31
365.255	20847.22
365.703	19083.81
366.152	19152.41
366.601	15537.1
367.05	12652.86
367.498	11512.78
367.947	12037.31
368.395	12514.19
368.844	11069.48
369.292	13327.18
369.74	9208.3
370.189	14085.25
370.637	16503.53
371.085	14215.55
371.533	17305.63
371.981	16662.82
372.429	15899.12
372.877	16542.72
373.325	13854.83
373.773	14124.06
374.221	12594.33
374.669	15630.69
375.116	13513.03
375.564	13619.79
376.012	15228.17
376.459	12546.35
376.907	14996.46
377.354	18113.71
377.801	16909.59
378.249	19408.2
378.696	24814.88
379.143	30046.83
379.591	32069.66
380.038	54351.66
380.485	39353.08
380.932	42473.6
381.379	38881.33
381.826	28645.19
382.273	20412.13
382.72	17809.43
383.166	17416.79
383.613	11312.22
384.06	10213.12
384.506	11830.28
384.953	8691.65
385.4	8760.89
385.846	7705.42
386.292	7531.27
386.739	7386.26
387.185	7301.21
387.631	7321.96
388.078	7098.24
388.524	7601.44
388.97	7032.38
389.416	5871.12
389.862	6244.05
390.308	5912
390.754	6010.98
391.2	6516.42
391.645	6674.37
392.091	6394.47
392.537	6190.17
392.983	6206.61
393.428	6111.69
393.874	6557.08
394.319	6604.19
394.765	6273.57
395.21	6471.2
395.655	6070.72
396.101	5702.76
396.546	5155.29
396.991	5204.83
397.436	4840.68
397.881	4689.91
398.326	4450.32
398.771	4216.68
399.216	3683.3
399.661	3322.92
400.106	3309.23
400.551	3386.98
400.995	3042.29
401.44	3008.41
401.885	2829.46
402.329	2865.66
402.774	2749.66
403.218	2660.87
403.663	2563.72
404.107	2635.36
404.551	2650.73
404.995	2433.24
405.44	2346.33
405.884	2379.98
406.328	2301.84
406.772	2295.08
407.216	2084.65
407.66	2007.56
408.104	1906.92
408.547	1783.27
408.991	1723.33
409.435	1657.5
409.879	1635.08
410.322	1612.53
410.766	1554.96
411.209	1477.6
411.653	1418.32
412.096	1390.6
412.54	1391.65
412.983	1381.58
413.426	1384.44
413.869	1379.58
414.312	1354.62
414.756	1303.12
415.199	1244.35
415.642	1207.97
416.085	1207.89
416.527	1197.19
416.97	1214.11
417.413	1152.64
417.856	1137.85
418.298	1124.44
418.741	1117.56
419.184	1114.96
419.626	1158.05
420.069	1153.31
420.511	1156.67
420.953	1130.6
421.396	1117.99
421.838	1090.71
422.28	1114.24
422.722	1120.82
423.164	1138.07
423.606	1117.92
424.048	1116.67
424.49	1061.3
424.932	1055.63
425.374	1041.93
425.816	1058.37
426.258	1079.42
426.699	1088.6
427.141	1071.86
427.582	1086.43
428.024	1078.2
428.465	1072.09
428.907	1043.42
429.348	1030.05
429.789	1032.2
430.231	1009.34
430.672	1022.86
431.113	998.78
431.554	981.43
431.995	956.64
432.436	921.67
432.877	902.95
433.318	888.1
433.759	882.12
434.2	882.06
434.64	872.55
435.081	872.58
435.522	827.48
435.962	796.48
436.403	781.19
436.843	791.64
437.284	775.59
437.724	753.65
438.164	754.64
438.604	739.01
439.045	712
439.485	682.74
439.925	669.86
440.365	653.24
440.805	644.66
441.245	636.22
441.685	613.38
442.125	608.77
442.564	611.55
443.004	598.98
443.444	597.81
443.883	599.14
444.323	593.97
444.762	594.41
445.202	602.98
445.641	614.33
446.081	609.81
446.52	615.06
446.959	609.32
447.398	596.53
447.837	588.68
448.276	578.58
448.716	586.63
449.154	591.56
449.593	579.02
450.032	576.86
450.471	565.62
450.91	567.52
451.349	567.03
451.787	565.69
452.226	574.1
452.664	574.22
453.103	573.96
453.541	570.14
453.98	569.69
454.418	574
454.856	565.56
455.295	564.96
455.733	568.68
456.171	570.5
456.609	570.96
457.047	568.83
457.485	578.51
457.923	580.85
458.361	572.75
458.798	575.19
459.236	573.64
459.674	577.25
460.111	579.94
460.549	574.74
460.987	572.72
461.424	570.65
461.862	569.68
462.299	559.71
462.736	559.39
463.173	562.93
463.611	557.06
464.048	555.31
464.485	560.08
464.922	555.38
465.359	553.72
465.796	548.41
466.233	545.1
466.67	541.2
467.106	540.18
467.543	533.19
467.98	525.96
468.416	512.08
468.853	509.06
469.29	493.62
469.726	488.76
470.162	475.04
470.599	467.51
471.035	462
471.471	450.96
471.907	447.99
472.344	446.64
472.78	447.45
473.216	453.01
473.652	447.44
474.088	446.36
474.523	443.97
474.959	448.33
475.395	443.72
475.831	441.51
476.266	443.56
476.702	442.42
477.138	436.64
477.573	435.35
478.008	433.43
478.444	434.42
478.879	438.25
479.314	440.69
479.75	439.75
480.185	441.74
480.62	445.26
481.055	446.17
481.49	449.03
481.925	456.04
482.36	464
482.795	476.65
483.229	488.8
483.664	498.74
484.099	500.08
484.534	507.97
484.968	512.93
485.403	514.69
485.837	514.7
486.271	514.64
486.706	514.67
487.14	509.2
487.574	500.96
488.009	496.82
488.443	492.97
488.877	498.11
489.311	500.02
489.745	506.41
490.179	511.06
490.613	520.92
491.046	525.44
491.48	530.04
491.914	530.92
492.348	535.91
492.781	540.62
493.215	542.96
493.648	544.99
494.082	550.76
494.515	552.33
494.948	559.75
495.382	564.88
495.815	569.7
496.248	575.06
496.681	586.51
497.114	596.61
497.547	606.16
497.98	618.69
498.413	625.53
498.846	634.75
499.279	644.14
499.711	649.58
500.144	653.68
500.577	664.98
501.009	677.25
501.442	688.4
501.874	692.65
502.306	697.21
502.739	706.21
503.171	721.76
503.603	727.45
504.036	737.88
504.468	746.58
504.9	760.25
505.332	769.59
505.764	776.83
506.196	786.11
506.627	802.52
507.059	817.84
507.491	830.57
507.923	833.94
508.354	851.61
508.786	865.52
509.217	885.91
509.649	903.23
510.08	924.35
510.512	944.55
510.943	962.78
511.374	977.79
511.805	1001.64
512.237	1023.38
512.668	1058.05
513.099	1087.96
513.53	1118.01
513.961	1142.7
514.391	1177.87
514.822	1214.58
515.253	1252.6
515.684	1282.18
516.114	1316.77
516.545	1341.92
516.975	1371.82
517.406	1392.1
517.836	1399.81
518.267	1410.95
518.697	1432.36
519.127	1439.96
519.558	1450.63
519.988	1458.45
520.418	1472.29
520.848	1491.28
521.278	1503.12
521.708	1521.34
522.138	1538.11
522.567	1571.49
522.997	1600.52
523.427	1618.51
523.857	1639.37
524.286	1652.23
524.716	1669.56
525.145	1691.26
525.575	1705.33
526.004	1722.2
526.433	1721.12
526.863	1724.31
527.292	1716.92
527.721	1724.27
528.15	1733.16
528.579	1735.04
529.008	1749.18
529.437	1774.64
529.866	1790.15
530.295	1809.78
530.724	1823.79
531.152	1852.91
531.581	1868.5
532.01	1888.03
532.438	1896.88
532.867	1913.3
533.295	1934.07
533.723	1940.71
534.152	1939.45
534.58	1940.82
535.008	1925.48
535.436	1928.18
535.865	1937.79
536.293	1953.69
536.721	1971.86
537.149	2000.51
537.576	2003.02
538.004	2016.53
538.432	2025.99
538.86	2025.47
539.287	2033.77
539.715	2049.11
540.143	2054.48
540.57	2051.2
540.998	2047.75
541.425	2022.48
541.852	1999.96
542.28	2000.12
542.707	1984.38
543.134	1969.59
543.561	1965.11
543.988	1956.44
544.415	1955.51
544.842	1948.05
545.269	1940.44
545.696	1942.47
546.123	1955.91
546.549	1944.93
546.976	1930.07
547.403	1928.52
547.829	1930.41
548.256	1932.79
548.682	1929.54
549.108	1920.23
549.535	1920.77
549.961	1921.55
550.387	1906.28
550.813	1900.5
551.24	1907.92
551.666	1908.65
552.092	1898.65
552.518	1889.56
552.943	1882.39
553.369	1890.59
553.795	1896.65
554.221	1896.22
554.646	1891.29
555.072	1901.53
555.498	1906.2
555.923	1915.09
556.349	1929.67
556.774	1937.27
557.199	1939.64
557.625	1944.7
558.05	1935.73
558.475	1946.47
558.9	1944.52
559.325	1936.06
559.75	1928.13
560.175	1919.73
560.6	1911.19
561.025	1908.81
561.449	1909.41
561.874	1913.29
562.299	1916.62
562.723	1923.56
563.148	1911.4
563.572	1914.43
563.997	1924.68
564.421	1931.08
564.846	1930.7
565.27	1933.6
565.694	1928.53
566.118	1939.12
566.542	1946.66
566.966	1938.04
567.39	1932.12
567.814	1919.93
568.238	1917.95
568.662	1922.07
569.086	1922.99
569.509	1930.06
569.933	1913.41
570.357	1905.5
570.78	1882.41
571.204	1867.71
571.627	1856.05
572.05	1852.87
572.474	1850.77
572.897	1837.51
573.32	1827.48
573.743	1816.41
574.166	1794.89
574.589	1793.69
575.012	1785.28
575.435	1782.25
575.858	1770.2
576.281	1758.38
576.704	1740.02
577.126	1725.46
577.549	1712.05
577.972	1699.7
578.394	1686.74
578.817	1678.4
579.239	1655.8
579.661	1639.48
580.084	1621.3
580.506	1606.54
580.928	1601.11
581.35	1588.68
581.772	1583.94
582.194	1568.59
582.616	1555.04
583.038	1539.77
583.46	1527.27
583.882	1523.41
584.303	1525.55
584.725	1520.71
585.147	1521.44
585.568	1530.11
585.99	1541.72
586.411	1546.03
586.833	1559.73
587.254	1559.36
587.675	1571.53
588.096	1582.49
588.518	1576.29
588.939	1559.27
589.36	1555.29
589.781	1544.77
590.202	1514.68
590.623	1504.08
591.043	1501.72
591.464	1488.23
591.885	1483.5
592.305	1477.13
592.726	1463.78
593.147	1465.19
593.567	1459.97
593.987	1452.11
594.408	1446.17
594.828	1444.32
595.248	1438.07
595.669	1419.5
596.089	1412.61
596.509	1406.88
596.929	1393.19
597.349	1393.98
597.769	1382.9
598.189	1376.44
598.608	1378.5
599.028	1379.65
599.448	1378.74
599.867	1366.05
600.287	1360.91
600.706	1356.11
601.126	1345.87
601.545	1344.9
601.965	1342.53
602.384	1337.35
602.803	1338.7
603.222	1332.48
603.641	1325.75
604.061	1321.92
604.48	1317.88
604.898	1324.6
605.317	1328.38
605.736	1328.99
606.155	1324.47
606.574	1314.15
606.992	1317.38
607.411	1311.5
607.829	1302.17
608.248	1297.4
608.666	1294.18
609.085	1291.86
609.503	1282.86
609.921	1274.49
610.339	1276.18
610.758	1274.19
611.176	1268.86
611.594	1258.21
612.012	1253.88
612.43	1255.55
612.847	1260.34
613.265	1258.94
613.683	1261.36
614.101	1260.87
614.518	1255.94
614.936	1243.86
615.353	1229.06
615.771	1224.8
616.188	1224.12
616.606	1220.27
617.023	1212.09
617.44	1197.43
617.857	1190.2
618.274	1180.98
618.691	1174.15
619.108	1164.89
619.525	1158.24
619.942	1162.16
620.359	1163.7
620.776	1158.66
621.192	1153.38
621.609	1150.41
622.026	1155.64
622.442	1159.83
622.859	1160.7
623.275	1153.27
623.691	1157.76
624.108	1168.34
624.524	1182.08
624.94	1181.74
625.356	1189.39
625.772	1200.22
626.188	1211.27
626.604	1211.77
627.02	1207.52
627.436	1206.28
627.852	1212.58
628.268	1223.95
628.683	1214.82
629.099	1205.96
629.514	1201.1
629.93	1205.59
630.345	1208.84
630.761	1205.07
631.176	1208.36
631.591	1204.11
632.007	1199.4
632.422	1196.35
632.837	1184.54
633.252	1181.42
633.667	1171.2
634.082	1161.09
634.497	1146.23
634.911	1127.63
635.326	1121.86
635.741	1104.33
636.155	1092.45
636.57	1090.99
636.984	1089.21
637.399	1088.72
637.813	1085.96
638.228	1082.45
638.642	1084.47
639.056	1073.02
639.47	1071.5
639.884	1062.77
640.298	1054.78
640.712	1050.49
641.126	1037.25
641.54	1026.17
641.954	1018.65
642.368	1005.2
642.781	996.48
643.195	977.9
643.609	977.62
644.022	968.86
644.436	961.41
644.849	947.79
645.262	934.59
645.676	932.55
646.089	925.76
646.502	910.52
646.915	904.26
647.328	887.16
647.741	883.39
648.154	869.08
648.567	865.81
648.98	852.9
649.393	852.77
649.805	849.19
650.218	840.43
650.631	825.9
651.043	819.54
651.456	812.59
651.868	811.48
652.28	824.31
652.693	833.93
653.105	837.51
653.517	844.68
653.929	841.53
654.341	844.8
654.753	834.55
655.165	837.51
655.577	833.58
655.989	828.08
656.401	819.41
656.813	789.18
657.224	772.21
657.636	745.69
658.047	729.62
658.459	713.08
658.87	702.99
659.282	690.7
659.693	673.43
660.104	659.68
660.515	648.06
660.926	644.02
661.338	638.96
661.749	630.17
662.159	622.07
662.57	615.65
662.981	610.25
663.392	601.5
663.803	602.76
664.213	598.85
664.624	593.21
665.035	591.79
665.445	579.38
665.855	571.86
666.266	565.22
666.676	561.01
667.086	552.49
667.497	550.72
667.907	546.31
668.317	538.88
668.727	536.29
669.137	536.3
669.547	534.44
669.956	536.24
670.366	537.04
670.776	536.82
671.186	539.35
671.595	542.08
672.005	543.35
672.414	542.41
672.824	540.53
673.233	541.79
673.642	543.41
674.052	545.54
674.461	547.59
674.87	550.14
675.279	550.31
675.688	551.17
676.097	552.24
676.506	551.51
676.915	561.41
677.323	564.15
677.732	564.79
678.141	565.3
678.549	558.96
678.958	558.8
679.366	559.99
679.775	564.36
680.183	574.7
680.592	580.14
681	585.14
681.408	583.29
681.816	591.7
682.224	600.27
682.632	611.06
683.04	635.44
683.448	656.95
683.856	684.12
684.264	714.19
684.671	742.04
685.079	777.92
685.487	818.31
685.894	872.02
686.302	917.75
686.709	957.41
687.116	1003.52
687.524	1046.26
687.931	1083.28
688.338	1115.57
688.745	1146.07
689.152	1180.43
689.559	1225.62
689.966	1268.74
690.373	1295.48
690.78	1338.59
691.187	1401.47
691.593	1451.52
692	1495.81
692.407	1558.64
692.813	1634.51
693.22	1699.12
693.626	1765.73
694.032	1819.38
694.439	1900.29
694.845	1964.05
695.251	2041.84
695.657	2112.9
696.063	2215.86
696.469	2293.91
696.875	2368.25
697.281	2414.94
697.687	2466.66
