Data from C_1_DEC_VA_2N_Splice17_11-57-39-235.txt Node
Date: Sat Mar 14 11:57:39 EDT 2020
User: sa697716
Spectrometer: FLMS03696
Trigger mode: 0
Integration Time (sec): 3.180400E-1
Scans to average: 20
Electric dark correction enabled: true
Nonlinearity correction enabled: true
Boxcar width: 5
XAxis mode: Wavelengths
Number of Pixels in Spectrum: 2048
>>>>>Begin Spectral Data<<<<<
187.83	-198787.57
188.298	1306.35
188.766	793.72
189.233	797.6
189.701	1045.48
190.169	1542.08
190.636	546.89
191.104	431.29
191.571	42.66
192.039	-83.91
192.506	-50.86
192.974	585.74
193.441	-1399.57
193.908	-372.27
194.375	-78.17
194.842	-50.5
195.31	30.13
195.777	143.26
196.244	341.57
196.711	448.08
197.177	567.02
197.644	819.48
198.111	1434.64
198.578	2031.47
199.045	1575.55
199.511	2606.51
199.978	3041.08
200.445	2587.8
200.911	2866.92
201.378	3238.94
201.844	2944.18
202.31	5030.74
202.777	5271.54
203.243	2932.39
203.709	2801.5
204.176	3377.95
204.642	2783.51
205.108	2584.13
205.574	2131.63
206.04	1943.74
206.506	1814.93
206.972	1722.6
207.438	1663.86
207.903	1899.8
208.369	1677.79
208.835	1663.51
209.301	1752.36
209.766	1803.44
210.232	1800.07
210.697	2202.49
211.163	2720.98
211.628	4093.04
212.094	3417.53
212.559	4182.27
213.024	2609.38
213.49	3173.35
213.955	3122.38
214.42	3019.64
214.885	2789.33
215.35	2681.7
215.815	2586.42
216.28	2735.73
216.745	2226.02
217.21	2406.09
217.675	2213.09
218.14	2460.94
218.604	2743.21
219.069	3123.64
219.534	3281.27
219.998	3835.94
220.463	4637.37
220.927	5709.33
221.392	5386.28
221.856	5474.95
222.32	6904.84
222.785	8524.44
223.249	10735.12
223.713	11962.99
224.177	11934.81
224.642	15310.11
225.106	18789.52
225.57	20563.97
226.034	15305.5
226.497	23290.68
226.961	20987.18
227.425	24392.83
227.889	27097.26
228.353	27155.43
228.816	56107.78
229.28	53697.14
229.744	45247.61
230.207	27504.79
230.671	27028.35
231.134	44724.95
231.597	51484.99
232.061	51554.65
232.524	50281.1
232.987	34596.63
233.45	31127.99
233.914	27910.62
234.377	28632.35
234.84	26245.18
235.303	30948.94
235.766	34534.75
236.229	35664.88
236.691	22480.55
237.154	25251.71
237.617	19008.76
238.08	19477.67
238.542	22804.7
239.005	16309.48
239.468	16195.91
239.93	15247.21
240.393	13868.3
240.855	12184.78
241.317	12482.03
241.78	15199.86
242.242	15717.28
242.704	16979.57
243.166	14797.48
243.629	13430.81
244.091	15472.62
244.553	16944.54
245.015	18251.47
245.477	23608.35
245.939	34615.22
246.4	36755.89
246.862	35719.66
247.324	33689.14
247.786	37721.6
248.247	49446.23
248.709	51103.75
249.17	38263.11
249.632	36097.61
250.093	41869.92
250.555	36173.14
251.016	22070.61
251.477	20937.25
251.939	22633.33
252.4	23761.55
252.861	28285.59
253.322	26331.37
253.783	31370.03
254.244	40697.25
254.705	32091.61
255.166	28528.38
255.627	28107.86
256.088	39629.83
256.549	42140.94
257.009	36274.71
257.47	44010.64
257.931	35850.83
258.391	26869.27
258.852	27693.08
259.312	29052.54
259.773	35902.37
260.233	30367.27
260.694	25614.69
261.154	29098.45
261.614	23376.97
262.074	20924.05
262.534	21755.11
262.994	20518.54
263.455	27350.35
263.915	23038.81
264.374	21708.35
264.834	23729.81
265.294	26322.7
265.754	27272.33
266.214	25811.76
266.673	24166.2
267.133	30504.78
267.593	30273.27
268.052	36994.29
268.512	32169.11
268.971	38823.15
269.431	42543.89
269.89	38081.74
270.349	57037.11
270.809	63650.49
271.268	57230.12
271.727	128426.64
272.186	83178.03
272.645	62347.21
273.104	44997.71
273.563	65173.66
274.022	51218.09
274.481	43583.22
274.94	33578
275.399	24967.35
275.857	29053.54
276.316	39284.02
276.775	34941.56
277.233	34429.41
277.692	32252.83
278.15	36488.06
278.609	37547.52
279.067	34795.85
279.525	32331.87
279.984	41753.15
280.442	50113.27
280.9	49426.67
281.358	32524.61
281.816	30311.17
282.274	29638.67
282.732	30632.17
283.19	30795.7
283.648	26589.07
284.106	28313.94
284.564	28813.01
285.021	26724.91
285.479	19947.46
285.937	18159.78
286.394	15938.47
286.852	16419.96
287.309	17261.98
287.767	16674.43
288.224	15859.98
288.682	17396.53
289.139	19090.83
289.596	17467.78
290.053	18141.07
290.511	22890.38
290.968	27736.94
291.425	37672.46
291.882	31343.56
292.339	27323.29
292.796	27084.6
293.252	25529.78
293.709	20255.18
294.166	18173.51
294.623	20088.47
295.079	19279.59
295.536	19373.64
295.992	17609.36
296.449	17406.07
296.905	18068.35
297.362	17330.13
297.818	18239.11
298.274	18898.21
298.731	19279.73
299.187	19063.31
299.643	20462.31
300.099	24779.42
300.555	27181.33
301.011	22677.84
301.467	21845.33
301.923	25591.16
302.379	24977.11
302.835	24555.57
303.291	24625.57
303.746	28029.84
304.202	35412.86
304.658	35561.79
305.113	23914.86
305.569	23435.02
306.024	25013.56
306.479	23835.19
306.935	20137.15
307.39	22002.21
307.845	20309.01
308.301	20438.34
308.756	19928
309.211	19205.87
309.666	19695.6
310.121	24451.56
310.576	24837.18
311.031	24660.48
311.486	28254.26
311.94	28196.52
312.395	37738.37
312.85	70956.17
313.305	348575.08
313.759	1804552.34
314.214	130820.62
314.668	103745.33
315.123	87263.01
315.577	31294.65
316.032	27825.55
316.486	34905.7
316.94	27547.3
317.394	19153.65
317.849	14902.77
318.303	14137.87
318.757	13353.09
319.211	14763.1
319.665	12922.44
320.119	13088.31
320.572	18788.5
321.026	17547.7
321.48	14588.55
321.934	15930.87
322.387	15983.51
322.841	17254.86
323.295	15498.26
323.748	17849.86
324.202	18110.91
324.655	21763.44
325.108	30400.87
325.562	21432.37
326.015	25517.8
326.468	19313.01
326.921	21602.57
327.374	20135.37
327.827	20972.2
328.28	23749.96
328.733	15900.87
329.186	13987.38
329.639	13306.3
330.092	11219.48
330.545	10703.94
330.997	10784.75
331.45	11785.24
331.903	13785.53
332.355	23708.57
332.808	23041.56
333.26	19022.01
333.713	20668.49
334.165	20807.75
334.617	27801.89
335.069	22462.67
335.522	40617.58
335.974	44977.86
336.426	41065.35
336.878	28484.53
337.33	14476.54
337.782	14147.94
338.234	17688.25
338.686	21116.65
339.137	25032.42
339.589	23616.71
340.041	18492.15
340.493	15898.2
340.944	16294.89
341.396	17561.72
341.847	14750.37
342.299	17394.09
342.75	21180.98
343.201	18530.99
343.653	21366.83
344.104	26258.59
344.555	20648.68
345.006	32116.75
345.457	24619.12
345.908	19557.66
346.359	18432.33
346.81	15030.61
347.261	15852.04
347.712	15624.95
348.163	16741.75
348.613	16928.44
349.064	15826.3
349.515	13854.86
349.965	14238.12
350.416	17132.91
350.866	18802.71
351.317	21211.5
351.767	35143.14
352.217	44326.27
352.668	36873.17
353.118	33807.46
353.568	32648.44
354.018	25803.59
354.468	27203.22
354.918	19525.99
355.368	17062.04
355.818	24092.65
356.268	69446.88
356.718	290456.41
357.168	72343.56
357.617	36244.07
358.067	40288.6
358.517	37704.51
358.966	44187.96
359.416	49546.79
359.865	53478.76
360.315	63603.1
360.764	29704.09
361.213	16600.63
361.663	15747.67
362.112	19418.31
362.561	31372.55
363.01	23652.58
363.459	19904.26
363.908	21552.48
364.357	18300.81
364.806	30876.12
365.255	21254.53
365.703	19520.51
366.152	19596.33
366.601	15888.31
367.05	12929.24
367.498	11760.78
367.947	12305
368.395	12803.47
368.844	11308.48
369.292	13672.5
369.74	9466.44
370.189	14521.73
370.637	16977.16
371.085	14619.35
371.533	17789.53
371.981	17068.41
372.429	16256.19
372.877	16906.22
373.325	14163.42
373.773	14465.3
374.221	12863.93
374.669	15950.15
375.116	13773.67
375.564	13908.32
376.012	15575.59
376.459	12848.84
376.907	15426.81
377.354	18685.83
377.801	17461.82
378.249	20072.75
378.696	25667.86
379.143	31072.98
379.591	33132.93
380.038	56111.38
380.485	40523.44
380.932	43799.94
381.379	40077.42
381.826	29471.96
382.273	20961.34
382.72	18289.43
383.166	17828.96
383.613	11563.62
384.06	10413.82
384.506	12058.75
384.953	8861.1
385.4	8923.83
385.846	7817.15
386.292	7613.9
386.739	7457.4
387.185	7366.93
387.631	7392.52
388.078	7174.16
388.524	7673.81
388.97	7102.72
389.416	5930.81
389.862	6317.62
390.308	5985.92
390.754	6088.52
391.2	6623.65
391.645	6783.6
392.091	6504.29
392.537	6298.75
392.983	6318.36
393.428	6232.04
393.874	6693.33
394.319	6725.2
394.765	6392.14
395.21	6594.7
395.655	6194.1
396.101	5805.59
396.546	5248.94
396.991	5297.71
397.436	4922.75
397.881	4762.82
398.326	4516.77
398.771	4276.81
399.216	3745.96
399.661	3371.99
400.106	3364.03
400.551	3452.11
400.995	3099.83
401.44	3066.34
401.885	2883.31
402.329	2911.08
402.774	2788.66
403.218	2695.75
403.663	2595.19
404.107	2664.81
404.551	2681.52
404.995	2456.24
405.44	2359.81
405.884	2395.96
406.328	2318.87
406.772	2309.46
407.216	2104
407.66	2035.15
408.104	1934.11
408.547	1811.34
408.991	1751.71
409.435	1685.58
409.879	1658.83
410.322	1635.66
410.766	1577.8
411.209	1497.99
411.653	1434.64
412.096	1403.49
412.54	1405.95
412.983	1394.56
413.426	1393.42
413.869	1391.5
414.312	1363.99
414.756	1315.83
415.199	1253.83
415.642	1215.33
416.085	1217.72
416.527	1211.75
416.97	1228.71
417.413	1163.64
417.856	1151.59
418.298	1139.06
418.741	1128.4
419.184	1125.48
419.626	1170.52
420.069	1171.38
420.511	1177.71
420.953	1150.15
421.396	1138.78
421.838	1111.39
422.28	1133.4
422.722	1138.05
423.164	1154.72
423.606	1136.73
424.048	1134.56
424.49	1078.24
424.932	1070.23
425.374	1052.78
425.816	1069.35
426.258	1087.94
426.699	1097.71
427.141	1082.39
427.582	1096.38
428.024	1091.95
428.465	1083.29
428.907	1053.36
429.348	1038.15
429.789	1038.38
430.231	1017.52
430.672	1029.34
431.113	1004.33
431.554	988.07
431.995	961.67
432.436	927.42
432.877	904.9
433.318	890.49
433.759	887.66
434.2	888.59
434.64	879.89
435.081	882.78
435.522	837.87
435.962	806.54
436.403	791.94
436.843	802.74
437.284	784.55
437.724	764.21
438.164	767.67
438.604	751.09
439.045	723.03
439.485	694.31
439.925	678.23
440.365	662.04
440.805	654.31
441.245	644.69
441.685	622.45
442.125	619.58
442.564	622.97
443.004	607.12
443.444	604.89
443.883	604.21
444.323	598.9
444.762	600.45
445.202	608.81
445.641	619.76
446.081	615.41
446.52	620.07
446.959	613.06
447.398	598.34
447.837	591.52
448.276	582.46
448.716	590.31
449.154	593.96
449.593	581.13
450.032	579.09
450.471	568.09
450.91	568.53
451.349	567.11
451.787	565.72
452.226	574.75
452.664	575.17
453.103	574.83
453.541	572.67
453.98	571.65
454.418	574.82
454.856	566.34
455.295	565.93
455.733	571.5
456.171	574.59
456.609	575.35
457.047	575.15
457.485	582.44
457.923	584.81
458.361	577.68
458.798	580.24
459.236	578.82
459.674	582.19
460.111	584.35
460.549	577.28
460.987	574.93
461.424	573.2
461.862	571.33
462.299	564.08
462.736	563.05
463.173	564.96
463.611	559.78
464.048	558.87
464.485	563.03
464.922	558.51
465.359	555.74
465.796	549.72
466.233	545.81
466.67	540.66
467.106	539.84
467.543	534.82
467.98	527.27
468.416	514.11
468.853	509.88
469.29	495.51
469.726	488.27
470.162	476.14
470.599	469.47
471.035	465.08
471.471	454.54
471.907	451.52
472.344	448.92
472.78	450.02
473.216	454.47
473.652	449.04
474.088	447.1
474.523	447.1
474.959	451.04
475.395	446.04
475.831	443.52
476.266	444.57
476.702	442.51
477.138	436.09
477.573	434.68
478.008	433.53
478.444	435.57
478.879	439.52
479.314	440.9
479.75	439.8
480.185	442.44
480.62	445.21
481.055	447.68
481.49	451.18
481.925	458.01
482.36	466.27
482.795	477.86
483.229	490.71
483.664	501.17
484.099	502.71
484.534	510.21
484.968	514.84
485.403	516.78
485.837	515.38
486.271	514.66
486.706	515.05
487.14	509.03
487.574	501.27
488.009	495.88
488.443	491.19
488.877	496.99
489.311	499
489.745	505.19
490.179	510.42
490.613	521.1
491.046	525.32
491.48	530.23
491.914	531.67
492.348	537.28
492.781	542.14
493.215	544.54
493.648	546.54
494.082	551.74
494.515	553.11
494.948	560.46
495.382	564.62
495.815	569.72
496.248	575.64
496.681	587.17
497.114	596.97
497.547	606.58
497.98	619.72
498.413	626.23
498.846	636.73
499.279	647
499.711	652.48
500.144	656.92
500.577	668.39
501.009	680.32
501.442	691.02
501.874	695.52
502.306	700.9
502.739	710.46
503.171	726.31
503.603	732
504.036	742.17
504.468	750.8
504.9	764.58
505.332	774.32
505.764	781.44
506.196	792.03
506.627	808.55
507.059	823.33
507.491	835.17
507.923	837.67
508.354	855.32
508.786	869.37
509.217	889.62
509.649	907.77
510.08	928.87
510.512	948.87
510.943	967.33
511.374	982.81
511.805	1006.9
512.237	1028.82
512.668	1063.58
513.099	1094.49
513.53	1125.03
513.961	1149.08
514.391	1183.52
514.822	1219.62
515.253	1257.69
515.684	1286.58
516.114	1319.2
516.545	1342.98
516.975	1373.82
517.406	1397.09
517.836	1404.04
518.267	1415.17
518.697	1437.81
519.127	1446.6
519.558	1458.72
519.988	1466.78
520.418	1480.64
520.848	1502.36
521.278	1515.74
521.708	1534.21
522.138	1549.6
522.567	1584.07
522.997	1611.62
523.427	1630.28
523.857	1650.79
524.286	1663.83
524.716	1682.07
525.145	1703.74
525.575	1716.53
526.004	1733.39
526.433	1731.42
526.863	1732.79
527.292	1724.09
527.721	1732.39
528.15	1739.62
528.579	1741.35
529.008	1753.77
529.437	1779.04
529.866	1794.52
530.295	1813.65
530.724	1827.42
531.152	1857.46
531.581	1873.04
532.01	1892.76
532.438	1903.33
532.867	1919.98
533.295	1939.99
533.723	1946.92
534.152	1945.58
534.58	1945.55
535.008	1929.8
535.436	1932.81
535.865	1940.47
536.293	1958.31
536.721	1975.68
537.149	2001.96
537.576	2005.87
538.004	2018.7
538.432	2028.3
538.86	2027.47
539.287	2036.56
539.715	2053.01
540.143	2057.02
540.57	2054.48
540.998	2050.29
541.425	2026.81
541.852	2004.44
542.28	2002.21
542.707	1987.42
543.134	1972.68
543.561	1968.05
543.988	1960.2
544.415	1958.22
544.842	1951.67
545.269	1943.9
545.696	1945.95
546.123	1958.84
546.549	1948.59
546.976	1933.9
547.403	1931.98
547.829	1933.73
548.256	1935.04
548.682	1930.35
549.108	1922.7
549.535	1921.9
549.961	1922.88
550.387	1907.84
550.813	1900.11
551.24	1905.75
551.666	1907.27
552.092	1896.05
552.518	1888.37
552.943	1880.69
553.369	1887.6
553.795	1892.51
554.221	1893.35
554.646	1889.04
555.072	1899.15
555.498	1903.59
555.923	1912.22
556.349	1927.01
556.774	1936.32
557.199	1936.89
557.625	1942.57
558.05	1934.71
558.475	1944.58
558.9	1941.09
559.325	1930.85
559.75	1922.91
560.175	1916.37
560.6	1908.71
561.025	1904.79
561.449	1903.77
561.874	1907.95
562.299	1912.07
562.723	1919.9
563.148	1909.47
563.572	1913.27
563.997	1923.23
564.421	1928.78
564.846	1928.06
565.27	1930.68
565.694	1926.67
566.118	1939.13
566.542	1946.32
566.966	1938.18
567.39	1931.66
567.814	1918.7
568.238	1917.4
568.662	1922.09
569.086	1923.68
569.509	1930.03
569.933	1913.44
570.357	1906.49
570.78	1882.27
571.204	1867.12
571.627	1855.15
572.05	1851.88
572.474	1850.06
572.897	1835.81
573.32	1827.72
573.743	1816.33
574.166	1796.58
574.589	1794.3
575.012	1783.4
575.435	1782.1
575.858	1771.35
576.281	1757.4
576.704	1740.25
577.126	1724.96
577.549	1711.7
577.972	1698.73
578.394	1685.94
578.817	1675.82
579.239	1655.45
579.661	1640.85
580.084	1622.35
580.506	1607.43
580.928	1602.28
581.35	1590.06
581.772	1584.75
582.194	1570.66
582.616	1556.47
583.038	1540.15
583.46	1528.64
583.882	1523.85
584.303	1527.13
584.725	1521.6
585.147	1522.13
585.568	1531.89
585.99	1543.31
586.411	1549.49
586.833	1562.75
587.254	1564.13
587.675	1577.64
588.096	1590.55
588.518	1585.95
588.939	1568.23
589.36	1564.55
589.781	1553.56
590.202	1524.56
590.623	1514.16
591.043	1510.41
591.464	1496.83
591.885	1491.44
592.305	1485.45
592.726	1470.24
593.147	1470.02
593.567	1464.45
593.987	1457.64
594.408	1453.06
594.828	1450.75
595.248	1444.28
595.669	1426.41
596.089	1419.35
596.509	1413.23
596.929	1399.13
597.349	1399.83
597.769	1390.08
598.189	1383.79
598.608	1384.79
599.028	1386.13
599.448	1385.74
599.867	1371.81
600.287	1366.28
600.706	1361.37
601.126	1350.68
601.545	1349.06
601.965	1347.02
602.384	1340.81
602.803	1342.44
603.222	1336.62
603.641	1328.48
604.061	1323.38
604.48	1319.27
604.898	1326.55
605.317	1329.84
605.736	1330.63
606.155	1327.66
606.574	1317.03
606.992	1321.3
607.411	1315.08
607.829	1305.79
608.248	1301.48
608.666	1298.26
609.085	1296.16
609.503	1286.28
609.921	1279.4
610.339	1280.47
610.758	1277.37
611.176	1272.92
611.594	1261.8
612.012	1258.04
612.43	1259.19
612.847	1264.2
613.265	1264.34
613.683	1268.02
614.101	1268.87
614.518	1264.74
614.936	1253.86
615.353	1238.75
615.771	1233.6
616.188	1233.54
616.606	1227.57
617.023	1220.52
617.44	1205.5
617.857	1197.89
618.274	1187.92
618.691	1179.37
619.108	1168.87
619.525	1161.93
619.942	1166.46
620.359	1167.76
620.776	1161.03
621.192	1156.74
621.609	1153.04
622.026	1158.81
622.442	1162.45
622.859	1164.58
623.275	1157.83
623.691	1162.41
624.108	1172.76
624.524	1185.37
624.94	1185.05
625.356	1194.38
625.772	1206.38
626.188	1216.51
626.604	1217.37
627.02	1213.35
627.436	1211.26
627.852	1218.1
628.268	1228.27
628.683	1218.73
629.099	1210.56
629.514	1205.37
629.93	1208.38
630.345	1212.42
630.761	1208.91
631.176	1212.15
631.591	1206.66
632.007	1201.63
632.422	1197.65
632.837	1187.19
633.252	1184.59
633.667	1175.09
634.082	1166.65
634.497	1153.29
634.911	1133.91
635.326	1129.58
635.741	1111.19
636.155	1100.14
636.57	1098.84
636.984	1097.06
637.399	1096.73
637.813	1094.05
638.228	1091.57
638.642	1091.82
639.056	1081.31
639.47	1079.26
639.884	1068.99
640.298	1061.19
640.712	1057.56
641.126	1043.59
641.54	1033.32
641.954	1025.77
642.368	1012.93
642.781	1003.15
643.195	986.23
643.609	983.61
644.022	975.64
644.436	969.64
644.849	956.33
645.262	944.24
645.676	942.79
646.089	937.03
646.502	921.83
646.915	914.85
647.328	897.62
647.741	893.45
648.154	880.63
648.567	875.93
648.98	863.17
649.393	862.08
649.805	856.75
650.218	849.19
650.631	834.48
651.043	827.59
651.456	821.31
651.868	820.39
652.28	832.89
652.693	842.07
653.105	846.26
653.517	853.01
653.929	852.36
654.341	855.79
654.753	845.28
655.165	848.54
655.577	844.27
655.989	838.15
656.401	829.49
656.813	797.87
657.224	780.76
657.636	755.86
658.047	738.84
658.459	720.91
658.87	711.78
659.282	699.9
659.693	681.9
660.104	669.13
660.515	656.36
660.926	652.35
661.338	647.62
661.749	638.87
662.159	629.7
662.57	623.77
662.981	617.82
663.392	609.67
663.803	610.32
664.213	605.97
664.624	600.32
665.035	599.94
665.445	588.07
665.855	582.05
666.266	575.23
666.676	571.48
667.086	563.36
667.497	561.53
667.907	555.91
668.317	547.86
668.727	545.24
669.137	545.09
669.547	542.75
669.956	544.18
670.366	544.84
670.776	545.34
671.186	547.43
671.595	549.86
672.005	552.35
672.414	552.3
672.824	551.19
673.233	553.81
673.642	555.28
674.052	558.49
674.461	561.24
674.87	564.86
675.279	564.18
675.688	566.18
676.097	568.78
676.506	567.24
676.915	578.95
677.323	581.91
677.732	581.99
678.141	582.24
678.549	575.61
678.958	575.99
679.366	576.66
679.775	581.98
680.183	592.12
680.592	597.55
681	603.35
681.408	599.37
681.816	607.6
682.224	615.68
682.632	626.51
683.04	651.16
683.448	672.02
683.856	700.24
684.264	730.62
684.671	759.58
685.079	796.14
685.487	835.75
685.894	891.56
686.302	937.33
686.709	977.18
687.116	1024.32
687.524	1065.06
687.931	1103.03
688.338	1135.04
688.745	1163.79
689.152	1196.81
689.559	1239.57
689.966	1284.07
690.373	1309.23
690.78	1353.44
691.187	1415.87
691.593	1465.02
692	1510.99
692.407	1573.93
692.813	1650.55
693.22	1715.53
693.626	1782.06
694.032	1836.35
694.439	1915.7
694.845	1979.25
695.251	2058.32
695.657	2130.67
696.063	2234.45
696.469	2312.99
696.875	2386.66
697.281	2432.66
