Data from C_1_DIV_OH_2N_Splice17_11-49-50-266.txt Node
Date: Sat Mar 14 11:49:50 EDT 2020
User: sa697716
Spectrometer: FLMS03696
Trigger mode: 0
Integration Time (sec): 3.180400E-1
Scans to average: 20
Electric dark correction enabled: true
Nonlinearity correction enabled: true
Boxcar width: 5
XAxis mode: Wavelengths
Number of Pixels in Spectrum: 2048
>>>>>Begin Spectral Data<<<<<
187.83	-225249.57
188.298	1467.64
188.766	857.84
189.233	776.88
189.701	1098.9
190.169	1413.87
190.636	480.94
191.104	449.69
191.571	36.72
192.039	-106.32
192.506	-150.59
192.974	253.62
193.441	-821.12
193.908	-331.07
194.375	-83.12
194.842	-18.25
195.31	-49.87
195.777	75.29
196.244	234.11
196.711	237.4
197.177	264.62
197.644	361.87
198.111	669.04
198.578	952.48
199.045	789.04
199.511	1298.02
199.978	1464.67
200.445	1255.23
200.911	1348.84
201.378	1489.77
201.844	1368.19
202.31	2318.96
202.777	2432.89
203.243	1314.91
203.709	1236.64
204.176	1453.23
204.642	1171
205.108	1108.78
205.574	884.55
206.04	806.38
206.506	759.15
206.972	689.87
207.438	667.15
207.903	745.29
208.369	672.75
208.835	684.64
209.301	700.92
209.766	700.33
210.232	673.69
210.697	847.35
211.163	1002.95
211.628	1466.2
212.094	1240.83
212.559	1574.26
213.024	984.96
213.49	1204.44
213.955	1156.43
214.42	1127.34
214.885	1055.37
215.35	1010.82
215.815	998.96
216.28	1072.72
216.745	841.27
217.21	893.29
217.675	744.68
218.14	777.8
218.604	773.65
219.069	805.49
219.534	794.03
219.998	826.89
220.463	923.5
220.927	960.68
221.392	812.42
221.856	799.28
222.32	888.75
222.785	1089.74
223.249	1294.45
223.713	1398.01
224.177	1354.57
224.642	1625.5
225.106	1935.36
225.57	2045.55
226.034	1538.12
226.497	2286
226.961	2051.16
227.425	2390.7
227.889	2486.2
228.353	2438.42
228.816	4860.73
229.28	4634.71
229.744	3839.35
230.207	2396.69
230.671	2300.11
231.134	3599.46
231.597	4230.91
232.061	4050.83
232.524	3827.77
232.987	2653.69
233.45	2423.24
233.914	2175.21
234.377	2170.89
234.84	1964.02
235.303	2236.03
235.766	2507.28
236.229	2613.29
236.691	1588.63
237.154	1773.57
237.617	1364.02
238.08	1376.95
238.542	1585.16
239.005	1143.33
239.468	1130.84
239.93	1072.49
240.393	979.23
240.855	857.49
241.317	850.43
241.78	1022.34
242.242	1067.3
242.704	1184.17
243.166	1047
243.629	986.67
244.091	1137.54
244.553	1253.22
245.015	1361.97
245.477	1732.73
245.939	2500.6
246.4	2690.56
246.862	2635.52
247.324	2458.48
247.786	2669.16
248.247	3409.82
248.709	3381.63
249.17	2541.95
249.632	2487.91
250.093	2955.85
250.555	2592.7
251.016	1620.5
251.477	1556.25
251.939	1674.33
252.4	1746.33
252.861	2064.14
253.322	1977.76
253.783	2320.11
254.244	2975.37
254.705	2278.91
255.166	1962.19
255.627	1918.67
256.088	2727.04
256.549	2887.59
257.009	2484.63
257.47	3030.4
257.931	2473.38
258.391	1831.16
258.852	1907.24
259.312	1987.73
259.773	2453.34
260.233	2156.97
260.694	1848.69
261.154	2072.04
261.614	1706.67
262.074	1506.63
262.534	1577.17
262.994	1490.08
263.455	1952.62
263.915	1658.45
264.374	1550.22
264.834	1691.29
265.294	1824.48
265.754	1862.41
266.214	1761.02
266.673	1628.52
267.133	2046.73
267.593	2004.86
268.052	2453.15
268.512	2132.61
268.971	2617.99
269.431	2886.73
269.89	2550.1
270.349	3843.81
270.809	4300.78
271.268	3881.88
271.727	8543.67
272.186	5585.67
272.645	4178.69
273.104	2943.52
273.563	4241.21
274.022	3211.33
274.481	2768.95
274.94	2173.62
275.399	1590.43
275.857	1838.37
276.316	2447.32
276.775	2196.42
277.233	2173.73
277.692	2080.09
278.15	2415.4
278.609	2555.28
279.067	2400.81
279.525	2273.23
279.984	2908.99
280.442	3509.21
280.9	3549.35
281.358	2356.25
281.816	2213.12
282.274	2159.24
282.732	2184.46
283.19	2167.93
283.648	1860.62
284.106	2004.78
284.564	2017.95
285.021	1915.58
285.479	1443.56
285.937	1294.58
286.394	1165.36
286.852	1193.91
287.309	1261.47
287.767	1273.76
288.224	1232.2
288.682	1358.53
289.139	1498.69
289.596	1378.64
290.053	1408.86
290.511	1749.49
290.968	2143.06
291.425	2856.52
291.882	2433.99
292.339	2139.27
292.796	2082.01
293.252	1950.28
293.709	1587.39
294.166	1412.5
294.623	1547.11
295.079	1469.33
295.536	1521.79
295.992	1387.41
296.449	1376.19
296.905	1435.58
297.362	1397.39
297.818	1467.25
298.274	1545.56
298.731	1542.83
299.187	1522.45
299.643	1641.9
300.099	2000.13
300.555	2155.38
301.011	1794.3
301.467	1798.45
301.923	2048.73
302.379	2001.09
302.835	1975.68
303.291	1977.41
303.746	2254.22
304.202	2871.16
304.658	2867.31
305.113	1942.49
305.569	1926.05
306.024	2040.86
306.479	1871.67
306.935	1636.98
307.39	1768.12
307.845	1657.01
308.301	1676.5
308.756	1621.59
309.211	1580.11
309.666	1644.05
310.121	2087.58
310.576	2083.94
311.031	2051.31
311.486	2325.25
311.94	2271.22
312.395	3009.5
312.85	5546.87
313.305	26564.7
313.759	143544.86
314.214	10305.86
314.668	8152.54
315.123	6886.1
315.577	2541.52
316.032	2309.83
316.486	2937.25
316.94	2367.22
317.394	1702.11
317.849	1342.95
318.303	1271.82
318.757	1197.75
319.211	1326.87
319.665	1152.73
320.119	1161.72
320.572	1639.94
321.026	1547.49
321.48	1290.49
321.934	1364.55
322.387	1336.82
322.841	1441.26
323.295	1358.92
323.748	1501.76
324.202	1536.04
324.655	1846.03
325.108	2662.18
325.562	1904.8
326.015	2238.37
326.468	1686.42
326.921	1918.85
327.374	1820.37
327.827	1924.83
328.28	2166.57
328.733	1481.26
329.186	1296.1
329.639	1264.69
330.092	1057.62
330.545	1019.45
330.997	1046.01
331.45	1182.33
331.903	1414.28
332.355	2380.95
332.808	2281.81
333.26	1861.66
333.713	2037
334.165	2071.94
334.617	2692.48
335.069	2102.18
335.522	3714.16
335.974	4165.98
336.426	3742.17
336.878	2500.24
337.33	1312.61
337.782	1300.53
338.234	1656.34
338.686	1974.22
339.137	2325.63
339.589	2216.21
340.041	1786.79
340.493	1561.82
340.944	1576.28
341.396	1694.89
341.847	1472.96
342.299	1758.04
342.75	2162.18
343.201	1839.88
343.653	2105.61
344.104	2532.16
344.555	1973.95
345.006	2985.03
345.457	2369.67
345.908	1844.89
346.359	1746.16
346.81	1401.74
347.261	1447.39
347.712	1406.15
348.163	1510.93
348.613	1599.77
349.064	1531.88
349.515	1355.87
349.965	1413.58
350.416	1648.52
350.866	1827.12
351.317	2039.72
351.767	3412.05
352.217	4298.19
352.668	3575.55
353.118	3325.04
353.568	3065.45
354.018	2474.87
354.468	2642.74
354.918	1897.62
355.368	1678.89
355.818	2387.76
356.268	6813.11
356.718	29045.79
357.168	7372.57
357.617	3704.35
358.067	4042.3
358.517	3862.92
358.966	4555.03
359.416	5170.41
359.865	5640.84
360.315	6613.86
360.764	3117.37
361.213	1786.92
361.663	1651.62
362.112	2000.05
362.561	3220.84
363.01	2471.59
363.459	2103.58
363.908	2230.12
364.357	1944.48
364.806	3208.18
365.255	2200.72
365.703	2058.77
366.152	2067.32
366.601	1696.63
367.05	1422.97
367.498	1315.48
367.947	1354.81
368.395	1385.18
368.844	1251.06
369.292	1433.52
369.74	1022.13
370.189	1573.45
370.637	1801.73
371.085	1535.3
371.533	1892.34
371.981	1774.7
372.429	1730.86
372.877	1813.54
373.325	1550.55
373.773	1552.41
374.221	1386.23
374.669	1663.97
375.116	1442.16
375.564	1462.84
376.012	1625.56
376.459	1323.72
376.907	1575.52
377.354	1845.73
377.801	1780.3
378.249	2031.76
378.696	2576.74
379.143	3200.51
379.591	3417.85
380.038	5897.94
380.485	4372.58
380.932	4822.75
381.379	4605.11
381.826	3586.03
382.273	2621.19
382.72	2282.51
383.166	2303.31
383.613	1555.47
384.06	1441.14
384.506	1740.94
384.953	1304.35
385.4	1349.67
385.846	1240.96
386.292	1259.98
386.739	1286.26
387.185	1350.1
387.631	1455.41
388.078	1554.29
388.524	1793.04
388.97	1782.33
389.416	1579.24
389.862	1767.2
390.308	1738.61
390.754	1863.52
391.2	2149.13
391.645	2361.13
392.091	2473.67
392.537	2577.8
392.983	2705.53
393.428	2788.68
393.874	3115.31
394.319	3355.07
394.765	3491.17
395.21	3973.75
395.655	4135.65
396.101	4273.77
396.546	4231.85
396.991	4649.03
397.436	4706.98
397.881	4983.53
398.326	5210.9
398.771	5406.71
399.216	5161.39
399.661	5014.61
400.106	5343.49
400.551	5798.41
400.995	5480.33
401.44	5677.2
401.885	5558.99
402.329	5829.22
402.774	5775.3
403.218	5744.06
403.663	5718.84
404.107	6057.67
404.551	6306.3
404.995	6001.18
405.44	6016.89
405.884	6349.59
406.328	6376.34
406.772	6560.55
407.216	6169.25
407.66	6184.47
408.104	6136.52
408.547	5970.14
408.991	5987.51
409.435	5950.1
409.879	6016.22
410.322	6078.02
410.766	6005.83
411.209	5853.61
411.653	5786.83
412.096	5821.58
412.54	5984.04
412.983	6076.45
413.426	6200.11
413.869	6319.53
414.312	6306.49
414.756	6197.92
415.199	6022.49
415.642	5946.35
416.085	6039.54
416.527	6079.15
416.97	6261.17
417.413	5988.51
417.856	5984.81
418.298	5975.17
418.741	5965.99
419.184	5980.23
419.626	6256.91
420.069	6278.95
420.511	6339.74
420.953	6244.42
421.396	6233.81
421.838	6134.44
422.28	6332.06
422.722	6411.77
423.164	6596.91
423.606	6572.97
424.048	6673.83
424.49	6415.4
424.932	6469.85
425.374	6456.56
425.816	6613.6
426.258	6718.03
426.699	6708.15
427.141	6466.76
427.582	6451.1
428.024	6327.54
428.465	6293.04
428.907	6196.61
429.348	6242.19
429.789	6333.62
430.231	6270.73
430.672	6436.57
431.113	6407.5
431.554	6512.16
431.995	6631.55
432.436	6656.15
432.877	6754.54
433.318	6807.59
433.759	6921.91
434.2	7020.52
434.64	7040.09
435.081	7155.5
435.522	6883.85
435.962	6760.68
436.403	6714.35
436.843	6926.3
437.284	6881.25
437.724	6778.12
438.164	6884.56
438.604	6789.11
439.045	6582.45
439.485	6380.47
439.925	6349.99
440.365	6295.34
440.805	6293.87
441.245	6280.03
441.685	6089.68
442.125	6091.97
442.564	6159.51
443.004	6028.53
443.444	6033.87
443.883	6070.06
444.323	6086
444.762	6165.93
445.202	6290.45
445.641	6418.78
446.081	6438.39
446.52	6528.28
446.959	6507.11
447.398	6400.46
447.837	6401.19
448.276	6360.47
448.716	6467.49
449.154	6549.01
449.593	6364.38
450.032	6324.83
450.471	6221.65
450.91	6218.02
451.349	6174.74
451.787	6133.63
452.226	6201.23
452.664	6168.24
453.103	6145.96
453.541	6131.89
453.98	6083.2
454.418	6134.47
454.856	6020.2
455.295	5994.06
455.733	6011.97
456.171	6032.14
456.609	6004.88
457.047	5988.21
457.485	6039.92
457.923	6024.22
458.361	5933.63
458.798	5959.38
459.236	5947.59
459.674	6017.02
460.111	6065.96
460.549	6026.18
460.987	6034.74
461.424	6050.88
461.862	6038.69
462.299	5976.37
462.736	5987.17
463.173	6026.63
463.611	5945
464.048	5932.73
464.485	5993.18
464.922	5975.98
465.359	5998.94
465.796	5879.38
466.233	5875.75
466.67	5849.83
467.106	5868.25
467.543	5872.23
467.98	5855.01
468.416	5798.53
468.853	5841.4
469.29	5747.69
469.726	5742.79
470.162	5639.13
470.599	5700.77
471.035	5714.42
471.471	5650.59
471.907	5698.74
472.344	5713.63
472.78	5754.35
473.216	5858.11
473.652	5796.77
474.088	5799.32
474.523	5791.66
474.959	5868.57
475.395	5828.26
475.831	5790.28
476.266	5821.16
476.702	5805.81
477.138	5739.77
477.573	5724.54
478.008	5694.87
478.444	5708.48
478.879	5734.67
479.314	5738.57
479.75	5710.15
480.185	5715.21
480.62	5740.3
481.055	5733.29
481.49	5723.2
481.925	5747.31
482.36	5736.45
482.795	5788.04
483.229	5820.23
483.664	5818.19
484.099	5738.65
484.534	5731.14
484.968	5704.88
485.403	5661
485.837	5605.5
486.271	5553.88
486.706	5540.33
487.14	5503.93
487.574	5445.86
488.009	5435.3
488.443	5414.05
488.877	5457.46
489.311	5467.93
489.745	5514.73
490.179	5539.36
490.613	5602.59
491.046	5630.78
491.48	5646.49
491.914	5625.92
492.348	5642.69
492.781	5651.03
493.215	5650.79
493.648	5670.66
494.082	5710.21
494.515	5695.52
494.948	5729.07
495.382	5749.32
495.815	5748.82
496.248	5752.07
496.681	5813.21
497.114	5856.78
497.547	5877.56
497.98	5907.96
498.413	5873.02
498.846	5869.76
499.279	5878.97
499.711	5869.72
500.144	5847.13
500.577	5864.44
501.009	5889.61
501.442	5895.71
501.874	5860.4
502.306	5853.74
502.739	5873.74
503.171	5969.43
503.603	5978.75
504.036	6017.42
504.468	6014.57
504.9	6045.96
505.332	6058.24
505.764	6054.03
506.196	6074.75
506.627	6129.81
507.059	6163.95
507.491	6187.78
507.923	6118.86
508.354	6161.75
508.786	6179.76
509.217	6246.06
509.649	6287.18
510.08	6350.04
510.512	6375.64
510.943	6389.84
511.374	6379.51
511.805	6427.57
512.237	6472.86
512.668	6587.46
513.099	6650.16
513.53	6682.15
513.961	6656.9
514.391	6697.1
514.822	6736.34
515.253	6810.06
515.684	6835.64
516.114	6900.82
516.545	6928.68
516.975	6984.97
517.406	7011.48
517.836	6986.82
518.267	7007.58
518.697	7106.21
519.127	7139.82
519.558	7186.12
519.988	7204.31
520.418	7258.64
520.848	7340.94
521.278	7374.56
521.708	7270.03
522.138	7309.56
522.567	7428.18
522.997	7498.5
523.427	7498.85
523.857	7495.84
524.286	7471.54
524.716	7483.9
525.145	7518.2
525.575	7521
526.004	7548.37
526.433	7632.34
526.863	7593.32
527.292	7512.3
527.721	7528.49
528.15	7572.79
528.579	7596.41
529.008	7652.57
529.437	7744.11
529.866	7772.1
530.295	7806.77
530.724	7806.54
531.152	7875.66
531.581	7892.48
532.01	7935.57
532.438	7940.97
532.867	7969.26
533.295	8011.07
533.723	8004.52
534.152	7969.68
534.58	7954.24
535.008	7874.17
535.436	7865.74
535.865	7885.65
536.293	7925.97
536.721	7957.3
537.149	8008.69
537.576	7958.89
538.004	7968.29
538.432	7975.27
538.86	7947.44
539.287	7962.14
539.715	8000.45
540.143	8005.75
540.57	7982.14
540.998	7970.74
541.425	7882.65
541.852	7824.64
542.28	7855.61
542.707	7820.05
543.134	7786.53
543.561	7791.66
543.988	7777.44
544.415	7793.48
544.842	7782.62
545.269	7764.66
545.696	7783.03
546.123	7857.21
546.549	7827.55
546.976	7785.31
547.403	7797.23
547.829	7818.66
548.256	7845.04
548.682	7843.51
549.108	7822.77
549.535	7839.66
549.961	7862.08
550.387	7814.78
550.813	7795.58
551.24	7833.73
551.666	7852.91
552.092	7822.97
552.518	7806.44
552.943	7780.13
553.369	7813.38
553.795	7834.62
554.221	7829.56
554.646	7809.77
555.072	7841.9
555.498	7850.24
555.923	7860.7
556.349	7888.99
556.774	7892.8
557.199	7870.63
557.625	7884.63
558.05	7849.41
558.475	7887.21
558.9	7872.04
559.325	7827.44
559.75	7798.89
560.175	7775.11
560.6	7757.62
561.025	7759.41
561.449	7771.96
561.874	7796.75
562.299	7797.47
562.723	7809.79
563.148	7745.23
563.572	7750.69
563.997	7782.56
564.421	7798.59
564.846	7784.51
565.27	7778.94
565.694	7744.87
566.118	7768.58
566.542	7773.19
566.966	7732.92
567.39	7697
567.814	7635.83
568.238	7616.63
568.662	7631.08
569.086	7636.07
569.509	7676.91
569.933	7624.87
570.357	7619.92
570.78	7560.71
571.204	7531.9
571.627	7513.57
572.05	7536.19
572.474	7566.21
572.897	7546.59
573.32	7535.89
573.743	7520.9
574.166	7457.75
574.589	7480.38
575.012	7457.65
575.435	7461.69
575.858	7434.67
576.281	7403.99
576.704	7358.38
577.126	7338.48
577.549	7320.77
577.972	7308.4
578.394	7287.58
578.817	7275
579.239	7221.22
579.661	7196
580.084	7159.05
580.506	7137.57
580.928	7157.14
581.35	7138.03
581.772	7140.88
582.194	7093.42
582.616	7044.31
583.038	6983.4
583.46	6944.79
583.882	6926.32
584.303	6942.24
584.725	6913.32
585.147	6872.48
585.568	6865.97
585.99	6846.98
586.411	6788.85
586.833	6778.19
587.254	6726.19
587.675	6743.2
588.096	6753.85
588.518	6691.46
588.939	6581.86
589.36	6543.07
589.781	6510.56
590.202	6391.43
590.623	6385.43
591.043	6420.18
591.464	6396.82
591.885	6394
592.305	6374.49
592.726	6321.07
593.147	6331.78
593.567	6313.8
593.987	6285.05
594.408	6260.77
594.828	6260.67
595.248	6227.15
595.669	6140.65
596.089	6112.15
596.509	6093.41
596.929	6038.99
597.349	6037.16
597.769	5987.92
598.189	5949.28
598.608	5938.89
599.028	5931.65
599.448	5921.27
599.867	5862.54
600.287	5844.57
600.706	5824.03
601.126	5778.71
601.545	5769.28
601.965	5764.95
602.384	5741.19
602.803	5755.45
603.222	5736.27
603.641	5714.06
604.061	5696.99
604.48	5679.71
604.898	5705.9
605.317	5718.03
605.736	5716.02
606.155	5689.99
606.574	5639.33
606.992	5647.16
607.411	5612.25
607.829	5569.58
608.248	5545.35
608.666	5526.66
609.085	5511.8
609.503	5467.52
609.921	5429.43
610.339	5425.84
610.758	5415.24
611.176	5386.57
611.594	5342.35
612.012	5324.29
612.43	5328.41
612.847	5340.47
613.265	5325.02
613.683	5328.28
614.101	5320.09
614.518	5302.05
614.936	5261.96
615.353	5205.08
615.771	5196.44
616.188	5199.78
616.606	5188.39
617.023	5166.33
617.44	5123.06
617.857	5116.8
618.274	5096.01
618.691	5079.27
619.108	5046.53
619.525	5020.42
619.942	5040.82
620.359	5041.07
620.776	5012.23
621.192	4978.41
621.609	4949.46
622.026	4949.34
622.442	4944.84
622.859	4937.94
623.275	4892.26
623.691	4895.07
624.108	4920.84
624.524	4956.2
624.94	4932.91
625.356	4947.2
625.772	4980.35
626.188	5010.06
626.604	4998.7
627.02	4967.13
627.436	4939.83
627.852	4945.44
628.268	4971.17
628.683	4919.7
629.099	4875.02
629.514	4855.43
629.93	4868.84
630.345	4881.68
630.761	4866.15
631.176	4882.06
631.591	4859.5
632.007	4842.63
632.422	4845.8
632.837	4811.27
633.252	4808
633.667	4779.93
634.082	4755.28
634.497	4712.62
634.911	4646.4
635.326	4645.68
635.741	4593.54
636.155	4572.23
636.57	4583.28
636.984	4591.15
637.399	4601.93
637.813	4614.78
638.228	4620.96
638.642	4646.59
639.056	4619.36
639.47	4636
639.884	4614.97
640.298	4604.26
640.712	4611.83
641.126	4584.63
641.54	4571.99
641.954	4582.54
642.368	4552.75
642.781	4532.08
643.195	4476.7
643.609	4489.17
644.022	4473.63
644.436	4462.16
644.849	4417.33
645.262	4378.33
645.676	4389.27
646.089	4364.11
646.502	4291.3
646.915	4271.6
647.328	4213.64
647.741	4214.8
648.154	4175.22
648.567	4164.55
648.98	4120.03
649.393	4137.48
649.805	4135
650.218	4120.22
650.631	4073.27
651.043	4068.6
651.456	4054.99
651.868	4064.84
652.28	4131.31
652.693	4166.49
653.105	4162.06
653.517	4157.63
653.929	4114.86
654.341	4105.16
654.753	4030.9
655.165	4047.4
655.577	4036.62
655.989	4025.03
656.401	4010.65
656.813	3889.23
657.224	3855.13
657.636	3806.7
658.047	3801.78
658.459	3790.2
658.87	3815.33
659.282	3821.29
659.693	3768.56
660.104	3737.13
660.515	3709.92
660.926	3728.67
661.338	3745.94
661.749	3743.79
662.159	3720.68
662.57	3727.84
662.981	3727.7
663.392	3708.9
663.803	3739.61
664.213	3746.79
664.624	3744.89
665.035	3772.66
665.445	3724.59
665.855	3699.92
666.266	3668.13
666.676	3669.43
667.086	3635.46
667.497	3635.15
667.907	3608.82
668.317	3568.02
668.727	3536.23
669.137	3540.59
669.547	3523.04
669.956	3531.47
670.366	3532.7
670.776	3530.92
671.186	3539.98
671.595	3542.04
672.005	3550.83
672.414	3530.83
672.824	3508.16
673.233	3531.51
673.642	3526.79
674.052	3526.52
674.461	3515.32
674.87	3522.24
675.279	3493
675.688	3489.86
676.097	3474.83
676.506	3440.63
676.915	3494.32
677.323	3490.58
677.732	3465.57
678.141	3446.57
678.549	3383.35
678.958	3362.8
679.366	3343.01
679.775	3350.61
680.183	3357.74
680.592	3360.49
681	3357.66
681.408	3295.73
681.816	3297.42
682.224	3300.79
682.632	3296.54
683.04	3371.98
683.448	3404
683.856	3430.13
684.264	3447.42
684.671	3455.38
685.079	3479.17
685.487	3510.89
685.894	3596.73
686.302	3635.58
686.709	3632.36
687.116	3649.78
687.524	3636.43
687.931	3630.59
688.338	3632.45
688.745	3642.77
689.152	3660.99
689.559	3697.23
689.966	3720.28
690.373	3679.61
690.78	3679.87
691.187	3730.62
691.593	3737.26
692	3730.08
692.407	3760.38
692.813	3813.56
693.22	3839.28
693.626	3874.65
694.032	3889.98
694.439	3962.44
694.845	4004.12
695.251	4077.24
695.657	4132.46
696.063	4245.28
696.469	4305.38
696.875	4351.54
697.281	4343.67
697.687	4344.45
698.093	4327.59
698.498	4366.68
698.904	4373
699.31	4429.77
699.715	4446.92
700.12	4518.17
700.526	4486.31
