Data from C_1_DIV_PA_2N_Splice17_12-01-09-964.txt Node
Date: Sat Mar 14 12:01:09 EDT 2020
User: sa697716
Spectrometer: FLMS03696
Trigger mode: 0
Integration Time (sec): 3.180400E-1
Scans to average: 20
Electric dark correction enabled: true
Nonlinearity correction enabled: true
Boxcar width: 5
XAxis mode: Wavelengths
Number of Pixels in Spectrum: 2048
>>>>>Begin Spectral Data<<<<<
187.83	-265225.3
188.298	1967.98
188.766	1005.03
189.233	956.29
189.701	1338.99
190.169	1786.32
190.636	737.81
191.104	640.45
191.571	132.25
192.039	-17.34
192.506	-17.79
192.974	510.04
193.441	-681.33
193.908	-207.29
194.375	-33.49
194.842	24.1
195.31	49.65
195.777	166.97
196.244	387.72
196.711	480.77
197.177	606.73
197.644	903.15
198.111	1612.51
198.578	2244.71
199.045	1801.84
199.511	2928.24
199.978	3422.97
200.445	2896.82
200.911	3220.17
201.378	3614.64
201.844	3288.51
202.31	5675.44
202.777	5893.26
203.243	3273.37
203.709	3108.83
204.176	3677.56
204.642	3069.48
205.108	2871.61
205.574	2335.26
206.04	2137.34
206.506	2001.53
206.972	1889.91
207.438	1821
207.903	2072.86
208.369	1796.53
208.835	1808.47
209.301	1896.7
209.766	1942.73
210.232	1912.32
210.697	2376.82
211.163	2909.28
211.628	4384.19
212.094	3687.9
212.559	4524.13
213.024	2811.35
213.49	3413.51
213.955	3296.69
214.42	3228.91
214.885	3005.87
215.35	2895.75
215.815	2785.27
216.28	2955.88
216.745	2399.14
217.21	2577.24
217.675	2358.48
218.14	2635.72
218.604	2946.31
219.069	3353.9
219.534	3513.27
219.998	4084.56
220.463	4945.45
220.927	6099.96
221.392	5759.99
221.856	5847.84
222.32	7390.85
222.785	9157.25
223.249	11566.46
223.713	12939.43
224.177	12981.86
224.642	16671.36
225.106	20541.75
225.57	22520.94
226.034	16779.86
226.497	25646.95
226.961	23204.84
227.425	27077.74
227.889	30100.7
228.353	30185.39
228.816	62547.42
229.28	59986.31
229.744	50829.89
230.207	30995.19
230.671	30565.22
231.134	50702.93
231.597	58530.68
232.061	58781.37
232.524	57523.71
232.987	39739.98
233.45	35873.83
233.914	32272.87
234.377	33212.3
234.84	30486.53
235.303	36082.87
235.766	40431.81
236.229	41949.63
236.691	26504.07
237.154	29843.86
237.617	22542.94
238.08	23165.94
238.542	27218.3
239.005	19487.62
239.468	19371.53
239.93	18293.29
240.393	16650.45
240.855	14635.13
241.317	15006.8
241.78	18298.15
242.242	18941.43
242.704	20450.87
243.166	17829.44
243.629	16201.15
244.091	18731.45
244.553	20549.26
245.015	22114.05
245.477	28674.3
245.939	42111.43
246.4	44755.82
246.862	43591.91
247.324	41163.02
247.786	46156.72
248.247	60635.04
248.709	62718.15
249.17	46897.07
249.632	44272.63
250.093	51368.21
250.555	44380.31
251.016	27091.42
251.477	25746.38
251.939	27820.89
252.4	29259.32
252.861	34859.26
253.322	32447.3
253.783	38713.02
254.244	50305.97
254.705	39713.78
255.166	35395.2
255.627	34876.05
256.088	49246.22
256.549	52386.66
257.009	45156.03
257.47	54844.83
257.931	44707.72
258.391	33512.84
258.852	34553.61
259.312	36252.9
259.773	44899.65
260.233	37950.26
260.694	32054.46
261.154	36400.11
261.614	29207.62
262.074	26144.5
262.534	27149.88
262.994	25597.68
263.455	34134.93
263.915	28730.95
264.374	27085.13
264.834	29552.37
265.294	32793.4
265.754	34009.48
266.214	32214.99
266.673	30218.31
267.133	38123.36
267.593	37880.86
268.052	46391.31
268.512	40357.34
268.971	48702.94
269.431	53385.13
269.89	47829.63
270.349	71675.54
270.809	79919.09
271.268	71846.93
271.727	161263.1
272.186	104615.62
272.645	78476.05
273.104	56643.81
273.563	82086.62
274.022	64621.31
274.481	55036.94
274.94	42413.44
275.399	31572.5
275.857	36769.12
276.316	49765.88
276.775	44292.5
277.233	43559.99
277.692	40773.92
278.15	46121.74
278.609	47453.33
279.067	43940.7
279.525	40811.18
279.984	52741.44
280.442	63368.74
280.9	62454.28
281.358	41129.6
281.816	38348.62
282.274	37595.58
282.732	38907.54
283.19	39136.87
283.648	33814.19
284.106	36071.85
284.564	36748.85
285.021	34081.1
285.479	25416.51
285.937	23155.23
286.394	20311.82
286.852	20933.24
287.309	22039.29
287.767	21296.47
288.224	20257.3
288.682	22245.69
289.139	24410.81
289.596	22345.13
290.053	23275.3
290.511	29431.5
290.968	35788.5
291.425	48682.75
291.882	40510.06
292.339	35304.18
292.796	35096.08
293.252	33145.49
293.709	26362.23
294.166	23671.92
294.623	26233.84
295.079	25203.66
295.536	25345.68
295.992	23011.74
296.449	22790.21
296.905	23729.82
297.362	22777.47
297.818	23978.91
298.274	24888.62
298.731	25411.2
299.187	25187.33
299.643	27056.95
300.099	32775.25
300.555	35964.02
301.011	30099.87
301.467	28987.84
301.923	34005.36
302.379	33256.63
302.835	32727.55
303.291	32810.18
303.746	37405.55
304.202	47301.09
304.658	47592.75
305.113	32026.09
305.569	31447.21
306.024	33592.88
306.479	32087.29
306.935	27046.29
307.39	29583.38
307.845	27342.75
308.301	27561.23
308.756	26891.65
309.211	25936.72
309.666	26557.05
310.121	32985.78
310.576	33504.21
311.031	33241.16
311.486	38091.65
311.94	38109.65
312.395	51015.69
312.85	95973.56
313.305	472171.12
313.759	2442652.96
314.214	177030.7
314.668	140433.04
315.123	118199.38
315.577	42397.04
316.032	37754.79
316.486	47324.28
316.94	37370.99
317.394	26014.42
317.849	20216.67
318.303	19142
318.757	18055.37
319.211	19998.36
319.665	17528.85
320.119	17748.03
320.572	25476.01
321.026	23804
321.48	19830.56
321.934	21663.05
322.387	21734.49
322.841	23480.98
323.295	21085.11
323.748	24322.96
324.202	24657.9
324.655	29602.49
325.108	41351.49
325.562	29263.55
326.015	34838.31
326.468	26375.11
326.921	29490.08
327.374	27516.15
327.827	28657.19
328.28	32485.22
328.733	21768.65
329.186	19177.39
329.639	18289.37
330.092	15446.41
330.545	14710.46
330.997	14832
331.45	16191.04
331.903	18993.8
332.355	32678.41
332.808	31837.25
333.26	26285.96
333.713	28571.54
334.165	28776.98
334.617	38509.56
335.069	31194.91
335.522	56505.98
335.974	62583.12
336.426	57289.57
336.878	39718.39
337.33	20166.32
337.782	19692.45
338.234	24672.3
338.686	29569.6
339.137	35056.04
339.589	33017.61
340.041	25826.56
340.493	22192.89
340.944	22751.94
341.396	24480.75
341.847	20581.54
342.299	24287.33
342.75	29611.93
343.201	25916.3
343.653	29780.89
344.104	36626.11
344.555	28797.68
345.006	44904.97
345.457	34360.58
345.908	27351.63
346.359	25741.95
346.81	20973.68
347.261	22123.49
347.712	21797.89
348.163	23367.27
348.613	23655.28
349.064	22105.08
349.515	19410.29
349.965	19893.49
350.416	23969.05
350.866	26282.18
351.317	29771.5
351.767	49331.05
352.217	62326.36
352.668	51818.43
353.118	47558.8
353.568	46001.82
354.018	36395.07
354.468	38370.34
354.918	27563.91
355.368	24136.19
355.818	34122.41
356.268	98361.43
356.718	411564.71
357.168	102489.6
357.617	51487.76
358.067	57284.63
358.517	53619.2
358.966	62878.35
359.416	70406.24
359.865	76285.66
360.315	90958.34
360.764	42536.82
361.213	23815.82
361.663	22602.26
362.112	27953.58
362.561	45183.3
363.01	34127.02
363.459	28775.46
363.908	31170.08
364.357	26531.98
364.806	44863.53
365.255	30888.42
365.703	28325.96
366.152	28418.43
366.601	23111.68
367.05	18788.63
367.498	17095.57
367.947	17914.54
368.395	18671.87
368.844	16590.07
369.292	20069.52
369.74	13878.69
370.189	21311.58
370.637	25028.01
371.085	21642.51
371.533	26401.43
371.981	25494.63
372.429	24306.46
372.877	25368.86
373.325	21285.42
373.773	21718.83
374.221	19387.36
374.669	24106.26
375.116	20876.93
375.564	21093.12
376.012	23671.06
376.459	19545.64
376.907	23438.53
377.354	28482.66
377.801	26612.19
378.249	30645.07
378.696	39285.08
379.143	47690.81
379.591	51014.28
380.038	86467.46
380.485	62668.46
380.932	67759.15
381.379	62053.3
381.826	45769.6
382.273	32604.23
382.72	28595.11
383.166	27926.62
383.613	18159.47
384.06	16393.17
384.506	19017.05
384.953	14020.31
385.4	14148.96
385.846	12414.43
386.292	12146.64
386.739	11917.12
387.185	11813.39
387.631	11830.37
388.078	11479.97
388.524	12293.03
388.97	11390.93
389.416	9499.1
389.862	10104.78
390.308	9584.83
390.754	9747.58
391.2	10585.66
391.645	10848.25
392.091	10367.21
392.537	10014.62
392.983	10049.76
393.428	9867.11
393.874	10583.88
394.319	10622.76
394.765	10068.43
395.21	10367.26
395.655	9732.65
396.101	9127.99
396.546	8241.17
396.991	8340.32
397.436	7763.93
397.881	7512.18
398.326	7141.46
398.771	6755.47
399.216	5922.07
399.661	5346.24
400.106	5326.58
400.551	5455.11
400.995	4900.77
401.44	4855.04
401.885	4564.21
402.329	4620.58
402.774	4435.75
403.218	4293
403.663	4145.91
404.107	4266.44
404.551	4301.96
404.995	3957.48
405.44	3829.55
405.884	3897.85
406.328	3781.31
406.772	3781.85
407.216	3451.92
407.66	3348.06
408.104	3193.68
408.547	2998
408.991	2906.5
409.435	2806.41
409.879	2768.15
410.322	2736.69
410.766	2645.94
411.209	2521.73
411.653	2425.41
412.096	2379.34
412.54	2387.7
412.983	2375.43
413.426	2379.62
413.869	2384.28
414.312	2344.75
414.756	2267.71
415.199	2166.96
415.642	2109.28
416.085	2116.05
416.527	2107.27
416.97	2144.55
417.413	2036.76
417.856	2021.14
418.298	2006.95
418.741	1998.53
419.184	2000.07
419.626	2087.32
420.069	2090.04
420.511	2102.78
420.953	2057.49
421.396	2039.76
421.838	1991.21
422.28	2038.14
422.722	2048.14
423.164	2081.7
423.606	2047.76
424.048	2047.7
424.49	1947.61
424.932	1939.99
425.374	1918.8
425.816	1957.35
426.258	1995.29
426.699	2023.36
427.141	1994.85
427.582	2031.06
428.024	2024.7
428.465	2019.57
428.907	1968.71
429.348	1945.83
429.789	1945.84
430.231	1901.75
430.672	1928.34
431.113	1885.65
431.554	1855.64
431.995	1813.13
432.436	1745.6
432.877	1703.18
433.318	1668.74
433.759	1661.03
434.2	1662.27
434.64	1644.87
435.081	1648.86
435.522	1561.92
435.962	1504.01
436.403	1470.19
436.843	1490.63
437.284	1460.16
437.724	1424.88
438.164	1433.53
438.604	1404.61
439.045	1351.22
439.485	1293.78
439.925	1266.39
440.365	1233.75
440.805	1216.67
441.245	1200.13
441.685	1154.43
442.125	1148.11
442.564	1153.1
443.004	1123.87
443.444	1119.4
443.883	1117.19
444.323	1109.79
444.762	1113.45
445.202	1125.8
445.641	1142.75
446.081	1135.6
446.52	1142.05
446.959	1123.91
447.398	1093.52
447.837	1077.75
448.276	1054.8
448.716	1064.57
449.154	1071.49
449.593	1042.42
450.032	1036.64
450.471	1017.84
450.91	1016.77
451.349	1011.62
451.787	1006.86
452.226	1021.09
452.664	1018.56
453.103	1019.65
453.541	1014.49
453.98	1010.25
454.418	1015.86
454.856	999.76
455.295	996.18
455.733	1000.91
456.171	1005.35
456.609	1005.71
457.047	1002.76
457.485	1015.14
457.923	1015.61
458.361	1003.68
458.798	1005.52
459.236	1001.93
459.674	1009.14
460.111	1014.05
460.549	1004.06
460.987	1002.25
461.424	1000.2
461.862	996.03
462.299	981.17
462.736	979.21
463.173	981.55
463.611	969.85
464.048	967.06
464.485	972.98
464.922	963.76
465.359	960.64
465.796	941.16
466.233	933.57
466.67	923.92
467.106	922.16
467.543	914.73
467.98	903.73
468.416	882.04
468.853	875.66
469.29	849.45
469.726	838.71
470.162	816.06
470.599	809.43
471.035	801.23
471.471	782.19
471.907	777.73
472.344	771.56
472.78	771.59
473.216	781.02
473.652	771.33
474.088	768.57
474.523	764.61
474.959	770.66
475.395	763.21
475.831	757.92
476.266	760.09
476.702	757.11
477.138	747.84
477.573	743.72
478.008	738.91
478.444	739.11
478.879	743.88
479.314	746.97
479.75	744.89
480.185	747.19
480.62	751.78
481.055	753.99
481.49	757.96
481.925	766.69
482.36	779.28
482.795	800.66
483.229	822.82
483.664	839.09
484.099	841.16
484.534	852.75
484.968	858.86
485.403	860.58
485.837	859.71
486.271	856.81
486.706	856.78
487.14	845.71
487.574	829.89
488.009	820.23
488.443	811.42
488.877	817.11
489.311	816.94
489.745	823.83
490.179	827.9
490.613	839.02
491.046	841.67
491.48	844.58
491.914	841.49
492.348	843.34
492.781	843.72
493.215	840.62
493.648	837.3
494.082	838.22
494.515	833.6
494.948	836.94
495.382	836.44
495.815	836.44
496.248	834.97
496.681	842.69
497.114	848.94
497.547	853.47
497.98	861
498.413	860.01
498.846	863.07
499.279	864.36
499.711	860.58
500.144	854.89
500.577	855.94
501.009	859.16
501.442	859.51
501.874	851.48
502.306	842.34
502.739	839.3
503.171	843.31
503.603	836.17
504.036	833.63
504.468	829.07
504.9	828.05
505.332	823.29
505.764	815.79
506.196	810.71
506.627	811.57
507.059	812.9
507.491	808.54
507.923	795.13
508.354	795.22
508.786	792.8
509.217	795.31
509.649	796.77
510.08	800.06
510.512	801.57
510.943	801.16
511.374	797.9
511.805	800.41
512.237	803.12
512.668	814.91
513.099	823.64
513.53	831.58
513.961	834.08
514.391	843.58
514.822	855.32
515.253	867.03
515.684	873.56
516.114	881.86
516.545	885.96
516.975	892.61
517.406	893.3
517.836	883.84
518.267	878.18
518.697	880.39
519.127	874.61
519.558	870.53
519.988	864.72
520.418	863.16
520.848	866.4
521.278	864.77
521.708	882.4
522.138	885.08
522.567	898.86
522.997	908.55
523.427	912.68
523.857	917.75
524.286	918.71
524.716	924.17
525.145	931.37
525.575	934.43
526.004	938.62
526.433	916.46
526.863	913.08
527.292	905.68
527.721	906.62
528.15	906.96
528.579	905.26
529.008	909.79
529.437	920.45
529.866	926.33
530.295	934.07
530.724	940.25
531.152	954.18
531.581	961.81
532.01	970
532.438	973.17
532.867	980.7
533.295	990.25
533.723	993.18
534.152	991.23
534.58	989.95
535.008	981.02
535.436	982.16
535.865	986.15
536.293	992.95
536.721	1000.45
537.149	1013.57
537.576	1014.86
538.004	1021.25
538.432	1024.33
538.86	1023.73
539.287	1028.26
539.715	1035.78
540.143	1036.07
540.57	1033.81
540.998	1031.23
541.425	1019.37
541.852	1008.17
542.28	1006.97
542.707	998
543.134	990.47
543.561	987.51
543.988	983.44
544.415	982.53
544.842	979.22
545.269	974.77
545.696	975.88
546.123	981.56
546.549	975.52
546.976	968.33
547.403	967.26
547.829	967.87
548.256	968.87
548.682	966.52
549.108	962.74
549.535	961.62
549.961	962.51
550.387	954.68
550.813	952.6
551.24	955.58
551.666	955.33
552.092	949.97
552.518	946.13
552.943	942.34
553.369	944.8
553.795	946.65
554.221	947.53
554.646	945.54
555.072	951.79
555.498	952.07
555.923	955.11
556.349	962.42
556.774	966.44
557.199	967.3
557.625	970.26
558.05	966.86
558.475	972.23
558.9	972.02
559.325	967.15
559.75	962.28
560.175	958.98
560.6	955.92
561.025	954.21
561.449	954.45
561.874	955.45
562.299	957.71
562.723	962.14
563.148	956.27
563.572	957.25
563.997	961.18
564.421	963.66
564.846	964.53
565.27	966.65
565.694	965.38
566.118	971.91
566.542	977.38
566.966	973.54
567.39	971.52
567.814	966.72
568.238	966.89
568.662	970.68
569.086	973.71
569.509	977.37
569.933	970.97
570.357	968.36
570.78	958.46
571.204	953.59
571.627	949.37
572.05	948.32
572.474	950.33
572.897	945.32
573.32	943.9
573.743	939.09
574.166	931.56
574.589	933
575.012	930.61
575.435	930.53
575.858	925.86
576.281	921.59
576.704	915.07
577.126	908.05
577.549	903.55
577.972	898.43
578.394	895.66
578.817	894.36
579.239	885.57
579.661	880.08
580.084	874.41
580.506	869.32
580.928	868.32
581.35	864.02
581.772	864.78
582.194	859.2
582.616	854.01
583.038	846.2
583.46	840.59
583.882	840.07
584.303	842.69
584.725	840.87
585.147	845.06
585.568	852.4
585.99	860.25
586.411	864.66
586.833	873.14
587.254	875.81
587.675	886.49
588.096	895.35
588.518	893.38
588.939	886.21
589.36	887.07
589.781	879.59
590.202	864.94
590.623	860.84
591.043	859.5
591.464	853.58
591.885	851.99
592.305	848.07
592.726	840.86
593.147	842.16
593.567	839.55
593.987	834.62
594.408	832.45
594.828	830.83
595.248	828.6
595.669	819.55
596.089	815.92
596.509	812.45
596.929	805.43
597.349	805.31
597.769	800.21
598.189	796.57
598.608	798.28
599.028	799.99
599.448	801.36
599.867	794.02
600.287	791.31
600.706	790.27
601.126	786.28
601.545	786.25
601.965	786.92
602.384	785.3
602.803	788.73
603.222	787.53
603.641	784.46
604.061	783.27
604.48	782.87
604.898	789.4
605.317	793.4
605.736	795.65
606.155	796.62
606.574	793.19
606.992	797.97
607.411	797.15
607.829	793.94
608.248	794.3
608.666	795.74
609.085	798.63
609.503	796.3
609.921	795.26
610.339	798.77
610.758	800.47
611.176	800.27
611.594	797.13
612.012	797.08
612.43	802.04
612.847	809.09
613.265	812.48
613.683	816.57
614.101	819.58
614.518	819.12
614.936	816.27
615.353	810.36
615.771	811.11
616.188	813.81
616.606	814.65
617.023	813.09
617.44	806.55
617.857	803.24
618.274	800.45
618.691	799.21
619.108	795.46
619.525	793.82
619.942	798.92
620.359	802.24
620.776	801.84
621.192	800.98
621.609	801.08
622.026	806.96
622.442	813.35
622.859	816.84
623.275	812.81
623.691	818.23
624.108	826.35
624.524	837.5
624.94	838.99
625.356	846.29
625.772	856.66
626.188	864.35
626.604	866.91
627.02	864.37
627.436	864.31
627.852	870.74
628.268	879.8
628.683	875.08
629.099	869.8
629.514	866.56
629.93	869.57
630.345	873.07
630.761	871.61
631.176	874.66
631.591	873.13
632.007	869.65
632.422	868.7
632.837	861.69
633.252	860.78
633.667	855.05
634.082	851.32
634.497	845.51
634.911	834.61
635.326	834.69
635.741	825.41
636.155	819.54
636.57	823.91
636.984	827.86
637.399	833.3
637.813	837.33
638.228	842.46
638.642	850.3
639.056	847.69
639.47	853.07
639.884	852.79
640.298	854.18
640.712	860.84
641.126	857.3
641.54	857.24
641.954	859.91
642.368	858.16
642.781	859.68
643.195	854.09
643.609	862.21
644.022	865
644.436	870
644.849	868.64
645.262	866.57
645.676	875.42
646.089	880.01
646.502	876.03
646.915	879.86
647.328	872.77
647.741	876.82
648.154	871.38
648.567	874.94
648.98	869.29
649.393	873.88
649.805	877.05
650.218	875.97
650.631	865.4
651.043	864.35
651.456	862.15
651.868	865.85
652.28	885.59
652.693	901.52
653.105	909.93
653.517	922.21
653.929	927.26
654.341	935.17
654.753	929.42
655.165	941.05
655.577	942.74
655.989	942.63
656.401	941.33
656.813	913.52
657.224	901.18
657.636	881.32
658.047	870.37
658.459	858.95
658.87	858.17
659.282	853.51
659.693	840.49
660.104	834.6
660.515	830.96
660.926	835.88
661.338	840.57
661.749	842.34
662.159	842.8
662.57	847.14
662.981	850.75
663.392	850.84
663.803	863.91
664.213	868.91
664.624	872.28
665.035	882.91
665.445	877.02
665.855	876.97
666.266	874.35
666.676	876.98
667.086	873.37
667.497	877.54
667.907	875.81
668.317	869.95
668.727	870.73
669.137	875.98
669.547	876.3
669.956	882.98
670.366	888.59
670.776	894.18
671.186	902.31
671.595	908.88
672.005	914.92
672.414	915.58
672.824	914.82
673.233	922.53
673.642	926.68
674.052	930.71
674.461	933.29
674.87	939.29
675.279	936.28
675.688	938.03
676.097	938.94
676.506	935.7
676.915	953.4
677.323	957.37
677.732	953.92
678.141	952.09
678.549	938.99
678.958	937.31
679.366	935.02
679.775	938.7
680.183	946.39
680.592	949.58
681	951.95
681.408	939.34
681.816	941.06
682.224	944.24
682.632	947.57
683.04	971.7
683.448	988.42
683.856	1009.03
684.264	1033.15
684.671	1053.77
685.079	1079.39
685.487	1105.47
685.894	1144.6
686.302	1170.61
686.709	1184.08
687.116	1199.83
687.524	1204.55
687.931	1201.39
688.338	1193.35
688.745	1178.94
689.152	1167.97
689.559	1165.48
689.966	1162.85
690.373	1142.16
690.78	1136.76
691.187	1145.75
691.593	1145.18
692	1140.41
692.407	1149.41
692.813	1168.34
693.22	1176.99
693.626	1186.37
694.032	1190.88
694.439	1212.7
694.845	1227.26
695.251	1249.82
695.657	1272.44
696.063	1314.11
696.469	1344.22
696.875	1372.65
697.281	1385.49
697.687	1407
698.093	1427.58
698.498	1467.87
698.904	1497.58
699.31	1547.31
699.715	1588.49
700.12	1644.01
700.526	1659.81
700.931	1706.48
701.337	1745.69
701.742	1775.73
702.147	1835.67
702.552	1864.56
