Data from C_1_DIV_OH_2N_Splice17_11-50-25-883.txt Node
Date: Sat Mar 14 11:50:25 EDT 2020
User: sa697716
Spectrometer: FLMS03696
Trigger mode: 0
Integration Time (sec): 3.180400E-1
Scans to average: 20
Electric dark correction enabled: true
Nonlinearity correction enabled: true
Boxcar width: 5
XAxis mode: Wavelengths
Number of Pixels in Spectrum: 2048
>>>>>Begin Spectral Data<<<<<
187.83	-213886.16
188.298	1589.27
188.766	845.45
189.233	757.98
189.701	1075.43
190.169	1421.53
190.636	511.88
191.104	395.8
191.571	34.01
192.039	-75.69
192.506	-125.17
192.974	195.15
193.441	-369.1
193.908	-176.81
194.375	-96.29
194.842	-16.27
195.31	47.77
195.777	121.51
196.244	329.93
196.711	517.76
197.177	684.97
197.644	975.86
198.111	1670.37
198.578	2396.68
199.045	1959.61
199.511	3260.92
199.978	3811.07
200.445	3234.57
200.911	3613.71
201.378	4066.86
201.844	3657.42
202.31	6262.2
202.777	6518.45
203.243	3628.23
203.709	3463.92
204.176	4139.25
204.642	3431.7
205.108	3198.18
205.574	2612.96
206.04	2387.12
206.506	2252.87
206.972	2145.69
207.438	2083.82
207.903	2400.86
208.369	2119.21
208.835	2117.56
209.301	2233.88
209.766	2306.84
210.232	2302.25
210.697	2879.71
211.163	3601.66
211.628	5514.26
212.094	4633.13
212.559	5667.63
213.024	3557.94
213.49	4372.37
213.955	4301.29
214.42	4267.51
214.885	3984.2
215.35	3849.63
215.815	3674.99
216.28	3925.47
216.745	3248.36
217.21	3567.42
217.675	3390.96
218.14	3915
218.604	4524.44
219.069	5314.54
219.534	5671.17
219.998	6797.66
220.463	8436.98
220.927	10723.84
221.392	10301.93
221.856	10558.55
222.32	13577.15
222.785	16906.56
223.249	21454.33
223.713	24112.7
224.177	24238.13
224.642	31379.91
225.106	38812.87
225.57	42618.64
226.034	31691.4
226.497	48335.96
226.961	43688.61
227.425	50874.12
227.889	56646.17
228.353	56745.91
228.816	117411.75
229.28	112509.23
229.744	94944.34
230.207	57668.64
230.671	56765.07
231.134	94223.19
231.597	108615.29
232.061	108775.7
232.524	106196.74
232.987	73187.47
233.45	65875.03
233.914	59106.91
234.377	60664.21
234.84	55566.79
235.303	65586.05
235.766	73255.91
236.229	75694.99
236.691	47747.9
237.154	53691.56
237.617	40380.49
238.08	41365.44
238.542	48463.41
239.005	34613.94
239.468	34310.33
239.93	32297.05
240.393	29318.05
240.855	25714.64
241.317	26325.56
241.78	32042.55
242.242	33071.95
242.704	35637.61
243.166	30982.04
243.629	28064.2
244.091	32340.55
244.553	35439.99
245.015	38089.36
245.477	49299.69
245.939	72274.62
246.4	76597.34
246.862	74386.37
247.324	70128.01
247.786	78541.04
248.247	102967.88
248.709	106541.59
249.17	79604.74
249.632	74867.88
250.093	86662.92
250.555	74781.51
251.016	45532.17
251.477	43183.98
251.939	46560.34
252.4	48835.81
252.861	58103.69
253.322	53979.07
253.783	64207.12
254.244	83272.18
254.705	65683.26
255.166	58466.45
255.627	57530.78
256.088	81075.12
256.549	86098.25
257.009	74154.19
257.47	89976.28
257.931	73212.61
258.391	54868.09
258.852	56542.29
259.312	59270.66
259.773	73188.99
260.233	61726.24
260.694	52042.34
261.154	59093.26
261.614	47361.48
262.074	42357.18
262.534	43981.21
262.994	41434.81
263.455	55278.82
263.915	46553.23
264.374	43859.51
264.834	47923.08
265.294	53169.82
265.754	55044.96
266.214	52093.27
266.673	48837.5
267.133	61633.62
267.593	61212.37
268.052	74915.03
268.512	65095.45
268.971	78368.74
269.431	85933.51
269.89	76904.27
270.349	115200.16
270.809	128454.26
271.268	115445.81
271.727	258900.11
272.186	167582.25
272.645	125544.82
273.104	90539.66
273.563	131079.68
274.022	103287.96
274.481	87765.72
274.94	67538.53
275.399	50236.14
275.857	58529.56
276.316	79157.56
276.775	70463.3
277.233	69377.38
277.692	64881.18
278.15	73337.11
278.609	75348.75
279.067	69691.35
279.525	64674.5
279.984	83563.92
280.442	100305.28
280.9	98619.36
281.358	64827.48
281.816	60292.61
282.274	58961.73
282.732	60922.3
283.19	61225.54
283.648	52829.16
284.106	56178.09
284.564	57133.32
285.021	52907.99
285.479	39435.39
285.937	35908.45
286.394	31458.17
286.852	32397.01
287.309	34012.39
287.767	32792.89
288.224	31116.11
288.682	34105.5
289.139	37358.57
289.596	34123.36
290.053	35437.52
290.511	44673.57
290.968	54074.85
291.425	73387.79
291.882	60931.59
292.339	53009.79
292.796	52572.39
293.252	49539.99
293.709	39263.36
294.166	35188.39
294.623	38870.37
295.079	37304.46
295.536	37391.68
295.992	33927.29
296.449	33506.46
296.905	34805.15
297.362	33329.75
297.818	35032.5
298.274	36303.73
298.731	36983.88
299.187	36563.87
299.643	39240.65
300.099	47417.97
300.555	51991.38
301.011	43429.89
301.467	41739.62
301.923	48874.86
302.379	47711.38
302.835	46835.65
303.291	46846.78
303.746	53334.48
304.202	67336.4
304.658	67550.24
305.113	45373.8
305.569	44403.28
306.024	47321.07
306.479	45111.57
306.935	37964.73
307.39	41448.5
307.845	38268.7
308.301	38455.77
308.756	37424.06
309.211	35999.2
309.666	36860.36
310.121	45627.94
310.576	46346.63
311.031	45958.08
311.486	52628.91
311.94	52555.85
312.395	70298.75
312.85	132075.93
313.305	649692.78
313.759	3354176.67
314.214	242954.93
314.668	192181.3
315.123	161670.15
315.577	57898.3
316.032	51441.67
316.486	64372.49
316.94	50729.5
317.394	35227.05
317.849	27338.13
318.303	25861.46
318.757	24399.85
319.211	26967.65
319.665	23619.34
320.119	23878.92
320.572	34215.68
321.026	31887.38
321.48	26514.9
321.934	28935.5
322.387	29003.39
322.841	31304.65
323.295	28069.94
323.748	32385.17
324.202	32807.17
324.655	39346.98
325.108	54846.27
325.562	38743.39
326.015	46117.24
326.468	34871.14
326.921	38987.16
327.374	36287.19
327.827	37753.01
328.28	42709.49
328.733	28555.44
329.186	25125.32
329.639	23938.17
330.092	20230.98
330.545	19244.87
330.997	19381.34
331.45	21136.83
331.903	24718.98
332.355	42574.7
332.808	41373.88
333.26	34150.62
333.713	37094.29
334.165	37349.19
334.617	49913.8
335.069	40339.87
335.522	73033.56
335.974	80897
336.426	73989.15
336.878	51307.66
337.33	25977.27
337.782	25354.54
338.234	31694.97
338.686	37916.26
339.137	44942.67
339.589	42221.06
340.041	33008.85
340.493	28361.3
340.944	29028.05
341.396	31240.85
341.847	26242.55
342.299	30917.39
342.75	37675.63
343.201	33008.07
343.653	37975.93
344.104	46642.91
344.555	36738.35
345.006	57318.62
345.457	43802.73
345.908	34830.55
346.359	32749.03
346.81	26655.75
347.261	28138.81
347.712	27762.56
348.163	29761.73
348.613	30065.05
349.064	28086.63
349.515	24619.33
349.965	25234.16
350.416	30391.46
350.866	33364.99
351.317	37773.61
351.767	62594.24
352.217	79114.78
352.668	65634.18
353.118	60129.3
353.568	58050.47
354.018	45823.24
354.468	48271.64
354.918	34592.44
355.368	30257.49
355.818	42723.81
356.268	122873.74
356.718	514092.76
357.168	127785.06
357.617	64097.18
358.067	71298.99
358.517	66811.81
358.966	78343.46
359.416	87651.4
359.865	94820.17
360.315	113028.55
360.764	52715.73
361.213	29519.7
361.663	27983.8
362.112	34598.37
362.561	55942.29
363.01	42168.95
363.459	35482.23
363.908	38405.89
364.357	32595.83
364.806	55053.3
365.255	37842.01
365.703	34616.99
366.152	34670.98
366.601	28081.36
367.05	22758.26
367.498	20637.82
367.947	21553.6
368.395	22413.44
368.844	19818.39
369.292	23984.25
369.74	16554.16
370.189	25340.08
370.637	29684.05
371.085	25627.73
371.533	31189.67
371.981	30089.35
372.429	28671.1
372.877	29865.59
373.325	24997.14
373.773	25488.16
374.221	22661.17
374.669	28121.65
375.116	24277.65
375.564	24485.49
376.012	27332.68
376.459	22513.88
376.907	26867.22
377.354	32497.19
377.801	30279.05
378.249	34759.99
378.696	44405.63
379.143	53761.89
379.591	57331.21
380.038	97036.16
380.485	70035.39
380.932	75642.76
381.379	69062.02
381.826	50773.19
382.273	36065.29
382.72	31536.69
383.166	30723.2
383.613	19910.77
384.06	17950.52
384.506	20729.31
384.953	15216.28
385.4	15320.49
385.846	13414.6
386.292	13099.29
386.739	12816.77
387.185	12688.28
387.631	12673.57
388.078	12276.02
388.524	13122.19
388.97	12095.98
389.416	10085.94
389.862	10717.94
390.308	10151.8
390.754	10296.89
391.2	11157.65
391.645	11414.65
392.091	10857.05
392.537	10479.63
392.983	10507.1
393.428	10297.75
393.874	11018.22
394.319	11015.78
394.765	10417.15
395.21	10699.71
395.655	10015.59
396.101	9367.05
396.546	8448.96
396.991	8538.71
397.436	7917.04
397.881	7627.33
398.326	7234.19
398.771	6834.3
399.216	5977.41
399.661	5371.86
400.106	5333.53
400.551	5445.26
400.995	4875.97
401.44	4804.2
401.885	4502.54
402.329	4536.27
402.774	4336.81
403.218	4180.12
403.663	4022.8
404.107	4120.31
404.551	4142.47
404.995	3789.84
405.44	3645.08
405.884	3695.8
406.328	3571.6
406.772	3554.95
407.216	3231.88
407.66	3120.37
408.104	2965.17
408.547	2769.67
408.991	2677.01
409.435	2570.27
409.879	2530.73
410.322	2493.04
410.766	2399.78
411.209	2275.5
411.653	2179.56
412.096	2129.27
412.54	2125.65
412.983	2104.22
413.426	2099.71
413.869	2096.05
414.312	2054.52
414.756	1977.11
415.199	1884.49
415.642	1825.59
416.085	1827.19
416.527	1814.45
416.97	1842.11
417.413	1747.35
417.856	1728.63
418.298	1714
418.741	1699.52
419.184	1694.81
419.626	1764.75
420.069	1761.8
420.511	1769.47
420.953	1731
421.396	1710.94
421.838	1667.53
422.28	1702.75
422.722	1709.63
423.164	1731.44
423.606	1700.5
424.048	1697.69
424.49	1610.7
424.932	1603.72
425.374	1583.5
425.816	1609.93
426.258	1640.15
426.699	1655.65
427.141	1627.71
427.582	1652.14
428.024	1644.99
428.465	1639.52
428.907	1597.04
429.348	1579.23
429.789	1580.05
430.231	1545.87
430.672	1567.32
431.113	1530.46
431.554	1511.88
431.995	1480.53
432.436	1426.85
432.877	1393.25
433.318	1368.43
433.759	1365.68
434.2	1368.47
434.64	1352.42
435.081	1358.33
435.522	1286.84
435.962	1242.02
436.403	1214.97
436.843	1230.95
437.284	1208.36
437.724	1178.99
438.164	1184.84
438.604	1159.27
439.045	1115.09
439.485	1068.99
439.925	1047.86
440.365	1024.03
440.805	1012.31
441.245	1000.38
441.685	966.65
442.125	961.34
442.564	969.2
443.004	947.94
443.444	948.54
443.883	950.84
444.323	948.11
444.762	951.76
445.202	965.66
445.641	983.69
446.081	980.16
446.52	987.77
446.959	979.63
447.398	955.68
447.837	944.83
448.276	928.04
448.716	941.07
449.154	949.08
449.593	927.49
450.032	925.16
450.471	911.23
450.91	913.78
451.349	913.17
451.787	910
452.226	924.61
452.664	926.49
453.103	931.37
453.541	928.86
453.98	928.28
454.418	935.84
454.856	921.81
455.295	920.8
455.733	927.07
456.171	932.64
456.609	934.46
457.047	936.08
457.485	949.05
457.923	948.25
458.361	936.08
458.798	941.18
459.236	938.82
459.674	946.38
460.111	950.88
460.549	942.49
460.987	940.22
461.424	937.38
461.862	933.77
462.299	920.12
462.736	919.91
463.173	923.67
463.611	911.81
464.048	909.63
464.485	918.07
464.922	910.15
465.359	906.91
465.796	889.47
466.233	882.38
466.67	872.82
467.106	870.19
467.543	862.03
467.98	851.67
468.416	830.99
468.853	825.45
469.29	800.28
469.726	791.17
470.162	770.28
470.599	764.67
471.035	758.4
471.471	740.42
471.907	737.27
472.344	732.49
472.78	732.78
473.216	742.04
473.652	732
474.088	730.36
474.523	727.18
474.959	732.85
475.395	725.22
475.831	720.44
476.266	723.86
476.702	720.95
477.138	712.65
477.573	709.93
478.008	706.4
478.444	708.72
478.879	713.82
479.314	716.39
479.75	716.53
480.185	721
480.62	726.24
481.055	729.92
481.49	734.59
481.925	746.28
482.36	759.23
482.795	780.75
483.229	802.97
483.664	819.85
484.099	823.59
484.534	835.95
484.968	843.88
485.403	848.05
485.837	848.49
486.271	848.47
486.706	850.14
487.14	842.01
487.574	829.74
488.009	822.88
488.443	817.04
488.877	826.06
489.311	829.92
489.745	841.3
490.179	850.23
490.613	866.18
491.046	874.22
491.48	881.08
491.914	884.29
492.348	891.81
492.781	899.12
493.215	903.2
493.648	907.27
494.082	916.56
494.515	917.71
494.948	929.24
495.382	937.37
495.815	946
496.248	954.59
496.681	973.49
497.114	991.53
497.547	1006.51
497.98	1025.58
498.413	1034.68
498.846	1049.9
499.279	1064.49
499.711	1073.56
500.144	1080.75
500.577	1097.53
501.009	1116.64
501.442	1131.93
501.874	1136.16
502.306	1142.89
502.739	1155.19
503.171	1180.55
503.603	1188.56
504.036	1206.34
504.468	1218.02
504.9	1237.11
505.332	1250.41
505.764	1260.01
506.196	1272.82
506.627	1297.65
507.059	1319.36
507.491	1338.1
507.923	1337.98
508.354	1361.29
508.786	1378.6
509.217	1406.88
509.649	1430
510.08	1460.37
510.512	1486.8
510.943	1512.15
511.374	1530.96
511.805	1562.87
512.237	1592.47
512.668	1642.71
513.099	1685.07
513.53	1726.25
513.961	1757.14
514.391	1805.09
514.822	1851.89
515.253	1904
515.684	1941.48
516.114	1985.23
516.545	2016.35
516.975	2054.2
517.406	2079.01
517.836	2082.16
518.267	2091.94
518.697	2116.93
519.127	2122.96
519.558	2133.65
519.988	2139.12
520.418	2155.19
520.848	2178.8
521.278	2190.72
521.708	2192.23
522.138	2209.26
522.567	2254.46
522.997	2289.81
523.427	2312.08
523.857	2335.14
524.286	2350.32
524.716	2370.76
525.145	2396.37
525.575	2411.34
526.004	2431.12
526.433	2442.63
526.863	2441.88
527.292	2423.69
527.721	2429.43
528.15	2436.66
528.579	2435.25
529.008	2448.81
529.437	2481.59
529.866	2499.45
530.295	2522.89
530.724	2539.06
531.152	2575.77
531.581	2594.48
532.01	2620.03
532.438	2632.65
532.867	2653.01
533.295	2680.19
533.723	2688.73
534.152	2683.36
534.58	2681.74
535.008	2657.32
535.436	2658.86
535.865	2671.35
536.293	2693.55
536.721	2716.44
537.149	2752.2
537.576	2755.15
538.004	2772.26
538.432	2783.31
538.86	2780.84
539.287	2790.96
539.715	2813.27
540.143	2818.57
540.57	2813.81
540.998	2807.41
541.425	2772.35
541.852	2742.3
542.28	2740.95
542.707	2717.53
543.134	2696.31
543.561	2690.14
543.988	2679.75
544.415	2678.17
544.842	2668.21
545.269	2655.91
545.696	2655.94
546.123	2673.58
546.549	2656.98
546.976	2636.54
547.403	2635.03
547.829	2637.42
548.256	2639.1
548.682	2630.76
549.108	2615.54
549.535	2614.39
549.961	2615.88
550.387	2595.79
550.813	2586.31
551.24	2594.29
551.666	2593.92
552.092	2579.86
552.518	2568.77
552.943	2558.59
553.369	2569.32
553.795	2576.93
554.221	2577.16
554.646	2571.78
555.072	2587.9
555.498	2596.5
555.923	2609.28
556.349	2630.36
556.774	2640.39
557.199	2642.74
557.625	2651.34
558.05	2642.47
558.475	2658.42
558.9	2656.42
559.325	2643.44
559.75	2632.79
560.175	2622.5
560.6	2612.51
561.025	2609.44
561.449	2611.19
561.874	2616.83
562.299	2621.84
562.723	2631.79
563.148	2615.94
563.572	2622.11
563.997	2636.63
564.421	2646.06
564.846	2646.54
565.27	2651.86
565.694	2650.26
566.118	2667.52
566.542	2680.35
566.966	2672.95
567.39	2666.98
567.814	2652.06
568.238	2653.72
568.662	2663.84
569.086	2668.95
569.509	2681.66
569.933	2661.13
570.357	2652.24
570.78	2624.74
571.204	2605.79
571.627	2591.24
572.05	2591.29
572.474	2592.5
572.897	2574.32
573.32	2561.38
573.743	2547.69
574.166	2520.67
574.589	2521.78
575.012	2509.07
575.435	2505.91
575.858	2492.1
576.281	2475.31
576.704	2450.32
577.126	2433.06
577.549	2415.67
577.972	2402.81
578.394	2386.49
578.817	2374.78
579.239	2345.75
579.661	2325.97
580.084	2301.65
580.506	2283.02
580.928	2276.55
581.35	2260.12
581.772	2253.16
582.194	2234.39
582.616	2213.91
583.038	2192.92
583.46	2178.42
583.882	2173.96
584.303	2179.31
584.725	2173.56
585.147	2172.85
585.568	2187.55
585.99	2204.12
586.411	2211.96
586.833	2232.68
587.254	2235.24
587.675	2256.72
588.096	2274.7
588.518	2266.72
588.939	2241.37
589.36	2237.19
589.781	2223.77
590.202	2180.89
590.623	2167.17
591.043	2163.06
591.464	2143.74
591.885	2138.93
592.305	2129.09
592.726	2108.57
593.147	2109.63
593.567	2102.15
593.987	2091.53
594.408	2085.52
594.828	2084.74
595.248	2076.4
595.669	2050.24
596.089	2040.29
596.509	2028.85
596.929	2009.65
597.349	2010.55
597.769	1997.08
598.189	1989.36
598.608	1991.85
599.028	1995.44
599.448	1996.01
599.867	1978.69
600.287	1974.05
600.706	1967.39
601.126	1954.94
601.545	1953.1
601.965	1950.63
602.384	1942.03
602.803	1944.76
603.222	1937.4
603.641	1927.35
604.061	1921.05
604.48	1914.95
604.898	1925.82
605.317	1933.16
605.736	1935.9
606.155	1931.44
606.574	1919.78
606.992	1927.51
607.411	1920.8
607.829	1909.7
608.248	1905.26
608.666	1902.7
609.085	1901.87
609.503	1889.2
609.921	1880.09
610.339	1883.06
610.758	1882.8
611.176	1876.7
611.594	1863.71
612.012	1858.67
612.43	1862.5
612.847	1870.95
613.265	1871.54
613.683	1878.23
614.101	1880.62
614.518	1875.72
614.936	1861.43
615.353	1839.97
615.771	1833.69
616.188	1833.33
616.606	1828.77
617.023	1818.35
617.44	1798.79
617.857	1789.41
618.274	1777.06
618.691	1766.39
619.108	1753.46
619.525	1744.44
619.942	1752.66
620.359	1756.1
620.776	1748.08
621.192	1741.7
621.609	1737.54
622.026	1745.49
622.442	1753.08
622.859	1757.25
623.275	1748.11
623.691	1754.94
624.108	1770.89
624.524	1791.61
624.94	1791.43
625.356	1806.22
625.772	1824.94
626.188	1843.64
626.604	1845.57
627.02	1840.42
627.436	1836.7
627.852	1846.33
628.268	1862.43
628.683	1849.53
629.099	1836.73
629.514	1830.57
629.93	1835.58
630.345	1841.18
630.761	1835.5
631.176	1841.17
631.591	1831.17
632.007	1823.06
632.422	1819.31
632.837	1802.74
633.252	1799.08
633.667	1784.41
634.082	1771.05
634.497	1751.86
634.911	1723.28
635.326	1715.98
635.741	1690.07
636.155	1675.09
636.57	1674.92
636.984	1673.92
637.399	1675.43
637.813	1672.55
638.228	1669.07
638.642	1673.05
639.056	1657.97
639.47	1655.4
639.884	1642.24
640.298	1631.78
640.712	1628.77
641.126	1609.81
641.54	1594.47
641.954	1585.21
642.368	1566.63
642.781	1552.86
643.195	1526.42
643.609	1523.81
644.022	1514.61
644.436	1507.13
644.849	1488.49
645.262	1471.15
645.676	1471.65
646.089	1464.73
646.502	1441.96
646.915	1433.48
647.328	1408.84
647.741	1403.87
648.154	1385.47
648.567	1379.14
648.98	1358.7
649.393	1358.59
649.805	1352.39
650.218	1341.72
650.631	1318.8
651.043	1310.28
651.456	1301.46
651.868	1303.4
652.28	1326.68
652.693	1344.4
653.105	1352.39
653.517	1366.09
653.929	1364.63
654.341	1370.57
654.753	1353
655.165	1361.12
655.577	1357.3
655.989	1349.97
656.401	1338.27
656.813	1287.83
657.224	1260.47
657.636	1221.93
658.047	1196.43
658.459	1169.46
658.87	1156.22
659.282	1140.09
659.693	1111.08
660.104	1090.83
660.515	1071.63
660.926	1067.13
661.338	1062.33
661.749	1051.34
662.159	1038.22
662.57	1030.42
662.981	1024.33
663.392	1012.9
663.803	1015.28
664.213	1010.99
664.624	1004.04
665.035	1006.28
665.445	987.44
665.855	976.82
666.266	965.6
666.676	961.77
667.086	950.49
667.497	947.84
667.907	939.85
668.317	927.32
668.727	920.99
669.137	919.99
669.547	916.65
669.956	919.51
670.366	921.84
670.776	923.43
671.186	927.52
671.595	930.67
672.005	935.18
672.414	933.71
672.824	931.83
673.233	938.33
673.642	941.42
674.052	944.55
674.461	946.53
674.87	951.62
675.279	948.54
675.688	951.08
676.097	952.41
676.506	947.57
676.915	965.33
677.323	968.53
677.732	967.44
678.141	968.75
678.549	956.03
678.958	956.65
679.366	957.69
679.775	965.25
680.183	978.62
680.592	987.43
681	997.06
681.408	990.29
681.816	1002.76
682.224	1014.53
682.632	1026.64
683.04	1067.19
683.448	1099.54
683.856	1139.3
684.264	1185.31
684.671	1229.59
685.079	1284.08
685.487	1342.73
685.894	1425.33
686.302	1494.43
686.709	1552.07
687.116	1619.8
687.524	1674.25
687.931	1723.16
688.338	1765.34
688.745	1803.96
689.152	1845.44
689.559	1901.04
689.966	1956.82
690.373	1984.66
690.78	2037.87
691.187	2119.22
691.593	2181.96
692	2235.83
692.407	2316.71
692.813	2415.1
693.22	2491.55
693.626	2571.66
