Data from C_1_HIR_IL_4N_Splice17_11-52-03-831.txt Node
Date: Sat Mar 14 11:52:03 EDT 2020
User: sa697716
Spectrometer: FLMS03696
Trigger mode: 0
Integration Time (sec): 3.180400E-1
Scans to average: 20
Electric dark correction enabled: true
Nonlinearity correction enabled: true
Boxcar width: 5
XAxis mode: Wavelengths
Number of Pixels in Spectrum: 2048
>>>>>Begin Spectral Data<<<<<
187.83	-227925.05
188.298	1706.06
188.766	931
189.233	802.49
189.701	1138.18
190.169	1495.38
190.636	576.5
191.104	496.48
191.571	88.8
192.039	-50.48
192.506	23.18
192.974	530.75
193.441	-848.11
193.908	-196.31
194.375	-59.05
194.842	8.64
195.31	-18.54
195.777	109.63
196.244	327.02
196.711	448.2
197.177	604.99
197.644	896.88
198.111	1544.03
198.578	2195.53
199.045	1747.22
199.511	2868.11
199.978	3349.01
200.445	2863.19
200.911	3154.52
201.378	3542.26
201.844	3200.48
202.31	5465
202.777	5710.13
203.243	3187.35
203.709	3025.57
204.176	3587.74
204.642	2944.52
205.108	2740.11
205.574	2236.06
206.04	2064.09
206.506	1932
206.972	1845.55
207.438	1782.12
207.903	2013.06
208.369	1755.64
208.835	1751.64
209.301	1843.4
209.766	1886.36
210.232	1872.58
210.697	2328.49
211.163	2867.59
211.628	4336.07
212.094	3630.27
212.559	4459.73
213.024	2787.65
213.49	3416.83
213.955	3317.26
214.42	3245.62
214.885	3025.91
215.35	2905.58
215.815	2774.13
216.28	2935
216.745	2401.55
217.21	2584.48
217.675	2361.53
218.14	2664.59
218.604	2966.48
219.069	3399.17
219.534	3578.23
219.998	4189.17
220.463	5103.13
220.927	6320.23
221.392	5972.13
221.856	6042.95
222.32	7644.73
222.785	9484.72
223.249	11985.47
223.713	13432.82
224.177	13450.34
224.642	17294.07
225.106	21334.18
225.57	23373.02
226.034	17365.79
226.497	26503.42
226.961	23980.49
227.425	27981.98
227.889	31174.99
228.353	31175.76
228.816	64524.03
229.28	61942.12
229.744	52410.28
230.207	31909.56
230.671	31450.84
231.134	52247.16
231.597	60301.13
232.061	60517.85
232.524	59284.06
232.987	40929.24
233.45	36932.06
233.914	33199.79
234.377	34101.36
234.84	31237.89
235.303	36943.07
235.766	41308.29
236.229	42798.2
236.691	27041.22
237.154	30442.12
237.617	22895.8
238.08	23489.97
238.542	27557.43
239.005	19727.12
239.468	19606.25
239.93	18507.38
240.393	16824.21
240.855	14799.99
241.317	15183.37
241.78	18521.6
242.242	19167.98
242.704	20738.42
243.166	18049.92
243.629	16409.35
244.091	18945.35
244.553	20809.73
245.015	22413.74
245.477	29079.34
245.939	42679.98
246.4	45345.06
246.862	44126.99
247.324	41693.22
247.786	46726.42
248.247	61419.87
248.709	63537.07
249.17	47595.32
249.632	44859.88
250.093	52053.66
250.555	44971.41
251.016	27458.38
251.477	26078.61
251.939	28155.37
252.4	29552.28
252.861	35186.52
253.322	32722.66
253.783	38954.71
254.244	50520.1
254.705	39864.57
255.166	35481.79
255.627	34972.76
256.088	49302.89
256.549	52395.58
257.009	45163.53
257.47	54860.64
257.931	44659.46
258.391	33487.87
258.852	34580.85
259.312	36294.59
259.773	44865.58
260.233	37938.46
260.694	31989.1
261.154	36331.11
261.614	29146.05
262.074	26066.28
262.534	27086.09
262.994	25553.55
263.455	34080.55
263.915	28690.54
264.374	27068.46
264.834	29619.35
265.294	32859.45
265.754	34048.69
266.214	32244.56
266.673	30245.9
267.133	38241.39
267.593	37954.6
268.052	46481.89
268.512	40471.77
268.971	48876.14
269.431	53616.19
269.89	48007.11
270.349	71973.61
270.809	80320.86
271.268	72249.67
271.727	162128.44
272.186	104958.5
272.645	78805.84
273.104	56852.29
273.563	82297.02
274.022	64735.37
274.481	54993.75
274.94	42322.62
275.399	31465.9
275.857	36674.48
276.316	49626.09
276.775	44175.44
277.233	43502.98
277.692	40682.59
278.15	46044.16
278.609	47357.57
279.067	43854.47
279.525	40777.96
279.984	52753.3
280.442	63396.92
280.9	62424.98
281.358	41081.08
281.816	38292.89
282.274	37520.28
282.732	38821.16
283.19	39040.37
283.648	33734.22
284.106	35932.02
284.564	36569.68
285.021	33877.12
285.479	25253.47
285.937	22978.3
286.394	20151.59
286.852	20758.02
287.309	21833.61
287.767	21081.15
288.224	20051.16
288.682	22016.67
289.139	24146.55
289.596	22087.97
290.053	22981.95
290.511	29054.48
290.968	35307.29
291.425	48008.37
291.882	39950.75
292.339	34772.53
292.796	34560.02
293.252	32603.29
293.709	25888.48
294.166	23250.12
294.623	25724.22
295.079	24713.39
295.536	24809.82
295.992	22520.97
296.449	22265.27
296.905	23129.13
297.362	22160.51
297.818	23295.66
298.274	24157.82
298.731	24640.26
299.187	24407.46
299.643	26202.11
300.099	31691.54
300.555	34792.61
301.011	29093.59
301.467	28049.35
301.923	32902.87
302.379	32199.83
302.835	31648.78
303.291	31720.75
303.746	36133.61
304.202	45609.41
304.658	45861.23
305.113	30855.77
305.569	30241.71
306.024	32266.32
306.479	30777.69
306.935	25945.67
307.39	28324.79
307.845	26194.02
308.301	26339.99
308.756	25679.18
309.211	24767.07
309.666	25367.71
310.121	31480.35
310.576	31995.39
311.031	31758.15
311.486	36374.92
311.94	36370.71
312.395	48681.68
312.85	91447.62
313.305	449997.12
313.759	2325247.58
314.214	168407.72
314.668	133493.46
315.123	112333.81
315.577	40236.39
316.032	35771.6
316.486	44816.49
316.94	35325.39
317.394	24600.32
317.849	19135.79
318.303	18130.51
318.757	17133.47
319.211	18975.63
319.665	16625.7
320.119	16839.71
320.572	24179.76
321.026	22616.63
321.48	18823.42
321.934	20552.35
322.387	20616.57
322.841	22263.66
323.295	19960.89
323.748	23018.64
324.202	23335.23
324.655	28020.5
325.108	39113.74
325.562	27668.04
326.015	32877.15
326.468	24858.92
326.921	27821.81
327.374	25959.18
327.827	27068.72
328.28	30706.29
328.733	20586.41
329.186	18099.14
329.639	17272.27
330.092	14572.53
330.545	13858.69
330.997	13974.23
331.45	15280.86
331.903	17902.64
332.355	30843.25
332.808	29988.39
333.26	24767.85
333.713	26921.52
334.165	27164.9
334.617	36254.23
335.069	29347.99
335.522	53166.67
335.974	58903.59
336.426	53839.52
336.878	37307.41
337.33	18895.48
337.782	18448.71
338.234	23088.83
338.686	27583.8
339.137	32638.31
339.589	30791.75
340.041	24143.53
340.493	20734.8
340.944	21260.04
341.396	22907.02
341.847	19238.74
342.299	22689.45
342.75	27709.07
343.201	24228.2
343.653	27868.53
344.104	34292.36
344.555	26984.01
345.006	42036.75
345.457	32208.96
345.908	25616.64
346.359	24110.7
346.81	19679.78
347.261	20728.38
347.712	20412.9
348.163	21943.83
348.613	22243.99
349.064	20784.03
349.515	18197.99
349.965	18640.06
350.416	22432.27
350.866	24619.9
351.317	27834.92
351.767	46114.96
352.217	58351.86
352.668	48369.97
353.118	44226.64
353.568	42645.29
354.018	33698.34
354.468	35559.98
354.918	25500.01
355.368	22316.81
355.818	31472.03
356.268	90613.6
356.718	378588.38
357.168	94162.2
357.617	47310.67
358.067	52698.94
358.517	49322.35
358.966	57788.68
359.416	64642.11
359.865	69918.02
360.315	83304.48
360.764	38970.76
361.213	21808.36
361.663	20688.43
362.112	25577.78
362.561	41266.04
363.01	31093.27
363.459	26201.64
363.908	28403.33
364.357	24147.17
364.806	40807.85
365.255	28084.24
365.703	25676.27
366.152	25741.53
366.601	20859.08
367.05	16903.69
367.498	15374.31
367.947	16078.65
368.395	16703.84
368.844	14784.59
369.292	17841.13
369.74	12325.94
370.189	18867.28
370.637	22187.37
371.085	19154
371.533	23394.77
371.981	22613.25
372.429	21592.49
372.877	22513.76
373.325	18894.41
373.773	19303.48
374.221	17230.9
374.669	21449.34
375.116	18617.73
375.564	18812.88
376.012	21088.07
376.459	17402.63
376.907	20857.62
377.354	25255.95
377.801	23587.13
378.249	27160.42
378.696	34768.94
379.143	42209.54
379.591	45057.68
380.038	76403.02
380.485	55303.05
380.932	59896.27
381.379	54806.26
381.826	40354.13
382.273	28783.45
382.72	25279.15
383.166	24680.99
383.613	16048.74
384.06	14483
384.506	16767.26
384.953	12337.52
385.4	12439.08
385.846	10899.76
386.292	10667.31
386.739	10466.35
387.185	10355.68
387.631	10350.22
388.078	10037.81
388.524	10745.51
388.97	9929.65
389.416	8285.69
389.862	8795.97
390.308	8336.08
390.754	8459.8
391.2	9186.99
391.645	9406.11
392.091	8986.64
392.537	8688.36
392.983	8706.97
393.428	8547.75
393.874	9151.36
394.319	9169.75
394.765	8669.32
395.21	8893.96
395.655	8336.78
396.101	7785.33
396.546	7004.35
396.991	7054.05
397.436	6532.69
397.881	6304.92
398.326	5959
398.771	5623.21
399.216	4909.32
399.661	4420.38
400.106	4391.57
400.551	4480.86
400.995	4004.78
401.44	3955.18
401.885	3709.52
402.329	3735.98
402.774	3568.12
403.218	3441.85
403.663	3301.98
404.107	3381.09
404.551	3390.86
404.995	3099.33
405.44	2980.72
405.884	3019.19
406.328	2911.08
406.772	2890.01
407.216	2625.41
407.66	2533.69
408.104	2401
408.547	2245.55
408.991	2167.67
409.435	2082.39
409.879	2048.65
410.322	2012.19
410.766	1937.91
411.209	1835.4
411.653	1755.92
412.096	1716.8
412.54	1713.19
412.983	1699.39
413.426	1700.32
413.869	1695.72
414.312	1659.93
414.756	1595.96
415.199	1522.77
415.642	1476.18
416.085	1478
416.527	1467.97
416.97	1487.87
417.413	1409.22
417.856	1391.22
418.298	1372.8
418.741	1362.11
419.184	1357.7
419.626	1412.43
420.069	1408.26
420.511	1413.15
420.953	1380.3
421.396	1367.44
421.838	1330.44
422.28	1358.39
422.722	1362.83
423.164	1380.46
423.606	1355.75
424.048	1349.54
424.49	1282.09
424.932	1274.1
425.374	1253.99
425.816	1275.96
426.258	1295.15
426.699	1307.9
427.141	1286.9
427.582	1304.34
428.024	1296.25
428.465	1284.02
428.907	1250.7
429.348	1232.7
429.789	1228.43
430.231	1201.05
430.672	1212.99
431.113	1183.39
431.554	1165.07
431.995	1135.81
432.436	1092.89
432.877	1068.49
433.318	1049.21
433.759	1043.29
434.2	1044.13
434.64	1034.1
435.081	1035.77
435.522	980.57
435.962	944.97
436.403	924
436.843	935.01
437.284	915.86
437.724	889.24
438.164	893.91
438.604	874.7
439.045	840.48
439.485	805.92
439.925	787.86
440.365	767.82
440.805	755.7
441.245	744.14
441.685	714.64
442.125	707.8
442.564	712.24
443.004	693.53
443.444	691.13
443.883	688.02
444.323	679.48
444.762	680.48
445.202	685.32
445.641	697.26
446.081	691.47
446.52	695.74
446.959	686.03
447.398	665.73
447.837	656.18
448.276	642.84
448.716	648.24
449.154	652.35
449.593	635.58
450.032	634.56
450.471	619.66
450.91	617.53
451.349	614.85
451.787	611.58
452.226	619.71
452.664	617.59
453.103	616.58
453.541	613.61
453.98	612.09
454.418	614.61
454.856	603.49
455.295	602.2
455.733	607
456.171	608.97
456.609	610.56
457.047	611.09
457.485	620.29
457.923	622.63
458.361	614.52
458.798	616.48
459.236	615.55
459.674	618.67
460.111	621.96
460.549	616.43
460.987	615.93
461.424	613.15
461.862	609.89
462.299	600.21
462.736	597.32
463.173	599.66
463.611	594.39
464.048	592.05
464.485	597.59
464.922	591.95
465.359	588.02
465.796	579.98
466.233	575.74
466.67	569.89
467.106	568.2
467.543	563.9
467.98	557.35
468.416	542.52
468.853	539.02
469.29	522.99
469.726	516.36
470.162	503.31
470.599	495.46
471.035	489.93
471.471	479.41
471.907	476.02
472.344	472.06
472.78	472.85
473.216	477.53
473.652	471.22
474.088	468.81
474.523	467.27
474.959	471.51
475.395	467.11
475.831	463.98
476.266	464.43
476.702	462.86
477.138	457.2
477.573	454.43
478.008	452.53
478.444	453.39
478.879	456.81
479.314	458.32
479.75	456.67
480.185	457.9
480.62	461.8
481.055	463.09
481.49	466.21
481.925	472.8
482.36	480.34
482.795	492.69
483.229	505.12
483.664	515.25
484.099	516.44
484.534	523.68
484.968	528.11
485.403	528.1
485.837	527.21
486.271	525.95
486.706	526.07
487.14	519.91
487.574	511.4
488.009	506.71
488.443	502.15
488.877	507.22
489.311	507.66
489.745	513.31
490.179	518.15
490.613	528.24
491.046	531.32
491.48	533.8
491.914	533.63
492.348	536.8
492.781	538.58
493.215	539.34
493.648	539.17
494.082	542.66
494.515	543.13
494.948	548.21
495.382	550.93
495.815	554.21
496.248	558.72
496.681	567.84
497.114	575.68
497.547	583.62
497.98	593.4
498.413	598.58
498.846	606.17
499.279	611.35
499.711	614.6
500.144	615.63
500.577	623.32
501.009	630.6
501.442	638.96
501.874	639.99
502.306	641.51
502.739	647.78
503.171	659.29
503.603	662.14
504.036	669.82
504.468	675.11
504.9	685.24
505.332	691.44
505.764	696.75
506.196	701.97
506.627	714.63
507.059	726.88
507.491	734.44
507.923	733.71
508.354	747.74
508.786	757.99
509.217	774.07
509.649	787.34
510.08	804.85
510.512	819.99
510.943	834.94
511.374	847.19
511.805	865.51
512.237	883.86
512.668	912.3
513.099	936.65
513.53	961.62
513.961	980.9
514.391	1009.47
514.822	1039.06
515.253	1072.48
515.684	1097.4
516.114	1124.45
516.545	1146.23
516.975	1171.47
517.406	1191.58
517.836	1197.79
518.267	1207.13
518.697	1226.52
519.127	1235.56
519.558	1246
519.988	1252.13
520.418	1264.89
520.848	1284.87
521.278	1296.37
521.708	1317.46
522.138	1332.61
522.567	1363.75
522.997	1390.25
523.427	1408.02
523.857	1426.41
524.286	1439.09
524.716	1456.88
525.145	1477.08
525.575	1489.88
526.004	1505.08
526.433	1500.55
526.863	1502.85
527.292	1497.04
527.721	1504.18
528.15	1511.22
528.579	1514.4
529.008	1527.29
529.437	1549.81
529.866	1563.71
530.295	1581.79
530.724	1595.43
531.152	1622.74
531.581	1637.71
532.01	1655.56
532.438	1665.27
532.867	1680.98
533.295	1698.57
533.723	1705.3
534.152	1704.01
534.58	1705.54
535.008	1691.88
535.436	1694.17
535.865	1703.33
536.293	1717.86
536.721	1732.87
537.149	1758.67
537.576	1761.97
538.004	1775.12
538.432	1782.96
538.86	1783.45
539.287	1791.58
539.715	1803.97
540.143	1808.09
540.57	1805.77
540.998	1803.49
541.425	1783.55
541.852	1763.26
542.28	1762.27
542.707	1746.46
543.134	1733.76
543.561	1729.24
543.988	1720.69
544.415	1721.47
544.842	1717.09
545.269	1708.2
545.696	1709.57
546.123	1720.37
546.549	1709.9
546.976	1696.8
547.403	1696.16
547.829	1698.22
548.256	1700.63
548.682	1698.17
549.108	1690.82
549.535	1689.24
549.961	1691.68
550.387	1679.04
550.813	1673.13
551.24	1679.14
551.666	1680.1
552.092	1671.02
552.518	1663.73
552.943	1656.69
553.369	1661.84
553.795	1665.91
554.221	1665.12
554.646	1660.31
555.072	1668.83
555.498	1672.35
555.923	1679.9
556.349	1692.78
556.774	1699.44
557.199	1700.26
557.625	1704.22
558.05	1698.72
558.475	1706
558.9	1704.05
559.325	1694.93
559.75	1685.34
560.175	1676.97
560.6	1668.06
561.025	1662.35
561.449	1660.61
561.874	1661.76
562.299	1661.86
562.723	1665.16
563.148	1654.08
563.572	1654.52
563.997	1661.32
564.421	1664.96
564.846	1662.35
565.27	1663.51
565.694	1659.89
566.118	1666.98
566.542	1670.54
566.966	1663.06
567.39	1655.58
567.814	1642.59
568.238	1639.59
568.662	1641.25
569.086	1640
569.509	1644.18
569.933	1626.1
570.357	1616.1
570.78	1594.59
571.204	1580.88
571.627	1567.25
572.05	1561.77
572.474	1557.59
572.897	1543.79
573.32	1533.48
573.743	1521.94
574.166	1502.97
574.589	1500.84
575.012	1491.14
575.435	1487.18
575.858	1476.44
576.281	1465.01
576.704	1449.05
577.126	1435.6
577.549	1422.79
577.972	1411.06
578.394	1399.67
578.817	1392.47
579.239	1373.46
579.661	1358.9
580.084	1343.64
580.506	1328.24
580.928	1321.46
581.35	1309.76
581.772	1303.85
582.194	1291.03
582.616	1279.51
583.038	1264.59
583.46	1252.22
583.882	1249.06
584.303	1250.92
584.725	1245.34
585.147	1246.69
585.568	1254.87
585.99	1263.5
586.411	1268.44
586.833	1277.97
587.254	1277.4
587.675	1288.5
588.096	1297.1
588.518	1290.66
588.939	1276.14
589.36	1274.09
589.781	1263.52
590.202	1240.36
590.623	1231.62
591.043	1227.78
591.464	1216.85
591.885	1213.28
592.305	1207.5
592.726	1195.52
593.147	1194.92
593.567	1190.2
593.987	1182.3
594.408	1177.35
594.828	1173.6
595.248	1168.61
595.669	1154.26
596.089	1148.15
596.509	1140.84
596.929	1128.71
597.349	1128.52
597.769	1119.96
598.189	1114.6
598.608	1116.32
599.028	1117.71
599.448	1117.43
599.867	1106.39
600.287	1101.52
600.706	1097.7
601.126	1090.2
601.545	1088.84
601.965	1087.58
602.384	1082.93
602.803	1083.62
603.222	1077.77
603.641	1071.54
604.061	1067.44
604.48	1063.84
604.898	1068.93
605.317	1071.71
605.736	1071.94
606.155	1069.75
606.574	1060.75
606.992	1063.18
607.411	1057.84
607.829	1049.98
608.248	1045.83
608.666	1042.47
609.085	1041.21
609.503	1032.5
609.921	1025.93
610.339	1026.29
610.758	1023.32
611.176	1018.3
611.594	1010.44
612.012	1005.97
612.43	1007.53
612.847	1010.52
613.265	1010.15
613.683	1010.96
614.101	1011.7
614.518	1007.94
614.936	998.71
615.353	986.67
615.771	983.43
616.188	981.72
616.606	978.11
617.023	971.74
617.44	960.57
617.857	954.05
618.274	946.56
618.691	941.03
619.108	932.67
619.525	927.58
619.942	931.7
620.359	933.36
620.776	929.81
621.192	926.95
621.609	924.68
622.026	929.47
622.442	933.02
622.859	935.53
623.275	929.37
623.691	932.77
624.108	940.98
624.524	951.16
624.94	950.08
625.356	956.73
625.772	966.07
626.188	973.94
626.604	974.64
627.02	972.06
627.436	969.15
627.852	974.45
628.268	984.25
628.683	975.69
629.099	968.39
629.514	964.97
629.93	966.47
630.345	969.12
630.761	966.5
631.176	968.9
631.591	964.23
632.007	959.5
632.422	957.27
632.837	947.48
633.252	946.51
633.667	938.75
634.082	930.26
634.497	920.63
634.911	905.6
635.326	900.71
635.741	886.59
636.155	878.38
636.57	878.8
636.984	877.62
637.399	877.76
637.813	875.63
638.228	873
638.642	874.01
639.056	865.15
639.47	864.01
639.884	858.4
640.298	852.47
640.712	849.71
641.126	838.63
641.54	830.84
641.954	826.04
642.368	816.91
642.781	812.08
643.195	800.33
643.609	799.76
644.022	794.72
644.436	790.23
644.849	781.13
645.262	772.26
645.676	773.37
646.089	769.46
646.502	759.5
646.915	755.69
647.328	742.42
647.741	740.7
648.154	731.33
648.567	729.06
648.98	719.14
649.393	719.86
649.805	717.94
650.218	712.93
650.631	702.11
651.043	696.75
651.456	692.58
651.868	692.87
652.28	704.67
652.693	713.47
653.105	717.91
653.517	725.62
653.929	725.01
654.341	728.25
654.753	719.18
655.165	722.83
655.577	720.39
655.989	716.98
656.401	710.56
656.813	685.76
657.224	672.9
657.636	652.99
658.047	640.18
658.459	626.7
658.87	621.16
659.282	614.4
659.693	602.11
660.104	593.66
660.515	584.31
660.926	583.46
661.338	582.94
661.749	579.08
662.159	574.54
662.57	572.77
662.981	571.87
663.392	567.33
663.803	570.93
664.213	570.06
664.624	567.41
665.035	571.42
665.445	564.37
665.855	560.81
666.266	557.07
666.676	556.28
667.086	550.68
667.497	551.43
667.907	548.61
668.317	543.61
668.727	543.17
669.137	545.45
669.547	545.29
669.956	547.68
670.366	549.07
670.776	551.71
671.186	555.94
671.595	560.75
672.005	564.3
672.414	565.76
672.824	565.82
673.233	569.4
673.642	572.41
674.052	575.18
674.461	579.16
674.87	584.47
675.279	583.18
675.688	584.73
676.097	586.18
676.506	584.58
676.915	595.12
677.323	598.69
677.732	597.88
678.141	597.64
678.549	589.95
678.958	588.35
679.366	587.04
679.775	591.16
680.183	600.41
680.592	604.25
681	607.51
681.408	602.93
681.816	607.29
682.224	611.89
682.632	618.27
683.04	638.98
683.448	654.63
683.856	675.34
684.264	699.04
684.671	717.58
685.079	743.18
685.487	771.49
685.894	810.78
686.302	841.81
686.709	867.77
687.116	899.09
687.524	923.27
687.931	945.18
688.338	963.89
688.745	977.56
689.152	996.98
689.559	1026.49
689.966	1055.03
690.373	1069.67
690.78	1098.87
691.187	1145.33
691.593	1182.11
692	1215.5
692.407	1266.3
692.813	1326.09
693.22	1378.58
693.626	1432.16
694.032	1476.13
694.439	1543.35
694.845	1598.88
695.251	1667.95
695.657	1731.55
696.063	1821.11
696.469	1894.74
696.875	1964.27
697.281	2011.5
697.687	2066.9
698.093	2116.49
698.498	2197.81
698.904	2265.04
699.31	2357.27
699.715	2429.6
