Data from C_1_DEC_CT_2N_Splice17_11-45-58-759.txt Node
Date: Sat Mar 14 11:45:58 EDT 2020
User: sa697716
Spectrometer: FLMS03696
Trigger mode: 0
Integration Time (sec): 3.180400E-1
Scans to average: 20
Electric dark correction enabled: true
Nonlinearity correction enabled: true
Boxcar width: 5
XAxis mode: Wavelengths
Number of Pixels in Spectrum: 2048
>>>>>Begin Spectral Data<<<<<
187.83	-156798.45
188.298	1248.16
188.766	777.01
189.233	683.06
189.701	958.19
190.169	1372.97
190.636	509.86
191.104	486.37
191.571	121.37
192.039	-4.18
192.506	-30.31
192.974	515.26
193.441	-813.2
193.908	-159.39
194.375	-22.04
194.842	31.22
195.31	193.58
195.777	168.91
196.244	624.57
196.711	1342.51
197.177	1894.2
197.644	2965.58
198.111	5205.97
198.578	7336.16
199.045	5886.87
199.511	9631.04
199.978	11330.04
200.445	9367.35
200.911	10347.44
201.378	11689.48
201.844	10269.58
202.31	17359.81
202.777	17754.05
203.243	9675.46
203.709	9078.24
204.176	10675.05
204.642	8688.4
205.108	8006.31
205.574	6558.8
206.04	6036.56
206.506	5590.09
206.972	5322.01
207.438	5092.17
207.903	5749.24
208.369	4959.89
208.835	4868
209.301	5043.3
209.766	5161.5
210.232	5045.07
210.697	6188.49
211.163	7566.85
211.628	11345.19
212.094	9335.99
212.559	11086.44
213.024	6770.31
213.49	8087.04
213.955	7801.46
214.42	7607.33
214.885	6928.54
215.35	6518.48
215.815	5979.97
216.28	6151.39
216.745	4846.52
217.21	4960.67
217.675	4364.2
218.14	4578.55
218.604	4753.88
219.069	4974.5
219.534	4715.39
219.998	5005.83
220.463	5528.26
220.927	6246.93
221.392	5379.52
221.856	5019.24
222.32	5862.53
222.785	6741.47
223.249	7968.72
223.713	8378.43
224.177	7924.18
224.642	9653.14
225.106	11371.5
225.57	11940.7
226.034	8537.13
226.497	12543.37
226.961	10934.29
227.425	12333.34
227.889	13245.33
228.353	12775.99
228.816	25477.2
229.28	23588.16
229.744	19365.3
230.207	11515.25
230.671	11005.63
231.134	17667.02
231.597	19836.92
232.061	19354.05
232.524	18391.85
232.987	12426.32
233.45	11014.33
233.914	9713.17
234.377	9793.37
234.84	8830.25
235.303	10228.77
235.766	11272.66
236.229	11495.78
236.691	7181.94
237.154	7983.44
237.617	5986.6
238.08	6043.57
238.542	7011.12
239.005	5011.45
239.468	4962.42
239.93	4654.94
240.393	4227.43
240.855	3695.02
241.317	3773.2
241.78	4546.13
242.242	4689.36
242.704	5058.11
243.166	4406.54
243.629	3993.91
244.091	4551.85
244.553	4938.82
245.015	5278.45
245.477	6754.29
245.939	9843.42
246.4	10405.79
246.862	10068.53
247.324	9423.55
247.786	10397.31
248.247	13566.01
248.709	13879.01
249.17	10369.46
249.632	9834.02
250.093	11386.62
250.555	9780.06
251.016	5980.5
251.477	5654.55
251.939	6088.02
252.4	6355.32
252.861	7541.12
253.322	7030.8
253.783	8344.3
254.244	10798.23
254.705	8462.02
255.166	7503.44
255.627	7386.38
256.088	10387.9
256.549	11008.85
257.009	9464.47
257.47	11467.58
257.931	9328.69
258.391	6929.57
258.852	7107.98
259.312	7407.56
259.773	9063.63
260.233	7626.57
260.694	6390.82
261.154	7157.8
261.614	5743.7
262.074	5079
262.534	5218.22
262.994	4866.54
263.455	6386.76
263.915	5319.2
264.374	4925.97
264.834	5289.85
265.294	5744.09
265.754	5899.88
266.214	5492.43
266.673	5048.51
267.133	6267.6
267.593	6139.33
268.052	7436.04
268.512	6396.23
268.971	7698.14
269.431	8411.53
269.89	7508.14
270.349	11193.96
270.809	12379.61
271.268	11140.35
271.727	24901.96
272.186	16129.16
272.645	12123.87
273.104	8740.11
273.563	12716.42
274.022	9946.41
274.481	8503.73
274.94	6608.71
275.399	4928.97
275.857	5759.82
276.316	7818.91
276.775	6989.73
277.233	6960.1
277.692	6569.82
278.15	7502.49
278.609	7821.92
279.067	7308.66
279.525	6874.13
279.984	8920.41
280.442	10898.96
280.9	10960.63
281.358	7301.18
281.816	6900.43
282.274	6837.92
282.732	7154.38
283.19	7287.59
283.648	6350.18
284.106	6863.35
284.564	7094.75
285.021	6711.65
285.479	5065.26
285.937	4639.57
286.394	4153.38
286.852	4318.18
287.309	4611.6
287.767	4526.54
288.224	4350.1
288.682	4806.87
289.139	5302.49
289.596	4836.52
290.053	4997.86
290.511	6271.11
290.968	7602.18
291.425	10170.51
291.882	8462.71
292.339	7291.23
292.796	7142.95
293.252	6656.58
293.709	5277.02
294.166	4714.12
294.623	5182.49
295.079	4945.48
295.536	4963.65
295.992	4469.52
296.449	4418.11
296.905	4569.02
297.362	4383.8
297.818	4598.81
298.274	4795.98
298.731	4878.25
299.187	4830.61
299.643	5188.29
300.099	6307.28
300.555	6942.43
301.011	5830.65
301.467	5676.53
301.923	6647.15
302.379	6536.55
302.835	6460.1
303.291	6493.66
303.746	7425.29
304.202	9466.73
304.658	9603.72
305.113	6528.51
305.569	6440.83
306.024	6934.49
306.479	6633.72
306.935	5688.49
307.39	6259.89
307.845	5837.61
308.301	5952.63
308.756	5862.58
309.211	5691.84
309.666	5893.79
310.121	7424.38
310.576	7611.77
311.031	7616.06
311.486	8838.65
311.94	8899.06
312.395	12033.41
312.85	22932.24
313.305	113469.69
313.759	596152.58
314.214	43575.38
314.668	34946.48
315.123	29520.58
315.577	10724.44
316.032	9623.14
316.486	12055.29
316.94	9571.6
317.394	6681.64
317.849	5186.39
318.303	4891.28
318.757	4594.65
319.211	5085.65
319.665	4421.48
320.119	4458.62
320.572	6334.25
321.026	5904.16
321.48	4900.8
321.934	5322.35
322.387	5310.97
322.841	5755.62
323.295	5220.18
323.748	6009.06
324.202	6097.06
324.655	7350.28
325.108	10350.18
325.562	7355.94
326.015	8749.11
326.468	6666.87
326.921	7489.96
327.374	7055.22
327.827	7394.14
328.28	8410.42
328.733	5685.3
329.186	5045.06
329.639	4850.48
330.092	4117.92
330.545	3961.65
330.997	4051.44
331.45	4487.03
331.903	5313.06
332.355	9198.68
332.808	8992.79
333.26	7456.4
333.713	8175.69
334.165	8288.98
334.617	11122.11
335.069	9005.22
335.522	16405.58
335.974	18288.18
336.426	16807.9
336.878	11716.31
337.33	5985.71
337.782	5889.03
338.234	7463.59
338.686	8964.3
339.137	10690.11
339.589	10112.35
340.041	7985.47
340.493	6854.04
340.944	7014.87
341.396	7554.15
341.847	6359.01
342.299	7510.42
342.75	9174.86
343.201	7939.44
343.653	9096.2
344.104	11066.82
344.555	8673.82
345.006	13363.1
345.457	10242.22
345.908	8094.76
346.359	7616.8
346.81	6165.24
347.261	6470.09
347.712	6325.67
348.163	6786.65
348.613	6890.67
349.064	6476.69
349.515	5698.37
349.965	5889.08
350.416	7119.51
350.866	7844.06
351.317	8864.03
351.767	14788.91
352.217	18743.07
352.668	15636.48
353.118	14409.02
353.568	13920.25
354.018	11054.25
354.468	11712.96
354.918	8462.18
355.368	7449.46
355.818	10587.29
356.268	30546.71
356.718	128606.56
357.168	32363.5
357.617	16422.86
358.067	18387.94
358.517	17363.51
358.966	20533.55
359.416	23179.15
359.865	25072.31
360.315	29899.48
360.764	14051.61
361.213	7946.16
361.663	7543.84
362.112	9308.56
362.561	15044.36
363.01	11409.45
363.459	9628.4
363.908	10400.02
364.357	8884.94
364.806	15074.87
365.255	10423.99
365.703	9604.67
366.152	9660.32
366.601	7882.65
367.05	6458
367.498	5936.17
367.947	6222.05
368.395	6515
368.844	5822.72
369.292	7047.22
369.74	4917.33
370.189	7555.8
370.637	8865.19
371.085	7680.07
371.533	9377.03
371.981	9050.24
372.429	8638.59
372.877	9053.98
373.325	7613.42
373.773	7801.14
374.221	6961.42
374.669	8649.5
375.116	7510.59
375.564	7604.86
376.012	8530.88
376.459	7076.57
376.907	8495.31
377.354	10343.31
377.801	9709.25
378.249	11228.04
378.696	14437.79
379.143	17671.14
379.591	18949.04
380.038	32395.09
380.485	23743.14
380.932	26083.74
381.379	24270.32
381.826	18251.95
382.273	13265.21
382.72	11918.2
383.166	11962.67
383.613	8034.8
384.06	7520.1
384.506	9096.5
384.953	7012.97
385.4	7465.71
385.846	6961.18
386.292	7350.29
386.739	7829.15
387.185	8502.81
387.631	9382.56
388.078	10079.03
388.524	11886.6
388.97	11956.67
389.416	10676.1
389.862	11981.7
390.308	11975.5
390.754	12968.23
391.2	15305.7
391.645	17278.3
392.091	18179.41
392.537	19205.95
392.983	20744.23
393.428	21495.98
393.874	24573.9
394.319	26903.22
394.765	28602.44
395.21	33394.2
395.655	35462.8
396.101	37150.08
396.546	37190.14
396.991	41578.49
397.436	42589.09
397.881	45469.58
398.326	47984.5
398.771	49946.97
399.216	47912.64
399.661	46729.66
400.106	49744.76
400.551	54056.55
400.995	51222.91
401.44	53168.81
401.885	52125.92
402.329	54699.81
402.774	54221.83
403.218	53866.41
403.663	53691.5
404.107	56936.42
404.551	59237.14
404.995	56353.42
405.44	56394
405.884	59303.1
406.328	59314.64
406.772	60848.62
407.216	57016.46
407.66	56906.08
408.104	56091.04
408.547	54017.27
408.991	53582.17
409.435	52675.89
409.879	52697.01
410.322	52759.32
410.766	51618.43
411.209	49836.21
411.653	48783.52
412.096	48565.9
412.54	49435.96
412.983	49773.15
413.426	50387.47
413.869	51025.82
414.312	50648.53
414.756	49601.81
415.199	48031.61
415.642	47207.45
416.085	47829.26
416.527	48015.46
416.97	49331.82
417.413	47037.55
417.856	46746.33
418.298	46358.7
418.741	46084.21
419.184	46020.46
419.626	48045.38
420.069	47937.8
420.511	48204.4
420.953	47102.71
421.396	46754.43
421.838	45748.58
422.28	46930.2
422.722	47444.48
423.164	48737.17
423.606	48460.19
424.048	48954.93
424.49	46774.09
424.932	47025.17
425.374	46804.74
425.816	48028.94
426.258	48976.45
426.699	49208.95
427.141	47920.12
427.582	48319.43
428.024	47800.69
428.465	47551.12
428.907	46490.12
429.348	46249.99
429.789	46370.76
430.231	45475.74
430.672	46149.82
431.113	45398.8
431.554	45305.7
431.995	45237.51
432.436	44234.7
432.877	43874.71
433.318	43441.94
433.759	43736.22
434.2	44088.43
434.64	44046.98
435.081	44561.41
435.522	42764.63
435.962	41713.47
436.403	41338.84
436.843	42478.48
437.284	42156.75
437.724	41555.2
438.164	42225.47
438.604	41597.06
439.045	40098.32
439.485	38459.42
439.925	37892.36
440.365	37127.69
440.805	36813.5
441.245	36238.16
441.685	34912.07
442.125	34686.67
442.564	34887.43
443.004	33955.29
443.444	33855.34
443.883	33900.99
444.323	33865.95
444.762	34174.86
445.202	34685.01
445.641	35184.02
446.081	35247.68
446.52	35376.25
446.959	34962.23
447.398	34038.21
447.837	33626.61
448.276	33011.54
448.716	33274.6
449.154	33555.24
449.593	32520.71
450.032	32199.3
450.471	31537.97
450.91	31330.17
451.349	30965.17
451.787	30646.73
452.226	30830.3
452.664	30565.88
453.103	30322.85
453.541	29981.5
453.98	29369.02
454.418	29167.84
454.856	28250.36
455.295	27876.35
455.733	27649.48
456.171	27503.72
456.609	27163.54
457.047	26750.05
457.485	26766.83
457.923	26511.66
458.361	25985.34
458.798	26000.68
459.236	25834.41
459.674	26070.24
460.111	26092.69
460.549	25874.42
460.987	25875.31
461.424	25833.37
461.862	25821.85
462.299	25492.13
462.736	25454.07
463.173	25630.2
463.611	25283.12
464.048	25287.62
464.485	25537.11
464.922	25429.1
465.359	25437.97
465.796	24754.98
466.233	24702.3
466.67	24498.67
467.106	24513.93
467.543	24476.65
467.98	24278.46
468.416	23888.78
468.853	23840.08
469.29	23224.07
469.726	23044.14
470.162	22473.38
470.599	22538.21
471.035	22367.15
471.471	21861.87
471.907	21804.83
472.344	21639.52
472.78	21570.94
473.216	21749.16
473.652	21340.06
474.088	21167.05
474.523	20870.44
474.959	20886.89
475.395	20511.26
475.831	20144.31
476.266	20052.7
476.702	19785.17
477.138	19314.31
477.573	19028.54
478.008	18689.26
478.444	18470.6
478.879	18312.93
479.314	18142.39
479.75	17865.18
480.185	17716.59
480.62	17627.96
481.055	17470.92
481.49	17304.2
481.925	17274.49
482.36	17209.13
482.795	17414.24
483.229	17632.91
483.664	17714.72
484.099	17506.48
484.534	17476.16
484.968	17373.75
485.403	17185.5
485.837	16966.15
486.271	16728.18
486.706	16549.05
487.14	16264.12
487.574	15846.83
488.009	15561.55
488.443	15299.26
488.877	15283.1
489.311	15205.76
489.745	15230.84
490.179	15220.57
490.613	15293.06
491.046	15296.39
491.48	15286.12
491.914	15166.72
492.348	15158.63
492.781	15124.6
493.215	15063.5
493.648	15025.37
494.082	15044.25
494.515	14952.9
494.948	14994.62
495.382	15028.03
495.815	14997.99
496.248	14985.69
496.681	15134.17
497.114	15255.12
497.547	15314.03
497.98	15400.26
498.413	15329.63
498.846	15349.64
499.279	15367.05
499.711	15314.88
500.144	15204.43
500.577	15224.22
501.009	15275.16
501.442	15266.17
501.874	15096.73
502.306	14997.72
502.739	14927.78
503.171	15070.33
503.603	14970.4
504.036	14966.66
504.468	14885.14
504.9	14899.55
505.332	14843.07
505.764	14726.25
506.196	14669.88
506.627	14719.35
507.059	14729.45
507.491	14724.46
507.923	14459.54
508.354	14476.74
508.786	14433.08
509.217	14485.8
509.649	14491.7
510.08	14557.53
510.512	14564.88
510.943	14558.24
511.374	14500.1
511.805	14553.79
512.237	14600.01
512.668	14827.98
513.099	14965.22
513.53	15066.03
513.961	15065.83
514.391	15199.18
514.822	15305.76
515.253	15473.35
515.684	15506.27
516.114	15588.56
516.545	15559.98
516.975	15590.28
517.406	15524.77
517.836	15310.58
518.267	15150.85
518.697	15118.96
519.127	14955.92
519.558	14839.7
519.988	14680.08
520.418	14599.11
520.848	14586.89
521.278	14493.94
521.708	14091.16
522.138	14049.33
522.567	14174.03
522.997	14235.33
523.427	14207.59
523.857	14179.99
524.286	14116.68
524.716	14099.85
525.145	14112.57
525.575	14072.67
526.004	14080.32
526.433	14250.02
526.863	14142.12
527.292	13942.35
527.721	13898.63
528.15	13883.44
528.579	13826.19
529.008	13851.33
529.437	13971.95
529.866	14010.26
530.295	14070.04
530.724	14076.26
531.152	14209.59
531.581	14238.25
532.01	14315.36
532.438	14322.46
532.867	14377.47
533.295	14464.42
533.723	14455.25
534.152	14387.11
534.58	14339.8
535.008	14180.98
535.436	14156.49
535.865	14184.93
536.293	14268.22
536.721	14352.48
537.149	14498.7
537.576	14472.96
538.004	14542.5
538.432	14586.32
538.86	14556.61
539.287	14606.05
539.715	14700.45
540.143	14735.62
540.57	14715.6
540.998	14707.38
541.425	14535.13
541.852	14414.25
542.28	14438.86
542.707	14355.72
543.134	14279.84
543.561	14277.44
543.988	14247.5
544.415	14281.36
544.842	14269.34
545.269	14236.98
545.696	14270.83
546.123	14421.23
546.549	14368.04
546.976	14292.55
547.403	14311.15
547.829	14359.3
548.256	14414.18
548.682	14415.06
549.108	14378.83
549.535	14406.48
549.961	14453.3
550.387	14377.23
550.813	14345.51
551.24	14421.84
551.666	14456.2
552.092	14403.38
552.518	14377.85
552.943	14341.5
553.369	14430.18
553.795	14498.32
554.221	14515.24
554.646	14506.19
555.072	14583.23
555.498	14639.23
555.923	14715.22
556.349	14833.84
556.774	14901.99
557.199	14908.39
557.625	14978.3
558.05	14924.89
558.475	15016.32
558.9	15013.47
559.325	14946.39
559.75	14912.71
560.175	14873.63
560.6	14841.85
561.025	14838.24
561.449	14860.67
561.874	14911.87
562.299	14931.68
562.723	14992.96
563.148	14898.3
563.572	14926.59
563.997	15006.67
564.421	15049.41
564.846	15043.4
565.27	15047.03
565.694	15012.15
566.118	15074.27
566.542	15106.32
566.966	15033.81
567.39	14966.53
567.814	14856.15
568.238	14838.8
568.662	14873.74
569.086	14891.01
569.509	14968.43
569.933	14861.05
570.357	14845.29
570.78	14726.16
571.204	14664.65
571.627	14647.13
572.05	14714.65
572.474	14793.85
572.897	14789.85
573.32	14821.76
573.743	14856.29
574.166	14798.29
574.589	14921.01
575.012	14962.9
575.435	15077.96
575.858	15125.6
576.281	15158.58
576.704	15154.03
577.126	15190.11
577.549	15219.51
577.972	15272.85
578.394	15299.31
578.817	15337.8
579.239	15293.13
579.661	15289.86
580.084	15241.56
580.506	15244.5
580.928	15333.64
581.35	15346.49
581.772	15414.86
582.194	15388.79
582.616	15357.54
583.038	15328.04
583.46	15342.81
583.882	15398.56
584.303	15540.49
584.725	15606.16
585.147	15639.4
585.568	15796.48
585.99	15955.68
586.411	16060.22
586.833	16252.47
587.254	16310.25
587.675	16505.18
588.096	16688.57
588.518	16679.65
588.939	16542.22
589.36	16556.43
589.781	16564.82
590.202	16269.64
590.623	16237.94
591.043	16266.49
591.464	16164.96
591.885	16147.32
592.305	16104.41
592.726	15961.27
593.147	15964.08
593.567	15895.77
593.987	15792.69
594.408	15709.15
594.828	15697.57
595.248	15572.83
595.669	15304.6
596.089	15173.06
596.509	15054.14
596.929	14834.03
597.349	14765.42
597.769	14588.34
598.189	14436.94
598.608	14375.48
599.028	14313.41
599.448	14240.56
599.867	14052.06
600.287	13965.53
600.706	13859.07
601.126	13700.4
601.545	13636.22
601.965	13592.17
602.384	13512.96
602.803	13527.01
603.222	13456.19
603.641	13387.33
604.061	13343.38
604.48	13317.52
604.898	13412.66
605.317	13492.19
605.736	13544.9
606.155	13548.63
606.574	13493.87
606.992	13593.23
607.411	13588.18
607.829	13577.51
608.248	13611.9
608.666	13660.41
609.085	13714.91
609.503	13687.42
609.921	13686.16
610.339	13776.81
610.758	13852.36
611.176	13882.19
611.594	13859.99
612.012	13905.59
612.43	13997.33
612.847	14137.99
613.265	14200.69
613.683	14324.8
614.101	14418.99
614.518	14468.67
614.936	14438.49
615.353	14350.1
615.771	14385.26
616.188	14461.26
616.606	14493.89
617.023	14496.38
617.44	14406.28
617.857	14421.41
618.274	14398.79
618.691	14384.47
619.108	14338.8
619.525	14327.78
619.942	14447.54
620.359	14521.56
620.776	14506.92
621.192	14485.98
621.609	14490.93
622.026	14586.27
622.442	14678.22
622.859	14742.39
623.275	14690.74
623.691	14773.56
624.108	14927.25
624.524	15123.36
624.94	15145.79
625.356	15280.58
625.772	15468.33
626.188	15634.66
626.604	15677.27
627.02	15648.69
627.436	15635.86
627.852	15722.54
628.268	15876.81
628.683	15801.65
629.099	15728.42
629.514	15712.89
629.93	15792.4
630.345	15884.54
630.761	15880.85
631.176	15971.66
631.591	15921.98
632.007	15902.74
632.422	15961.25
632.837	15897.51
633.252	15918.87
633.667	15868.75
634.082	15827.16
634.497	15750.17
634.911	15570.2
635.326	15617.45
635.741	15499.52
636.155	15504.15
636.57	15620.05
636.984	15733
637.399	15858.14
637.813	16000.35
638.228	16118.01
638.642	16329.64
639.056	16346.37
639.47	16530.44
639.884	16578.23
640.298	16660.61
640.712	16804.99
641.126	16808.81
641.54	16875.62
641.954	17020.45
642.368	17015.12
642.781	17041.39
643.195	16960.68
643.609	17149.15
644.022	17246.73
644.436	17367.11
644.849	17377.81
645.262	17378.94
645.676	17601.72
646.089	17684.69
646.502	17574.95
646.915	17657.27
647.328	17575.22
647.741	17680.46
648.154	17601.91
648.567	17625.52
648.98	17513.05
649.393	17633.69
649.805	17687.48
650.218	17669.1
650.631	17471.03
651.043	17470.78
651.456	17444.95
651.868	17549.73
652.28	17947.79
652.693	18265.15
653.105	18465.34
653.517	18684.57
653.929	18718.39
654.341	18871.41
654.753	18697.34
655.165	18922.48
655.577	18985.72
655.989	19042.63
656.401	19051.56
656.813	18488.33
657.224	18278.05
657.636	17967.89
658.047	17816.47
658.459	17659.14
658.87	17720.55
659.282	17715
659.693	17474.88
660.104	17359.82
660.515	17269.34
660.926	17416.86
661.338	17570.93
661.749	17639.79
662.159	17596.58
662.57	17719.05
662.981	17807.05
663.392	17807.83
663.803	18059.3
664.213	18201.64
664.624	18290.21
665.035	18531.23
665.445	18377.97
665.855	18332.87
666.266	18251.62
666.676	18334.91
667.086	18239.81
667.497	18304.42
667.907	18257.44
668.317	18129.13
668.727	18029.78
669.137	18127.1
669.547	18119.31
669.956	18239.35
670.366	18333.08
670.776	18408.5
671.186	18543.01
671.595	18628.04
672.005	18751.69
672.414	18714.92
672.824	18650.9
673.233	18847.25
673.642	18878.21
674.052	18910.51
674.461	18903.68
674.87	19003.93
675.279	18888.76
675.688	18922.8
676.097	18887.95
676.506	18761.13
676.915	19090.12
677.323	19122.16
677.732	19035.35
678.141	18986.16
678.549	18705.19
678.958	18660.04
679.366	18594.75
679.775	18689.48
680.183	18762.61
