Data from C_1_DEC_OH_4N_Splice17_11-56-18-349.txt Node
Date: Sat Mar 14 11:56:18 EDT 2020
User: sa697716
Spectrometer: FLMS03696
Trigger mode: 0
Integration Time (sec): 3.180400E-1
Scans to average: 20
Electric dark correction enabled: true
Nonlinearity correction enabled: true
Boxcar width: 5
XAxis mode: Wavelengths
Number of Pixels in Spectrum: 2048
>>>>>Begin Spectral Data<<<<<
187.83	-248683.84
188.298	1922.74
188.766	1057.99
189.233	966.21
189.701	1334.54
190.169	1773.56
190.636	679.53
191.104	517.34
191.571	69.99
192.039	-65.78
192.506	-64.29
192.974	613.63
193.441	-1103.92
193.908	-236.21
194.375	-39.45
194.842	-0.83
195.31	-19.67
195.777	103.73
196.244	297.29
196.711	413.57
197.177	564.08
197.644	813.38
198.111	1446.51
198.578	2092.26
199.045	1625.72
199.511	2669.22
199.978	3133.54
200.445	2659.72
200.911	2954.52
201.378	3305.3
201.844	3003.12
202.31	5116.81
202.777	5319.17
203.243	2940.34
203.709	2782.38
204.176	3357.18
204.642	2768.26
205.108	2578.61
205.574	2126.05
206.04	1950.72
206.506	1827.55
206.972	1712.89
207.438	1654.87
207.903	1895.16
208.369	1673.72
208.835	1678.32
209.301	1751.11
209.766	1788.53
210.232	1778.08
210.697	2212.57
211.163	2731.28
211.628	4147.15
212.094	3527.37
212.559	4318.62
213.024	2696.52
213.49	3286.53
213.955	3216.24
214.42	3141.84
214.885	2919.99
215.35	2796.15
215.815	2670.26
216.28	2826.42
216.745	2318.8
217.21	2504.88
217.675	2315.14
218.14	2619.17
218.604	2955.59
219.069	3394.88
219.534	3598.32
219.998	4238.45
220.463	5176.15
220.927	6418.95
221.392	6083.73
221.856	6169.73
222.32	7819.92
222.785	9723.76
223.249	12298.38
223.713	13731.72
224.177	13749.9
224.642	17665.72
225.106	21749.34
225.57	23794.02
226.034	17725.76
226.497	27019.72
226.961	24419.33
227.425	28450.39
227.889	31567.49
228.353	31566.04
228.816	65283.23
229.28	62487.04
229.744	52714.12
230.207	32060.32
230.671	31527.13
231.134	52243.42
231.597	60290.24
232.061	60280.25
232.524	58880.8
232.987	40495.84
233.45	36438.54
233.914	32664.3
234.377	33500.08
234.84	30694.02
235.303	36211.73
235.766	40456.64
236.229	41748.4
236.691	26293.84
237.154	29561.68
237.617	22210.99
238.08	22761.71
238.542	26635.49
239.005	19048.17
239.468	18879.45
239.93	17783.51
240.393	16127.27
240.855	14153.44
241.317	14494.1
241.78	17606.76
242.242	18194.03
242.704	19627.47
243.166	17075.32
243.629	15520.67
244.091	17881.46
244.553	19602.95
245.015	21066.87
245.477	27256.82
245.939	39967.64
246.4	42417.95
246.862	41243.16
247.324	38871.6
247.786	43530.59
248.247	57115.61
248.709	58962.84
249.17	44118.72
249.632	41583.03
250.093	48188.56
250.555	41671.65
251.016	25415.92
251.477	24121.69
251.939	26062.39
252.4	27383.02
252.861	32587.24
253.322	30342.56
253.783	36128.73
254.244	46849.46
254.705	36957.21
255.166	32884.6
255.627	32389.19
256.088	45684.95
256.549	48521.05
257.009	41763.64
257.47	50611.09
257.931	41209.35
258.391	30844.33
258.852	31778.72
259.312	33347.2
259.773	41215.9
260.233	34831.23
260.694	29392.6
261.154	33358.89
261.614	26794.22
262.074	24006.83
262.534	24971.3
262.994	23553.1
263.455	31408.02
263.915	26480.8
264.374	24969.52
264.834	27290.77
265.294	30270.54
265.754	31369.1
266.214	29728.83
266.673	27891.54
267.133	35203.24
267.593	34968.46
268.052	42799.73
268.512	37288.9
268.971	44980.45
269.431	49323.39
269.89	44182.71
270.349	66298.68
270.809	73958.18
271.268	66477.26
271.727	149085.08
272.186	96568.75
272.645	72486.93
273.104	52322.66
273.563	75707.61
274.022	59619.89
274.481	50740.85
274.94	39114.42
275.399	29094.71
275.857	33889.54
276.316	45899.73
276.775	40892.86
277.233	40307.17
277.692	37721.44
278.15	42702.63
278.609	43950.26
279.067	40660.99
279.525	37755.71
279.984	48752.82
280.442	58571.71
280.9	57767.25
281.358	37964.07
281.816	35363.47
282.274	34626.65
282.732	35785.55
283.19	35975.87
283.648	31070.11
284.106	33128.16
284.564	33733.76
285.021	31277.06
285.479	23289.74
285.937	21190.51
286.394	18581.19
286.852	19123.65
287.309	20112.85
287.767	19413.25
288.224	18461.08
288.682	20267.33
289.139	22229.41
289.596	20328.8
290.053	21136.23
290.511	26724.5
290.968	32426.61
291.425	44073.08
291.882	36680.39
292.339	31897.57
292.796	31693.23
293.252	29881.51
293.709	23711.31
294.166	21262.85
294.623	23494.62
295.079	22544.78
295.536	22644.33
295.992	20537.92
296.449	20322.5
296.905	21121.29
297.362	20225.45
297.818	21276.79
298.274	22066.51
298.731	22530.15
299.187	22306.73
299.643	23976.81
300.099	28997.51
300.555	31771.07
301.011	26562.13
301.467	25597.58
301.923	29974.71
302.379	29324.79
302.835	28783.34
303.291	28798.16
303.746	32714.48
304.202	41290.02
304.658	41460.93
305.113	27882.85
305.569	27318.5
306.024	29130.92
306.479	27721.18
306.935	23372.37
307.39	25510.27
307.845	23569.37
308.301	23720.39
308.756	23125.45
309.211	22281.87
309.666	22804.08
310.121	28298.62
310.576	28737.47
311.031	28490.88
311.486	32630.74
311.94	32609.41
312.395	43596.46
312.85	81908.83
313.305	401970.35
313.759	2078163.91
314.214	150586.39
314.668	119309.18
315.123	100322.7
315.577	35964.25
316.032	31977.39
316.486	40017.71
316.94	31500.95
317.394	21949.55
317.849	17050.66
318.303	16153.75
318.757	15231.39
319.211	16824.52
319.665	14721.18
320.119	14897.08
320.572	21387.63
321.026	19979.21
321.48	16630.43
321.934	18146.85
322.387	18170.61
322.841	19617.2
323.295	17614.51
323.748	20314.64
324.202	20598.52
324.655	24733.87
325.108	34507.91
325.562	24350.64
326.015	28947.32
326.468	21886.24
326.921	24487.33
327.374	22833.78
327.827	23764.92
328.28	26915.76
328.733	18002.56
329.186	15846.41
329.639	15083.42
330.092	12721.55
330.545	12117.55
330.997	12221.1
331.45	13348.44
331.903	15618.39
332.355	26858.67
332.808	26107.31
333.26	21542.84
333.713	23393.99
334.165	23532.17
334.617	31449.53
335.069	25417.66
335.522	45902.7
335.974	50804.31
336.426	46378.86
336.878	32153.76
337.33	16313.97
337.782	15907.52
338.234	19893.34
338.686	23807.73
339.137	28234.59
339.589	26588.08
340.041	20821.07
340.493	17891.29
340.944	18336.05
341.396	19749.16
341.847	16587.23
342.299	19513.33
342.75	23848.41
343.201	20857.44
343.653	23962.02
344.104	29439.33
344.555	23168.4
345.006	36082.22
345.457	27629.83
345.908	21937.99
346.359	20619.53
346.81	16790.46
347.261	17702.43
347.712	17432.06
348.163	18679.16
348.613	18958.7
349.064	17665.9
349.515	15459.35
349.965	15871.14
350.416	19099.63
350.866	20957.09
351.317	23722.21
351.767	39302.35
352.217	49774.03
352.668	41250.23
353.118	37809.22
353.568	36412.79
354.018	28816.73
354.468	30352.05
354.918	21745.53
355.368	19034.29
355.818	26881.2
356.268	77410.69
356.718	323988.43
357.168	80594.5
357.617	40527.71
358.067	45083.29
358.517	42235.72
358.966	49523.09
359.416	55623.25
359.865	60099.45
360.315	71531.85
360.764	33381.54
361.213	18666.65
361.663	17661.2
362.112	21799.86
362.561	35172.14
363.01	26496.92
363.459	22286.47
363.908	24105.71
364.357	20442.62
364.806	34499.96
365.255	23739.26
365.703	21728.17
366.152	21762.27
366.601	17668.53
367.05	14328.38
367.498	12993.51
367.947	13580.63
368.395	14103.78
368.844	12491.64
369.292	15073.05
369.74	10406.42
370.189	15919.53
370.637	18626.31
371.085	16061.68
371.533	19536.99
371.981	18796.21
372.429	17907.21
372.877	18662.69
373.325	15625.72
373.773	15895.97
374.221	14139.03
374.669	17552.03
375.116	15170.47
375.564	15292.17
376.012	17095.87
376.459	14090.38
376.907	16842.12
377.354	20355.06
377.801	18917.73
378.249	21707.53
378.696	27760.8
379.143	33553.75
379.591	35663.59
380.038	60304.24
380.485	43593.87
380.932	46938.56
381.379	42844.32
381.826	31530.75
382.273	22406.16
382.72	19555.03
383.166	19051.71
383.613	12342.88
384.06	11132.75
384.506	12885.91
384.953	9454.07
385.4	9496.26
385.846	8327.09
386.292	8120.15
386.739	7913.11
387.185	7811.43
387.631	7826.88
388.078	7572.52
388.524	8087.06
388.97	7453.71
389.416	6200.11
389.862	6572.66
390.308	6217.67
390.754	6299.5
391.2	6804.45
391.645	6958.23
392.091	6647.97
392.537	6400.46
392.983	6410.28
393.428	6298.35
393.874	6735.43
394.319	6755.26
394.765	6392.55
395.21	6557.89
395.655	6128.99
396.101	5739.05
396.546	5179.45
396.991	5216.86
397.436	4843.68
397.881	4663.75
398.326	4403.48
398.771	4166.16
399.216	3639.44
399.661	3275.89
400.106	3264.36
400.551	3341.95
400.995	2997.41
401.44	2960.62
401.885	2775.72
402.329	2803.96
402.774	2690.82
403.218	2606.48
403.663	2500.53
404.107	2563.03
404.551	2576.88
404.995	2359.9
405.44	2273.1
405.884	2302.47
406.328	2227.68
406.772	2220.57
407.216	2019.89
407.66	1948.46
408.104	1847.51
408.547	1729.73
408.991	1673.33
409.435	1609.31
409.879	1585.56
410.322	1564
410.766	1510.25
411.209	1430.74
411.653	1370.61
412.096	1338.38
412.54	1335.48
412.983	1322.59
413.426	1324.34
413.869	1320.58
414.312	1295.88
414.756	1247.01
415.199	1185.77
415.642	1148.92
416.085	1151.75
416.527	1143.01
416.97	1158.27
417.413	1100.56
417.856	1089.26
418.298	1077.81
418.741	1069.93
419.184	1064.54
419.626	1105.9
420.069	1107.37
420.511	1113.18
420.953	1086.88
421.396	1077.59
421.838	1050.96
422.28	1074.18
422.722	1079.19
423.164	1092.78
423.606	1076.23
424.048	1074.97
424.49	1025.83
424.932	1018.65
425.374	1002.09
425.816	1021.1
426.258	1037.29
426.699	1050.54
427.141	1034.07
427.582	1051.19
428.024	1046.23
428.465	1037.48
428.907	1008.98
429.348	992.83
429.789	990.58
430.231	970.82
430.672	982.5
431.113	959.39
431.554	944.77
431.995	921.93
432.436	886.6
432.877	867.31
433.318	854.17
433.759	850.32
434.2	850.4
434.64	842.21
435.081	845
435.522	800.48
435.962	773.24
436.403	754.68
436.843	763.91
437.284	746.7
437.724	725.13
438.164	725.87
438.604	709.93
439.045	682.53
439.485	655.45
439.925	640.61
440.365	624.66
440.805	615.68
441.245	607.96
441.685	585.27
442.125	581.3
442.564	583.54
443.004	570.12
443.444	568.16
443.883	568.06
444.323	562.46
444.762	561.3
445.202	567
445.641	575.52
446.081	570.46
446.52	574.59
446.959	567.06
447.398	553.14
447.837	544.97
448.276	534.51
448.716	539.96
449.154	543.44
449.593	531.3
450.032	529.28
450.471	516.75
450.91	516.79
451.349	515.65
451.787	511.79
452.226	518.04
452.664	517.67
453.103	516.53
453.541	512.92
453.98	511.33
454.418	513.42
454.856	504.68
455.295	504.13
455.733	508.32
456.171	509.23
456.609	510.77
457.047	510.77
457.485	518.18
457.923	520.66
458.361	514.27
458.798	515.72
459.236	515.22
459.674	519.06
460.111	522.85
460.549	517.58
460.987	516.53
461.424	514.76
461.862	513.01
462.299	504.07
462.736	502.74
463.173	503.74
463.611	499.15
464.048	497.92
464.485	503.25
464.922	498
465.359	494.34
465.796	489.49
466.233	486.35
466.67	483.05
467.106	482.93
467.543	479.2
467.98	474.13
468.416	461.95
468.853	458.63
469.29	443.64
469.726	439.29
470.162	428.34
470.599	420.65
471.035	416.52
471.471	404.07
471.907	400.35
472.344	396.91
472.78	397.61
473.216	401.29
473.652	395.8
474.088	392.9
474.523	390.93
474.959	394.21
475.395	389.56
475.831	386.39
476.266	388.36
476.702	386.66
477.138	382.38
477.573	380.52
478.008	378.03
478.444	379.29
478.879	384.18
479.314	385.19
479.75	383.87
480.185	385.21
480.62	387.8
481.055	390.01
481.49	393.06
481.925	397.66
482.36	404.48
482.795	416.02
483.229	425.9
483.664	432.89
484.099	434.27
484.534	441.13
484.968	445.46
485.403	446.17
485.837	444.78
486.271	442.9
486.706	442.85
487.14	436.97
487.574	429.93
488.009	425.6
488.443	421.62
488.877	425.39
489.311	426.42
489.745	431.58
490.179	435.18
490.613	444.1
491.046	447.19
491.48	450.78
491.914	451.27
492.348	454.2
492.781	457.26
493.215	458.33
493.648	459.45
494.082	462.56
494.515	462.68
494.948	468.97
495.382	471.28
495.815	475.37
496.248	479.36
496.681	487.99
497.114	496.05
497.547	503.62
497.98	514.41
498.413	519.68
498.846	527.62
499.279	535.11
499.711	539.03
500.144	542.38
500.577	551.34
501.009	560.52
501.442	569.27
501.874	571.54
502.306	574.18
502.739	582.07
503.171	594.92
503.603	599.14
504.036	607.8
504.468	614.28
504.9	624.59
505.332	632.94
505.764	639.81
506.196	648.34
506.627	663.21
507.059	677.32
507.491	686.31
507.923	688.46
508.354	703.76
508.786	715.87
509.217	734.27
509.649	751.07
510.08	769.95
510.512	787.49
510.943	804.2
511.374	817.42
511.805	838.51
512.237	858.4
512.668	889.94
513.099	917.32
513.53	945.01
513.961	966.77
514.391	997.39
514.822	1029.15
515.253	1064.33
515.684	1091.68
516.114	1122.09
516.545	1145.72
516.975	1175.23
517.406	1196.87
517.836	1206.35
518.267	1217.32
518.697	1239.9
519.127	1250.15
519.558	1263.44
519.988	1272.53
520.418	1287.84
520.848	1310.49
521.278	1324.41
521.708	1346.08
522.138	1361.6
522.567	1393.42
522.997	1422.32
523.427	1440.53
523.857	1460.42
524.286	1474.04
524.716	1492.19
525.145	1512.66
525.575	1525.41
526.004	1542.25
526.433	1540.7
526.863	1543.75
527.292	1538.33
527.721	1545.76
528.15	1553.76
528.579	1556.57
529.008	1569.78
529.437	1594.07
529.866	1609.73
530.295	1628.99
530.724	1642.79
531.152	1669.6
531.581	1686.12
532.01	1704.56
532.438	1715.1
532.867	1730.37
533.295	1749.8
533.723	1755.92
534.152	1754.85
534.58	1756.21
535.008	1741.81
535.436	1745.29
535.865	1753.53
536.293	1768.21
536.721	1784.52
537.149	1808.86
537.576	1812.68
538.004	1826.05
538.432	1835.99
538.86	1835.1
539.287	1842.8
539.715	1857.82
540.143	1861.37
540.57	1859.13
540.998	1856.21
541.425	1834.5
541.852	1815.47
542.28	1814.24
542.707	1800.02
543.134	1786.52
543.561	1782.17
543.988	1774.69
544.415	1773.46
544.842	1768.81
545.269	1761.87
545.696	1763.12
546.123	1775.82
546.549	1765.5
546.976	1753.26
547.403	1751.76
547.829	1753.35
548.256	1755.66
548.682	1751.25
549.108	1743.38
549.535	1741.37
549.961	1742.36
550.387	1729.22
550.813	1723.31
551.24	1728.99
551.666	1728.58
552.092	1719.13
552.518	1711.73
552.943	1705.49
553.369	1711.91
553.795	1716.51
554.221	1715.49
554.646	1711.9
555.072	1721.78
555.498	1724.81
555.923	1732.35
556.349	1745.29
556.774	1750.51
557.199	1749.76
557.625	1752.76
558.05	1745.65
558.475	1753.52
558.9	1750.95
559.325	1740.4
559.75	1731.43
560.175	1722.21
560.6	1713.66
561.025	1709.87
561.449	1708.82
561.874	1711.8
562.299	1713.36
562.723	1717.08
563.148	1704.9
563.572	1706.94
563.997	1712.24
564.421	1714.68
564.846	1713.16
565.27	1712.88
565.694	1707.88
566.118	1716.16
566.542	1719.15
566.966	1710.22
567.39	1701.91
567.814	1688.37
568.238	1683.47
568.662	1685.98
569.086	1684.46
569.509	1687.35
569.933	1670.61
570.357	1659.57
570.78	1635.99
571.204	1620.96
571.627	1607.21
572.05	1602.97
572.474	1598.79
572.897	1584.39
573.32	1573.87
573.743	1560.81
574.166	1541.44
574.589	1538.24
575.012	1528.83
575.435	1524.63
575.858	1513.38
576.281	1500.91
576.704	1483.79
577.126	1469.98
577.549	1457.7
577.972	1445.72
578.394	1433.7
578.817	1424.8
579.239	1404.82
579.661	1390.36
580.084	1373.96
580.506	1360.16
580.928	1354.64
581.35	1343.18
581.772	1337.02
582.194	1322.47
582.616	1309.81
583.038	1295.32
583.46	1284.13
583.882	1278.96
584.303	1279.62
584.725	1274.24
585.147	1274.65
585.568	1280.72
585.99	1288.35
586.411	1293.13
586.833	1303.58
587.254	1302.52
587.675	1312.93
588.096	1321.38
588.518	1315.26
588.939	1300.12
589.36	1297.25
589.781	1286.15
590.202	1260.87
590.623	1252.22
591.043	1248.3
591.464	1236.95
591.885	1233.14
592.305	1228.3
592.726	1216.03
593.147	1216.49
593.567	1211.74
593.987	1204.66
594.408	1200.09
594.828	1198.19
595.248	1192.36
595.669	1176.54
596.089	1169.92
596.509	1163.75
596.929	1150.65
597.349	1149.32
597.769	1141.08
598.189	1134.97
598.608	1134.97
599.028	1134.63
599.448	1133.79
599.867	1123.04
600.287	1118.52
600.706	1114
601.126	1105.09
601.545	1103.85
601.965	1101.83
602.384	1096.29
602.803	1097.16
603.222	1091.95
603.641	1085.13
604.061	1081.16
604.48	1075.54
604.898	1080.36
605.317	1082.66
605.736	1082.34
606.155	1079.16
606.574	1070.32
606.992	1071.74
607.411	1065.87
607.829	1057.25
608.248	1052.7
608.666	1049.09
609.085	1046.99
609.503	1037.67
609.921	1030.85
610.339	1030.78
610.758	1028.01
611.176	1023.24
611.594	1014.94
612.012	1010.65
612.43	1011.83
612.847	1015.27
613.265	1013.6
613.683	1015.78
614.101	1015.36
614.518	1010.8
614.936	1000.42
615.353	986.89
615.771	982.74
616.188	980.71
616.606	976.51
617.023	968.63
617.44	956.1
617.857	948.78
618.274	940.35
618.691	934.91
619.108	926.33
619.525	921.46
619.942	924.99
620.359	925.78
620.776	921.12
621.192	916.07
621.609	915.52
622.026	919.59
622.442	923.49
622.859	925.18
623.275	918.41
623.691	922.06
624.108	930.16
624.524	940.25
624.94	939.44
625.356	947.07
625.772	957.55
626.188	964.7
626.604	966.11
627.02	962.46
627.436	961.46
627.852	966.69
628.268	976.09
628.683	968.92
629.099	962.52
629.514	958.83
629.93	961.42
630.345	963.88
630.761	961.49
631.176	963.35
631.591	960.23
632.007	955.72
632.422	954.28
632.837	944.64
633.252	943.23
633.667	935.44
634.082	928.19
634.497	916.83
634.911	901.94
635.326	896.55
635.741	883.84
636.155	873.39
636.57	872.1
636.984	870.08
637.399	869.36
637.813	864.68
638.228	861.85
638.642	862.17
639.056	852.24
639.47	849.65
639.884	841.73
640.298	832.79
640.712	829.56
641.126	818.12
641.54	808.93
641.954	801.33
642.368	791.63
642.781	783.65
643.195	768.18
643.609	766.68
644.022	760.05
644.436	754.2
644.849	744.81
645.262	734.31
645.676	732.24
646.089	726.52
646.502	715.61
646.915	710.11
647.328	696.94
647.741	693.44
648.154	682.07
648.567	679.51
648.98	669.57
649.393	668.37
649.805	666.97
650.218	661.9
650.631	650.62
651.043	646.2
651.456	641.02
651.868	639.66
652.28	649.63
652.693	658.15
653.105	660.28
653.517	665.85
653.929	664.32
654.341	665.5
654.753	656.16
655.165	660.76
655.577	657.46
655.989	654.96
656.401	649.33
656.813	626.66
657.224	613.27
657.636	593.62
658.047	581.91
658.459	569.28
658.87	562.24
659.282	554.96
659.693	541.67
660.104	532.57
660.515	522.73
660.926	520.27
661.338	518.82
661.749	514.83
662.159	510.18
662.57	507.05
662.981	505.04
663.392	500.92
663.803	503.3
664.213	501.89
664.624	499.3
665.035	502.47
665.445	495.3
665.855	492.07
666.266	487.94
666.676	487.57
667.086	482.67
667.497	482.72
667.907	479.69
668.317	474.53
668.727	474.23
669.137	476.2
669.547	475.6
669.956	477.77
670.366	479.5
670.776	482.08
671.186	486
671.595	489.82
672.005	493.4
672.414	495.29
672.824	496.28
673.233	498.88
673.642	501.24
674.052	504.32
674.461	507.4
674.87	511.7
675.279	511.11
675.688	513
676.097	515.9
676.506	515.14
676.915	525.2
677.323	528.78
677.732	529.33
678.141	530.44
678.549	523.63
678.958	524.38
679.366	524.21
679.775	528.14
680.183	535.12
680.592	538.55
681	543.21
681.408	539.4
681.816	544.06
682.224	549.06
682.632	555.85
683.04	577.13
683.448	593.35
683.856	614.1
684.264	638.48
684.671	660.66
685.079	687.91
685.487	718.1
685.894	760.03
686.302	794.88
686.709	824.87
687.116	859.48
687.524	889.95
687.931	919.05
688.338	943.46
688.745	965.09
689.152	993.14
689.559	1030.16
689.966	1067.24
690.373	1089.62
690.78	1128.66
691.187	1185.55
691.593	1233.33
692	1274.29
692.407	1332.87
692.813	1406.17
693.22	1469
693.626	1532.18
694.032	1587.43
694.439	1665.36
694.845	1731.02
695.251	1809.76
695.657	1882.35
696.063	1984.13
696.469	2067.19
696.875	2144.89
697.281	2198.42
697.687	2256.94
698.093	2310.88
698.498	2395.87
698.904	2466.63
699.31	2564.13
699.715	2637.28
