Data from C_1_DIV_WI_4N_Splice17_11-48-21-308.txt Node
Date: Sat Mar 14 11:48:21 EDT 2020
User: sa697716
Spectrometer: FLMS03696
Trigger mode: 0
Integration Time (sec): 3.180400E-1
Scans to average: 20
Electric dark correction enabled: true
Nonlinearity correction enabled: true
Boxcar width: 5
XAxis mode: Wavelengths
Number of Pixels in Spectrum: 2048
>>>>>Begin Spectral Data<<<<<
187.83	-247740.99
188.298	1804.67
188.766	944.17
189.233	827.55
189.701	1176.68
190.169	1564.02
190.636	559.75
191.104	443.72
191.571	67.51
192.039	-65.25
192.506	-153.36
192.974	252.91
193.441	-376.86
193.908	-111.79
194.375	-74.69
194.842	-40.99
195.31	-56.25
195.777	92.74
196.244	290.3
196.711	419.62
197.177	564.08
197.644	816.83
198.111	1427.27
198.578	2007.4
199.045	1615.59
199.511	2670.61
199.978	3169.4
200.445	2730.34
200.911	3035.12
201.378	3440.85
201.844	3133.22
202.31	5327.6
202.777	5553.53
203.243	3108.48
203.709	2973.71
204.176	3557.61
204.642	2918.8
205.108	2718.8
205.574	2208.48
206.04	2008.73
206.506	1869.87
206.972	1762.98
207.438	1699.91
207.903	1951.63
208.369	1718.31
208.835	1710.48
209.301	1802.2
209.766	1868.95
210.232	1865.14
210.697	2326.04
211.163	2919.56
211.628	4453.32
212.094	3796.82
212.559	4711.01
213.024	2928.06
213.49	3585.33
213.955	3535.62
214.42	3487.4
214.885	3286.95
215.35	3156.79
215.815	3007.67
216.28	3213.8
216.745	2654.99
217.21	2919.35
217.675	2735.5
218.14	3153.09
218.604	3626.46
219.069	4238.03
219.534	4516.47
219.998	5368.11
220.463	6639.58
220.927	8409.25
221.392	8029.14
221.856	8229.75
222.32	10507.82
222.785	13104.87
223.249	16620.47
223.713	18656.41
224.177	18798.1
224.642	24344.32
225.106	30127.44
225.57	33077.5
226.034	24597.75
226.497	37526.84
226.961	33919.21
227.425	39526.26
227.889	43939.4
228.353	44049.54
228.816	91177.26
229.28	87263.98
229.744	73609.88
230.207	44734.32
230.671	44047.45
231.134	73048.85
231.597	84267.68
232.061	84482.76
232.524	82447.89
232.987	56823.65
233.45	51073.08
233.914	45797.39
234.377	46928.84
234.84	42946.59
235.303	50660.5
235.766	56488.89
236.229	58402.88
236.691	36799.61
237.154	41326.9
237.617	31072.61
238.08	31803.06
238.542	37240.06
239.005	26601.77
239.468	26401.67
239.93	24879.95
240.393	22587.07
240.855	19824.9
241.317	20294.94
241.78	24690.53
242.242	25482.22
242.704	27472.08
243.166	23926.73
243.629	21701.34
244.091	24992.42
244.553	27367.32
245.015	29409.57
245.477	38059.74
245.939	55826.28
246.4	59202.81
246.862	57521.76
247.324	54250.61
247.786	60760.48
248.247	79611.92
248.709	82329.62
249.17	61608.73
249.632	58012.01
250.093	67154.51
250.555	57957.28
251.016	35305.55
251.477	33496.5
251.939	36141.8
252.4	37893.72
252.861	45053.85
253.322	41886.14
253.783	49847.54
254.244	64567.26
254.705	50924.38
255.166	45298.19
255.627	44592.32
256.088	62772.97
256.549	66630.3
257.009	57390.88
257.47	69709.47
257.931	56764.58
258.391	42539.81
258.852	43812.92
259.312	45958.17
259.773	56781.44
260.233	47972.31
260.694	40432.29
261.154	45959.94
261.614	36872.81
262.074	32980.46
262.534	34239.51
262.994	32287.88
263.455	43048.19
263.915	36279.82
264.374	34165.52
264.834	37324.1
265.294	41404.81
265.754	42922.45
266.214	40628.84
266.673	38091.57
267.133	48074.68
267.593	47680.79
268.052	58318.19
268.512	50689.55
268.971	61047.85
269.431	66962.12
269.89	59920.75
270.349	89741.5
270.809	99932.06
271.268	89750.12
271.727	201183.84
272.186	130274.9
272.645	97663.78
273.104	70454.27
273.563	101957.27
274.022	80218.83
274.481	68148.52
274.94	52440.97
275.399	38980.55
275.857	45388.27
276.316	61369.24
276.775	54584.38
277.233	53678.41
277.692	50186.33
278.15	56678.03
278.609	58227.48
279.067	53843.7
279.525	49979.2
279.984	64509.75
280.442	77373.06
280.9	76092.26
281.358	49996.89
281.816	46524.72
282.274	45546.16
282.732	47045.74
283.19	47227.86
283.648	40729.12
284.106	43338.03
284.564	44045.46
285.021	40773.37
285.479	30376.52
285.937	27668.31
286.394	24237.18
286.852	24937.57
287.309	26142.18
287.767	25205.09
288.224	23942.97
288.682	26230.66
289.139	28754.8
289.596	26272.08
290.053	27310.13
290.511	34443.54
290.968	41698.41
291.425	56627.48
291.882	47026.98
292.339	40912.03
292.796	40622.17
293.252	38264.6
293.709	30370.93
294.166	27192.07
294.623	30026.3
295.079	28782.44
295.536	28871.12
295.992	26202.84
296.449	25874.13
296.905	26864.84
297.362	25744.22
297.818	27035.7
298.274	28022.86
298.731	28552.48
299.187	28233.03
299.643	30280.76
300.099	36578.82
300.555	40091.17
301.011	33457.86
301.467	32175.5
301.923	37667.44
302.379	36720.55
302.835	36040.68
303.291	36051.64
303.746	41016.06
304.202	51748.49
304.658	51926.07
305.113	34923.11
305.569	34184.05
306.024	36420.31
306.479	34707.08
306.935	29205.86
307.39	31885.15
307.845	29417.14
308.301	29543.44
308.756	28756.9
309.211	27712.15
309.666	28351.73
310.121	35116.48
310.576	35605.86
311.031	35288.78
311.486	40360.04
311.94	40326.09
312.395	53946.56
312.85	101240.17
313.305	498033.56
313.759	2570725.93
314.214	185820.1
314.668	147266.7
315.123	123728.69
315.577	44392.8
316.032	39427.54
316.486	49416.55
316.94	38895.43
317.394	27034.55
317.849	21020.55
318.303	19863.72
318.757	18729.84
319.211	20699.89
319.665	18090.41
320.119	18289.22
320.572	26174.85
321.026	24420.92
321.48	20299.76
321.934	22166
322.387	22200.92
322.841	23959.73
323.295	21502.12
323.748	24794.2
324.202	25123.54
324.655	30146.63
325.108	42085.24
325.562	29684.35
326.015	35296.19
326.468	26645.52
326.921	29719.88
327.374	27657.13
327.827	28739.77
328.28	32504.43
328.733	21736.35
329.186	19100.1
329.639	18175.19
330.092	15298.6
330.545	14568.18
330.997	14669.74
331.45	15997.06
331.903	18725.19
332.355	32204.8
332.808	31272.57
333.26	25826.57
333.713	28018.81
334.165	28213.08
334.617	37718.78
335.069	30518.92
335.522	55211.09
335.974	61042.9
336.426	55742.65
336.878	38621.14
337.33	19586.1
337.782	19111.78
338.234	23830.86
338.686	28471.1
339.137	33712.5
339.589	31703.04
340.041	24821.93
340.493	21329.79
340.944	21851.91
341.396	23542.62
341.847	19767.4
342.299	23280.49
342.75	28406.53
343.201	24865.19
343.653	28614.49
344.104	35169.31
344.555	27650.63
345.006	42988.25
345.457	32812.74
345.908	26087.34
346.359	24501.59
346.81	19941.66
347.261	21001.71
347.712	20649.13
348.163	22101.19
348.613	22312.19
349.064	20798.21
349.515	18216.01
349.965	18654.54
350.416	22478.45
350.866	24622.97
351.317	27854.18
351.767	46077.51
352.217	58183.67
352.668	48248.24
353.118	44170.88
353.568	42612.5
354.018	33658.99
354.468	35440.05
354.918	25391.19
355.368	22181.82
355.818	31341.91
356.268	90030.15
356.718	376517.07
357.168	93646.38
357.617	47000.56
358.067	52351.72
358.517	49011.06
358.966	57358.89
359.416	64181.99
359.865	69371.56
360.315	82537.26
360.764	38468.01
361.213	21564.61
361.663	20412.68
362.112	25161.12
362.561	40634.82
363.01	30604.49
363.459	25771.4
363.908	27890.48
364.357	23725.38
364.806	40075.91
365.255	27615.76
365.703	25296.22
366.152	25286.38
366.601	20532.5
367.05	16669.06
367.498	15145.68
367.947	15844.62
368.395	16487.02
368.844	14620.46
369.292	17644.17
369.74	12205.41
370.189	18685.44
370.637	21911.32
371.085	18970.29
371.533	23139.94
371.981	22322.91
372.429	21286.91
372.877	22204.87
373.325	18603.89
373.773	18995.73
374.221	16944.26
374.669	21054.27
375.116	18260.94
375.564	18457.94
376.012	20670.07
376.459	17070.73
376.907	20462.69
377.354	24827.89
377.801	23182.42
378.249	26684.61
378.696	34220.16
379.143	41521.01
379.591	44499.2
380.038	75279.49
380.485	54602.76
380.932	59129.06
381.379	54256.59
381.826	40010.59
382.273	28536.61
382.72	25093.84
383.166	24504.91
383.613	15936.6
384.06	14415.09
384.506	16682.26
384.953	12309.32
385.4	12434.04
385.846	10916.07
386.292	10676.33
386.739	10503.97
387.185	10407.54
387.631	10401.31
388.078	10115.37
388.524	10835.54
388.97	10014.39
389.416	8365.15
389.862	8898.64
390.308	8435.66
390.754	8591.64
391.2	9329.65
391.645	9538.38
392.091	9113.48
392.537	8822.9
392.983	8832.2
393.428	8669.45
393.874	9303.04
394.319	9323.44
394.765	8824.57
395.21	9045.52
395.655	8459.45
396.101	7911.12
396.546	7142.56
396.991	7207.7
397.436	6688.67
397.881	6469.01
398.326	6132.7
398.771	5777.06
399.216	5047.42
399.661	4540.68
400.106	4520.96
400.551	4614.56
400.995	4130.84
401.44	4073.85
401.885	3819.84
402.329	3849.76
402.774	3676.54
403.218	3543.13
403.663	3409.4
404.107	3499.17
404.551	3514.15
404.995	3216.18
405.44	3092.15
405.884	3135.54
406.328	3028.58
406.772	3015.09
407.216	2738.32
407.66	2645.07
408.104	2511.85
408.547	2348.97
408.991	2265.61
409.435	2176.49
409.879	2140.12
410.322	2110.07
410.766	2032.37
411.209	1926.25
411.653	1844.25
412.096	1801.36
412.54	1799.01
412.983	1782.08
413.426	1782.08
413.869	1779.34
414.312	1742.79
414.756	1676.24
415.199	1592.6
415.642	1540.33
416.085	1538.27
416.527	1522.27
416.97	1540.78
417.413	1459.23
417.856	1439.98
418.298	1422.27
418.741	1408.49
419.184	1405.31
419.626	1461.94
420.069	1463.29
420.511	1470.73
420.953	1440.67
421.396	1426.81
421.838	1390.42
422.28	1420.31
422.722	1426.93
423.164	1446.94
423.606	1421.83
424.048	1418.68
424.49	1347.91
424.932	1340.17
425.374	1322.28
425.816	1342.26
426.258	1365.19
426.699	1379.64
427.141	1357.2
427.582	1375.33
428.024	1366.82
428.465	1357.63
428.907	1320.94
429.348	1302.94
429.789	1299.78
430.231	1269.46
430.672	1285.39
431.113	1257.21
431.554	1238.32
431.995	1209.83
432.436	1167.52
432.877	1139.68
433.318	1118
433.759	1112.19
434.2	1112.71
434.64	1102.43
435.081	1103.56
435.522	1045.71
435.962	1006.26
436.403	981.58
436.843	992.78
437.284	972.35
437.724	946.19
438.164	949.18
438.604	926.73
439.045	889.18
439.485	850.9
439.925	832.81
440.365	811.92
440.805	801.4
441.245	792.39
441.685	761.92
442.125	754.94
442.564	759.59
443.004	741.78
443.444	739.23
443.883	739.85
444.323	733.58
444.762	735.16
445.202	743.1
445.641	753.99
446.081	749.25
446.52	754.44
446.959	744.49
447.398	725.23
447.837	717.28
448.276	704.93
448.716	711.33
449.154	716.63
449.593	699.12
450.032	696.27
450.471	682.63
450.91	682.17
451.349	679.96
451.787	677.63
452.226	685.83
452.664	683.34
453.103	684.04
453.541	682.22
453.98	679.98
454.418	683.49
454.856	671.97
455.295	671.15
455.733	675.66
456.171	677.69
456.609	678.84
457.047	678.79
457.485	688.86
457.923	690
458.361	680.31
458.798	683.66
459.236	681.65
459.674	686.23
460.111	689.27
460.549	683.06
460.987	681.12
461.424	678.2
461.862	675.36
462.299	664.8
462.736	663.53
463.173	665.9
463.611	658.23
464.048	656.34
464.485	662.15
464.922	655.37
465.359	650.88
465.796	642.12
466.233	636.68
466.67	631.9
467.106	630.04
467.543	623
467.98	614.85
468.416	599.06
468.853	594.83
469.29	576.03
469.726	569.31
470.162	554.29
470.599	547.55
471.035	542.47
471.471	528.69
471.907	525.6
472.344	521.68
472.78	521.65
473.216	526.71
473.652	520.09
474.088	518.12
474.523	516.56
474.959	521.05
475.395	515.13
475.831	510.79
476.266	510.69
476.702	507.74
477.138	502.29
477.573	500.27
478.008	497.59
478.444	497.57
478.879	500.93
479.314	501.22
479.75	499.67
480.185	500.94
480.62	504.75
481.055	507.36
481.49	510.27
481.925	516.45
482.36	524.39
482.795	537.78
483.229	552.85
483.664	564
484.099	566.15
484.534	574.35
484.968	578.93
485.403	580.77
485.837	579.89
486.271	578.64
486.706	578.73
487.14	572.03
487.574	562.39
488.009	556.57
488.443	551
488.877	555.68
489.311	557.23
489.745	563.28
490.179	567.29
490.613	577.2
491.046	580.53
491.48	583.59
491.914	583.9
492.348	587.26
492.781	589.25
493.215	590.41
493.648	590.45
494.082	593.6
494.515	592.73
494.948	597.69
495.382	599.51
495.815	602.59
496.248	606.24
496.681	614.92
497.114	623.23
497.547	630.05
497.98	639.5
498.413	643.8
498.846	650.03
499.279	655.32
499.711	658.23
500.144	659.06
500.577	666.05
501.009	673.21
501.442	679.4
501.874	679
502.306	680.25
502.739	684.72
503.171	694.7
503.603	696.42
504.036	704.06
504.468	707.33
504.9	715.31
505.332	720.22
505.764	723.07
506.196	728.38
506.627	739.42
507.059	749.35
507.491	755.18
507.923	753.52
508.354	765.02
508.786	772.95
509.217	786.3
509.649	798.25
510.08	812.6
510.512	825.97
510.943	838.11
511.374	847.82
511.805	864.24
512.237	881.19
512.668	907.6
513.099	929.65
513.53	952.74
513.961	970.86
514.391	997.15
514.822	1025.45
515.253	1054.93
515.684	1077.95
516.114	1102.74
516.545	1120.84
516.975	1143.62
517.406	1159.54
517.836	1163.19
518.267	1169.92
518.697	1187.44
519.127	1192.83
519.558	1200.45
519.988	1206.35
520.418	1216.17
520.848	1232.27
521.278	1241.75
521.708	1248.59
522.138	1261.49
522.567	1289.4
522.997	1312.19
523.427	1326.02
523.857	1342.51
524.286	1353.69
524.716	1368.15
525.145	1386.24
525.575	1398.05
526.004	1412.18
526.433	1418.56
526.863	1419.79
527.292	1413.12
527.721	1419.75
528.15	1426.24
528.579	1428.45
529.008	1438.66
529.437	1459.69
529.866	1472.27
530.295	1487.81
530.724	1500.32
531.152	1523.21
531.581	1536.4
532.01	1552.52
532.438	1559.61
532.867	1573.67
533.295	1590.86
533.723	1597.19
534.152	1596.28
534.58	1596.54
535.008	1583.81
535.436	1585.64
535.865	1593.93
536.293	1607.32
536.721	1622.54
537.149	1646.29
537.576	1649.2
538.004	1659.94
538.432	1667.48
538.86	1665.64
539.287	1672.79
539.715	1686.03
540.143	1688.8
540.57	1686.63
540.998	1685.23
541.425	1665.27
541.852	1646.63
542.28	1645.03
542.707	1631.68
543.134	1619.47
543.561	1615.54
543.988	1608.94
544.415	1607.58
544.842	1601.96
545.269	1593.87
545.696	1593.97
546.123	1605.18
546.549	1596.27
546.976	1583.91
547.403	1582.04
547.829	1581.81
548.256	1583.16
548.682	1579.33
549.108	1571.79
549.535	1570.6
549.961	1571.5
550.387	1559.6
550.813	1553.17
551.24	1557.67
551.666	1558.73
552.092	1550.04
552.518	1545.2
552.943	1539.31
553.369	1544.26
553.795	1548.05
554.221	1548.22
554.646	1545.01
555.072	1553.3
555.498	1556.03
555.923	1562.91
556.349	1574.01
556.774	1580.36
557.199	1578.81
557.625	1582.92
558.05	1576.5
558.475	1584.03
558.9	1582.16
559.325	1573.74
559.75	1566.54
560.175	1559.11
560.6	1551.17
561.025	1547.57
561.449	1545.95
561.874	1548.72
562.299	1550.74
562.723	1555.51
563.148	1546.23
563.572	1547.5
563.997	1554.35
564.421	1556.06
564.846	1554.67
565.27	1556.25
565.694	1551.9
566.118	1560.35
566.542	1565.13
566.966	1556.61
567.39	1549.39
567.814	1536.4
568.238	1533.88
568.662	1534.72
569.086	1534.6
569.509	1538.89
569.933	1524.25
570.357	1515.31
570.78	1495.64
571.204	1483.36
571.627	1472.56
572.05	1469.39
572.474	1468.11
572.897	1455.73
573.32	1449.3
573.743	1439.75
574.166	1422.83
574.589	1419.78
575.012	1412.7
575.435	1408.46
575.858	1398.06
576.281	1387.62
576.704	1373.48
577.126	1361.19
577.549	1350.49
577.972	1339.38
578.394	1329.2
578.817	1321.11
579.239	1305.18
579.661	1291.96
580.084	1278.03
580.506	1266.55
580.928	1261.57
581.35	1250.78
581.772	1245.26
582.194	1232.62
582.616	1220.42
583.038	1207.18
583.46	1196.54
583.882	1192.29
584.303	1194.36
584.725	1189.98
585.147	1189.85
585.568	1196.55
585.99	1204.5
586.411	1209.04
586.833	1218.59
587.254	1218.82
587.675	1229.48
588.096	1239.21
588.518	1233.95
588.939	1220.14
589.36	1217.89
589.781	1207.48
590.202	1185.11
590.623	1177.49
591.043	1173.91
591.464	1164.2
591.885	1161.75
592.305	1154.95
592.726	1142.94
593.147	1142.63
593.567	1136.56
593.987	1129.23
594.408	1124.82
594.828	1123.01
595.248	1117.16
595.669	1102.47
596.089	1095.79
596.509	1088.37
596.929	1077.73
597.349	1077.65
597.769	1069.24
598.189	1064.71
598.608	1065.6
599.028	1066.82
599.448	1065.68
599.867	1055.34
600.287	1051.7
600.706	1048.33
601.126	1041.19
601.545	1039.99
601.965	1038.78
602.384	1034.28
602.803	1036.47
603.222	1031.88
603.641	1027.04
604.061	1023.42
604.48	1020.59
604.898	1026.55
605.317	1029.22
605.736	1030.52
606.155	1028.65
606.574	1020.9
606.992	1024.26
607.411	1020.05
607.829	1013.06
608.248	1009.82
608.666	1007.34
609.085	1006.89
609.503	999.23
609.921	995.07
610.339	996.09
610.758	994.04
611.176	991.12
611.594	984.9
612.012	981.24
612.43	984.38
612.847	988.4
613.265	989.21
613.683	990.64
614.101	992.34
614.518	988.6
614.936	981.01
615.353	969.72
615.771	965.37
616.188	964.29
616.606	961.62
617.023	955.86
617.44	945.54
617.857	939.45
618.274	932.5
618.691	926.08
619.108	917.9
619.525	911.91
619.942	916.82
620.359	919.02
620.776	914.33
621.192	910.31
621.609	908.04
622.026	911.55
622.442	915.02
622.859	917.7
623.275	913.57
623.691	917.7
624.108	925.9
624.524	936.18
624.94	936.6
625.356	944.94
625.772	955.31
626.188	963.53
626.604	965.29
627.02	962.64
627.436	960.85
627.852	965.43
628.268	975.15
628.683	968.67
629.099	961.89
629.514	958.46
629.93	960.2
630.345	962.8
630.761	959.99
631.176	962.02
631.591	957.65
632.007	953.59
632.422	951.21
632.837	941.09
633.252	938.96
633.667	931.15
634.082	922.5
634.497	912.11
634.911	895.97
635.326	891.3
635.741	877.62
636.155	869.72
636.57	867.81
636.984	865.65
637.399	865.78
637.813	863.5
638.228	860.49
638.642	862.38
639.056	853.31
639.47	853.79
639.884	846.3
640.298	840.21
640.712	837.51
641.126	829.17
641.54	822.27
641.954	816.7
642.368	808.27
642.781	802.06
643.195	789.75
643.609	790.17
644.022	784.29
644.436	782.24
644.849	774.16
645.262	766.33
645.676	766.05
646.089	762.9
646.502	754.25
646.915	749.86
647.328	738.86
647.741	737.22
648.154	728.2
648.567	727.56
648.98	718.51
649.393	718.74
649.805	714.66
650.218	709.95
650.631	699.06
651.043	694.08
651.456	691.01
651.868	690.76
652.28	702.66
652.693	712.54
653.105	716.2
653.517	722.99
653.929	724.42
654.341	729.9
654.753	723.02
655.165	728.56
655.577	728.14
655.989	724.61
656.401	721.07
656.813	697.22
657.224	684.12
657.636	665.29
658.047	654.08
658.459	640.17
658.87	635.32
659.282	627.45
659.693	614.5
660.104	605.18
660.515	597.52
660.926	597.22
661.338	596.95
661.749	594.32
662.159	589.37
662.57	587.59
662.981	586.86
663.392	583.39
663.803	588.65
664.213	588.61
664.624	587.29
665.035	590.94
665.445	582.78
665.855	578.97
666.266	574.53
666.676	574.27
667.086	569.33
667.497	570.18
667.907	566.89
668.317	561.35
668.727	560.22
669.137	562.35
669.547	562.28
669.956	565.96
670.366	568.42
670.776	571.73
671.186	576.24
671.595	580.39
672.005	583.93
672.414	585.96
672.824	586.26
673.233	590.74
673.642	594.13
674.052	597.63
674.461	601.01
674.87	605.85
675.279	604.87
675.688	607.17
676.097	609.21
676.506	607.18
676.915	617.11
677.323	619.34
677.732	619.37
678.141	619.42
678.549	610.65
678.958	608.52
679.366	607.14
679.775	610.82
680.183	618.33
680.592	622.41
681	627.15
681.408	622.49
681.816	628.17
682.224	634.06
682.632	639.7
683.04	662.61
683.448	680.98
683.856	703.67
684.264	728.44
684.671	751.01
685.079	778.9
685.487	809.65
685.894	852.32
686.302	885.57
686.709	910.33
687.116	942.98
687.524	967.56
687.931	988.64
688.338	1006.28
688.745	1019.85
689.152	1038.36
689.559	1064.73
689.966	1092.27
690.373	1104.3
690.78	1132.45
691.187	1176.82
691.593	1210.16
692	1239.86
692.407	1284.19
692.813	1340.05
693.22	1387.19
693.626	1433.91
694.032	1473.87
694.439	1533.63
694.845	1582.37
695.251	1643.76
695.657	1701.91
696.063	1785.18
696.469	1849.93
696.875	1913.81
697.281	1954.35
697.687	2001.59
698.093	2046
698.498	2118.05
698.904	2177.08
699.31	2261.2
699.715	2326.1
