Data from C_1_DIV_WI_4N_Splice17_11-48-33-098.txt Node
Date: Sat Mar 14 11:48:33 EDT 2020
User: sa697716
Spectrometer: FLMS03696
Trigger mode: 0
Integration Time (sec): 3.180400E-1
Scans to average: 20
Electric dark correction enabled: true
Nonlinearity correction enabled: true
Boxcar width: 5
XAxis mode: Wavelengths
Number of Pixels in Spectrum: 2048
>>>>>Begin Spectral Data<<<<<
187.83	-229507.88
188.298	1690.86
188.766	996.71
189.233	866.29
189.701	1206.44
190.169	1631.09
190.636	526.64
191.104	351.62
191.571	5.66
192.039	-111.31
192.506	-177.66
192.974	184.2
193.441	-564.15
193.908	9.31
194.375	-19.59
194.842	28.53
195.31	125.58
195.777	137.26
196.244	347.86
196.711	491.56
197.177	615.89
197.644	868.99
198.111	1488.46
198.578	2138.4
199.045	1713.29
199.511	2856.14
199.978	3347.41
200.445	2824.91
200.911	3118.89
201.378	3475.19
201.844	3154.25
202.31	5403.84
202.777	5633.78
203.243	3159.29
203.709	3011.05
204.176	3590.73
204.642	2946.81
205.108	2737.79
205.574	2247.72
206.04	2078.18
206.506	1951.83
206.972	1843.6
207.438	1791.87
207.903	2046.05
208.369	1802.96
208.835	1807.8
209.301	1911.24
209.766	1963.98
210.232	1962.17
210.697	2430.19
211.163	3019.37
211.628	4587.29
212.094	3861.03
212.559	4699.56
213.024	2945.87
213.49	3577.14
213.955	3517.09
214.42	3466.34
214.885	3243.93
215.35	3135.43
215.815	3021.12
216.28	3226.6
216.745	2672.62
217.21	2923.38
217.675	2771.48
218.14	3199.91
218.604	3691.36
219.069	4307.42
219.534	4616.98
219.998	5492.24
220.463	6808.05
220.927	8602.9
221.392	8242.67
221.856	8454.24
222.32	10802.27
222.785	13450.15
223.249	17097.81
223.713	19207.79
224.177	19341.36
224.642	24979.81
225.106	30929.66
225.57	33939.42
226.034	25267.65
226.497	38589.58
226.961	34899.56
227.425	40723.36
227.889	45361.17
228.353	45423.23
228.816	94051.18
229.28	90105.92
229.744	76072.61
230.207	46255.62
230.671	45572.22
231.134	75623.64
231.597	87014.84
232.061	87194.95
232.524	85235.37
232.987	58772.56
233.45	52894.33
233.914	47463.04
234.377	48735.92
234.84	44651.15
235.303	52712.32
235.766	58848.58
236.229	60853.49
236.691	38399.21
237.154	43177.84
237.617	32480.65
238.08	33287.01
238.542	39004.24
239.005	27888.76
239.468	27667.19
239.93	26067.02
240.393	23680.25
240.855	20781.85
241.317	21280.31
241.78	25915.58
242.242	26767.01
242.704	28866.43
243.166	25108.07
243.629	22759.21
244.091	26212.48
244.553	28714.85
245.015	30864.78
245.477	39950.36
245.939	58613.41
246.4	62204.27
246.862	60427.83
247.324	57014.08
247.786	63841.52
248.247	83749.86
248.709	86638.15
249.17	64792.59
249.632	60987.82
250.093	70584.84
250.555	60939.93
251.016	37095.51
251.477	35161.62
251.939	37936.78
252.4	39792.89
252.861	47328.51
253.322	43980.87
253.783	52323.97
254.244	67853.63
254.705	53545.99
255.166	47659.36
255.627	46924.76
256.088	66145.3
256.549	70278.18
257.009	60543.58
257.47	73384.07
257.931	59768.04
258.391	44763.24
258.852	46156.2
259.312	48451.66
259.773	59888.41
260.233	50591.16
260.694	42666.15
261.154	48448.92
261.614	38842.06
262.074	34767.73
262.534	36152.26
262.994	34062.32
263.455	45388.81
263.915	38233.64
264.374	36010.7
264.834	39302.6
265.294	43557.34
265.754	45098.35
266.214	42688.39
266.673	40016.65
267.133	50464.79
267.593	50035.93
268.052	61161.11
268.512	53210.69
268.971	64012.97
269.431	70120.75
269.89	62724.65
270.349	93961.08
270.809	104653.85
271.268	94020.56
271.727	210821.11
272.186	136487.36
272.645	102344.49
273.104	73865.8
273.563	106862.89
274.022	84132.89
274.481	71460.74
274.94	55009.44
275.399	40932.79
275.857	47661.7
276.316	64435.89
276.775	57287.48
277.233	56335.02
277.692	52659.11
278.15	59486.84
278.609	61103.37
279.067	56528.99
279.525	52466.46
279.984	67722.19
280.442	81174.26
280.9	79894.75
281.358	52494.83
281.816	48857.73
282.274	47812.79
282.732	49380.66
283.19	49602.89
283.648	42787.97
284.106	45532.91
284.564	46275.11
285.021	42870.29
285.479	31938.59
285.937	29055.86
286.394	25451.6
286.852	26186.34
287.309	27517.12
287.767	26523.02
288.224	25200.97
288.682	27634.78
289.139	30271.55
289.596	27671.79
290.053	28737.85
290.511	36232.27
290.968	43853.59
291.425	59521.67
291.882	49428.41
292.339	42988.95
292.796	42709.17
293.252	40219.28
293.709	31901.57
294.166	28575.52
294.623	31567.57
295.079	30255.48
295.536	30373.95
295.992	27591.8
296.449	27271.22
296.905	28337.06
297.362	27127.04
297.818	28500.38
298.274	29554.58
298.731	30126.88
299.187	29808.28
299.643	32006.24
300.099	38730.8
300.555	42482.97
301.011	35496.56
301.467	34129.31
301.923	39976.36
302.379	39047
302.835	38354.39
303.291	38354.76
303.746	43628.69
304.202	55110.96
304.658	55267.12
305.113	37141.2
305.569	36371.27
306.024	38716.93
306.479	36930.89
306.935	31102.09
307.39	33930.65
307.845	31294.61
308.301	31462.83
308.756	30626.01
309.211	29469.4
309.666	30174.45
310.121	37400.92
310.576	37964.09
311.031	37649.6
311.486	43091.49
311.94	43052.65
312.395	57596.79
312.85	108229.69
313.305	532104.02
313.759	2749664.46
314.214	199038.41
314.668	157682.19
315.123	132395.96
315.577	47382.9
316.032	42089.34
316.486	52708.54
316.94	41518.25
317.394	28843.37
317.849	22389.37
318.303	21182.66
318.757	19986.4
319.211	22072.2
319.665	19300.39
320.119	19550.15
320.572	28014.04
321.026	26169.86
321.48	21760.97
321.934	23722.61
322.387	23762.13
322.841	25634.79
323.295	22992.72
323.748	26490.91
324.202	26873.12
324.655	32227.21
325.108	44941.93
325.562	31699.88
326.015	37668.47
326.468	28454.3
326.921	31794.45
327.374	29635.41
327.827	30817.79
328.28	34846.29
328.733	23323.72
329.186	20501.22
329.639	19544.77
330.092	16470.04
330.545	15689.28
330.997	15782.72
331.45	17213.38
331.903	20109.26
332.355	34536.71
332.808	33557.48
333.26	27693.27
333.713	30024.47
334.165	30209.77
334.617	40339.53
335.069	32582.03
335.522	58869.7
335.974	65138.69
336.426	59492.88
336.878	41299.61
337.33	20951.38
337.782	20458.75
338.234	25567.12
338.686	30609.08
339.137	36235.56
339.589	34065.02
340.041	26668.06
340.493	22914.56
340.944	23471.92
341.396	25301.1
341.847	21248.75
342.299	25000.77
342.75	30422.05
343.201	26641.78
343.653	30595.47
344.104	37627.6
344.555	29616.11
345.006	46154.31
345.457	35287.3
345.908	28039.34
346.359	26336.54
346.81	21437.84
347.261	22621.42
347.712	22297.02
348.163	23878.66
348.613	24100.54
349.064	22469.19
349.515	19670.86
349.965	20133.57
350.416	24223.04
350.866	26581.47
351.317	30056.29
351.767	49759.06
352.217	62832.88
352.668	52133.55
353.118	47680.81
353.568	46067.02
354.018	36386.47
354.468	38323.39
354.918	27493.38
355.368	24064.15
355.818	33990.08
356.268	97641.73
356.718	407835.76
357.168	101467.66
357.617	50869.23
358.067	56606.03
358.517	52999.67
358.966	62120.5
359.416	69579.16
359.865	75181.72
360.315	89414.44
360.764	41663.65
361.213	23346.98
361.663	22141.2
362.112	27312.65
362.561	44149.09
363.01	33248.22
363.459	27981.02
363.908	30276.44
364.357	25672.69
364.806	43395.74
365.255	29860.85
365.703	27329.93
366.152	27348.31
366.601	22184.04
367.05	17999.78
367.498	16355.8
367.947	17108.22
368.395	17807.2
368.844	15757.89
369.292	19052.62
369.74	13144.08
370.189	20180.42
370.637	23705.37
371.085	20488.14
371.533	24942.25
371.981	24093.59
372.429	22971.28
372.877	23963.15
373.325	20073.5
373.773	20499.27
374.221	18288.6
374.669	22726.46
375.116	19668.81
375.564	19848.52
376.012	22234.3
376.459	18380.36
376.907	22020.25
377.354	26709.73
377.801	24945.04
378.249	28751.24
378.696	36854.37
379.143	44726.77
379.591	47912.65
380.038	81038.49
380.485	58739.23
380.932	63641.75
381.379	58278.31
381.826	42959.23
382.273	30609.42
382.72	26856.56
383.166	26232.47
383.613	17076.4
384.06	15436.87
384.506	17901.24
384.953	13230.28
385.4	13351.04
385.846	11723.98
386.292	11474.67
386.739	11264.26
387.185	11178.76
387.631	11209.23
388.078	10892.17
388.524	11659.62
388.97	10773.39
389.416	8986.4
389.862	9539.95
390.308	9044.95
390.754	9179.26
391.2	9967.64
391.645	10201.74
392.091	9728.15
392.537	9391.28
392.983	9407.49
393.428	9238.18
393.874	9905.5
394.319	9924.98
394.765	9393.76
395.21	9657.81
395.655	9052.01
396.101	8465.06
396.546	7626.61
396.991	7691.52
397.436	7133.68
397.881	6881.2
398.326	6511.45
398.771	6136.22
399.216	5361.51
399.661	4826.03
400.106	4803.6
400.551	4899.22
400.995	4385.83
401.44	4332.6
401.885	4062.53
402.329	4102.27
402.774	3918.27
403.218	3771.57
403.663	3629.79
404.107	3719.84
404.551	3731.62
404.995	3406.96
405.44	3279.5
405.884	3320.89
406.328	3205.25
406.772	3186.93
407.216	2892.22
407.66	2792.2
408.104	2652.49
408.547	2476.78
408.991	2391.64
409.435	2300.23
409.879	2259.5
410.322	2225.72
410.766	2143.46
411.209	2033.14
411.653	1949.57
412.096	1902.83
412.54	1901.29
412.983	1885.13
413.426	1883.95
413.869	1879.23
414.312	1838.01
414.756	1770.88
415.199	1685.15
415.642	1632.82
416.085	1633.45
416.527	1618.26
416.97	1638.26
417.413	1550.3
417.856	1533.39
418.298	1516.55
418.741	1503.49
419.184	1498.57
419.626	1558.05
420.069	1557.23
420.511	1563.04
420.953	1525
421.396	1510.11
421.838	1472.51
422.28	1503.96
422.722	1507.28
423.164	1529.84
423.606	1499.9
424.048	1496.14
424.49	1419.61
424.932	1410.21
425.374	1389.07
425.816	1412.77
426.258	1435.82
426.699	1452.96
427.141	1428.25
427.582	1450.74
428.024	1440.12
428.465	1433.93
428.907	1397.01
429.348	1380.55
429.789	1376.97
430.231	1346.86
430.672	1364.78
431.113	1331.79
431.554	1308.69
431.995	1277.52
432.436	1229.78
432.877	1202.28
433.318	1179.62
433.759	1174.26
434.2	1173.82
434.64	1162.21
435.081	1164.88
435.522	1100.89
435.962	1063.22
436.403	1038.74
436.843	1054.09
437.284	1032.04
437.724	1004.26
438.164	1006.61
438.604	987.01
439.045	946.46
439.485	905.91
439.925	885.47
440.365	864.17
440.805	850.47
441.245	838.29
441.685	806.6
442.125	800.94
442.564	806.42
443.004	788.1
443.444	783.21
443.883	786.53
444.323	780.37
444.762	781.73
445.202	791.17
445.641	804.12
446.081	800.09
446.52	804.38
446.959	793.89
447.398	772.87
447.837	760.96
448.276	746.66
448.716	751.86
449.154	756.45
449.593	738.71
450.032	735.8
450.471	720.88
450.91	722.55
451.349	719.55
451.787	716.29
452.226	726.95
452.664	727.22
453.103	727.65
453.541	725.75
453.98	725.03
454.418	729.79
454.856	716.01
455.295	715.11
455.733	718.59
456.171	723.2
456.609	723.04
457.047	721.14
457.485	730.75
457.923	732.82
458.361	722.2
458.798	723.86
459.236	721.79
459.674	728.48
460.111	730.94
460.549	723.33
460.987	720.95
461.424	718.6
461.862	715.72
462.299	705.33
462.736	702.7
463.173	705.78
463.611	698.12
464.048	694.89
464.485	699.04
464.922	692.98
465.359	690.24
465.796	678.73
466.233	673.4
466.67	666.61
467.106	664.52
467.543	658.48
467.98	649.8
468.416	632.56
468.853	627.3
469.29	608.97
469.726	601.83
470.162	585.61
470.599	578.25
471.035	572.82
471.471	559.14
471.907	555.43
472.344	551.53
472.78	552.06
473.216	557.93
473.652	551.09
474.088	549.1
474.523	546.09
474.959	550.24
475.395	545.11
475.831	540.97
476.266	542.28
476.702	539.49
477.138	532.75
477.573	529.62
478.008	527.17
478.444	529.3
478.879	532.74
479.314	534.24
479.75	532.25
480.185	534.47
480.62	538.74
481.055	540.15
481.49	543.39
481.925	550.91
482.36	560.49
482.795	575.32
483.229	589.64
483.664	600.58
484.099	602.67
484.534	612.3
484.968	617.13
485.403	617.82
485.837	617.07
486.271	614.64
486.706	614.12
487.14	605.77
487.574	595.69
488.009	589.55
488.443	584.27
488.877	589.17
489.311	590.24
489.745	596.68
490.179	601.59
490.613	611.19
491.046	615.19
491.48	618.41
491.914	618.66
492.348	622.34
492.781	625.02
493.215	625.21
493.648	625.48
494.082	628.61
494.515	627.36
494.948	632.88
495.382	635.68
495.815	638.75
496.248	641.58
496.681	650.69
497.114	658.53
497.547	665.4
497.98	675.55
498.413	679.28
498.846	686.05
499.279	690.82
499.711	692.08
500.144	692.48
500.577	699.85
501.009	707.73
501.442	714.42
501.874	713.79
502.306	713.43
502.739	718.16
503.171	728.86
503.603	729.94
504.036	736.98
504.468	740.78
504.9	748.94
505.332	753.4
505.764	756.28
506.196	761.08
506.627	772.35
507.059	783.08
507.491	788.72
507.923	785.46
508.354	797.15
508.786	805.21
509.217	819.32
509.649	831.38
510.08	846.88
510.512	859.75
510.943	871.23
511.374	879.69
511.805	895.71
512.237	911.45
512.668	938.25
513.099	960.68
513.53	982.63
513.961	1000.54
514.391	1026.39
514.822	1052.98
515.253	1082.89
515.684	1105.23
516.114	1131.94
516.545	1149.52
516.975	1172.22
517.406	1188.09
517.836	1191.98
518.267	1198.73
518.697	1214.47
519.127	1219.71
519.558	1227.5
519.988	1232.74
520.418	1243.05
520.848	1258.99
521.278	1269.11
521.708	1276.13
522.138	1288.07
522.567	1315.07
522.997	1339.05
523.427	1354.41
523.857	1370.48
524.286	1380.34
524.716	1394.79
525.145	1412.99
525.575	1424.07
526.004	1437.76
526.433	1444.22
526.863	1446.78
527.292	1441.38
527.721	1447.01
528.15	1452.85
528.579	1454.84
529.008	1466.09
529.437	1487.43
529.866	1499.53
530.295	1515.09
530.724	1527.72
531.152	1551.52
531.581	1564.94
532.01	1579.61
532.438	1588.53
532.867	1601.46
533.295	1619.68
533.723	1626
534.152	1623.81
534.58	1624.25
535.008	1610.63
535.436	1612.55
535.865	1619.94
536.293	1634.34
536.721	1649.2
537.149	1672.17
537.576	1676.34
538.004	1687.28
538.432	1694.79
538.86	1695.4
539.287	1702.77
539.715	1716.47
540.143	1719.82
540.57	1718.05
540.998	1714.58
541.425	1695.12
541.852	1676.46
542.28	1673.98
542.707	1659.49
543.134	1647.69
543.561	1643.76
543.988	1637.13
544.415	1636.04
544.842	1630.18
545.269	1623.42
545.696	1624.43
546.123	1634.54
546.549	1624.54
546.976	1612.7
547.403	1611.73
547.829	1612.18
548.256	1613.11
548.682	1609.72
549.108	1601.79
549.535	1601.15
549.961	1601.69
550.387	1588.32
550.813	1583.27
551.24	1587.93
551.666	1588.52
552.092	1579.14
552.518	1573.05
552.943	1566.56
553.369	1571.55
553.795	1575.94
554.221	1575.96
554.646	1571.84
555.072	1581.31
555.498	1584.26
555.923	1591.9
556.349	1603.69
556.774	1610.37
557.199	1609.97
557.625	1612.46
558.05	1606.07
558.475	1612.53
558.9	1609.7
559.325	1600.56
559.75	1592.19
560.175	1584.51
560.6	1576.78
561.025	1573.15
561.449	1571.7
561.874	1575.04
562.299	1578.36
562.723	1582.31
563.148	1573.07
563.572	1573.87
563.997	1580.64
564.421	1583.41
564.846	1581.09
565.27	1582.65
565.694	1577.57
566.118	1585.14
566.542	1589.78
566.966	1581.84
567.39	1575.6
567.814	1563.37
568.238	1561.17
568.662	1563.89
569.086	1564.13
569.509	1569.31
569.933	1553.42
570.357	1545.62
570.78	1525.72
571.204	1511.92
571.627	1501.04
572.05	1497.61
572.474	1496.28
572.897	1485.12
573.32	1476.37
573.743	1466.39
574.166	1448.77
574.589	1447.43
575.012	1439.09
575.435	1437.08
575.858	1426.78
576.281	1415.6
576.704	1400.8
577.126	1387.95
577.549	1376.66
577.972	1367.14
578.394	1357.22
578.817	1349.83
579.239	1331.68
579.661	1320.06
580.084	1305.74
580.506	1294.27
580.928	1289.23
581.35	1278.66
581.772	1273.96
582.194	1261.63
582.616	1249.88
583.038	1236.12
583.46	1225.37
583.882	1223.07
584.303	1224.81
584.725	1218.48
585.147	1218.6
585.568	1225.64
585.99	1233.92
586.411	1238.53
586.833	1249.82
587.254	1249.2
587.675	1260.59
588.096	1270.6
588.518	1264.96
588.939	1250.04
589.36	1247.59
589.781	1237.98
590.202	1214.37
590.623	1207.01
591.043	1203.39
591.464	1190.97
591.885	1187.6
592.305	1181.25
592.726	1169.14
593.147	1168.83
593.567	1164.26
593.987	1159.25
594.408	1154.74
594.828	1153.57
595.248	1148.13
595.669	1134.15
596.089	1128.34
596.509	1122.33
596.929	1110.6
597.349	1110.51
597.769	1102.17
598.189	1096.99
598.608	1096.8
599.028	1098.06
599.448	1097.12
599.867	1086.19
600.287	1082.56
600.706	1078.28
601.126	1071.14
601.545	1070.41
601.965	1069.74
602.384	1064.81
602.803	1066.3
603.222	1061.83
603.641	1054.93
604.061	1051.4
604.48	1047.65
604.898	1053.1
605.317	1056.92
605.736	1057.46
606.155	1055.31
606.574	1047.45
606.992	1050.91
607.411	1046.38
607.829	1039.01
608.248	1036.42
608.666	1034.22
609.085	1034.23
609.503	1026.1
609.921	1021.09
610.339	1021.99
610.758	1020.09
611.176	1015.61
611.594	1008.51
612.012	1005.92
612.43	1009.04
612.847	1014.2
613.265	1014.85
613.683	1016.55
614.101	1017.13
614.518	1013.12
614.936	1004.6
615.353	994.27
615.771	991.81
616.188	992.38
616.606	988.57
617.023	982.64
617.44	971.1
617.857	964.99
618.274	959.06
618.691	954.85
619.108	947.15
619.525	942.54
619.942	946.23
620.359	948.05
620.776	943.31
621.192	941.35
621.609	939.16
622.026	944.3
622.442	948.79
622.859	950.57
623.275	944.85
623.691	949.58
624.108	958.93
624.524	970.03
624.94	969.54
625.356	977.13
625.772	985.59
626.188	994.28
626.604	996.29
627.02	992.95
627.436	992.63
627.852	997.89
628.268	1006.93
628.683	999.89
629.099	992.76
629.514	989.7
629.93	991.82
630.345	994.92
630.761	991.91
631.176	992.13
631.591	987.63
632.007	981.31
632.422	978.34
632.837	968.43
633.252	964.85
633.667	957.42
634.082	949.28
634.497	937.87
634.911	922.85
635.326	919.79
635.741	907.44
636.155	899.31
636.57	899.62
636.984	898.7
637.399	898.99
637.813	897.68
638.228	894.73
638.642	896.47
639.056	888.14
639.47	886.83
639.884	879.11
640.298	873.01
640.712	870.67
641.126	860.3
641.54	852.91
641.954	848.38
642.368	839
642.781	833.53
643.195	821.23
643.609	822.49
644.022	818.85
644.436	815.51
644.849	806.58
645.262	798.3
645.676	799.26
646.089	796.46
646.502	786.8
646.915	784.01
647.328	771.62
647.741	770.16
648.154	760.81
648.567	758.35
648.98	749.82
649.393	750.99
649.805	748.22
650.218	743.94
650.631	733.76
651.043	728.77
651.456	724.33
651.868	725.59
652.28	738.95
652.693	748.85
653.105	755.82
653.517	762.77
653.929	763.88
654.341	770.3
654.753	762.26
655.165	767.6
655.577	767.76
655.989	765.04
656.401	759.27
656.813	733.21
657.224	719.96
657.636	699.16
658.047	687.1
658.459	673.66
658.87	666.97
659.282	660.13
659.693	646.68
660.104	636.27
660.515	628.87
660.926	628.99
661.338	628.33
661.749	624.76
662.159	620.21
662.57	619.14
662.981	617.8
663.392	614.77
663.803	619.48
664.213	619.35
664.624	619.44
665.035	623.54
665.445	616.67
665.855	613.78
666.266	610.44
666.676	609.7
667.086	603.71
667.497	604.91
667.907	602.14
668.317	596.84
668.727	595.86
669.137	597.56
669.547	596.43
669.956	599.49
670.366	602.5
670.776	606.62
671.186	612.69
671.595	617.52
672.005	621.35
672.414	622.46
672.824	621.64
673.233	625.5
673.642	627.97
674.052	631.26
674.461	634.36
674.87	638.54
675.279	635.11
675.688	634.9
676.097	636.69
676.506	635.05
676.915	646.75
677.323	649.98
677.732	650.53
678.141	650.62
678.549	643.38
678.958	641.59
679.366	640.67
679.775	645.96
680.183	655.7
680.592	659.55
681	663.71
681.408	657.61
681.816	663.19
682.224	668.75
682.632	676.44
683.04	699
683.448	717.65
683.856	740.52
684.264	765.45
684.671	786.97
685.079	816.1
685.487	846.87
685.894	891.75
686.302	926.61
686.709	953.44
687.116	985.39
687.524	1011.75
687.931	1033.01
688.338	1049.93
688.745	1063.18
689.152	1080.9
689.559	1106.65
689.966	1134.15
690.373	1143.75
690.78	1169.72
691.187	1213.14
691.593	1246.93
692	1275.26
692.407	1319.89
692.813	1376.46
693.22	1422.82
693.626	1471.72
694.032	1512.15
694.439	1573.81
694.845	1622.58
695.251	1686.91
695.657	1744.57
696.063	1827.33
696.469	1893.33
696.875	1956.86
697.281	1998.56
697.687	2048.14
698.093	2091.08
