Data from C_1_DEC_OH_4N_Splice17_11-56-01-287.txt Node
Date: Sat Mar 14 11:56:01 EDT 2020
User: sa697716
Spectrometer: FLMS03696
Trigger mode: 0
Integration Time (sec): 3.180400E-1
Scans to average: 20
Electric dark correction enabled: true
Nonlinearity correction enabled: true
Boxcar width: 5
XAxis mode: Wavelengths
Number of Pixels in Spectrum: 2048
>>>>>Begin Spectral Data<<<<<
187.83	-245002.61
188.298	1750.17
188.766	970.52
189.233	851.65
189.701	1246.46
190.169	1706.71
190.636	667.86
191.104	630.8
191.571	148.77
192.039	-13.34
192.506	77.67
192.974	669.37
193.441	-1190.55
193.908	-370.5
194.375	-90.17
194.842	34
195.31	46.02
195.777	119.51
196.244	351.31
196.711	450.99
197.177	574.93
197.644	813
198.111	1402.74
198.578	1959.92
199.045	1536.41
199.511	2504.54
199.978	2896.93
200.445	2476.08
200.911	2741.86
201.378	3068.04
201.844	2781.08
202.31	4717.58
202.777	4901.93
203.243	2737.23
203.709	2589.28
204.176	3107.53
204.642	2534.75
205.108	2357.64
205.574	1931.95
206.04	1770.07
206.506	1665.13
206.972	1574.41
207.438	1530.85
207.903	1756.55
208.369	1534.3
208.835	1538.54
209.301	1611.69
209.766	1681.57
210.232	1683.91
210.697	2077.05
211.163	2589.87
211.628	3925.57
212.094	3323.72
212.559	4071.37
213.024	2551.39
213.49	3116.45
213.955	3077.48
214.42	3026.53
214.885	2814.15
215.35	2706.2
215.815	2610.75
216.28	2773.53
216.745	2262.22
217.21	2453.36
217.675	2281.59
218.14	2596.4
218.604	2963.97
219.069	3442.93
219.534	3684.79
219.998	4361.9
220.463	5363.43
220.927	6726.25
221.392	6400.97
221.856	6554.43
222.32	8323.29
222.785	10359.59
223.249	13141.36
223.713	14712.98
224.177	14777.15
224.642	19024.09
225.106	23456.36
225.57	25750.85
226.034	19147.95
226.497	29208.52
226.961	26406.67
227.425	30806.97
227.889	34248.63
228.353	34283.4
228.816	71025.26
229.28	67981.69
229.744	57423.6
230.207	34876.38
230.671	34303.85
231.134	56857.01
231.597	65583.97
232.061	65603.07
232.524	64093.75
232.987	44113.37
233.45	39676.79
233.914	35575.9
234.377	36452.82
234.84	33314.16
235.303	39302.28
235.766	43846.59
236.229	45317.41
236.691	28569.34
237.154	32131.35
237.617	24146.87
238.08	24757.69
238.542	28985.38
239.005	20717.5
239.468	20548.75
239.93	19378.79
240.393	17622.21
240.855	15467.1
241.317	15841.57
241.78	19263.29
242.242	19895.22
242.704	21463.06
243.166	18672.04
243.629	16945.07
244.091	19506.31
244.553	21387.07
245.015	22965.15
245.477	29733.1
245.939	43605.93
246.4	46259.83
246.862	44918.16
247.324	42344.66
247.786	47419.12
248.247	62201.96
248.709	64319.03
249.17	48172.57
249.632	45416.74
250.093	52720.63
250.555	45542.04
251.016	27766.47
251.477	26354.85
251.939	28496.73
252.4	29952.08
252.861	35672.26
253.322	33200.17
253.783	39557.14
254.244	51325.67
254.705	40484.19
255.166	36044.29
255.627	35503.07
256.088	50103.97
256.549	53230.67
257.009	45880.94
257.47	55619.82
257.931	45268.83
258.391	33928.18
258.852	34968.09
259.312	36692.12
259.773	45402.67
260.233	38355.25
260.694	32341.08
261.154	36729.67
261.614	29492.78
262.074	26379.15
262.534	27444.7
262.994	25895.41
263.455	34571.98
263.915	29167.31
264.374	27500.81
264.834	30036.84
265.294	33339.68
265.754	34575.09
266.214	32770.23
266.673	30788
267.133	38920.08
267.593	38691.82
268.052	47416.07
268.512	41261.5
268.971	49777.83
269.431	54633.18
269.89	48957.33
270.349	73475.57
270.809	82038.55
271.268	73758.7
271.727	165466.91
272.186	107186.5
272.645	80381.08
273.104	58024.61
273.563	84034.31
274.022	66097.87
274.481	56258.91
274.94	43339.76
275.399	32228.41
275.857	37536.75
276.316	50826.39
276.775	45219.28
277.233	44544.54
277.692	41670.28
278.15	47161.49
278.609	48524.44
279.067	44948.39
279.525	41735.03
279.984	53920.89
280.442	64752.03
280.9	63785.29
281.358	41924.93
281.816	39062.16
282.274	38264.55
282.732	39604.33
283.19	39775.33
283.648	34345.79
284.106	36584.2
284.564	37213.47
285.021	34502.5
285.479	25729.76
285.937	23401.01
286.394	20547.44
286.852	21163.75
287.309	22225.31
287.767	21434.81
288.224	20381.96
288.682	22373.64
289.139	24538.45
289.596	22455.7
290.053	23368.53
290.511	29490.55
290.968	35808.61
291.425	48596.44
291.882	40439.93
292.339	35206.67
292.796	34969.42
293.252	32948.9
293.709	26136.79
294.166	23438.21
294.623	25894.73
295.079	24838.99
295.536	24951.58
295.992	22658.33
296.449	22410.6
296.905	23265.09
297.362	22310.81
297.818	23483.96
298.274	24361.2
298.731	24858.74
299.187	24623.94
299.643	26465.59
300.099	32016.86
300.555	35107.83
301.011	29341.02
301.467	28248.15
301.923	33111.09
302.379	32352.25
302.835	31757
303.291	31792.76
303.746	36156.42
304.202	45647.73
304.658	45833.74
305.113	30833.9
305.569	30234.17
306.024	32228.94
306.479	30727.26
306.935	25907.9
307.39	28312.45
307.845	26140.19
308.301	26308.71
308.756	25654.2
309.211	24705.45
309.666	25291.73
310.121	31323.24
310.576	31736.47
311.031	31471.62
311.486	36041.34
311.94	35969.56
312.395	48011.18
312.85	90195.36
313.305	443601.28
313.759	2290758.51
314.214	165869.98
314.668	131309.87
315.123	110539.67
315.577	39646.75
316.032	35242.07
316.486	44148.64
316.94	34832.02
317.394	24238.56
317.849	18829.15
318.303	17812.26
318.757	16821.55
319.211	18605.5
319.665	16298.48
320.119	16470.64
320.572	23634.01
321.026	22066.61
321.48	18343.76
321.934	20011.04
322.387	20056.18
322.841	21671.36
323.295	19470.45
323.748	22431.78
324.202	22728.34
324.655	27252.21
325.108	38098.71
325.562	26891.35
326.015	31979.2
326.468	24149.58
326.921	26988.91
327.374	25156.14
327.827	26141.28
328.28	29567.49
328.733	19770.56
329.186	17379.38
329.639	16538.14
330.092	13931.62
330.545	13267.91
330.997	13365.64
331.45	14623.81
331.903	17110.38
332.355	29444.26
332.808	28617.14
333.26	23611.36
333.713	25668.07
334.165	25877.34
334.617	34583.52
335.069	27944.57
335.522	50413.08
335.974	55843.47
336.426	50977.95
336.878	35296.54
337.33	17893.94
337.782	17473.38
338.234	21834.19
338.686	26101.62
339.137	30928.08
339.589	29150.91
340.041	22823.04
340.493	19629.16
340.944	20068.97
341.396	21590.3
341.847	18181.2
342.299	21405.96
342.75	26118.56
343.201	22860.55
343.653	26287.61
344.104	32272.12
344.555	25405.12
345.006	39649.37
345.457	30371.78
345.908	24156.72
346.359	22731.13
346.81	18501.56
347.261	19523.04
347.712	19237.54
348.163	20639.77
348.613	20898.74
349.064	19489.33
349.515	17053.17
349.965	17475.57
350.416	21068.04
350.866	23117.07
351.317	26172.08
351.767	43344.56
352.217	54757.66
352.668	45411.08
353.118	41534.63
353.568	40066.75
354.018	31735.61
354.468	33422.92
354.918	23918.45
355.368	20888.9
355.818	29523.06
356.268	84873.86
356.718	354986.05
357.168	88320.43
357.617	44277.56
358.067	49238.96
358.517	46048.84
358.966	53946.24
359.416	60509.58
359.865	65481.05
360.315	77983.51
360.764	36373.45
361.213	20375.93
361.663	19297.96
362.112	23801.33
362.561	38498.19
363.01	29103.21
363.459	24526.69
363.908	26504.12
364.357	22460.61
364.806	37954.91
365.255	26097.36
365.703	23871.58
366.152	23902.17
366.601	19378.19
367.05	15745.41
367.498	14288.91
367.947	14913.08
368.395	15509.22
368.844	13726.15
369.292	16583.04
369.74	11447.51
370.189	17537.13
370.637	20562.25
371.085	17733.25
371.533	21569.94
371.981	20786.73
372.429	19793.69
372.877	20594.74
373.325	17223.66
373.773	17577.02
374.221	15638.38
374.669	19377.19
375.116	16748.71
375.564	16902.75
376.012	18867.01
376.459	15565.42
376.907	18557.72
377.354	22445.97
377.801	20910.03
378.249	24004.55
378.696	30620.3
379.143	37053.37
379.591	39496.69
380.038	66794.34
380.485	48146.02
380.932	52042.69
381.379	47564.53
381.826	34999.34
382.273	24873.78
382.72	21756.56
383.166	21214.02
383.613	13765.49
384.06	12405.94
384.506	14341.78
384.953	10535.08
385.4	10611.63
385.846	9279.99
386.292	9052.21
386.739	8855.89
387.185	8729.1
387.631	8712.23
388.078	8432.34
388.524	9017.07
388.97	8314.01
389.416	6923.47
389.862	7337.66
390.308	6944.27
390.754	7042.22
391.2	7615.7
391.645	7781.45
392.091	7455.32
392.537	7199.14
392.983	7193.14
393.428	7046.93
393.874	7549.01
394.319	7545.01
394.765	7137.82
395.21	7321.17
395.655	6844.98
396.101	6398.41
396.546	5769.94
396.991	5802.59
397.436	5373.01
397.881	5183.18
398.326	4904.62
398.771	4622.74
399.216	4036.87
399.661	3626.34
400.106	3597.02
400.551	3675.3
400.995	3289.21
401.44	3242.37
401.885	3039.59
402.329	3063.34
402.774	2929.01
403.218	2828.71
403.663	2723.42
404.107	2796.09
404.551	2809.68
404.995	2576.1
405.44	2477.61
405.884	2510.68
406.328	2427.22
406.772	2415.12
407.216	2197.43
407.66	2121.71
408.104	2006.48
408.547	1871.08
408.991	1807.58
409.435	1738.53
409.879	1711.47
410.322	1684.08
410.766	1622.19
411.209	1537.96
411.653	1471.03
412.096	1439.08
412.54	1438.19
412.983	1428.21
413.426	1432.72
413.869	1428.12
414.312	1398.13
414.756	1343.5
415.199	1282.55
415.642	1242.57
416.085	1244.04
416.527	1235.35
416.97	1254.32
417.413	1188.07
417.856	1174.47
418.298	1159.81
418.741	1150.51
419.184	1144.08
419.626	1190.18
420.069	1187.59
420.511	1193.36
420.953	1165.16
421.396	1153.27
421.838	1117.99
422.28	1141.32
422.722	1145.86
423.164	1159.92
423.606	1139.57
424.048	1139.93
424.49	1083.38
424.932	1078.31
425.374	1063.68
425.816	1081.55
426.258	1100.62
426.699	1114.02
427.141	1097.39
427.582	1112.59
428.024	1107.85
428.465	1100.94
428.907	1072.9
429.348	1059.9
429.789	1056.34
430.231	1033.63
430.672	1046.38
431.113	1021.26
431.554	1005.87
431.995	978.35
432.436	942.02
432.877	919.8
433.318	905.57
433.759	898.6
434.2	895.88
434.64	887.07
435.081	887.7
435.522	841.39
435.962	808.48
436.403	790.85
436.843	803.42
437.284	786.96
437.724	762.86
438.164	761.31
438.604	745.16
439.045	717.2
439.485	688.01
439.925	673.4
440.365	655.56
440.805	648.2
441.245	637.72
441.685	611.56
442.125	606.81
442.564	611.83
443.004	597.35
443.444	594.08
443.883	592.06
444.323	583.75
444.762	581.07
445.202	584.83
445.641	592.71
446.081	588.92
446.52	591.74
446.959	582.65
447.398	566.2
447.837	558
448.276	547.09
448.716	552.92
449.154	556.52
449.593	543.92
450.032	541.54
450.471	529.7
450.91	527.02
451.349	525.89
451.787	521.91
452.226	527.98
452.664	527.21
453.103	526.59
453.541	522.81
453.98	521.9
454.418	524.45
454.856	516.91
455.295	515.63
455.733	520.21
456.171	521.93
456.609	525.26
457.047	525.08
457.485	531.52
457.923	531.81
458.361	525.93
458.798	527.21
459.236	525.22
459.674	527.91
460.111	531.22
460.549	526.06
460.987	525.09
461.424	521.26
461.862	519.85
462.299	511.75
462.736	511.48
463.173	512.89
463.611	508.66
464.048	508.09
464.485	513.19
464.922	508.23
465.359	505.05
465.796	499.63
466.233	496.47
466.67	492.54
467.106	492.56
467.543	488.88
467.98	481.85
468.416	468.92
468.853	465.71
469.29	451.1
469.726	446.03
470.162	434.01
470.599	426.52
471.035	422.07
471.471	409.89
471.907	405.67
472.344	401.72
472.78	402.97
473.216	406
473.652	400.1
474.088	398.37
474.523	396.62
474.959	399.78
475.395	396.14
475.831	393.14
476.266	395.11
476.702	394.1
477.138	389.7
477.573	387.12
478.008	385.52
478.444	386.91
478.879	389.81
479.314	390.14
479.75	389.49
480.185	390.27
480.62	392.9
481.055	394.9
481.49	397.73
481.925	403.45
482.36	411.86
482.795	422.75
483.229	433.41
483.664	442.42
484.099	444.22
484.534	450.3
484.968	454.28
485.403	455.37
485.837	453.6
486.271	451.41
486.706	450.43
487.14	443.71
487.574	436.46
488.009	431.37
488.443	426.99
488.877	430.92
489.311	432.01
489.745	436.99
490.179	440.78
490.613	448.84
491.046	452.07
491.48	454.84
491.914	454.99
492.348	457.54
492.781	459.96
493.215	459.65
493.648	459.31
494.082	461.83
494.515	461.66
494.948	465.56
495.382	468.47
495.815	470.6
496.248	473.62
496.681	480.63
497.114	487.01
497.547	493.42
497.98	502.16
498.413	506.24
498.846	512.68
499.279	516.8
499.711	519.54
500.144	520.05
500.577	527.53
501.009	534.13
501.442	541.4
501.874	542.67
502.306	544.43
502.739	550.6
503.171	560.96
503.603	563.72
504.036	571.46
504.468	576.32
504.9	584.98
505.332	590.2
505.764	595.17
506.196	600.48
506.627	612.36
507.059	623.11
507.491	629.35
507.923	629.59
508.354	641.35
508.786	650.15
509.217	663.98
509.649	676.28
510.08	691.98
510.512	706.24
510.943	719.82
511.374	730.48
511.805	747.28
512.237	764.24
512.668	790.33
513.099	813.34
513.53	836.38
513.961	854.85
514.391	880.81
514.822	908.88
515.253	938.7
515.684	960.94
516.114	986.79
516.545	1006.74
516.975	1030.88
517.406	1048.83
517.836	1056.41
518.267	1066.9
518.697	1085.37
519.127	1094.29
519.558	1104.83
519.988	1111.68
520.418	1124.21
520.848	1142.28
521.278	1153.43
521.708	1177.98
522.138	1192.83
522.567	1220.3
522.997	1243.18
523.427	1259.16
523.857	1276.01
524.286	1287.89
524.716	1303.92
525.145	1322.86
525.575	1334.66
526.004	1350.03
526.433	1341.73
526.863	1344.78
527.292	1338.99
527.721	1346.97
528.15	1354.35
528.579	1357.48
529.008	1367.16
529.437	1386.33
529.866	1399.27
530.295	1415.49
530.724	1426.26
531.152	1451.11
531.581	1463.29
532.01	1480.65
532.438	1488.31
532.867	1500.74
533.295	1517.19
533.723	1524.71
534.152	1526.19
534.58	1527.49
535.008	1514.82
535.436	1517.67
535.865	1523.93
536.293	1536.72
536.721	1550.6
537.149	1573.16
537.576	1577.58
538.004	1589.59
538.432	1596.08
538.86	1595.01
539.287	1600.88
539.715	1613.14
540.143	1616.59
540.57	1615.13
540.998	1612.92
541.425	1594.42
541.852	1577.27
542.28	1576.58
542.707	1563.22
543.134	1552.12
543.561	1548.07
543.988	1542.52
544.415	1542.34
544.842	1537.36
545.269	1531.08
545.696	1531.82
546.123	1541.19
546.549	1532.09
546.976	1520.1
547.403	1519.04
547.829	1520.08
548.256	1522.87
548.682	1518.94
549.108	1512.18
549.535	1511.6
549.961	1512.34
550.387	1501.28
550.813	1497.62
551.24	1502.88
551.666	1503.43
552.092	1493.76
552.518	1487.67
552.943	1481.41
553.369	1487.94
553.795	1491.31
554.221	1491.04
554.646	1487.2
555.072	1495.63
555.498	1497.38
555.923	1502.56
556.349	1514.23
556.774	1520.64
557.199	1521.72
557.625	1524.74
558.05	1518.15
558.475	1524.82
558.9	1522.21
559.325	1513.44
559.75	1505.8
560.175	1497.74
560.6	1490.12
561.025	1485.57
561.449	1484.08
561.874	1484.96
562.299	1485.97
562.723	1488.06
563.148	1477.35
563.572	1477.4
563.997	1482.45
564.421	1483.72
564.846	1480.08
565.27	1479.62
565.694	1473.8
566.118	1479.46
566.542	1482.37
566.966	1473.63
567.39	1466.07
567.814	1454.35
568.238	1451.12
568.662	1452.25
569.086	1450.58
569.509	1453.19
569.933	1437.95
570.357	1429.64
570.78	1409.65
571.204	1396.37
571.627	1384.7
572.05	1380.28
572.474	1375.35
572.897	1362.8
573.32	1353.36
573.743	1343.31
574.166	1327.38
574.589	1324.51
575.012	1315.28
575.435	1311.9
575.858	1301.79
576.281	1290.36
576.704	1275.26
577.126	1264.77
577.549	1252.66
577.972	1242.25
578.394	1230.75
578.817	1223.56
579.239	1206.75
579.661	1194.56
580.084	1179.79
580.506	1166.26
580.928	1161.23
581.35	1151.77
581.772	1145.84
582.194	1134.29
582.616	1123.43
583.038	1111.25
583.46	1100.64
583.882	1096.9
584.303	1097.34
584.725	1093.12
585.147	1094.21
585.568	1100.37
585.99	1107.18
586.411	1110.87
586.833	1120.95
587.254	1120.53
587.675	1129.25
588.096	1136.56
588.518	1130.67
588.939	1117.4
589.36	1114.45
589.781	1104.95
590.202	1085.43
590.623	1077.43
591.043	1073.77
591.464	1063.14
591.885	1060.28
592.305	1055
592.726	1044.24
593.147	1044.74
593.567	1040.14
593.987	1034.44
594.408	1029.9
594.828	1025.86
595.248	1021.33
595.669	1008.81
596.089	1002.78
596.509	997.19
596.929	987.51
597.349	987.88
597.769	980.34
598.189	975.87
598.608	975.53
599.028	976.79
599.448	976.21
599.867	966.25
600.287	962.09
600.706	958.52
601.126	950.73
601.545	949.11
601.965	947.41
602.384	943.08
602.803	944.03
603.222	940.11
603.641	934.3
604.061	931.08
604.48	927.52
604.898	932.67
605.317	934.76
605.736	934.73
606.155	931.45
606.574	923.96
606.992	926.02
607.411	921.09
607.829	913.84
608.248	909.63
608.666	905.86
609.085	905
609.503	897
609.921	891.74
610.339	892.48
610.758	890.58
611.176	886.31
611.594	879.1
612.012	876.02
612.43	877.4
612.847	880.46
613.265	880.54
613.683	882.21
614.101	881.55
614.518	877.84
614.936	869.21
615.353	859.59
615.771	856.66
616.188	855.82
616.606	852.5
617.023	846.55
617.44	836.97
617.857	830.71
618.274	823.4
618.691	819.22
619.108	812.12
619.525	807.1
619.942	810.01
620.359	809.83
620.776	806.62
621.192	803.21
621.609	801.83
622.026	805.47
622.442	808.57
622.859	810.14
623.275	804.65
623.691	807.85
624.108	814.95
624.524	823.71
624.94	824.21
625.356	829.68
625.772	837.74
626.188	844.65
626.604	844.76
627.02	841.7
627.436	840.6
627.852	846.26
628.268	854.7
628.683	848.26
629.099	842.43
629.514	838.19
629.93	840.44
630.345	842.54
630.761	839.68
631.176	841.97
631.591	839.24
632.007	835.09
632.422	832.23
632.837	823.16
633.252	822.9
633.667	814.99
634.082	809.71
634.497	799.81
634.911	787.49
635.326	783.82
635.741	772.38
636.155	764.22
636.57	764.41
636.984	763.2
637.399	763.61
637.813	760.56
638.228	758.71
638.642	759.55
639.056	751.76
639.47	750.5
639.884	744.58
640.298	738.79
640.712	737.1
641.126	726.91
641.54	719.19
641.954	713.28
642.368	705.07
642.781	700.6
643.195	688.7
643.609	689.26
644.022	684.37
644.436	679.91
644.849	671.36
645.262	663.18
645.676	663.7
646.089	660.63
646.502	652.35
646.915	649.08
647.328	637.73
647.741	635.88
648.154	626.73
648.567	625.62
648.98	617.91
649.393	617.84
649.805	615.61
650.218	610.58
650.631	601.77
651.043	598
651.456	593.82
651.868	594.13
652.28	603.85
652.693	611.13
653.105	613.88
653.517	619.28
653.929	620.44
654.341	623.96
654.753	616.89
655.165	620.41
655.577	618.59
655.989	616.39
656.401	611.6
656.813	592.13
657.224	580.87
657.636	563.78
658.047	555.34
658.459	544.26
658.87	538.73
659.282	532.61
659.693	522.19
660.104	515.03
660.515	508.61
660.926	508.22
661.338	506.9
661.749	504.94
662.159	502.37
662.57	498.68
662.981	498.15
663.392	496.4
663.803	500.8
664.213	501.51
664.624	500.5
665.035	504.2
665.445	497.29
665.855	494.91
666.266	492.73
666.676	492.66
667.086	489.95
667.497	490.95
667.907	488.83
668.317	485.44
668.727	485.75
669.137	487.55
669.547	487.2
669.956	492.46
670.366	495.07
670.776	497.91
671.186	502.53
671.595	507.19
672.005	510.5
672.414	511.43
672.824	511.54
673.233	513.7
673.642	516.79
674.052	520
674.461	521.22
674.87	525.6
675.279	523.82
675.688	524.34
676.097	525.3
676.506	523.79
676.915	533.34
677.323	535.2
677.732	535.19
678.141	535.28
678.549	528.06
678.958	527.7
679.366	527.74
679.775	531.29
680.183	539.69
680.592	544.41
681	547.83
681.408	542.97
681.816	547.17
682.224	551.34
682.632	557.21
683.04	576.69
683.448	591.63
683.856	609.65
684.264	630.13
684.671	647.65
685.079	670.52
685.487	696.21
685.894	732.86
686.302	763.07
686.709	787.79
687.116	815.94
687.524	839.21
687.931	860.81
688.338	877.6
688.745	893.11
689.152	911.86
689.559	938.47
689.966	966.47
690.373	981.67
690.78	1010.27
691.187	1054.61
691.593	1090.21
692	1122.89
692.407	1170.24
692.813	1230.57
693.22	1281.05
693.626	1333.82
694.032	1379.08
694.439	1443.18
694.845	1498.41
695.251	1564.58
695.657	1625.53
696.063	1713.62
696.469	1783.45
696.875	1850.09
697.281	1895.33
697.687	1948.87
698.093	1995.76
698.498	2072.45
698.904	2133.68
699.31	2218.98
699.715	2286.72
700.12	2377.66
700.526	2409.33
700.931	2482.23
