Data from C_1_DIV_IL_4N_Splice17_11-59-29-165.txt Node
Date: Sat Mar 14 11:59:29 EDT 2020
User: sa697716
Spectrometer: FLMS03696
Trigger mode: 0
Integration Time (sec): 3.180400E-1
Scans to average: 20
Electric dark correction enabled: true
Nonlinearity correction enabled: true
Boxcar width: 5
XAxis mode: Wavelengths
Number of Pixels in Spectrum: 2048
>>>>>Begin Spectral Data<<<<<
187.83	-183455.37
188.298	1464.8
188.766	854.3
189.233	711.38
189.701	971.63
190.169	1339.77
190.636	518
191.104	427.21
191.571	39.51
192.039	-75.09
192.506	-59.72
192.974	430.49
193.441	-575.66
193.908	-83.97
194.375	-1.74
194.842	13.17
195.31	144.38
195.777	209.28
196.244	390.51
196.711	408.3
197.177	498.05
197.644	680.1
198.111	1173.17
198.578	1595.52
199.045	1257.58
199.511	2017.46
199.978	2370.83
200.445	1983.8
200.911	2150.92
201.378	2383.13
201.844	2170.94
202.31	3667.88
202.777	3890.27
203.243	2136.11
203.709	2054.64
204.176	2471.7
204.642	2037.27
205.108	1906.93
205.574	1558.5
206.04	1432.5
206.506	1359.79
206.972	1281.96
207.438	1248.08
207.903	1401.6
208.369	1259.21
208.835	1270.88
209.301	1332.02
209.766	1367.74
210.232	1354
210.697	1686.56
211.163	2074.66
211.628	3149.05
212.094	2674.4
212.559	3293.29
213.024	2065.9
213.49	2534.01
213.955	2455.91
214.42	2412.17
214.885	2253.41
215.35	2157.02
215.815	2083.76
216.28	2226.33
216.745	1793.63
217.21	1965.83
217.675	1820.48
218.14	2079.59
218.604	2337.11
219.069	2723.39
219.534	2911.13
219.998	3445.79
220.463	4256.63
220.927	5321.5
221.392	5077.52
221.856	5228.56
222.32	6631.85
222.785	8272.68
223.249	10480.83
223.713	11789.98
224.177	11854.73
224.642	15273.39
225.106	18931.68
225.57	20769.7
226.034	15489.34
226.497	23634.95
226.961	21409.43
227.425	25004.32
227.889	27834.19
228.353	27907.58
228.816	57792.21
229.28	55414.01
229.744	46866.89
230.207	28512.48
230.671	28097.14
231.134	46615.27
231.597	53905.23
232.061	53951.9
232.524	52769.53
232.987	36390.24
233.45	32850.94
233.914	29519.28
234.377	30307.63
234.84	27775.46
235.303	32758.37
235.766	36576.1
236.229	37825.05
236.691	23844.24
237.154	26830.67
237.617	20202.6
238.08	20709.46
238.542	24244.14
239.005	17356.01
239.468	17234.86
239.93	16252.7
240.393	14779.92
240.855	12995.36
241.317	13317.7
241.78	16227.1
242.242	16784.27
242.704	18114.95
243.166	15763.95
243.629	14322.29
244.091	16490.6
244.553	18071.85
245.015	19440.93
245.477	25182.48
245.939	36919.72
246.4	39186.29
246.862	38065.35
247.324	35899.83
247.786	40188.74
248.247	52789.03
248.709	54542.79
249.17	40848.93
249.632	38547.61
250.093	44700.22
250.555	38618.04
251.016	23573.64
251.477	22390.41
251.939	24203.75
252.4	25404.75
252.861	30249.32
253.322	28109.76
253.783	33500.22
254.244	43434.92
254.705	34281.38
255.166	30478.56
255.627	30024.69
256.088	42352.61
256.549	44974.77
257.009	38706.3
257.47	47001.32
257.931	38270.87
258.391	28752.06
258.852	29659.39
259.312	31158.07
259.773	38498.19
260.233	32613.02
260.694	27561.16
261.154	31319.71
261.614	25160
262.074	22524.22
262.534	23421.9
262.994	22089.49
263.455	29435.45
263.915	24782.99
264.374	23335.23
264.834	25472.79
265.294	28230.25
265.754	29255.53
266.214	27686.83
266.673	25970.26
267.133	32783.43
267.593	32528.59
268.052	39817.65
268.512	34655.01
268.971	41797.74
269.431	45903.54
269.89	41136.05
270.349	61713.24
270.809	68752.26
271.268	61831.47
271.727	138674.87
272.186	89935.58
272.645	67512.05
273.104	48778.8
273.563	70657.17
274.022	55629.88
274.481	47331.13
274.94	36493.42
275.399	27138.62
275.857	31637.33
276.316	42787.99
276.775	38108.96
277.233	37510.63
277.692	35108.79
278.15	39706
278.609	40828.51
279.067	37822.2
279.525	35126.57
279.984	45389.76
280.442	54513.26
280.9	53710.14
281.358	35391.39
281.816	32956.21
282.274	32305.44
282.732	33416.48
283.19	33600.88
283.648	29009.31
284.106	30883.42
284.564	31420.11
285.021	29117.75
285.479	21699.99
285.937	19731.95
286.394	17292.49
286.852	17812.47
287.309	18718.28
287.767	18063.72
288.224	17181.88
288.682	18875.91
289.139	20732.34
289.596	18955.01
290.053	19727.66
290.511	24889.35
290.968	30251.28
291.425	41140.51
291.882	34268.49
292.339	29830.5
292.796	29650.08
293.252	27928.27
293.709	22163.55
294.166	19875.63
294.623	21973.93
295.079	21081.47
295.536	21218.46
295.992	19228.26
296.449	19003.93
296.905	19732.38
297.362	18928.52
297.818	19896.54
298.274	20650.7
298.731	21079.84
299.187	20855.96
299.643	22406.65
300.099	27102.6
300.555	29692.78
301.011	24864.24
301.467	23971.74
301.923	28079.31
302.379	27386.02
302.835	26912.77
303.291	26937.94
303.746	30627.97
304.202	38674.14
304.658	38875.01
305.113	26149.53
305.569	25622.9
306.024	27303.5
306.479	25982.76
306.935	21911.01
307.39	23956.38
307.845	22131.43
308.301	22274.02
308.756	21716.71
309.211	20926.78
309.666	21417.95
310.121	26563.43
310.576	26983.59
311.031	26745.42
311.486	30626.98
311.94	30592.27
312.395	40938.89
312.85	76926.26
313.305	378005.5
313.759	1953443.2
314.214	141465.81
314.668	111942.63
315.123	94122.23
315.577	33751.08
316.032	30039.68
316.486	37623.51
316.94	29691.93
317.394	20653.07
317.849	16072.01
318.303	15208.33
318.757	14339.41
319.211	15863.37
319.665	13910.02
320.119	14082.34
320.572	20195.61
321.026	18869.22
321.48	15735.45
321.934	17153.64
322.387	17184.74
322.841	18522.43
323.295	16669.57
323.748	19239.72
324.202	19497.21
324.655	23400.11
325.108	32655.13
325.562	23054.93
326.015	27384.51
326.468	20686.01
326.921	23161.43
327.374	21600.71
327.827	22492.72
328.28	25418.89
328.733	17017.75
329.186	14974.25
329.639	14272.01
330.092	12037.95
330.545	11470.88
330.997	11569.81
331.45	12624.81
331.903	14765.97
332.355	25418.52
332.808	24676
333.26	20378.99
333.713	22120.97
334.165	22283.34
334.617	29723.7
335.069	24050.48
335.522	43475.39
335.974	48156.9
336.426	44113.17
336.878	30605.42
337.33	15501.88
337.782	15177.92
338.234	18992.03
338.686	22740.84
339.137	26928.92
339.589	25401.33
340.041	19892.35
340.493	17128.92
340.944	17532.64
341.396	18872.88
341.847	15879.34
342.299	18744.87
342.75	22870.07
343.201	19998.72
343.653	22979.97
344.104	28283.26
344.555	22250.01
345.006	34665.86
345.457	26524.44
345.908	21093.52
346.359	19846.26
346.81	16183.95
347.261	17069.9
347.712	16805.32
348.163	18035.4
348.613	18267.13
349.064	17075.97
349.515	14966.82
349.965	15351.75
350.416	18485.44
350.866	20306.44
351.317	22968.32
351.767	38037.31
352.217	48149.09
352.668	40014.11
353.118	36718.59
353.568	35489.79
354.018	28106.07
354.468	29680.01
354.918	21320.48
355.368	18691.4
355.818	26445.34
356.268	76114.64
356.718	318715.69
357.168	79347.08
357.617	39797.97
358.067	44302.45
358.517	41520.27
358.966	48817.37
359.416	54822.23
359.865	59446.41
360.315	70879.51
360.764	33176.14
361.213	18618.89
361.663	17689.63
362.112	21893.82
362.561	35508.13
363.01	26846.56
363.459	22691.42
363.908	24526.19
364.357	20894.35
364.806	35360.05
365.255	24387.58
365.703	22393.25
366.152	22490.18
366.601	18267.98
367.05	14898.09
367.498	13590.32
367.947	14261.71
368.395	14897.13
368.844	13248.94
369.292	16054.09
369.74	11123.69
370.189	17131.81
370.637	20188.09
371.085	17516.48
371.533	21419.84
371.981	20714.54
372.429	19843.83
372.877	20784.6
373.325	17500.3
373.773	17953.32
374.221	16077.26
374.669	20067.39
375.116	17438.81
375.564	17664.06
376.012	19853.92
376.459	16494.94
376.907	19848.56
377.354	24131.85
377.801	22611.21
378.249	26084.84
378.696	33527.55
379.143	40829.09
379.591	43782.83
380.038	74448.25
380.485	54112.59
380.932	58864.85
381.379	54068.62
381.826	39957.93
382.273	28579.04
382.72	25138.13
383.166	24637.31
383.613	16061.95
384.06	14549.14
384.506	16918.64
384.953	12487.48
385.4	12638.21
385.846	11114.85
386.292	10906.47
386.739	10722.97
387.185	10654.05
387.631	10695.83
388.078	10406.52
388.524	11176.06
388.97	10354.3
389.416	8665.33
389.862	9253.12
390.308	8795.99
390.754	8949.12
391.2	9725.23
391.645	9987.58
392.091	9536.13
392.537	9223.49
392.983	9256.19
393.428	9088.6
393.874	9751.76
394.319	9774.85
394.765	9247.37
395.21	9502.9
395.655	8911.84
396.101	8339.41
396.546	7522.46
396.991	7598.8
397.436	7064.58
397.881	6817
398.326	6452.37
398.771	6086.12
399.216	5314.01
399.661	4786.54
400.106	4761.31
400.551	4862.41
400.995	4350.98
401.44	4287.07
401.885	4027.7
402.329	4054.7
402.774	3880.12
403.218	3744.59
403.663	3597.33
404.107	3692.56
404.551	3708.01
404.995	3387.53
405.44	3258.68
405.884	3306.1
406.328	3192.24
406.772	3173.28
407.216	2882.72
407.66	2779.96
408.104	2634.94
408.547	2461.24
408.991	2375.37
409.435	2278.63
409.879	2238.84
410.322	2201.9
410.766	2115.82
411.209	2006.66
411.653	1919.18
412.096	1873.88
412.54	1871.91
412.983	1859.48
413.426	1859.52
413.869	1853.74
414.312	1815.07
414.756	1748.88
415.199	1665.19
415.642	1616.37
416.085	1615.69
416.527	1598.75
416.97	1620.4
417.413	1532.1
417.856	1511
418.298	1495.24
418.741	1485.1
419.184	1481.4
419.626	1541.98
420.069	1540.02
420.511	1545.44
420.953	1509.5
421.396	1494.49
421.838	1455.49
422.28	1487.93
422.722	1495.96
423.164	1515.46
423.606	1486.94
424.048	1480.89
424.49	1403.43
424.932	1396.27
425.374	1375.94
425.816	1400.75
426.258	1429.99
426.699	1442.53
427.141	1419.31
427.582	1438.23
428.024	1428.44
428.465	1418.5
428.907	1380.81
429.348	1365.43
429.789	1361.16
430.231	1329.43
430.672	1343.71
431.113	1307.16
431.554	1287.89
431.995	1254.07
432.436	1207.65
432.877	1177.37
433.318	1154.52
433.759	1148.19
434.2	1143.76
434.64	1131.88
435.081	1133.24
435.522	1072.15
435.962	1033.38
436.403	1012.22
436.843	1026.48
437.284	1005.1
437.724	980.13
438.164	982.83
438.604	962.29
439.045	927.52
439.485	888.59
439.925	870.36
440.365	849.34
440.805	839.3
441.245	827.02
441.685	795.32
442.125	788.52
442.564	792.53
443.004	775.23
443.444	771.8
443.883	770.85
444.323	765.41
444.762	766.87
445.202	776.25
445.641	787.92
446.081	783.79
446.52	791.32
446.959	782.13
447.398	761.43
447.837	751.04
448.276	738.51
448.716	748.1
449.154	752.91
449.593	735.05
450.032	732.72
450.471	719.37
450.91	721.55
451.349	719.76
451.787	718.31
452.226	730.5
452.664	733.37
453.103	734.81
453.541	733.51
453.98	734
454.418	738.42
454.856	727.13
455.295	725.41
455.733	730.87
456.171	734.98
456.609	737.12
457.047	737.79
457.485	746.3
457.923	749.45
458.361	738.93
458.798	740.75
459.236	739.21
459.674	745.82
460.111	749.26
460.549	741.41
460.987	738.48
461.424	734.51
461.862	730.27
462.299	719.55
462.736	717.24
463.173	719.39
463.611	711.73
464.048	709.74
464.485	715.1
464.922	709.29
465.359	704.78
465.796	695.82
466.233	691.57
466.67	686.08
467.106	683.59
467.543	677.12
467.98	668.99
468.416	651.95
468.853	647.52
469.29	628.09
469.726	621.87
470.162	604.87
470.599	597.22
471.035	591.83
471.471	576.95
471.907	574.21
472.344	570.69
472.78	571.73
473.216	577.88
473.652	571.64
474.088	569.94
474.523	567.81
474.959	574.2
475.395	568.11
475.831	564.37
476.266	567.33
476.702	565.73
477.138	559.09
477.573	556.35
478.008	554.54
478.444	556.52
478.879	561.32
479.314	563.54
479.75	562.84
480.185	565.79
480.62	570.78
481.055	573.83
481.49	578.85
481.925	587.11
482.36	597.98
482.795	614.69
483.229	630.66
483.664	644.25
484.099	646.62
484.534	656.75
484.968	663.69
485.403	665.68
485.837	665.09
486.271	663.5
486.706	664.69
487.14	657.02
487.574	646.84
488.009	641.77
488.443	636.14
488.877	642.2
489.311	644.43
489.745	651.57
490.179	657.48
490.613	669.87
491.046	675.42
491.48	679.35
491.914	679.95
492.348	684.74
492.781	688.54
493.215	689.63
493.648	690.65
494.082	695.15
494.515	695.41
494.948	702.27
495.382	706.27
495.815	710.33
496.248	716.85
496.681	729.18
497.114	739.99
497.547	749.15
497.98	762.4
498.413	768.78
498.846	777.46
499.279	785.53
499.711	789.82
500.144	791.35
500.577	800.67
501.009	810.48
501.442	820.21
501.874	820.95
502.306	822.29
502.739	828.71
503.171	842.16
503.603	845.26
504.036	853.05
504.468	856.82
504.9	866.98
505.332	873
505.764	876.37
506.196	881.26
506.627	894.1
507.059	905.64
507.491	911.44
507.923	908.44
508.354	920.88
508.786	929.4
509.217	945.16
509.649	957.02
510.08	972.18
510.512	984.29
510.943	996.88
511.374	1004.54
511.805	1020.97
512.237	1036.66
512.668	1063.54
513.099	1084.18
513.53	1106.48
513.961	1121.25
514.391	1147.45
514.822	1173.57
515.253	1203.28
515.684	1221.91
516.114	1245.25
516.545	1259.77
516.975	1278.98
517.406	1290.91
517.836	1290.85
518.267	1291.93
518.697	1304.83
519.127	1303.58
519.558	1305.19
519.988	1304.35
520.418	1308.8
520.848	1319.65
521.278	1323.66
521.708	1338.74
522.138	1346.47
522.567	1369.33
522.997	1388.34
523.427	1398.05
523.857	1409.75
524.286	1416.72
524.716	1426.57
525.145	1440.5
525.575	1447.65
526.004	1457.49
526.433	1445.07
526.863	1442.35
527.292	1430.85
527.721	1432.64
528.15	1435.43
528.579	1434.49
529.008	1440.98
529.437	1458.34
529.866	1468.6
530.295	1480.71
530.724	1489.28
531.152	1510.52
531.581	1520.87
532.01	1535.36
532.438	1541.39
532.867	1552.51
533.295	1567.43
533.723	1571.77
534.152	1568.71
534.58	1566.55
535.008	1552.63
535.436	1553.46
535.865	1559
536.293	1569.81
536.721	1582.43
537.149	1603.19
537.576	1605.08
538.004	1614.22
538.432	1621.48
538.86	1620.38
539.287	1626.65
539.715	1638.56
540.143	1640.39
540.57	1637.11
540.998	1633.86
541.425	1614.59
541.852	1596.48
542.28	1594.29
542.707	1580.43
543.134	1566.5
543.561	1562.32
543.988	1555.85
544.415	1554.33
544.842	1549.46
545.269	1542.47
545.696	1543.58
546.123	1553.1
546.549	1544.13
546.976	1532.93
547.403	1532.23
547.829	1533.92
548.256	1534.78
548.682	1530.71
549.108	1523.28
549.535	1521.86
549.961	1522.56
550.387	1510.87
550.813	1504.57
551.24	1509.25
551.666	1509.84
552.092	1500.64
552.518	1495.31
552.943	1489.01
553.369	1494.96
553.795	1500.08
554.221	1500.23
554.646	1498.3
555.072	1506.38
555.498	1511.14
555.923	1518.09
556.349	1529.95
556.774	1537
557.199	1537.73
557.625	1543.42
558.05	1538.01
558.475	1546.6
558.9	1546.44
559.325	1540.05
559.75	1535.36
560.175	1531.41
560.6	1527.39
561.025	1525.94
561.449	1527.14
561.874	1532.22
562.299	1536.85
562.723	1543.23
563.148	1535.69
563.572	1539.98
563.997	1548.79
564.421	1554.47
564.846	1555.94
565.27	1560.08
565.694	1559.07
566.118	1571.41
566.542	1578.9
566.966	1574.23
567.39	1571.99
567.814	1563.88
568.238	1565.31
568.662	1572.53
569.086	1576.5
569.509	1584.17
569.933	1572.44
570.357	1568.28
570.78	1551.75
571.204	1542.39
571.627	1536.08
572.05	1536.65
572.474	1538.84
572.897	1530.22
573.32	1524.33
573.743	1518.01
574.166	1502.88
574.589	1504.75
575.012	1499.46
575.435	1500.36
575.858	1494.23
576.281	1485
576.704	1472.77
577.126	1463.5
577.549	1455.23
577.972	1447.44
578.394	1439.13
578.817	1435.64
579.239	1419.71
579.661	1408.97
580.084	1395.06
580.506	1384.3
580.928	1382.17
581.35	1373.42
581.772	1370.92
582.194	1359.92
582.616	1350.09
583.038	1338.27
583.46	1328.35
583.882	1326.03
584.303	1330.62
584.725	1328.6
585.147	1331.13
585.568	1340.92
585.99	1352.34
586.411	1357.87
586.833	1371.19
587.254	1372.88
587.675	1386.04
588.096	1398.78
588.518	1395.04
588.939	1380.4
589.36	1378.54
589.781	1369.5
590.202	1345.15
590.623	1337.31
591.043	1334.45
591.464	1323.96
591.885	1320.71
592.305	1315.86
592.726	1303.65
593.147	1306.12
593.567	1302.93
593.987	1297.52
594.408	1292.8
594.828	1290.97
595.248	1286.54
595.669	1271.73
596.089	1264.58
596.509	1259.74
596.929	1247.56
597.349	1248.5
597.769	1239.64
598.189	1234.18
598.608	1234.26
599.028	1237.38
599.448	1238.04
599.867	1228.34
600.287	1224.6
600.706	1222.27
601.126	1214.48
601.545	1215.15
601.965	1214.91
602.384	1211.03
602.803	1214.66
603.222	1211.59
603.641	1206.34
604.061	1204.13
604.48	1200.22
604.898	1207.88
605.317	1213.71
605.736	1215.95
606.155	1214.02
606.574	1206.03
606.992	1210.94
607.411	1206.93
607.829	1200.58
608.248	1197.94
608.666	1196.73
609.085	1196.96
609.503	1190.45
609.921	1184.7
610.339	1186.79
610.758	1186.65
611.176	1182.39
611.594	1175.09
612.012	1172.06
612.43	1175.75
612.847	1182.16
613.265	1183.17
613.683	1188.19
614.101	1190.47
614.518	1187.12
614.936	1179.08
615.353	1167
615.771	1166.69
616.188	1167.82
616.606	1165.64
617.023	1160.07
617.44	1147.44
617.857	1142.08
618.274	1134.66
618.691	1129.33
619.108	1122.05
619.525	1117.33
619.942	1123.14
620.359	1125.67
620.776	1121.55
621.192	1119.13
621.609	1117.73
622.026	1125.23
622.442	1131.52
622.859	1134.03
623.275	1127.82
623.691	1133.34
624.108	1143.92
624.524	1157.21
624.94	1156.69
625.356	1166.15
625.772	1177.32
626.188	1188.09
626.604	1189.42
627.02	1184.6
627.436	1183.96
627.852	1191.01
628.268	1202.41
628.683	1194.99
629.099	1187.72
629.514	1184.6
629.93	1188.44
630.345	1192.8
630.761	1189.8
631.176	1193.27
631.591	1188.86
632.007	1182.49
632.422	1180.28
632.837	1170.24
633.252	1168.42
633.667	1159.54
634.082	1151.13
634.497	1138.87
634.911	1122.41
635.326	1118.46
635.741	1104.48
636.155	1095.6
636.57	1099.3
636.984	1100.75
637.399	1103.32
637.813	1103.07
638.228	1103.59
638.642	1109.19
639.056	1102.4
639.47	1103.57
639.884	1097.95
640.298	1092.71
640.712	1094.4
641.126	1084.77
641.54	1077.73
641.954	1074.22
642.368	1065.5
642.781	1059.57
643.195	1045.29
643.609	1047.03
644.022	1043.26
644.436	1041.71
644.849	1032.75
645.262	1023.08
645.676	1025.53
646.089	1022.2
646.502	1009.65
646.915	1006.27
647.328	992.52
647.741	991.4
648.154	980.28
648.567	978.05
648.98	965.22
649.393	966.38
649.805	963.03
650.218	956.21
650.631	942.1
651.043	936.58
651.456	930.81
651.868	930.91
652.28	946.59
652.693	958.71
653.105	965.71
653.517	975.21
653.929	975.49
654.341	981.14
654.753	969.66
655.165	976.65
655.577	974.82
655.989	970.76
656.401	963.66
656.813	930.39
657.224	912.76
657.636	886.45
658.047	870.54
658.459	852.81
658.87	845.31
659.282	835.55
659.693	815.49
660.104	802.23
660.515	790.43
660.926	788.62
661.338	786.65
661.749	780.42
662.159	771.08
662.57	766.46
662.981	761.3
663.392	753.79
663.803	757.64
664.213	756.37
664.624	751.47
665.035	753.91
665.445	742.18
665.855	734.69
666.266	727.03
666.676	725.06
667.086	716.45
667.497	716.24
667.907	710.64
668.317	701.13
668.727	697.7
669.137	699.33
669.547	696.48
669.956	697.8
670.366	698.81
670.776	699.96
671.186	703.16
671.595	706.55
672.005	708.86
672.414	707.58
672.824	705.29
673.233	708.64
673.642	708.95
674.052	711.86
674.461	714.14
674.87	718.02
675.279	715.22
675.688	715.16
676.097	715.61
676.506	711.82
676.915	725.01
677.323	726.45
677.732	723.51
678.141	723.88
678.549	713.59
678.958	711.14
679.366	709.37
679.775	713.26
680.183	722.94
680.592	727.72
681	733.15
681.408	726.72
681.816	734.67
682.224	743.1
682.632	752.03
683.04	777.7
683.448	800.38
683.856	828.76
684.264	860.86
684.671	888.96
685.079	923.75
685.487	962.38
685.894	1015.74
686.302	1058.6
686.709	1094.19
687.116	1132.46
687.524	1164.92
687.931	1191.47
688.338	1211.42
688.745	1226.64
689.152	1246.72
689.559	1274.91
689.966	1301.81
690.373	1311.15
690.78	1336.34
691.187	1378.82
691.593	1409.23
692	1433.45
692.407	1474.42
692.813	1528
693.22	1567.89
693.626	1609.1
694.032	1639.9
694.439	1692.25
694.845	1728.93
695.251	1780.59
695.657	1824.22
696.063	1894.87
696.469	1944.74
696.875	1990.72
697.281	2013.48
