Data from C_1_DIV_OH_2N_Splice17_11-50-28-519.txt Node
Date: Sat Mar 14 11:50:28 EDT 2020
User: sa697716
Spectrometer: FLMS03696
Trigger mode: 0
Integration Time (sec): 3.180400E-1
Scans to average: 20
Electric dark correction enabled: true
Nonlinearity correction enabled: true
Boxcar width: 5
XAxis mode: Wavelengths
Number of Pixels in Spectrum: 2048
>>>>>Begin Spectral Data<<<<<
187.83	-294889.98
188.298	2222.03
188.766	1186.73
189.233	1008.53
189.701	1353.08
190.169	1913.07
190.636	661.96
191.104	569.24
191.571	80.22
192.039	-54.01
192.506	-85.65
192.974	374.06
193.441	-527.64
193.908	-17.58
194.375	-21.32
194.842	-16.33
195.31	-13.14
195.777	50.24
196.244	312.13
196.711	442.43
197.177	610.83
197.644	906.73
198.111	1616.85
198.578	2306.63
199.045	1864.46
199.511	3075.69
199.978	3639.04
200.445	3107.83
200.911	3479.75
201.378	3892.18
201.844	3542.74
202.31	6039.08
202.777	6318.88
203.243	3504.95
203.709	3351.22
204.176	4014.18
204.642	3329.48
205.108	3133.93
205.574	2593.53
206.04	2375.97
206.506	2241.1
206.972	2128.66
207.438	2060.63
207.903	2338.16
208.369	2060.26
208.835	2041.95
209.301	2145.27
209.766	2203.9
210.232	2171.84
210.697	2694.59
211.163	3370.27
211.628	5124.45
212.094	4327.11
212.559	5333.84
213.024	3351.7
213.49	4120.87
213.955	4085.49
214.42	4014.3
214.885	3753.21
215.35	3638.35
215.815	3475.45
216.28	3723.63
216.745	3070.2
217.21	3384.72
217.675	3204.1
218.14	3698.89
218.604	4265.38
219.069	4992.21
219.534	5348.6
219.998	6402.15
220.463	7936.28
220.927	10070.5
221.392	9629.87
221.856	9881.41
222.32	12636.98
222.785	15733.73
223.249	19992.71
223.713	22460.68
224.177	22599.85
224.642	29220.33
225.106	36104.47
225.57	39629.24
226.034	29486.56
226.497	45015.39
226.961	40691.11
227.425	47456.61
227.889	52876.88
228.353	52990.62
228.816	109652.13
229.28	105024
229.744	88719.81
230.207	53934.3
230.671	53112.14
231.134	88080.78
231.597	101556
232.061	101752.34
232.524	99428.46
232.987	68393.32
233.45	61514.73
233.914	55224.95
234.377	56719.88
234.84	51940.76
235.303	61290.93
235.766	68407.83
236.229	70702.84
236.691	44547.64
237.154	50106.51
237.617	37661.12
238.08	38614.21
238.542	45242.33
239.005	32312.73
239.468	32017.93
239.93	30149.5
240.393	27389.82
240.855	24037.74
241.317	24636.62
241.78	30010.51
242.242	30972.57
242.704	33390.38
243.166	29049.49
243.629	26320.39
244.091	30325.65
244.553	33225.01
245.015	35685.29
245.477	46161.99
245.939	67673.09
246.4	71752.82
246.862	69748.95
247.324	65744.7
247.786	73652.99
248.247	96633.37
248.709	100036.5
249.17	74771.45
249.632	70344.21
250.093	81516.25
250.555	70329.59
251.016	42836.05
251.477	40633.31
251.939	43812.65
252.4	45996.04
252.861	54680.39
253.322	50797.45
253.783	60458.39
254.244	78413.31
254.705	61932.41
255.166	55101.36
255.627	54287.25
256.088	76585.66
256.549	81326.17
257.009	70035.95
257.47	85023.96
257.931	69281.97
258.391	51933.26
258.852	53502.02
259.312	56126.64
259.773	69307.22
260.233	58527.27
260.694	49366.41
261.154	56060.74
261.614	44918.8
262.074	40172.01
262.534	41715.71
262.994	39294.64
263.455	52406.84
263.915	44130.55
264.374	41577.24
264.834	45421.45
265.294	50401.14
265.754	52211.56
266.214	49406.97
266.673	46349.62
267.133	58536.82
267.593	58115.36
268.052	71110.33
268.512	61848.91
268.971	74503.47
269.431	81705.52
269.89	73164.89
270.349	109634.54
270.809	122186.44
271.268	109740.13
271.727	246353.1
272.186	159481.03
272.645	119506.63
273.104	86236.92
273.563	124831.73
274.022	98257.38
274.481	83511.88
274.94	64280.01
275.399	47785.67
275.857	55671.59
276.316	75335.7
276.775	66978.57
277.233	65950.15
277.692	61708.86
278.15	69747.14
278.609	71638.12
279.067	66285.59
279.525	61504.27
279.984	79425.75
280.442	95325.33
280.9	93716.8
281.358	61631.55
281.816	57339.74
282.274	56059.35
282.732	57916.5
283.19	58216.32
283.648	50220.53
284.106	53447.49
284.564	54357.55
285.021	50324.18
285.479	37493.07
285.937	34135.78
286.394	29886.48
286.852	30754.26
287.309	32288.86
287.767	31120.15
288.224	29528.3
288.682	32369.76
289.139	35476.15
289.596	32408.13
290.053	33654.46
290.511	42466.23
290.968	51447.57
291.425	69825.62
291.882	58019.65
292.339	50466.57
292.796	50078.66
293.252	47187.78
293.709	37416.75
294.166	33519.31
294.623	37017.44
295.079	35511.68
295.536	35605.79
295.992	32282.39
296.449	31891.4
296.905	33106.06
297.362	31719.82
297.818	33352.76
298.274	34588.55
298.731	35271.42
299.187	34870.69
299.643	37447.48
300.099	45262.9
300.555	49586.98
301.011	41417.4
301.467	39824.58
301.923	46658.98
302.379	45527.35
302.835	44650.9
303.291	44599.27
303.746	50702.41
304.202	64028.24
304.658	64159.39
305.113	43089.15
305.569	42206.46
306.024	44966.93
306.479	42840.63
306.935	36013.45
307.39	39324.34
307.845	36279.69
308.301	36471.16
308.756	35502.2
309.211	34165.01
309.666	34999.19
310.121	43387.91
310.576	44016.87
311.031	43655.86
311.486	49983.01
311.94	49980.47
312.395	66789.88
312.85	125441.67
313.305	617016
313.759	3186590.3
314.214	230609.4
314.668	182639.3
315.123	153473.57
315.577	54947.68
316.032	48813.41
316.486	61139.61
316.94	48156.75
317.394	33482.15
317.849	25998.69
318.303	24583.03
318.757	23180.09
319.211	25603.1
319.665	22405.1
320.119	22664.81
320.572	32501.19
321.026	30319.45
321.48	25204.97
321.934	27519.17
322.387	27555.72
322.841	29758.36
323.295	26685.07
323.748	30799.67
324.202	31232.38
324.655	37465.29
325.108	52278.87
325.562	36929.36
326.015	43927.23
326.468	33195.38
326.921	37072.9
327.374	34565.2
327.827	35912.95
328.28	40660.64
328.733	27188.71
329.186	23937.49
329.639	22805.4
330.092	19242.18
330.545	18311.27
330.997	18460.25
331.45	20156.95
331.903	23584.14
332.355	40591.08
332.808	39502.48
333.26	32611.14
333.713	35396.1
334.165	35601.39
334.617	47535.59
335.069	38402
335.522	69523.98
335.974	76890.29
336.426	70232.66
336.878	48773.17
337.33	24720.87
337.782	24145.36
338.234	30198.7
338.686	36155.8
339.137	42847.05
339.589	40280.74
340.041	31564.69
340.493	27097.01
340.944	27746.9
341.396	29883.94
341.847	25077.39
342.299	29535.97
342.75	35976.24
343.201	31471.56
343.653	36179.8
344.104	44526.41
344.555	35124.36
345.006	54692.45
345.457	41772.32
345.908	33277.13
346.359	31277.86
346.81	25493.29
347.261	26881.14
347.712	26487.92
348.163	28393.31
348.613	28660.89
349.064	26732.57
349.515	23369.48
349.965	23935.82
350.416	28881.39
350.866	31642.47
351.317	35842.72
351.767	59278.2
352.217	74887.87
352.668	62193.77
353.118	56960.07
353.568	55055.95
354.018	43493.8
354.468	45918.77
354.918	32951.29
355.368	28794.5
355.818	40694
356.268	116966.53
356.718	488915.23
357.168	121844.52
357.617	61128.81
358.067	68028.46
358.517	63804.87
358.966	74771.14
359.416	83633.79
359.865	90389.82
360.315	107783.73
360.764	50291.66
361.213	28163
361.663	26735.98
362.112	32975.82
362.561	53236.89
363.01	40107.26
363.459	33708.81
363.908	36461.18
364.357	30986.81
364.806	52376.17
365.255	35983.58
365.703	32852.04
366.152	32898.52
366.601	26656.79
367.05	21582.36
367.498	19613.37
367.947	20513.32
368.395	21335.58
368.844	18874.48
369.292	22745.51
369.74	15686.19
370.189	24004.24
370.637	28180.98
371.085	24321.01
371.533	29638.97
371.981	28619.14
372.429	27231.52
372.877	28351.74
373.325	23726.82
373.773	24187.61
374.221	21518.68
374.669	26693.56
375.116	23072.42
375.564	23266.41
376.012	25974.87
376.459	21392.88
376.907	25526.17
377.354	30890.88
377.801	28778.52
378.249	33050.06
378.696	42272.94
379.143	51201.83
379.591	54630.03
380.038	92307.28
380.485	66571.68
380.932	71853.81
381.379	65565.57
381.826	48287.74
382.273	34274.89
382.72	29969.21
383.166	29173.77
383.613	18895.95
384.06	17028.31
384.506	19667.7
384.953	14458.9
385.4	14566.2
385.846	12764.49
386.292	12463.97
386.739	12192.32
387.185	12063.65
387.631	12059.77
388.078	11668.51
388.524	12477.43
388.97	11513.77
389.416	9590.45
389.862	10175.54
390.308	9639.64
390.754	9773.37
391.2	10591.6
391.645	10834.74
392.091	10328.4
392.537	9961.43
392.983	9988.75
393.428	9787.1
393.874	10477.73
394.319	10483.27
394.765	9912.79
395.21	10151.58
395.655	9495.36
396.101	8871.28
396.546	7989.08
396.991	8053.47
397.436	7463.81
397.881	7199.28
398.326	6824.35
398.771	6440.62
399.216	5638.61
399.661	5078.05
400.106	5059.18
400.551	5170.03
400.995	4632.38
401.44	4571.22
401.885	4289.83
402.329	4326.53
402.774	4137.43
403.218	3987.97
403.663	3835.06
404.107	3928.51
404.551	3947.39
404.995	3611.97
405.44	3475.42
405.884	3516.82
406.328	3397.81
406.772	3378.3
407.216	3074.64
407.66	2969.02
408.104	2822.51
408.547	2644.34
408.991	2555.05
409.435	2454.9
409.879	2415.31
410.322	2375.7
410.766	2293.7
411.209	2179.21
411.653	2089.28
412.096	2040.54
412.54	2040.67
412.983	2020.31
413.426	2016.83
413.869	2013.92
414.312	1972.53
414.756	1898.44
415.199	1813.33
415.642	1756.08
416.085	1753.39
416.527	1741.4
416.97	1768.12
417.413	1676.89
417.856	1661.93
418.298	1645.48
418.741	1632.18
419.184	1631.64
419.626	1699.98
420.069	1699.26
420.511	1705.18
420.953	1667.84
421.396	1651.24
421.838	1607.88
422.28	1640.83
422.722	1645.94
423.164	1667.66
423.606	1640.67
424.048	1633.95
424.49	1553.83
424.932	1546.19
425.374	1529.51
425.816	1556.24
426.258	1586.68
426.699	1605.12
427.141	1581.73
427.582	1606.51
428.024	1599.62
428.465	1590.63
428.907	1551.13
429.348	1531.69
429.789	1529.92
430.231	1496.78
430.672	1518.02
431.113	1480.8
431.554	1460.03
431.995	1423.24
432.436	1372.48
432.877	1342.88
433.318	1318.91
433.759	1315.44
434.2	1317.39
434.64	1305.21
435.081	1308.49
435.522	1241.77
435.962	1201.06
436.403	1177.68
436.843	1196.71
437.284	1173.92
437.724	1144.39
438.164	1149.48
438.604	1126.21
439.045	1084.16
439.485	1037.39
439.925	1018.17
440.365	993.51
440.805	978.36
441.245	965.81
441.685	932.33
442.125	925.46
442.564	932.62
443.004	912.09
443.444	910.31
443.883	911.17
444.323	909.08
444.762	910.73
445.202	925.87
445.641	945.32
446.081	942.51
446.52	950.54
446.959	943.33
447.398	919.55
447.837	911.34
448.276	898.26
448.716	911.46
449.154	921.17
449.593	902.14
450.032	898.98
450.471	884.76
450.91	883.93
451.349	883.51
451.787	879.71
452.226	894.9
452.664	896.56
453.103	897.54
453.541	895.41
453.98	893.22
454.418	900.66
454.856	887.16
455.295	886.82
455.733	896.85
456.171	901.95
456.609	905
457.047	906.09
457.485	918.73
457.923	921.84
458.361	910.83
458.798	916.17
459.236	914.92
459.674	923.26
460.111	927.35
460.549	918.13
460.987	915.82
461.424	913.09
461.862	908.78
462.299	894.99
462.736	892.86
463.173	896.52
463.611	883.53
464.048	880.82
464.485	887.54
464.922	879.55
465.359	875.19
465.796	858.8
466.233	852.96
466.67	844.35
467.106	842.29
467.543	835.11
467.98	824.16
468.416	806.79
468.853	801.45
469.29	777.31
469.726	768.82
470.162	748.71
470.599	743.72
471.035	737.35
471.471	720.44
471.907	717.11
472.344	712.42
472.78	714.05
473.216	721.63
473.652	712.06
474.088	710.36
474.523	707.6
474.959	713.94
475.395	706.65
475.831	701.94
476.266	705.6
476.702	701.82
477.138	694.36
477.573	691.97
478.008	688.9
478.444	691.49
478.879	696.5
479.314	699.26
479.75	698.51
480.185	702.9
480.62	708.57
481.055	712.15
481.49	718.71
481.925	729.36
482.36	741.85
482.795	763.08
483.229	784.22
483.664	801.46
484.099	806.16
484.534	819.23
484.968	827.91
485.403	831.31
485.837	831.55
486.271	830.8
486.706	832.72
487.14	824.57
487.574	812.57
488.009	806.17
488.443	800.68
488.877	808.75
489.311	812.86
489.745	822.21
490.179	830.55
490.613	846.22
491.046	853.55
491.48	860.71
491.914	862.29
492.348	869.39
492.781	875.97
493.215	879.58
493.648	883.23
494.082	891.37
494.515	893.37
494.948	905.09
495.382	913.02
495.815	921.44
496.248	930.91
496.681	950
497.114	967.48
497.547	983.49
497.98	1002.09
498.413	1012.11
498.846	1027.01
499.279	1042.12
499.711	1051.14
500.144	1057.36
500.577	1073.99
501.009	1090.62
501.442	1105.63
501.874	1110.59
502.306	1115.96
502.739	1127.79
503.171	1151.61
503.603	1159.01
504.036	1174.19
504.468	1184.53
504.9	1202.95
505.332	1215.88
505.764	1225.37
506.196	1238.55
506.627	1261.09
507.059	1282.61
507.491	1299.52
507.923	1297.7
508.354	1320.86
508.786	1338.46
509.217	1365.79
509.649	1388.59
510.08	1416.94
510.512	1441.5
510.943	1464.98
511.374	1482.64
511.805	1511.91
512.237	1540.05
512.668	1588.74
513.099	1629.37
513.53	1669.13
513.961	1699.35
514.391	1744.1
514.822	1789.91
515.253	1841.03
515.684	1876.04
516.114	1918.22
516.545	1948.24
516.975	1985.35
517.406	2009.33
517.836	2011.7
518.267	2019.4
518.697	2043
519.127	2048.32
519.558	2058.46
519.988	2062.3
520.418	2075.81
520.848	2100.03
521.278	2111.83
521.708	2113.82
522.138	2131.75
522.567	2173.79
522.997	2208.47
523.427	2230.58
523.857	2253.95
524.286	2267.17
524.716	2286.38
525.145	2311.98
525.575	2324.97
526.004	2342.75
526.433	2351.93
526.863	2349.78
527.292	2334.68
527.721	2340.42
528.15	2346.33
528.579	2345.58
529.008	2358.6
529.437	2390.46
529.866	2408.35
530.295	2431
530.724	2447.34
531.152	2484.43
531.581	2502.42
532.01	2525.23
532.438	2535.78
532.867	2555.15
533.295	2580.37
533.723	2588.51
534.152	2584.5
534.58	2583.22
535.008	2561.54
535.436	2563.55
535.865	2573.45
536.293	2593.82
536.721	2616.68
537.149	2652.72
537.576	2656.44
538.004	2673.42
538.432	2685.75
538.86	2682.73
539.287	2694.12
539.715	2712.9
540.143	2717.6
540.57	2713.75
540.998	2708.84
541.425	2676.35
541.852	2647.15
542.28	2644.98
542.707	2620.67
543.134	2600.3
543.561	2594.38
543.988	2581.51
544.415	2579.23
544.842	2571.1
545.269	2559.97
545.696	2560.98
546.123	2577.22
546.549	2561.02
546.976	2541.15
547.403	2540.69
547.829	2542.18
548.256	2544.59
548.682	2538.92
549.108	2526.38
549.535	2523.71
549.961	2524.73
550.387	2505.01
550.813	2495.62
551.24	2502.9
551.666	2503.88
552.092	2490.76
552.518	2480.31
552.943	2470.79
553.369	2480.58
553.795	2488.39
554.221	2489.29
554.646	2484.08
555.072	2498.12
555.498	2505.52
555.923	2518.59
556.349	2538.84
556.774	2550.06
557.199	2551.28
557.625	2558.98
558.05	2549.59
558.475	2563.87
558.9	2561.48
559.325	2550.11
559.75	2541.15
560.175	2530.82
560.6	2521.06
561.025	2516.65
561.449	2517.82
561.874	2526.28
562.299	2532.44
562.723	2542.44
563.148	2530.06
563.572	2536.47
563.997	2550.35
564.421	2559.07
564.846	2561.52
565.27	2567.78
565.694	2565.56
566.118	2581.74
566.542	2591.84
566.966	2582.04
567.39	2577.25
567.814	2561.74
568.238	2561.94
568.662	2571.14
569.086	2575.28
569.509	2587.64
569.933	2566.42
570.357	2557.55
570.78	2529.58
571.204	2510.94
571.627	2498.19
572.05	2495.32
572.474	2495.51
572.897	2478.29
573.32	2466.61
573.743	2453.59
574.166	2427.51
574.589	2428.09
575.012	2417.99
575.435	2416.11
575.858	2403.79
576.281	2387.77
576.704	2364.92
577.126	2347.49
577.549	2332.27
577.972	2317.59
578.394	2302.18
578.817	2289.51
579.239	2263.08
579.661	2242.64
580.084	2218.39
580.506	2200.56
580.928	2194.48
581.35	2179.81
581.772	2173.38
582.194	2154.14
582.616	2137.04
583.038	2118.2
583.46	2104.69
583.882	2099.77
584.303	2105.15
584.725	2099.66
585.147	2098.12
585.568	2111.68
585.99	2127.52
586.411	2134.84
586.833	2155.22
587.254	2157.89
587.675	2176.48
588.096	2192.46
588.518	2184.13
588.939	2161.8
589.36	2158.85
589.781	2148.37
590.202	2107.54
590.623	2096.22
591.043	2094.39
591.464	2075.47
591.885	2069.5
592.305	2061.4
592.726	2043.18
593.147	2045.06
593.567	2037.61
593.987	2027.85
594.408	2019.4
594.828	2018.91
595.248	2009.36
595.669	1983.28
596.089	1974.01
596.509	1964.91
596.929	1945.33
597.349	1945.29
597.769	1931.25
598.189	1921.8
598.608	1922.91
599.028	1925.53
599.448	1925.34
599.867	1907.41
600.287	1902.38
600.706	1896.62
601.126	1882.59
601.545	1880.72
601.965	1880.08
602.384	1872.57
602.803	1876.53
603.222	1870.7
603.641	1862.57
604.061	1856.54
604.48	1852.26
604.898	1862.56
605.317	1867.63
605.736	1871.68
606.155	1868.02
606.574	1855.06
606.992	1862.61
607.411	1856.21
607.829	1844.33
608.248	1838.94
608.666	1837.17
609.085	1836.34
609.503	1824.33
609.921	1816.43
610.339	1818.6
610.758	1818.99
611.176	1811.74
611.594	1799.81
612.012	1795.88
612.43	1800.42
612.847	1810
613.265	1810.81
613.683	1817.28
614.101	1819
614.518	1814.3
614.936	1801.45
615.353	1779.12
615.771	1776.05
616.188	1775.48
616.606	1769.89
617.023	1760.32
617.44	1740.63
617.857	1731.54
618.274	1718.76
618.691	1709.58
619.108	1696.12
619.525	1686.49
619.942	1696.65
620.359	1699.04
620.776	1691.85
621.192	1685.69
621.609	1682.02
622.026	1689.83
622.442	1696.94
622.859	1701.79
623.275	1693.01
623.691	1701.92
624.108	1716.74
624.524	1735.22
624.94	1735.71
625.356	1749.75
625.772	1768.47
626.188	1784.5
626.604	1787.55
627.02	1782.06
627.436	1778.04
627.852	1785.68
628.268	1801.38
628.683	1789.93
629.099	1777.66
629.514	1771.75
629.93	1776.22
630.345	1780.26
630.761	1774.75
631.176	1778.67
631.591	1769.48
632.007	1760.8
632.422	1759.46
632.837	1742.9
633.252	1738.83
633.667	1724.68
634.082	1710.24
634.497	1690.56
634.911	1662.08
635.326	1655.76
635.741	1631.14
636.155	1617.73
636.57	1618.42
636.984	1615.55
637.399	1615.99
637.813	1613.52
638.228	1611.11
638.642	1615.56
639.056	1601.9
639.47	1602.72
639.884	1590.29
640.298	1580.71
640.712	1574.74
641.126	1557.14
641.54	1543.56
641.954	1535.41
642.368	1517.46
642.781	1502.69
643.195	1477.48
643.609	1475.96
644.022	1465.4
644.436	1458.02
644.849	1439.63
645.262	1424.03
645.676	1424.44
646.089	1417.39
646.502	1396.58
646.915	1387.67
647.328	1365.69
647.741	1361.28
648.154	1342.79
648.567	1337.03
648.98	1318.92
649.393	1319.39
649.805	1314.42
650.218	1302.89
650.631	1281.57
651.043	1272.45
651.456	1264.15
651.868	1265.44
652.28	1287.78
652.693	1304.63
653.105	1313.01
653.517	1324
653.929	1322.99
654.341	1328.2
654.753	1312.04
655.165	1319.56
655.577	1315.32
655.989	1309
656.401	1297.66
656.813	1250.31
657.224	1224.89
657.636	1188.01
658.047	1164.08
658.459	1138.69
658.87	1127.08
659.282	1111.11
659.693	1083.27
660.104	1064.14
660.515	1045.69
660.926	1040.36
661.338	1034.75
661.749	1023.75
662.159	1009.96
662.57	1003.48
662.981	996.42
663.392	985.08
663.803	988.4
664.213	984.27
664.624	977.65
665.035	979.61
665.445	962.54
665.855	953
666.266	941.74
666.676	938.57
667.086	926.34
667.497	924
667.907	916.67
668.317	904.04
668.727	898.7
669.137	898.34
669.547	894.73
669.956	897.45
670.366	898.27
670.776	900.97
671.186	904.78
671.595	909.05
672.005	913.88
672.414	911.48
672.824	909.52
673.233	915.32
673.642	917.46
674.052	921.02
674.461	923.86
674.87	930.33
675.279	926.44
675.688	929.36
676.097	930.59
676.506	926.55
676.915	945.34
677.323	950.22
677.732	948.72
678.141	949.29
678.549	937.99
678.958	938.22
679.366	938.73
679.775	947.39
680.183	960.06
680.592	969
681	977.94
681.408	970.71
681.816	981.96
682.224	994.45
682.632	1008.6
683.04	1046.51
683.448	1077.84
683.856	1117.68
684.264	1162.14
684.671	1205.18
685.079	1257.37
685.487	1314.53
685.894	1394.39
686.302	1462
686.709	1518.55
687.116	1582.55
687.524	1636.29
687.931	1683.13
688.338	1723.21
688.745	1758.77
689.152	1798.98
689.559	1852.22
689.966	1905.33
690.373	1930.31
690.78	1979.34
691.187	2056.94
691.593	2115.6
692	2166.13
692.407	2244.34
692.813	2339.05
693.22	2413.66
693.626	2492.76
694.032	2553.92
694.439	2646.88
