Data from C_1_DIV_IL_4N_Splice17_11-59-08-272.txt Node
Date: Sat Mar 14 11:59:08 EDT 2020
User: sa697716
Spectrometer: FLMS03696
Trigger mode: 0
Integration Time (sec): 3.180400E-1
Scans to average: 20
Electric dark correction enabled: true
Nonlinearity correction enabled: true
Boxcar width: 5
XAxis mode: Wavelengths
Number of Pixels in Spectrum: 2048
>>>>>Begin Spectral Data<<<<<
187.83	-285802.67
188.298	2133.55
188.766	1141.74
189.233	1026.83
189.701	1435.72
190.169	1928.95
190.636	656.51
191.104	495.86
191.571	24.68
192.039	-109.5
192.506	-162.8
192.974	226.87
193.441	-361.1
193.908	-77.38
194.375	-3.11
194.842	21.14
195.31	-12.6
195.777	97.79
196.244	304.05
196.711	376.74
197.177	480.87
197.644	679.33
198.111	1189.81
198.578	1700.17
199.045	1406.05
199.511	2283.43
199.978	2679.11
200.445	2305.72
200.911	2531.75
201.378	2807.12
201.844	2547.29
202.31	4322.1
202.777	4512.06
203.243	2513.49
203.709	2399.78
204.176	2819.38
204.642	2333.47
205.108	2178.68
205.574	1774.6
206.04	1610.06
206.506	1508.96
206.972	1423.7
207.438	1377.97
207.903	1579.34
208.369	1377.14
208.835	1377.44
209.301	1446.67
209.766	1489.78
210.232	1477.24
210.697	1819.91
211.163	2255.38
211.628	3409.59
212.094	2866.99
212.559	3535.28
213.024	2183.74
213.49	2671.87
213.955	2592.78
214.42	2539.74
214.885	2339.62
215.35	2220.45
215.815	2139.49
216.28	2270.25
216.745	1835.46
217.21	1991.88
217.675	1825.75
218.14	2057.76
218.604	2311.38
219.069	2641.86
219.534	2786.05
219.998	3248.09
220.463	3954.23
220.927	4876.98
221.392	4598.89
221.856	4678.62
222.32	5885.5
222.785	7285.43
223.249	9197.45
223.713	10273.45
224.177	10304.46
224.642	13242.77
225.106	16321.76
225.57	17862.31
226.034	13325.84
226.497	20337.55
226.961	18393.81
227.425	21468.49
227.889	23840.91
228.353	23873.56
228.816	49229.59
229.28	47114.19
229.744	39707.04
230.207	24113.77
230.671	23754.72
231.134	39291.77
231.597	45265.54
232.061	45302.66
232.524	44164.69
232.987	30465.98
233.45	27439.04
233.914	24642.2
234.377	25277.64
234.84	23131.64
235.303	27310.65
235.766	30508.41
236.229	31504.14
236.691	19868.99
237.154	22339.87
237.617	16819.21
238.08	17187.83
238.542	20123.54
239.005	14410.19
239.468	14299.93
239.93	13492.89
240.393	12274.35
240.855	10774.93
241.317	11056.76
241.78	13456.29
242.242	13912.49
242.704	15045.97
243.166	13123.09
243.629	11924.28
244.091	13741.56
244.553	15070.87
245.015	16204.07
245.477	20983.88
245.939	30765.9
246.4	32656.9
246.862	31753.09
247.324	29962.77
247.786	33546.28
248.247	44024.33
248.709	45469.66
249.17	34031.71
249.632	32101.38
250.093	37231.86
250.555	32161.88
251.016	19664.02
251.477	18667.69
251.939	20167.72
252.4	21158.13
252.861	25178.18
253.322	23447.93
253.783	27929.24
254.244	36273.76
254.705	28619.17
255.166	25507.75
255.627	25139.7
256.088	35441.27
256.549	37665.18
257.009	32472.2
257.47	39448.26
257.931	32111.54
258.391	24036.38
258.852	24781.29
259.312	25979.02
259.773	32115.43
260.233	27135.53
260.694	22909.04
261.154	25991.28
261.614	20886.12
262.074	18687.98
262.534	19452.96
262.994	18347.38
263.455	24472.07
263.915	20635.61
264.374	19446.84
264.834	21243.39
265.294	23564.86
265.754	24412.18
266.214	23138.34
266.673	21692.73
267.133	27399.29
267.593	27175.3
268.052	33304.12
268.512	29049.51
268.971	35088.58
269.431	38552.14
269.89	34552.74
270.349	51811.94
270.809	57812.41
271.268	51975.3
271.727	116654.11
272.186	75583.4
272.645	56702.11
273.104	40948.56
273.563	59248.1
274.022	46603.08
274.481	39602.31
274.94	30502.48
275.399	22685.53
275.857	26465.79
276.316	35816.91
276.775	31888.72
277.233	31448.94
277.692	29470.25
278.15	33346.83
278.609	34349.16
279.067	31822.9
279.525	29601.8
279.984	38253.87
280.442	45997.24
280.9	45257.01
281.358	29806.62
281.816	27801.08
282.274	27198.54
282.732	28095.52
283.19	28202.36
283.648	24322.88
284.106	25861.75
284.564	26297.33
285.021	24390.92
285.479	18159.92
285.937	16538.17
286.394	14492.3
286.852	14912.78
287.309	15668.43
287.767	15134.67
288.224	14396.79
288.682	15782.19
289.139	17316.61
289.596	15840.79
290.053	16466.81
290.511	20819.7
290.968	25259.53
291.425	34336.08
291.882	28554.52
292.339	24827.76
292.796	24657.31
293.252	23261.02
293.709	18486.91
294.166	16605.84
294.623	18361.9
295.079	17611.6
295.536	17685.06
295.992	16070.6
296.449	15882.54
296.905	16519.05
297.362	15867.09
297.818	16676.37
298.274	17295.72
298.731	17624.99
299.187	17427.73
299.643	18707.61
300.099	22600.42
300.555	24793.54
301.011	20672.25
301.467	19914.43
301.923	23273.54
302.379	22720.45
302.835	22349.57
303.291	22375
303.746	25454.54
304.202	32155.83
304.658	32267.72
305.113	21760.45
305.569	21315.95
306.024	22767.75
306.479	21697.27
306.935	18307.14
307.39	19992.41
307.845	18429.41
308.301	18516.22
308.756	18062.19
309.211	17394.85
309.666	17822.68
310.121	22080.41
310.576	22397.67
311.031	22188.14
311.486	25374.79
311.94	25297.47
312.395	33801.59
312.85	63408.19
313.305	311348.05
313.759	1610021.6
314.214	116471.72
314.668	92282.39
315.123	77535.16
315.577	27790.03
316.032	24726.19
316.486	30991.23
316.94	24529.15
317.394	17077.41
317.849	13286.49
318.303	12590.19
318.757	11883.92
319.211	13159.59
319.665	11516.74
320.119	11663.37
320.572	16726.76
321.026	15614.97
321.48	12986.34
321.934	14162.38
322.387	14177
322.841	15338.42
323.295	13792.2
323.748	15878.16
324.202	16095.87
324.655	19335.55
325.108	27056.83
325.562	19130.4
326.015	22764.33
326.468	17206.37
326.921	19223.38
327.374	17960.71
327.827	18668.51
328.28	21115.78
328.733	14165.22
329.186	12451.99
329.639	11864.09
330.092	9986.6
330.545	9508.71
330.997	9575.74
331.45	10490.85
331.903	12288.33
332.355	21119.71
332.808	20522.37
333.26	16943.51
333.713	18388.66
334.165	18526.29
334.617	24726.75
335.069	19973.89
335.522	36098.91
335.974	39968.02
336.426	36446.78
336.878	25265.28
337.33	12800.35
337.782	12529.76
338.234	15695.68
338.686	18762.5
339.137	22230.41
339.589	20933.4
340.041	16424.52
340.493	14132.44
340.944	14486.51
341.396	15622.06
341.847	13129.15
342.299	15501.17
342.75	18906.92
343.201	16492.77
343.653	18957.82
344.104	23274.32
344.555	18327.29
345.006	28542.21
345.457	21847.28
345.908	17340.97
346.359	16327.82
346.81	13308.99
347.261	14041.47
347.712	13817.93
348.163	14827.03
348.613	15039.16
349.064	14073.82
349.515	12314.18
349.965	12613.97
350.416	15177.07
350.866	16668.84
351.317	18816.5
351.767	31169.17
352.217	39342.7
352.668	32744.12
353.118	30026.96
353.568	28929.41
354.018	22847.57
354.468	24127.78
354.918	17316.39
355.368	15165.32
355.818	21445.69
356.268	61754.04
356.718	257811.66
357.168	64309.16
357.617	32201.04
358.067	35892.1
358.517	33627.14
358.966	39474.85
359.416	44231.4
359.865	47887.12
360.315	57037.26
360.764	26649.57
361.213	14916.7
361.663	14151.24
362.112	17425.63
362.561	28189.75
363.01	21223.55
363.459	17890.29
363.908	19385.9
364.357	16492.67
364.806	27883.12
365.255	19213
365.703	17660.51
366.152	17729.16
366.601	14452.83
367.05	11778.1
367.498	10737.68
367.947	11256.7
368.395	11722.87
368.844	10417.48
369.292	12613.28
369.74	8751.42
370.189	13420.08
370.637	15754.4
371.085	13667.4
371.533	16666.2
371.981	16141.76
372.429	15444.73
372.877	16183.14
373.325	13628.95
373.773	13933.44
374.221	12473.43
374.669	15535.45
375.116	13512.74
375.564	13694.85
376.012	15372.58
376.459	12757.14
376.907	15328.63
377.354	18633.61
377.801	17476.19
378.249	20177.12
378.696	25936.61
379.143	31590.57
379.591	33903.3
380.038	57803.12
380.485	42029
380.932	45708.48
381.379	42088.11
381.826	31186.39
382.273	22321.58
382.72	19631.84
383.166	19279.21
383.613	12600.42
384.06	11431.9
384.506	13303.87
384.953	9822.33
385.4	9955.82
385.846	8775.89
386.292	8597.09
386.739	8464.89
387.185	8415.29
387.631	8456.18
388.078	8231.54
388.524	8848.15
388.97	8198.6
389.416	6865.75
389.862	7321.13
390.308	6962.98
390.754	7082.6
391.2	7725.41
391.645	7929.16
392.091	7606.22
392.537	7373.67
392.983	7413.86
393.428	7309
393.874	7871.44
394.319	7919.27
394.765	7548.39
395.21	7804.79
395.655	7351.89
396.101	6924.63
396.546	6288.43
396.991	6392.62
397.436	5986.16
397.881	5829.8
398.326	5565.89
398.771	5291.66
399.216	4664.57
399.661	4224.42
400.106	4229.13
400.551	4360.96
400.995	3921.63
401.44	3892.77
401.885	3662.96
402.329	3703.44
402.774	3553.7
403.218	3440.83
403.663	3322.25
404.107	3418.91
404.551	3453.14
404.995	3175.58
405.44	3064.99
405.884	3127.52
406.328	3032.14
406.772	3032.09
407.216	2766.64
407.66	2681.74
408.104	2557.13
408.547	2402.34
408.991	2333.3
409.435	2249.39
409.879	2217.75
410.322	2193.96
410.766	2119.23
411.209	2019.69
411.653	1944.46
412.096	1909.28
412.54	1918.01
412.983	1911.31
413.426	1918.91
413.869	1921.84
414.312	1889.41
414.756	1826.1
415.199	1746.25
415.642	1697.23
416.085	1703.17
416.527	1693.28
416.97	1723.05
417.413	1633.35
417.856	1617.68
418.298	1599.62
418.741	1586.59
419.184	1583.46
419.626	1649.64
420.069	1646.95
420.511	1655.43
420.953	1618.42
421.396	1603.35
421.838	1565.12
422.28	1604.13
422.722	1612.26
423.164	1639.88
423.606	1614.59
424.048	1617.08
424.49	1540
424.932	1534.05
425.374	1515.8
425.816	1541.99
426.258	1565.92
426.699	1573.92
427.141	1534.86
427.582	1546.23
428.024	1531.72
428.465	1522.06
428.907	1484.7
429.348	1469.43
429.789	1476.63
430.231	1447.02
430.672	1469.2
431.113	1441.16
431.554	1429.27
431.995	1411.19
432.436	1375.14
432.877	1357.3
433.318	1342.73
433.759	1342.82
434.2	1348.55
434.64	1337.93
435.081	1346.25
435.522	1279.71
435.962	1239.88
436.403	1220.58
436.843	1245.04
437.284	1224.09
437.724	1194.87
438.164	1201.46
438.604	1179.43
439.045	1136.57
439.485	1091.26
439.925	1074.02
440.365	1053.39
440.805	1044.64
441.245	1033.47
441.685	996.96
442.125	992.23
442.564	1000.96
443.004	978.17
443.444	975.4
443.883	978.08
444.323	974.24
444.762	979.28
445.202	996.61
445.641	1013.19
446.081	1011.18
446.52	1020.68
446.959	1012.46
447.398	989.86
447.837	981.68
448.276	966.9
448.716	979.38
449.154	989.86
449.593	965.15
450.032	959.19
450.471	939.72
450.91	938.1
451.349	934.42
451.787	928.27
452.226	939.45
452.664	937.45
453.103	938.25
453.541	934.58
453.98	930.67
454.418	936.45
454.856	920.36
455.295	920.3
455.733	925.27
456.171	928.6
456.609	928.84
457.047	928.65
457.485	941.66
457.923	940.58
458.361	926.55
458.798	927.9
459.236	925.93
459.674	933.21
460.111	937.28
460.549	930.37
460.987	929.1
461.424	927.36
461.862	922.31
462.299	909.53
462.736	909.39
463.173	914.47
463.611	904.8
464.048	901.86
464.485	909.29
464.922	902.75
465.359	901.48
465.796	886.2
466.233	880.79
466.67	875.29
467.106	873.84
467.543	868.88
467.98	860.56
468.416	843.39
468.853	841.25
469.29	820.34
469.726	815.06
470.162	795.2
470.599	791.73
471.035	788.56
471.471	773.46
471.907	772.79
472.344	771.41
472.78	774.96
473.216	785.94
473.652	776.79
474.088	775.15
474.523	772.86
474.959	781.4
475.395	775.4
475.831	769.42
476.266	772.76
476.702	770.11
477.138	760.49
477.573	756.6
478.008	752.23
478.444	755.1
478.879	761.45
479.314	762.26
479.75	759.26
480.185	760.76
480.62	766.79
481.055	768.28
481.49	770.76
481.925	779.01
482.36	786.13
482.795	801.35
483.229	814.7
483.664	823.61
484.099	820.87
484.534	827.87
484.968	830.21
485.403	828.99
485.837	824.7
486.271	820.86
486.706	820.14
487.14	812.91
487.574	802.14
488.009	797.03
488.443	791.89
488.877	800.27
489.311	802.03
489.745	811.59
490.179	817.09
490.613	830.9
491.046	837.17
491.48	841.34
491.914	841.33
492.348	847.27
492.781	851.99
493.215	853.72
493.648	856.59
494.082	864.19
494.515	864.46
494.948	873.51
495.382	878.76
495.815	881.98
496.248	887.41
496.681	901.17
497.114	912.35
497.547	921.98
497.98	934.52
498.413	938.38
498.846	946.9
499.279	955.49
499.711	959.24
500.144	960.8
500.577	971.56
501.009	983
501.442	992.91
501.874	993.27
502.306	996.15
502.739	1005.76
503.171	1023.69
503.603	1027.62
504.036	1038.02
504.468	1043.97
504.9	1055.07
505.332	1063.31
505.764	1067.93
506.196	1075.87
506.627	1091.81
507.059	1105.44
507.491	1113.84
507.923	1109.48
508.354	1125.87
508.786	1137.43
509.217	1156.89
509.649	1172.9
510.08	1192.47
510.512	1209.29
510.943	1223.49
511.374	1233.57
511.805	1254.1
512.237	1273.75
512.668	1308.56
513.099	1335.46
513.53	1360.62
513.961	1377.18
514.391	1407.38
514.822	1438.75
515.253	1472.25
515.684	1494.88
516.114	1523.65
516.545	1542.81
516.975	1568.21
517.406	1584.56
517.836	1585.21
518.267	1591.42
518.697	1612.23
519.127	1616.88
519.558	1624.31
519.988	1628.13
520.418	1639.76
520.848	1658.31
521.278	1666.66
521.708	1677.84
522.138	1689.49
522.567	1720.9
522.997	1745.03
523.427	1756.99
523.857	1769.79
524.286	1776.11
524.716	1789.34
525.145	1806.72
525.575	1816.05
526.004	1829.38
526.433	1823.79
526.863	1819.91
527.292	1807.72
527.721	1813.35
528.15	1819.79
528.579	1821.35
529.008	1833.61
529.437	1856.5
529.866	1868.98
530.295	1884.66
530.724	1895.17
531.152	1922.03
531.581	1934.96
532.01	1951.22
532.438	1957.43
532.867	1971.03
533.295	1989.32
533.723	1993.21
534.152	1990.18
534.58	1989.27
535.008	1970.78
535.436	1971.44
535.865	1978.65
536.293	1994.2
536.721	2008.82
537.149	2033.65
537.576	2033.72
538.004	2045.77
538.432	2054.01
538.86	2051.45
539.287	2057.83
539.715	2072.2
540.143	2074.46
540.57	2072.14
540.998	2068.82
541.425	2044.68
541.852	2023.21
542.28	2022.36
542.707	2005.41
543.134	1990.77
543.561	1986.59
543.988	1978.5
544.415	1978.06
544.842	1971.78
545.269	1962.23
545.696	1962.77
546.123	1977
546.549	1966.32
546.976	1952.31
547.403	1951.63
547.829	1954.47
548.256	1956.64
548.682	1952.96
549.108	1945.21
549.535	1945.49
549.961	1947.43
550.387	1933.46
550.813	1926.71
551.24	1932.02
551.666	1933.88
552.092	1923.22
552.518	1914.78
552.943	1907.19
553.369	1914.44
553.795	1918.44
554.221	1918.92
554.646	1914.55
555.072	1924.41
555.498	1927.94
555.923	1935.91
556.349	1949.83
556.774	1957.34
557.199	1957.26
557.625	1962.86
558.05	1954.93
558.475	1966.2
558.9	1963.25
559.325	1953.85
559.75	1947.48
560.175	1940.69
560.6	1934.47
561.025	1931.47
561.449	1933.23
561.874	1939.4
562.299	1942.99
562.723	1949.81
563.148	1937.45
563.572	1941.19
563.997	1952.17
564.421	1956.76
564.846	1957.36
565.27	1960.61
565.694	1958.16
566.118	1969.4
566.542	1975.92
566.966	1968.36
567.39	1961.6
567.814	1949.72
568.238	1949.63
568.662	1954.51
569.086	1955.74
569.509	1963.8
569.933	1948.78
570.357	1941.84
570.78	1920.54
571.204	1908.43
571.627	1897.83
572.05	1899
572.474	1900.08
572.897	1887.69
573.32	1880.47
573.743	1873.03
574.166	1853.18
574.589	1853.73
575.012	1845.08
575.435	1844.46
575.858	1833.85
576.281	1823.89
576.704	1806.87
577.126	1794.68
577.549	1782.97
577.972	1773.07
578.394	1761.58
578.817	1755.04
579.239	1735.11
579.661	1721.79
580.084	1704.28
580.506	1690.62
580.928	1686.87
581.35	1676.3
581.772	1672.97
582.194	1659.44
582.616	1645.88
583.038	1630.74
583.46	1619.19
583.882	1615.42
584.303	1620.27
584.725	1616.28
585.147	1616.82
585.568	1624.99
585.99	1634.07
586.411	1636.72
586.833	1647.37
587.254	1644.62
587.675	1656.92
588.096	1668.11
588.518	1658.74
588.939	1637.62
589.36	1633.44
589.781	1623.63
590.202	1593.19
590.623	1584.99
591.043	1583.3
591.464	1572.73
591.885	1570.12
592.305	1564.44
592.726	1549.65
593.147	1553.7
593.567	1549.11
593.987	1541.54
594.408	1535.54
594.828	1534.25
595.248	1528.12
595.669	1509.04
596.089	1501.47
596.509	1494.69
596.929	1481.92
597.349	1483.42
597.769	1471.04
598.189	1464.15
598.608	1464.23
599.028	1465.36
599.448	1464.5
599.867	1451.25
600.287	1447.4
600.706	1443.63
601.126	1433.66
601.545	1431.16
601.965	1429.79
602.384	1425.29
602.803	1428.31
603.222	1424.13
603.641	1417.08
604.061	1414
604.48	1409.48
604.898	1416.31
605.317	1420.51
605.736	1422.11
606.155	1418.47
606.574	1407.08
606.992	1411.25
607.411	1405.16
607.829	1395.24
608.248	1391.45
608.666	1387.58
609.085	1386.86
609.503	1377.54
609.921	1369.63
610.339	1371.22
610.758	1370.53
611.176	1366.16
611.594	1356.19
612.012	1352.19
612.43	1354.74
612.847	1359.68
613.265	1360
613.683	1362.62
614.101	1364.23
614.518	1360.16
614.936	1349.06
615.353	1333.38
615.771	1328.88
616.188	1327.55
616.606	1323.76
617.023	1315.9
617.44	1302.5
617.857	1294.67
618.274	1285.53
618.691	1278.56
619.108	1267.76
619.525	1261.12
619.942	1267.55
620.359	1269.67
620.776	1264.52
621.192	1259.69
621.609	1257.62
622.026	1262.15
622.442	1267.87
622.859	1271.51
623.275	1262.75
623.691	1268.94
624.108	1280.1
624.524	1291.56
624.94	1290.54
625.356	1299.64
625.772	1312.14
626.188	1322.4
626.604	1324.56
627.02	1319.87
627.436	1316.74
627.852	1322.05
628.268	1334.06
628.683	1324
629.099	1315.73
629.514	1311
629.93	1313.87
630.345	1317.38
630.761	1313.48
631.176	1315.83
631.591	1309.18
632.007	1302.14
632.422	1301.36
632.837	1289.34
633.252	1286.46
633.667	1275.83
634.082	1267.49
634.497	1255.73
634.911	1236.44
635.326	1232.82
635.741	1216.53
636.155	1206.01
636.57	1208.08
636.984	1206.95
637.399	1207.83
637.813	1207.08
638.228	1207.84
638.642	1210.44
639.056	1199.14
639.47	1199.14
639.884	1190.36
640.298	1183.24
640.712	1183.26
641.126	1170.45
641.54	1161.68
641.954	1156.55
642.368	1144.27
642.781	1133.92
643.195	1116.62
643.609	1117.05
644.022	1110.93
644.436	1106.38
644.849	1093.9
645.262	1080.27
645.676	1081.11
646.089	1075.31
646.502	1059.42
646.915	1053.54
647.328	1037.3
647.741	1035.14
648.154	1022.92
648.567	1019.53
648.98	1006.49
649.393	1006.26
649.805	1003.19
650.218	996.19
650.631	980.99
651.043	975.47
651.456	969.31
651.868	969.56
652.28	984.91
652.693	995.03
653.105	997.85
653.517	1004.51
653.929	1001.02
654.341	1004.08
654.753	990.21
655.165	994.54
655.577	990.34
655.989	986.14
656.401	978.31
656.813	943.94
657.224	926.24
657.636	901.63
658.047	885.6
658.459	870.32
658.87	863.54
659.282	853.75
659.693	834.37
660.104	820.52
660.515	806.35
660.926	803.79
661.338	801.32
661.749	794.77
662.159	784.79
662.57	780.7
662.981	775.23
663.392	767.1
663.803	768.14
664.213	766.44
664.624	761.13
665.035	763.36
665.445	749.69
665.855	742.49
666.266	734.34
666.676	731.58
667.086	722.68
667.497	721.42
667.907	716.53
668.317	708.15
668.727	703.1
669.137	702.77
669.547	699.52
669.956	701.46
670.366	701.25
670.776	702.12
671.186	704.23
671.595	705.86
672.005	708.51
672.414	704.87
672.824	702.88
673.233	706.62
673.642	708.99
674.052	711.98
674.461	713.72
674.87	717.8
675.279	715.69
675.688	716.88
676.097	716.7
676.506	712.52
676.915	725.6
677.323	728.31
677.732	726.44
678.141	726.22
678.549	716.37
678.958	716.17
679.366	714.17
679.775	718.11
680.183	728.11
680.592	734.59
681	739.24
681.408	733.22
681.816	739.98
682.224	747.04
682.632	754.63
683.04	781.11
683.448	801.41
683.856	829.39
684.264	857.96
684.671	884.12
685.079	915.89
685.487	953.7
685.894	1005.86
686.302	1049.31
686.709	1084.62
687.116	1127.64
687.524	1161.88
687.931	1192.09
688.338	1216.81
688.745	1240.75
689.152	1267.25
689.559	1304.96
689.966	1340.1
690.373	1358.45
690.78	1390.74
691.187	1445.47
691.593	1485.22
692	1517.7
692.407	1567.89
692.813	1632.78
693.22	1683.81
693.626	1736.3
694.032	1777.57
694.439	1842.65
694.845	1893.02
695.251	1958.02
695.657	2013.31
696.063	2097.75
696.469	2161.17
