Data from C_1_DEC_ON_6N_Splice17_11-54-05-522.txt Node
Date: Sat Mar 14 11:54:05 EDT 2020
User: sa697716
Spectrometer: FLMS03696
Trigger mode: 0
Integration Time (sec): 3.180400E-1
Scans to average: 20
Electric dark correction enabled: true
Nonlinearity correction enabled: true
Boxcar width: 5
XAxis mode: Wavelengths
Number of Pixels in Spectrum: 2048
>>>>>Begin Spectral Data<<<<<
187.83	-205569.78
188.298	1668.16
188.766	874.73
189.233	771.61
189.701	1094.19
190.169	1539.71
190.636	546.15
191.104	502.58
191.571	90.36
192.039	-27.26
192.506	-18.63
192.974	519.36
193.441	-834.1
193.908	-259.53
194.375	-59.15
194.842	-24.7
195.31	83.09
195.777	111.74
196.244	305.2
196.711	347.12
197.177	463.96
197.644	652.9
198.111	1099.82
198.578	1548.37
199.045	1228.73
199.511	1980.45
199.978	2302.41
200.445	1970.09
200.911	2192
201.378	2450.79
201.844	2257.42
202.31	3850.3
202.777	3991.48
203.243	2217.7
203.709	2123.98
204.176	2537.78
204.642	2132.78
205.108	2005.97
205.574	1610.52
206.04	1464.96
206.506	1361.93
206.972	1275.89
207.438	1214.23
207.903	1380.69
208.369	1217.01
208.835	1207.09
209.301	1247.32
209.766	1251.92
210.232	1243.68
210.697	1536.62
211.163	1883.34
211.628	2818.64
212.094	2365.44
212.559	2921.36
213.024	1810.2
213.49	2210.04
213.955	2168.86
214.42	2108.79
214.885	1944.1
215.35	1835.78
215.815	1770.19
216.28	1850.15
216.745	1482.99
217.21	1570.33
217.675	1375.14
218.14	1488.06
218.604	1580.42
219.069	1705.44
219.534	1742.93
219.998	1960.28
220.463	2269.71
220.927	2642.25
221.392	2418.39
221.856	2388.15
222.32	2901.24
222.785	3529.55
223.249	4354.5
223.713	4773.17
224.177	4707.07
224.642	5905.73
225.106	7134.15
225.57	7729.89
226.034	5755.32
226.497	8681.9
226.961	7835.78
227.425	9057.51
227.889	9976.26
228.353	9916.8
228.816	20343.93
229.28	19371.75
229.744	16189.54
230.207	9833.12
230.671	9618.36
231.134	15699.33
231.597	18125.83
232.061	17971.41
232.524	17430.02
232.987	11946.58
233.45	10744.33
233.914	9594.8
234.377	9774.44
234.84	8957.04
235.303	10486.83
235.766	11720.34
236.229	12095.86
236.691	7552.77
237.154	8446.21
237.617	6371.43
238.08	6513.37
238.542	7610.64
239.005	5464.77
239.468	5443.92
239.93	5120.24
240.393	4671.13
240.855	4096.89
241.317	4192.82
241.78	5099.47
242.242	5300.71
242.704	5745.83
243.166	5007.41
243.629	4571.2
244.091	5254.89
244.553	5749.24
245.015	6182.44
245.477	7969.41
245.939	11643.98
246.4	12343.85
246.862	11967.01
247.324	11268.72
247.786	12559.01
248.247	16458.43
248.709	16886.86
249.17	12661.14
249.632	12001.62
250.093	13973.04
250.555	12076.88
251.016	7403.6
251.477	7015.82
251.939	7578.1
252.4	7936.74
252.861	9436.4
253.322	8795.94
253.783	10431.02
254.244	13454.58
254.705	10543.03
255.166	9321.1
255.627	9177.7
256.088	12927.19
256.549	13805.08
257.009	11882.88
257.47	14354.96
257.931	11633.83
258.391	8672.88
258.852	8935.38
259.312	9347.61
259.773	11498.74
260.233	9763.57
260.694	8225.59
261.154	9277.82
261.614	7455.3
262.074	6646.47
262.534	6902.07
262.994	6505.72
263.455	8639.33
263.915	7281.8
264.374	6830.71
264.834	7469.91
265.294	8219.35
265.754	8488.3
266.214	8029.83
266.673	7471.34
267.133	9394.43
267.593	9300.36
268.052	11371.94
268.512	9880.56
268.971	11907.61
269.431	13078.5
269.89	11676.59
270.349	17455.62
270.809	19446.56
271.268	17456.73
271.727	39087.8
272.186	25336.61
272.645	18989
273.104	13646.8
273.563	19724.04
274.022	15428.92
274.481	13124.77
274.94	10093.88
275.399	7491.54
275.857	8687.04
276.316	11712.09
276.775	10409.54
277.233	10230.38
277.692	9596.29
278.15	10874.6
278.609	11234.83
279.067	10396.23
279.525	9693.52
279.984	12528.67
280.442	15084.59
280.9	15015.18
281.358	9906.82
281.816	9236.09
282.274	9068.41
282.732	9334.64
283.19	9397.11
283.648	8104.46
284.106	8651.75
284.564	8779.46
285.021	8197.25
285.479	6133.54
285.937	5552.98
286.394	4903.96
286.852	5063.73
287.309	5349.15
287.767	5230.88
288.224	4989
288.682	5481.95
289.139	6047.71
289.596	5565.89
290.053	5771.52
290.511	7274.62
290.968	8865.94
291.425	11983.93
291.882	10019.86
292.339	8724.15
292.796	8617.23
293.252	8124.4
293.709	6484.52
294.166	5813.48
294.623	6411.89
295.079	6148.2
295.536	6189.44
295.992	5600.08
296.449	5542.72
296.905	5746.15
297.362	5550.35
297.818	5836.61
298.274	6063.77
298.731	6160.02
299.187	6084.65
299.643	6526.9
300.099	7917.68
300.555	8688.14
301.011	7286.46
301.467	7110.79
301.923	8316.88
302.379	8090.45
302.835	7982.74
303.291	7976.66
303.746	9091.13
304.202	11547.84
304.658	11633.59
305.113	7829.92
305.569	7707.86
306.024	8211.12
306.479	7759.82
306.935	6584.55
307.39	7182.11
307.845	6629.38
308.301	6723.31
308.756	6555.07
309.211	6326.4
309.666	6484.84
310.121	8113.44
310.576	8222.72
311.031	8184.01
311.486	9370.35
311.94	9343.26
312.395	12490.14
312.85	23501.39
313.305	114895.4
313.759	600608.59
314.214	43624.2
314.668	34775.95
315.123	29203.11
315.577	10533.78
316.032	9374.25
316.486	11742.76
316.94	9329.86
317.394	6528.32
317.849	5074.98
318.303	4815.58
318.757	4552.74
319.211	5025.56
319.665	4391.35
320.119	4449
320.572	6357.06
321.026	5963.48
321.48	4986.78
321.934	5426
322.387	5436.49
322.841	5902.4
323.295	5362.91
323.748	6119.39
324.202	6218.6
324.655	7504.15
325.108	10558.51
325.562	7458.02
326.015	8852.95
326.468	6695.19
326.921	7512.84
327.374	7052.87
327.827	7344.12
328.28	8267.27
328.733	5579.27
329.186	4927.28
329.639	4686.51
330.092	3941.49
330.545	3783.69
330.997	3827.74
331.45	4198.72
331.903	4935.98
332.355	8422.51
332.808	8182.54
333.26	6773.52
333.713	7379.14
334.165	7411.39
334.617	9903.35
335.069	7948.9
335.522	14288.24
335.974	15864.05
336.426	14446.37
336.878	9968.92
337.33	5104.19
337.782	4997.2
338.234	6279.7
338.686	7484.25
339.137	8884.08
339.589	8362.24
340.041	6595.79
340.493	5685.24
340.944	5819.72
341.396	6283.79
341.847	5309.57
342.299	6313.72
342.75	7730.99
343.201	6715.78
343.653	7703.81
344.104	9459.43
344.555	7424.75
345.006	11470.27
345.457	8844.22
345.908	6982.18
346.359	6594.61
346.81	5351.5
347.261	5568.17
347.712	5442.83
348.163	5826.11
348.613	5958.1
349.064	5582.09
349.515	4893.24
349.965	5059.84
350.416	6073.68
350.866	6685.46
351.317	7542.09
351.767	12496.6
352.217	15827.88
352.668	13149.95
353.118	12058.32
353.568	11529.77
354.018	9115.66
354.468	9663.58
354.918	6920.72
355.368	6045.99
355.818	8544.52
356.268	24480.69
356.718	103031.54
357.168	25804.63
357.617	13010.48
358.067	14529.5
358.517	13708.39
358.966	16154.97
359.416	18263.52
359.865	19720.9
360.315	23517.45
360.764	11023.79
361.213	6201.48
361.663	5848.9
362.112	7219.2
362.561	11669.48
363.01	8808.11
363.459	7381.81
363.908	7976.86
364.357	6780.43
364.806	11427.86
365.255	7885.22
365.703	7255.95
366.152	7261.94
366.601	5929.72
367.05	4826.4
367.498	4417.2
367.947	4613.36
368.395	4820.82
368.844	4293.45
369.292	5146.32
369.74	3590.77
370.189	5482.52
370.637	6433.55
371.085	5585.13
371.533	6793.29
371.981	6564.49
372.429	6272.92
372.877	6560.08
373.325	5497.88
373.773	5582.71
374.221	4973.2
374.669	6166.53
375.116	5343.68
375.564	5392.49
376.012	6042.43
376.459	4995.55
376.907	5949.13
377.354	7175.68
377.801	6734.97
378.249	7791.38
378.696	10002.89
379.143	12152.8
379.591	12994.8
380.038	22141.88
380.485	16099.53
380.932	17382.53
381.379	16092.89
381.826	11958.18
382.273	8513.03
382.72	7428.37
383.166	7277.29
383.613	4727.34
384.06	4284.03
384.506	4974.12
384.953	3648.62
385.4	3667.07
385.846	3216.75
386.292	3113.7
386.739	3042.77
387.185	3017.79
387.631	3035.52
388.078	2954.38
388.524	3160.58
388.97	2921.35
389.416	2446.4
389.862	2617.15
390.308	2487.42
390.754	2537.52
391.2	2765.04
391.645	2829.55
392.091	2742.58
392.537	2659.33
392.983	2653.01
393.428	2647.46
393.874	2856.82
394.319	2884.23
394.765	2757.13
395.21	2849.21
395.655	2689.73
396.101	2528.64
396.546	2298.31
396.991	2309.27
397.436	2153.89
397.881	2104.67
398.326	1982.68
398.771	1885.87
399.216	1651.66
399.661	1491.07
400.106	1494.14
400.551	1534.6
400.995	1385.88
401.44	1376.95
401.885	1298.24
402.329	1316.63
402.774	1261.73
403.218	1238.55
403.663	1191.04
404.107	1228.89
404.551	1243.65
404.995	1142.44
405.44	1101.68
405.884	1114.43
406.328	1078.52
406.772	1074.71
407.216	984.71
407.66	956.04
408.104	902.33
408.547	849.33
408.991	822.22
409.435	790.77
409.879	787.2
410.322	783.44
410.766	761.14
411.209	727.35
411.653	705.07
412.096	693.03
412.54	693.59
412.983	694.27
413.426	701.05
413.869	702.98
414.312	695.18
414.756	667.71
415.199	637.29
415.642	623.97
416.085	629.32
416.527	623.86
416.97	632.04
417.413	599.87
417.856	594.5
418.298	587.87
418.741	584.13
419.184	581.67
419.626	604.18
420.069	606.04
420.511	608.99
420.953	597.01
421.396	595.15
421.838	580.48
422.28	597.01
422.722	602.5
423.164	610.74
423.606	604.22
424.048	604.73
424.49	579.08
424.932	576.66
425.374	569.29
425.816	577.16
426.258	586.2
426.699	593.79
427.141	587.41
427.582	594.12
428.024	590.03
428.465	584.5
428.907	570.35
429.348	563.72
429.789	566.29
430.231	555.68
430.672	563.95
431.113	552.78
431.554	544.63
431.995	531.41
432.436	516.79
432.877	508.4
433.318	504.17
433.759	501.66
434.2	503.47
434.64	498.6
435.081	501.46
435.522	478.19
435.962	461.14
436.403	455.37
436.843	460.24
437.284	448.49
437.724	437.08
438.164	435.1
438.604	425.56
439.045	411.19
439.485	394.8
439.925	385.81
440.365	376.72
440.805	372.16
441.245	367.75
441.685	355.85
442.125	353.12
442.564	356.46
443.004	349.15
443.444	350.34
443.883	350.54
444.323	347.38
444.762	348.25
445.202	354.02
445.641	363.53
446.081	360.72
446.52	364.76
446.959	362.89
447.398	355.31
447.837	353.06
448.276	346.75
448.716	352.31
449.154	354.94
449.593	346.97
450.032	345.31
450.471	337.73
450.91	338.71
451.349	339.4
451.787	338.05
452.226	342.18
452.664	341.83
453.103	342.75
453.541	340.25
453.98	342.37
454.418	346.08
454.856	342.45
455.295	342.73
455.733	345.3
456.171	346.05
456.609	348.28
457.047	348.64
457.485	354.97
457.923	357.91
458.361	352.85
458.798	353.97
459.236	352.87
459.674	355.74
460.111	356.89
460.549	355.69
460.987	354.35
461.424	353.23
461.862	352.56
462.299	347.74
462.736	346.73
463.173	348.91
463.611	347.11
464.048	347.65
464.485	350.02
464.922	348.03
465.359	346.03
465.796	347.62
466.233	345.25
466.67	344.18
467.106	345.04
467.543	341.64
467.98	337.57
468.416	327.58
468.853	324.16
469.29	314.92
469.726	311.17
470.162	303.46
470.599	295.74
471.035	292.4
471.471	284.45
471.907	281.32
472.344	279.72
472.78	280.44
473.216	283.45
473.652	280.69
474.088	278.87
474.523	277.75
474.959	279.78
475.395	276.9
475.831	276.2
476.266	277.58
476.702	275.84
477.138	272.13
477.573	271.24
478.008	270.32
478.444	271.73
478.879	275.32
479.314	277.62
479.75	277.75
480.185	279.35
480.62	280.64
481.055	281.38
481.49	284.59
481.925	289.15
482.36	296.65
482.795	304.79
483.229	312.82
483.664	318.87
484.099	319.89
484.534	324.17
484.968	328.16
485.403	329.91
485.837	329.6
486.271	328.68
486.706	329.78
487.14	324.5
487.574	319.45
488.009	317.3
488.443	314.67
488.877	318.93
489.311	321.21
489.745	325.15
490.179	329.67
490.613	338.62
491.046	343.24
491.48	346.59
491.914	348.95
492.348	353.72
492.781	357.43
493.215	360.79
493.648	362.41
494.082	367.08
494.515	370.13
494.948	376.57
495.382	381.04
495.815	385.7
496.248	392.2
496.681	401.78
497.114	410.79
497.547	419.92
497.98	431.03
498.413	439.21
498.846	448.59
499.279	456.26
499.711	462
500.144	466.44
500.577	476.96
501.009	486.86
501.442	497.16
501.874	502.72
502.306	507.71
502.739	516.9
503.171	530.26
503.603	537.13
504.036	547.98
504.468	557.03
504.9	569.1
505.332	578.43
505.764	586.24
506.196	595.47
506.627	610.33
507.059	624.34
507.491	634.82
507.923	638.22
508.354	653.01
508.786	665.66
509.217	682.92
509.649	698.42
510.08	716.81
510.512	734.25
510.943	750.32
511.374	763.44
511.805	783.02
512.237	801.49
512.668	829.58
513.099	853.4
513.53	877.85
513.961	897.74
514.391	926.57
514.822	956.55
515.253	987.8
515.684	1010.49
516.114	1036.53
516.545	1057.1
516.975	1082.47
517.406	1100.51
517.836	1108.09
518.267	1117.33
518.697	1134.29
519.127	1141.33
519.558	1149.71
519.988	1154.97
520.418	1166.54
520.848	1184.03
521.278	1193.69
521.708	1202.84
522.138	1214.9
522.567	1241.14
522.997	1263.35
523.427	1278.19
523.857	1293.34
524.286	1302.88
524.716	1317.64
525.145	1334.81
525.575	1344.74
526.004	1357.65
526.433	1361.01
526.863	1362.81
527.292	1355.56
527.721	1361.11
528.15	1367.09
528.579	1367.79
529.008	1377.08
529.437	1395.88
529.866	1407.03
530.295	1420.98
530.724	1431.85
531.152	1454.12
531.581	1466.45
532.01	1481.19
532.438	1488.49
532.867	1500.68
533.295	1517.22
533.723	1523.44
534.152	1521.69
534.58	1522.88
535.008	1510.84
535.436	1513.12
535.865	1519.89
536.293	1532.11
536.721	1545.81
537.149	1568.22
537.576	1570.69
538.004	1581.51
538.432	1588.59
538.86	1588.47
539.287	1594.01
539.715	1605.69
540.143	1608.52
540.57	1606.04
540.998	1603.53
541.425	1586.12
541.852	1567.81
542.28	1567.22
542.707	1552.79
543.134	1541.34
543.561	1537.92
543.988	1531.82
544.415	1531.24
544.842	1526.95
545.269	1520.67
545.696	1522.04
546.123	1530.91
546.549	1522.15
546.976	1511.14
547.403	1511.81
547.829	1512.3
548.256	1513.08
548.682	1509.96
549.108	1503.9
549.535	1502.09
549.961	1502.69
550.387	1491.37
550.813	1487.35
551.24	1491.71
551.666	1491.19
552.092	1481.57
552.518	1476.12
552.943	1471.06
553.369	1475.3
553.795	1478.2
554.221	1477.82
554.646	1474.57
555.072	1483.19
555.498	1485.57
555.923	1492.69
556.349	1504.5
556.774	1511.14
557.199	1510.9
557.625	1514.05
558.05	1509.15
558.475	1516.86
558.9	1515.01
559.325	1507.16
559.75	1500.7
560.175	1495.02
560.6	1487.67
561.025	1484.64
561.449	1484.2
561.874	1487.05
562.299	1490.03
562.723	1494.56
563.148	1485.42
563.572	1487.43
563.997	1494.44
564.421	1496.8
564.846	1495.2
565.27	1498
565.694	1494.43
566.118	1502.2
566.542	1508.29
566.966	1501.86
567.39	1497.24
567.814	1487.24
568.238	1486.2
568.662	1488.65
569.086	1489.68
569.509	1494.8
569.933	1480.26
570.357	1473.19
570.78	1454.53
571.204	1442.44
571.627	1431.87
572.05	1429.25
572.474	1427.94
572.897	1415.41
573.32	1408.74
573.743	1398.62
574.166	1382.13
574.589	1380.55
575.012	1372.32
575.435	1370
575.858	1360.33
576.281	1349.77
576.704	1334.51
577.126	1322.63
577.549	1312.95
577.972	1302.72
578.394	1292.71
578.817	1286.28
579.239	1269.91
579.661	1258.13
580.084	1243.85
580.506	1231.72
580.928	1227.77
581.35	1217.53
581.772	1213.09
582.194	1201.31
582.616	1190.06
583.038	1178.13
583.46	1167.84
583.882	1163.47
584.303	1164.63
584.725	1160.66
585.147	1161.51
585.568	1167.33
585.99	1176.12
586.411	1179.35
586.833	1188.83
587.254	1188.63
587.675	1197.29
588.096	1204.76
588.518	1200.35
588.939	1187.9
589.36	1185.41
589.781	1175.42
590.202	1154.4
590.623	1146.32
591.043	1142.39
591.464	1132.37
591.885	1129.67
592.305	1125.51
592.726	1114.99
593.147	1115.31
593.567	1110.23
593.987	1103.78
594.408	1099.99
594.828	1097.49
595.248	1092.65
595.669	1080.24
596.089	1074.47
596.509	1068.48
596.929	1057.06
597.349	1057.97
597.769	1049.83
598.189	1045.21
598.608	1045.24
599.028	1046.94
599.448	1046.07
599.867	1036.4
600.287	1032.56
600.706	1029.04
601.126	1021.83
601.545	1021.35
601.965	1018.26
602.384	1014.37
602.803	1015.88
603.222	1012.97
603.641	1006.83
604.061	1004.31
604.48	1000.19
604.898	1004.54
605.317	1006.53
605.736	1006.54
606.155	1003.85
606.574	997.29
606.992	999.43
607.411	994.1
607.829	985.17
608.248	980.45
608.666	976.71
609.085	975.21
609.503	968.9
609.921	963.8
610.339	964.38
610.758	962.23
611.176	957.03
611.594	949.34
612.012	945.95
612.43	947.81
612.847	951.87
613.265	950.65
613.683	951.34
614.101	949.75
614.518	945.57
614.936	936.48
615.353	924.65
615.771	921.48
616.188	919.87
616.606	915.38
617.023	908.87
617.44	897.29
617.857	891.56
618.274	885.4
618.691	880.11
619.108	872.3
619.525	867.02
619.942	870.44
620.359	871.47
620.776	866.86
621.192	864.33
621.609	862.08
622.026	866.18
622.442	869.87
622.859	871.83
623.275	865.94
623.691	868.57
624.108	875.7
624.524	884.1
624.94	883.35
625.356	890.27
625.772	898.05
626.188	905.54
626.604	907.11
627.02	903.9
627.436	902.13
627.852	907.09
628.268	916.41
628.683	910.51
629.099	905.28
629.514	901.5
629.93	904.24
630.345	907.13
630.761	904.75
631.176	906.13
631.591	901.73
632.007	897.48
632.422	894.77
632.837	885.46
633.252	882.52
633.667	873.35
634.082	865.47
634.497	855.08
634.911	841.12
635.326	836.42
635.741	823.56
636.155	814.97
636.57	813.62
636.984	812.1
637.399	810.7
637.813	808.88
638.228	806.57
638.642	807.07
639.056	797.55
639.47	794.21
639.884	786.78
640.298	780.24
640.712	776.82
641.126	766.18
641.54	756.78
641.954	750.05
642.368	738.23
642.781	731.89
643.195	718.17
643.609	715.94
644.022	708.68
644.436	702.46
644.849	691.41
645.262	680.78
645.676	678.43
646.089	673.08
646.502	662.08
646.915	656.1
647.328	641.08
647.741	637.63
648.154	627.21
648.567	625.52
648.98	616.17
649.393	614.09
649.805	609.9
650.218	603.06
650.631	592.16
651.043	587.31
651.456	583.34
651.868	582.89
652.28	590.95
652.693	596.76
653.105	597.76
653.517	601.09
653.929	599.57
654.341	601.38
654.753	593.26
655.165	595.06
655.577	591.11
655.989	585.65
656.401	578.2
656.813	556.6
657.224	543.32
657.636	523.66
658.047	511.57
658.459	498.46
658.87	489.61
659.282	479.64
659.693	465.71
660.104	455.31
660.515	445.67
660.926	441.93
661.338	435.95
661.749	429.3
662.159	422.68
662.57	417.46
662.981	412.25
663.392	406.66
663.803	405.84
664.213	401.58
664.624	397.14
665.035	396.48
665.445	387.92
665.855	383.76
666.266	379.78
666.676	377.37
667.086	371.34
667.497	369.83
667.907	365.54
668.317	360.31
668.727	359.78
669.137	358.78
669.547	356.11
669.956	356.51
670.366	356.73
670.776	357.16
671.186	357.83
671.595	359.08
672.005	360.27
672.414	361.17
672.824	361.11
673.233	362.06
673.642	363.88
674.052	366.82
674.461	369.17
674.87	372.11
675.279	372.19
675.688	373.86
676.097	375.92
676.506	376.03
676.915	382.42
677.323	385.22
677.732	384.79
678.141	385.5
678.549	380.66
678.958	381.26
679.366	380.89
679.775	383.8
680.183	391.48
680.592	396.87
681	401.46
681.408	401.28
681.816	406.58
682.224	414.56
682.632	423.59
683.04	442.48
683.448	457.82
683.856	478.96
684.264	502.92
684.671	523.99
685.079	551.4
685.487	581.2
685.894	621.37
686.302	657.05
686.709	688.15
687.116	724.97
687.524	757.17
687.931	787.93
688.338	815.5
688.745	840.12
689.152	868.43
689.559	902.8
689.966	940.19
690.373	963.29
690.78	1000.3
691.187	1051.18
691.593	1091.87
692	1129.57
692.407	1181.84
692.813	1243.65
693.22	1293.83
693.626	1345.06
694.032	1389.19
694.439	1451.78
694.845	1501.33
695.251	1563.49
695.657	1620.72
696.063	1702.49
696.469	1765.78
696.875	1826.18
697.281	1864.71
697.687	1910.07
698.093	1951.58
698.498	2016.38
698.904	2068.96
699.31	2146.07
699.715	2201.45
700.12	2277.24
700.526	2300.21
700.931	2362.77
701.337	2409.53
701.742	2440.56
702.147	2511.98
702.552	2541.45
702.957	2596.41
703.362	2617.53
703.767	2646.92
704.172	2685.39
704.577	2655.48
704.981	2697.15
705.386	2714.23
705.791	2712.06
706.195	2777.8
706.6	2790.67
707.004	2858.73
707.408	2838.51
707.813	2865.85
708.217	2861.14
