Data from C_1_DEC_OH_4N_Splice17_11-55-52-384.txt Node
Date: Sat Mar 14 11:55:52 EDT 2020
User: sa697716
Spectrometer: FLMS03696
Trigger mode: 0
Integration Time (sec): 3.180400E-1
Scans to average: 20
Electric dark correction enabled: true
Nonlinearity correction enabled: true
Boxcar width: 5
XAxis mode: Wavelengths
Number of Pixels in Spectrum: 2048
>>>>>Begin Spectral Data<<<<<
187.83	-366938.58
188.298	2686
188.766	1380.37
189.233	1296.51
189.701	1789
190.169	2492.84
190.636	990.53
191.104	715.93
191.571	133.65
192.039	-6.85
192.506	36.65
192.974	579.84
193.441	-648.48
193.908	-181.57
194.375	3.6
194.842	46.38
195.31	120.93
195.777	187.19
196.244	359.95
196.711	457.84
197.177	607.11
197.644	855.5
198.111	1449.68
198.578	1998.36
199.045	1588.66
199.511	2564.58
199.978	2976.57
200.445	2545.3
200.911	2806.18
201.378	3138.64
201.844	2832.96
202.31	4756.47
202.777	4954.26
203.243	2735.92
203.709	2578.34
204.176	3089.93
204.642	2548.18
205.108	2369.38
205.574	1916.52
206.04	1746.26
206.506	1647.58
206.972	1569.01
207.438	1522.38
207.903	1733.38
208.369	1545.94
208.835	1560.99
209.301	1626.38
209.766	1667.08
210.232	1663.88
210.697	2065.06
211.163	2560.09
211.628	3839.46
212.094	3196.65
212.559	3911.29
213.024	2425.97
213.49	2951.18
213.955	2857.29
214.42	2799.26
214.885	2604.15
215.35	2500.67
215.815	2404.04
216.28	2545.76
216.745	2079.36
217.21	2252.1
217.675	2066.18
218.14	2328.77
218.604	2584.18
219.069	2966.78
219.534	3098.13
219.998	3606.97
220.463	4356.2
220.927	5376.96
221.392	5064.34
221.856	5128.17
222.32	6449.38
222.785	7975.83
223.249	10078.95
223.713	11260.56
224.177	11224.37
224.642	14445.83
225.106	17787.2
225.57	19502.71
226.034	14537.28
226.497	22110.76
226.961	19975.46
227.425	23312.49
227.889	25911.7
228.353	25825.73
228.816	53332.84
229.28	51016.59
229.744	42937.58
230.207	26088.65
230.671	25664.54
231.134	42322.21
231.597	48798.19
232.061	48747.76
232.524	47490.9
232.987	32636.22
233.45	29390.3
233.914	26337.56
234.377	27000.77
234.84	24710.96
235.303	29126.5
235.766	32416.77
236.229	33448.85
236.691	21047.59
237.154	23624.75
237.617	17777.85
238.08	18209.94
238.542	21314.66
239.005	15230.61
239.468	15094.64
239.93	14215.29
240.393	12909.09
240.855	11342.59
241.317	11611.27
241.78	14121.88
242.242	14597.8
242.704	15722.57
243.166	13667.31
243.629	12397.51
244.091	14271.58
244.553	15635.58
245.015	16817.39
245.477	21724.7
245.939	31827.57
246.4	33791.06
246.862	32818.16
247.324	30937.12
247.786	34650.94
248.247	45459.92
248.709	46928.13
249.17	35106.97
249.632	33114.49
250.093	38372.99
250.555	33160.33
251.016	20210.71
251.477	19162.61
251.939	20726.41
252.4	21721.18
252.861	25806.18
253.322	23979.65
253.783	28551.11
254.244	37044.25
254.705	29145.13
255.166	25902.53
255.627	25513.4
256.088	36011.19
256.549	38291.15
257.009	32930.24
257.47	40014.68
257.931	32603.64
258.391	24480.55
258.852	25227.79
259.312	26473.34
259.773	32761.11
260.233	27722.46
260.694	23397.11
261.154	26528.46
261.614	21283.08
262.074	19036.13
262.534	19762.04
262.994	18632.21
263.455	24832.6
263.915	20913.56
264.374	19701.56
264.834	21503.17
265.294	23788.07
265.754	24645.27
266.214	23336.3
266.673	21880.15
267.133	27639.46
267.593	27437.4
268.052	33600.25
268.512	29197.46
268.971	35232.79
269.431	38619.75
269.89	34582.96
270.349	51917.08
270.809	57920.97
271.268	52102.45
271.727	116769.37
272.186	75565.46
272.645	56694.28
273.104	40867.77
273.563	59188.15
274.022	46542.79
274.481	39552.19
274.94	30493.47
275.399	22663.87
275.857	26369.91
276.316	35643.66
276.775	31733.57
277.233	31269.81
277.692	29264.23
278.15	33141.42
278.609	34123
279.067	31597.21
279.525	29400.54
279.984	37950.59
280.442	45598.33
280.9	44988.92
281.358	29632.34
281.816	27641.54
282.274	27047.52
282.732	27947.36
283.19	28068.93
283.648	24228.58
284.106	25816.83
284.564	26282.73
285.021	24407.51
285.479	18204.05
285.937	16557.03
286.394	14531.93
286.852	14958.23
287.309	15734.97
287.767	15211.46
288.224	14460.66
288.682	15860.46
289.139	17413.91
289.596	15909.22
290.053	16510.75
290.511	20813.51
290.968	25239.12
291.425	34225.04
291.882	28478.18
292.339	24796.92
292.796	24576
293.252	23172.35
293.709	18394.79
294.166	16477.4
294.623	18223.82
295.079	17513.62
295.536	17607.5
295.992	15983.03
296.449	15799.54
296.905	16430.04
297.362	15759.56
297.818	16586.83
298.274	17202.91
298.731	17531.75
299.187	17352.25
299.643	18632.44
300.099	22524.44
300.555	24690.53
301.011	20629.34
301.467	19890.77
301.923	23261.92
302.379	22701.72
302.835	22314.14
303.291	22343
303.746	25440.43
304.202	32147.32
304.658	32242.75
305.113	21677.88
305.569	21265.06
306.024	22676.49
306.479	21601.37
306.935	18230.92
307.39	19894.56
307.845	18378.58
308.301	18479.48
308.756	17997.74
309.211	17334.57
309.666	17761.82
310.121	22052.88
310.576	22372.1
311.031	22193.16
311.486	25436.97
311.94	25431.09
312.395	34025.96
312.85	63867.94
313.305	314644.25
313.759	1629530.76
314.214	118031.5
314.668	93647.1
315.123	78821.94
315.577	28272.5
316.032	25185.83
316.486	31540.32
316.94	24833.84
317.394	17313.59
317.849	13456.65
318.303	12711.4
318.757	11990.26
319.211	13274.69
319.665	11605.93
320.119	11730.68
320.572	16815.36
321.026	15682.76
321.48	13036.49
321.934	14214.92
322.387	14213.68
322.841	15361.98
323.295	13828.72
323.748	15917.07
324.202	16117.48
324.655	19365.5
325.108	27044.15
325.562	19110.7
326.015	22695.61
326.468	17164.32
326.921	19205.73
327.374	17951.56
327.827	18699.27
328.28	21140.08
328.733	14164.15
329.186	12455.65
329.639	11863.01
330.092	10008.12
330.545	9539.66
330.997	9625.65
331.45	10524.21
331.903	12322.81
332.355	21158.54
332.808	20563.76
333.26	16967.03
333.713	18406.33
334.165	18563.24
334.617	24757.74
335.069	19995.53
335.522	36119.55
335.974	39962.69
336.426	36529.5
336.878	25305.04
337.33	12830.36
337.782	12509.12
338.234	15668.25
338.686	18773.2
339.137	22223.19
339.589	20969.85
340.041	16422.91
340.493	14124.5
340.944	14458.48
341.396	15524.54
341.847	13063.37
342.299	15433.27
342.75	18812.18
343.201	16437.58
343.653	18868.51
344.104	23181.18
344.555	18241.95
345.006	28408.99
345.457	21731.06
345.908	17311.52
346.359	16316.97
346.81	13295.06
347.261	13983.29
347.712	13801.08
348.163	14785.46
348.613	14990.05
349.064	13989.19
349.515	12243.17
349.965	12545.28
350.416	15123.08
350.866	16576.4
351.317	18762.64
351.767	31073.55
352.217	39369.08
352.668	32626.72
353.118	29883.81
353.568	28842.96
354.018	22859.48
354.468	24147.18
354.918	17350.85
355.368	15171.9
355.818	21413.91
356.268	61482.24
356.718	257328.45
357.168	64039.78
357.617	32173.34
358.067	35810.35
358.517	33481.79
358.966	39213.39
359.416	43972.83
359.865	47530.47
360.315	56611.13
360.764	26450.25
361.213	14841.91
361.663	14057.29
362.112	17308.97
362.561	27874.11
363.01	21026.87
363.459	17723.86
363.908	19137.1
364.357	16239.13
364.806	27392.24
365.255	18819.64
365.703	17239.42
366.152	17259.25
366.601	13971.8
367.05	11333.14
367.498	10335.98
367.947	10816.94
368.395	11236.12
368.844	9976.28
369.292	12016.73
369.74	8307.22
370.189	12732.25
370.637	14900.81
371.085	12833.19
371.533	15660.6
371.981	15118.35
372.429	14390.7
372.877	14951.8
373.325	12513.9
373.773	12719.53
374.221	11299.82
374.669	14007.96
375.116	12085.61
375.564	12183.29
376.012	13616.28
376.459	11201.76
376.907	13368.37
377.354	16117.89
377.801	15029.4
378.249	17277.61
378.696	22085.56
379.143	26764.47
379.591	28540.39
380.038	48161.47
380.485	34822.31
380.932	37586.49
381.379	34375.19
381.826	25303.12
382.273	18018.82
382.72	15734.93
383.166	15320.42
383.613	9932.38
384.06	8948.94
384.506	10342.41
384.953	7604.5
385.4	7637.04
385.846	6684.53
386.292	6514.23
386.739	6374.08
387.185	6277.49
387.631	6280.65
388.078	6103.04
388.524	6515.19
388.97	6013.46
389.416	5005.63
389.862	5312.51
390.308	5030.5
390.754	5100.5
391.2	5516.14
391.645	5633.42
392.091	5399.33
392.537	5219.42
392.983	5218.35
393.428	5135.71
393.874	5492.21
394.319	5512.93
394.765	5227.54
395.21	5368.17
395.655	5033.28
396.101	4719.77
396.546	4258.47
396.991	4294.75
397.436	3982.54
397.881	3847.48
398.326	3644.81
398.771	3446.19
399.216	3012.04
399.661	2707.07
400.106	2693.99
400.551	2761.27
400.995	2473.78
401.44	2447
401.885	2292.58
402.329	2311.04
402.774	2210.89
403.218	2136.05
403.663	2055.08
404.107	2108.05
404.551	2126.35
404.995	1949.07
405.44	1871
405.884	1893.94
406.328	1827.43
406.772	1823.21
407.216	1658.67
407.66	1599
408.104	1516.94
408.547	1420.04
408.991	1375.66
409.435	1319.72
409.879	1300.21
410.322	1282.16
410.766	1239.14
411.209	1176.79
411.653	1128.3
412.096	1105.56
412.54	1102.62
412.983	1092.37
413.426	1095.52
413.869	1091.04
414.312	1071.06
414.756	1033.96
415.199	984.94
415.642	953.14
416.085	954.27
416.527	945.23
416.97	958.16
417.413	911.15
417.856	900.93
418.298	888.4
418.741	880.84
419.184	876.19
419.626	906.63
420.069	904.43
420.511	911.99
420.953	891.46
421.396	882.12
421.838	858.59
422.28	879.25
422.722	885.61
423.164	900.33
423.606	885.3
424.048	885.29
424.49	844.35
424.932	841.57
425.374	830.27
425.816	842.68
426.258	860.17
426.699	870.01
427.141	857.36
427.582	868.89
428.024	861.47
428.465	854.63
428.907	832.47
429.348	823.29
429.789	824.4
430.231	805.8
430.672	818.83
431.113	798.23
431.554	786.85
431.995	764.51
432.436	735.81
432.877	720.81
433.318	710.45
433.759	706.21
434.2	704.62
434.64	697.99
435.081	702.26
435.522	666.2
435.962	644.78
436.403	633.05
436.843	643.57
437.284	631.54
437.724	614.92
438.164	615.44
438.604	603.99
439.045	582.8
439.485	557.57
439.925	545.01
440.365	532.02
440.805	523.39
441.245	515.86
441.685	495.97
442.125	491.45
442.564	494.83
443.004	484.23
443.444	483.97
443.883	483.89
444.323	480.29
444.762	479.14
445.202	485.6
445.641	494.64
446.081	490.8
446.52	496.03
446.959	491.22
447.398	480.61
447.837	476.01
448.276	465.27
448.716	471.76
449.154	475.54
449.593	466.5
450.032	463.19
450.471	453.77
450.91	453.95
451.349	451.78
451.787	451.31
452.226	456.11
452.664	455.1
453.103	455.66
453.541	451.34
453.98	450.99
454.418	452.85
454.856	447.2
455.295	446.58
455.733	449.12
456.171	450.9
456.609	451.02
457.047	450.6
457.485	457.54
457.923	458.88
458.361	452.89
458.798	453.76
459.236	452.06
459.674	453.76
460.111	455.62
460.549	452.32
460.987	451.31
461.424	448.98
461.862	447.01
462.299	440.18
462.736	440.85
463.173	443.68
463.611	440.39
464.048	439.93
464.485	444.4
464.922	440.79
465.359	438.4
465.796	436.16
466.233	434.82
466.67	432.34
467.106	431.62
467.543	424.85
467.98	418.49
468.416	406.86
468.853	403.18
469.29	390.69
469.726	386.47
470.162	375.71
470.599	368.37
471.035	364.07
471.471	354.24
471.907	350.46
472.344	349.93
472.78	351.13
473.216	355.37
473.652	351.53
474.088	350.41
474.523	348.92
474.959	351.43
475.395	347.93
475.831	344.96
476.266	346.25
476.702	345.36
477.138	340.89
477.573	338.54
478.008	337.22
478.444	337.83
478.879	340.48
479.314	341.29
479.75	341.01
480.185	341.14
480.62	343.4
481.055	344.25
481.49	346.58
481.925	351.25
482.36	358.12
482.795	366.88
483.229	375.97
483.664	383.7
484.099	384.92
484.534	390.22
484.968	394.21
485.403	394.79
485.837	393.8
486.271	391.81
486.706	391.66
487.14	386.66
487.574	380.3
488.009	377.01
488.443	373.32
488.877	376.82
489.311	378.03
489.745	381.4
490.179	384.57
490.613	393.66
491.046	396.76
491.48	399.97
491.914	400.66
492.348	403.62
492.781	406.16
493.215	407.54
493.648	408.38
494.082	411.65
494.515	413.45
494.948	419.31
495.382	421.19
495.815	425.66
496.248	429.96
496.681	438.09
497.114	446.03
497.547	454.1
497.98	463.51
498.413	469.34
498.846	477.18
499.279	483.58
499.711	487.59
500.144	491.06
500.577	500.11
501.009	508.99
501.442	518.44
501.874	522.15
502.306	525.33
502.739	534.27
503.171	546.36
503.603	552.2
504.036	562.25
504.468	570.09
504.9	581.48
505.332	589.43
505.764	597.02
506.196	605.02
506.627	619.24
507.059	633.35
507.491	641.75
507.923	645.42
508.354	660.36
508.786	672.36
509.217	689.94
509.649	705.87
510.08	725.55
510.512	743.25
510.943	760.06
511.374	774.7
511.805	794.88
512.237	815.73
512.668	846.51
513.099	873.35
513.53	900.44
513.961	922.63
514.391	953.25
514.822	984.88
515.253	1019.45
515.684	1046.56
516.114	1076.18
516.545	1100.01
516.975	1128.89
517.406	1150.17
517.836	1158.36
518.267	1170.37
518.697	1192.39
519.127	1202.66
519.558	1213.31
519.988	1221.97
520.418	1236.34
520.848	1255.99
521.278	1269.04
521.708	1291.51
522.138	1307.65
522.567	1339.59
522.997	1366.5
523.427	1384.95
523.857	1404.01
524.286	1419.55
524.716	1436.1
525.145	1456.54
525.575	1470.9
526.004	1487.89
526.433	1484.19
526.863	1487.21
527.292	1481.08
527.721	1488.9
528.15	1495.99
528.579	1499.71
529.008	1511.73
529.437	1535.37
529.866	1550.42
530.295	1567.71
530.724	1580.92
531.152	1606.64
531.581	1622.03
532.01	1640.28
532.438	1650.19
532.867	1665.23
533.295	1684.26
533.723	1690.95
534.152	1690.95
534.58	1692.1
535.008	1678.51
535.436	1681.22
535.865	1690.14
536.293	1703.93
536.721	1719.71
537.149	1744.89
537.576	1748.36
538.004	1760.65
538.432	1768.41
538.86	1767.52
539.287	1775.16
539.715	1789.65
540.143	1793.94
540.57	1791.16
540.998	1789.3
541.425	1769.21
541.852	1749.39
542.28	1748.52
542.707	1733.37
543.134	1720.71
543.561	1717.98
543.988	1712.2
544.415	1712.11
544.842	1707.03
545.269	1701.09
545.696	1701.62
546.123	1714.47
546.549	1704.86
546.976	1692.19
547.403	1691.29
547.829	1693.91
548.256	1694.87
548.682	1689.6
549.108	1682.07
549.535	1681.47
549.961	1681.98
550.387	1670.68
550.813	1663.76
551.24	1669.35
551.666	1671.2
552.092	1662.27
552.518	1654.93
552.943	1648.04
553.369	1654.89
553.795	1659.49
554.221	1658.84
554.646	1655.82
555.072	1663.56
555.498	1666.63
555.923	1673.1
556.349	1684.81
556.774	1690.48
557.199	1689.15
557.625	1692.37
558.05	1684.47
558.475	1692.04
558.9	1688.32
559.325	1678.31
559.75	1670.18
560.175	1661.94
560.6	1653.92
561.025	1649.05
561.449	1646.13
561.874	1650.28
562.299	1651.96
562.723	1655.3
563.148	1642.89
563.572	1643.5
563.997	1649.56
564.421	1651.89
564.846	1649.22
565.27	1649.41
565.694	1643.12
566.118	1651.74
566.542	1653.31
566.966	1644.56
567.39	1637.34
567.814	1623.24
568.238	1619.98
568.662	1620.06
569.086	1617.09
569.509	1619.98
569.933	1602.12
570.357	1592.69
570.78	1571.42
571.204	1556.76
571.627	1543.57
572.05	1538.02
572.474	1534.89
572.897	1519.96
573.32	1510.28
573.743	1498.78
574.166	1479.66
574.589	1476.35
575.012	1467.04
575.435	1460.83
575.858	1449.68
576.281	1436.02
576.704	1418.64
577.126	1405.33
577.549	1392.89
577.972	1380.03
578.394	1368.11
578.817	1359.56
579.239	1340.7
579.661	1326.77
580.084	1312.25
580.506	1298.7
580.928	1294.14
581.35	1283.07
581.772	1275.8
582.194	1262.42
582.616	1251.05
583.038	1236.64
583.46	1224.92
583.882	1220.79
584.303	1220.99
584.725	1215.49
585.147	1215.51
585.568	1221.75
585.99	1229.97
586.411	1233.61
586.833	1243.99
587.254	1243.35
587.675	1254.49
588.096	1263.42
588.518	1256.27
588.939	1241.34
589.36	1237.28
589.781	1226.37
590.202	1203.17
590.623	1195.03
591.043	1192.64
591.464	1181.58
591.885	1177.51
592.305	1171.52
592.726	1159.74
593.147	1160.66
593.567	1156.83
593.987	1150.75
594.408	1146.86
594.828	1143.53
595.248	1137.93
595.669	1123.23
596.089	1116.55
596.509	1110.92
596.929	1098.98
597.349	1098.28
597.769	1089.95
598.189	1083.89
598.608	1083.83
599.028	1083.86
599.448	1082.77
599.867	1071.79
600.287	1066.95
600.706	1062.43
601.126	1054.01
601.545	1052.35
601.965	1049.56
602.384	1044.58
602.803	1044.4
603.222	1039.25
603.641	1033.04
604.061	1029.29
604.48	1024.42
604.898	1028.35
605.317	1030.33
605.736	1030.26
606.155	1026.14
606.574	1017.75
606.992	1019.37
607.411	1014.71
607.829	1005.76
608.248	1000.74
608.666	995.94
609.085	993.54
609.503	985.5
609.921	978.97
610.339	977.47
610.758	974.14
611.176	968.48
611.594	959.42
612.012	953.8
612.43	954.57
612.847	957.55
613.265	956.18
613.683	957.83
614.101	956.29
614.518	950.67
614.936	941.13
615.353	928.69
615.771	924.85
616.188	922.5
616.606	917.79
617.023	911.15
617.44	899.39
617.857	892.63
618.274	884.24
618.691	878.03
619.108	870.1
619.525	863.71
619.942	867.64
620.359	867.39
620.776	862.4
621.192	859.59
621.609	857.37
622.026	859.98
622.442	862.24
622.859	862.91
623.275	857.19
623.691	859.54
624.108	867.78
624.524	876.43
624.94	875.51
625.356	881.81
625.772	889.84
626.188	896.53
626.604	898.31
627.02	896.99
627.436	896.66
627.852	902.33
628.268	910.87
628.683	904.06
629.099	898.08
629.514	895.36
629.93	898.32
630.345	901.02
630.761	898.23
631.176	899.71
631.591	895.42
632.007	890.44
632.422	887.88
632.837	879.33
633.252	877.32
633.667	870.04
634.082	864.03
634.497	854.35
634.911	840.88
635.326	837.17
635.741	824.27
636.155	815.78
636.57	815.16
636.984	813.47
637.399	813.52
637.813	810.95
638.228	807.69
638.642	806.83
639.056	797.02
639.47	794.13
639.884	785.67
640.298	778.56
640.712	775
641.126	763.55
641.54	754.1
641.954	746.85
642.368	736.17
642.781	729.05
643.195	714.49
643.609	712.88
644.022	705.33
644.436	699.52
644.849	689.17
645.262	677.91
645.676	675.34
646.089	669.19
646.502	658.04
646.915	652.1
647.328	638.69
647.741	635.14
648.154	625
648.567	621.92
648.98	612.14
649.393	610.33
649.805	606.44
650.218	600.68
650.631	590.49
651.043	585.83
651.456	581.4
651.868	579.73
652.28	588.57
652.693	594.58
653.105	596.6
653.517	601.17
653.929	599.54
654.341	601.41
654.753	592.78
655.165	595.16
655.577	591.52
655.989	587.15
656.401	580.62
656.813	559
657.224	544.98
657.636	526.27
658.047	515.15
658.459	503.29
658.87	496.05
659.282	487.86
659.693	475.06
660.104	465.91
660.515	456.73
660.926	454.53
661.338	451.9
661.749	447.41
662.159	442.62
662.57	438.58
662.981	434.83
663.392	430.53
663.803	432.18
664.213	429.86
664.624	426.73
665.035	428.26
665.445	420.65
665.855	416.85
666.266	414.13
666.676	412.59
667.086	407.1
667.497	407.69
667.907	405.25
668.317	400.88
668.727	401.16
669.137	401.3
669.547	400.15
669.956	401.92
670.366	403.16
670.776	404.07
671.186	407.37
671.595	411.09
672.005	412.35
672.414	412.98
672.824	413.33
673.233	415.26
673.642	417.38
674.052	420.52
674.461	423.42
674.87	427.18
675.279	426.93
675.688	427.16
676.097	428.99
676.506	428.54
676.915	437.52
677.323	440.27
677.732	439.3
678.141	441.35
678.549	435.66
678.958	435.14
679.366	434.87
679.775	438.35
680.183	447.36
680.592	451.21
681	455.39
681.408	452.16
681.816	456.35
682.224	462.28
682.632	468.69
683.04	486.67
683.448	502.07
683.856	519.91
684.264	541.52
684.671	559.62
685.079	584.18
685.487	612.43
685.894	650.7
686.302	682.96
686.709	711.64
687.116	745
687.524	775.41
687.931	803.38
688.338	829.8
688.745	853.4
689.152	880.45
689.559	918.09
689.966	956.26
690.373	981.11
690.78	1021.89
691.187	1076.67
691.593	1123.04
692	1165.24
692.407	1223.46
692.813	1293.39
693.22	1352.9
693.626	1415.48
694.032	1469.55
694.439	1543.87
694.845	1606.94
695.251	1682.52
695.657	1753.98
696.063	1850.58
696.469	1929
696.875	2003.25
697.281	2055.29
697.687	2114.45
698.093	2167.22
698.498	2249.24
698.904	2317.76
699.31	2412.49
699.715	2485.31
700.12	2582.39
700.526	2616.49
700.931	2694.94
701.337	2758.7
