Data from C_1_HIR_IL_4N_Splice17_11-51-46-023.txt Node
Date: Sat Mar 14 11:51:46 EDT 2020
User: sa697716
Spectrometer: FLMS03696
Trigger mode: 0
Integration Time (sec): 3.180400E-1
Scans to average: 20
Electric dark correction enabled: true
Nonlinearity correction enabled: true
Boxcar width: 5
XAxis mode: Wavelengths
Number of Pixels in Spectrum: 2048
>>>>>Begin Spectral Data<<<<<
187.83	-229417.78
188.298	1768.37
188.766	955.37
189.233	798.31
189.701	1059.16
190.169	1455.79
190.636	543.98
191.104	443.08
191.571	85.55
192.039	-56.18
192.506	-83.99
192.974	286.83
193.441	-412
193.908	-55.49
194.375	-50.5
194.842	-61.14
195.31	-61.46
195.777	105.63
196.244	311.77
196.711	436.23
197.177	581.47
197.644	847.31
198.111	1471.22
198.578	2081.34
199.045	1708.05
199.511	2795.61
199.978	3266.43
200.445	2776.31
200.911	3072.22
201.378	3471.38
201.844	3180.69
202.31	5456.54
202.777	5661.1
203.243	3136.37
203.709	3002.97
204.176	3536.88
204.642	2926.64
205.108	2750.31
205.574	2270.46
206.04	2072.94
206.506	1923.01
206.972	1818.25
207.438	1770.55
207.903	2033.37
208.369	1791.43
208.835	1780.42
209.301	1863.31
209.766	1909.89
210.232	1904.75
210.697	2364.36
211.163	2950.35
211.628	4471.4
212.094	3744.24
212.559	4550.59
213.024	2808.89
213.49	3403.15
213.955	3323.74
214.42	3256.11
214.885	3034.33
215.35	2895.61
215.815	2745.31
216.28	2882.25
216.745	2349.23
217.21	2541.94
217.675	2329.26
218.14	2616.54
218.604	2913.57
219.069	3339.11
219.534	3497.71
219.998	4076.48
220.463	4925.71
220.927	6094.79
221.392	5729.81
221.856	5793.9
222.32	7286.09
222.785	8994.74
223.249	11320.43
223.713	12649.47
224.177	12600.11
224.642	16152.55
225.106	19841.93
225.57	21685.2
226.034	16082.5
226.497	24483.8
226.961	22168.76
227.425	25838.1
227.889	28651.03
228.353	28640.69
228.816	59056.24
229.28	56529.04
229.744	47690.12
230.207	28967.09
230.671	28505.65
231.134	47138.79
231.597	54300.95
232.061	54199.43
232.524	52750.48
232.987	36361.27
233.45	32705.46
233.914	29297.59
234.377	29993.69
234.84	27438.08
235.303	32344.63
235.766	36040.55
236.229	37216.89
236.691	23429.85
237.154	26305.42
237.617	19784.03
238.08	20257.69
238.542	23692.5
239.005	16967.71
239.468	16839.2
239.93	15847.83
240.393	14392.69
240.855	12637.76
241.317	12932.91
241.78	15723.65
242.242	16241.38
242.704	17541.29
243.166	15231.13
243.629	13816.17
244.091	15897.35
244.553	17411.03
245.015	18721.06
245.477	24218.58
245.939	35464.16
246.4	37638.96
246.862	36585.59
247.324	34453.41
247.786	38537.65
248.247	50564.63
248.709	52227.18
249.17	39071.86
249.632	36791.89
250.093	42651.54
250.555	36841.97
251.016	22469.69
251.477	21317.57
251.939	22993.03
252.4	24120.26
252.861	28704.43
253.322	26665.49
253.783	31753.35
254.244	41152.45
254.705	32440.65
255.166	28851.26
255.627	28395.27
256.088	40043.54
256.549	42536.49
257.009	36677.73
257.47	44547
257.931	36252.85
258.391	27212.01
258.852	28053.05
259.312	29414.11
259.773	36344.08
260.233	30685.77
260.694	25871.2
261.154	29360.26
261.614	23565.36
262.074	21080.75
262.534	21906.07
262.994	20660.63
263.455	27511.39
263.915	23168.78
264.374	21848.2
264.834	23857.1
265.294	26478.4
265.754	27427.41
266.214	25957.21
266.673	24325.9
267.133	30700.23
267.593	30459.32
268.052	37264.39
268.512	32438.56
268.971	39117.66
269.431	42904.41
269.89	38475.75
270.349	57691.47
270.809	64363.22
271.268	57927.25
271.727	130093.42
272.186	84308.88
272.645	63302.55
273.104	45637.52
273.563	66108.72
274.022	52054.14
274.481	44256.13
274.94	34061.82
275.399	25330.85
275.857	29534.02
276.316	39944.11
276.775	35524.72
277.233	34973.88
277.692	32724.23
278.15	37060.95
278.609	38137.78
279.067	35325.45
279.525	32828.94
279.984	42452.59
280.442	51023.99
280.9	50208.41
281.358	33021.77
281.816	30795.42
282.274	30171.03
282.732	31184.74
283.19	31351.21
283.648	27049.25
284.106	28819.39
284.564	29332.51
285.021	27188.59
285.479	20260.77
285.937	18465
286.394	16208.43
286.852	16672.37
287.309	17518.99
287.767	16919.18
288.224	16080.74
288.682	17663.59
289.139	19364.47
289.596	17701.42
290.053	18376.8
290.511	23178.87
290.968	28087.97
291.425	38106.05
291.882	31690.21
292.339	27587.94
292.796	27381.89
293.252	25794.02
293.709	20465.75
294.166	18335.76
294.623	20259.77
295.079	19460.01
295.536	19541.52
295.992	17729.88
296.449	17515.5
296.905	18206.16
297.362	17450.41
297.818	18338.15
298.274	19037.11
298.731	19376.6
299.187	19171.52
299.643	20589.09
300.099	24889.93
300.555	27304.9
301.011	22830.07
301.467	22007.28
301.923	25746.69
302.379	25119.93
302.835	24671.53
303.291	24683.52
303.746	28080.14
304.202	35461.24
304.658	35613.85
305.113	23961.03
305.569	23464.13
306.024	25005.9
306.479	23806.11
306.935	20063.5
307.39	21914.41
307.845	20232.91
308.301	20361.63
308.756	19877.93
309.211	19145.19
309.666	19601.7
310.121	24297.65
310.576	24658
311.031	24456.62
311.486	28018.47
311.94	28010.65
312.395	37486.92
312.85	70435.3
313.305	345883.14
313.759	1789928.42
314.214	129694.68
314.668	102675.48
315.123	86397.66
315.577	30982.67
316.032	27576.38
316.486	34569.73
316.94	27274
317.394	18981.9
317.849	14759.14
318.303	13965.2
318.757	13161.78
319.211	14539.74
319.665	12738.87
320.119	12915.55
320.572	18517.33
321.026	17272.51
321.48	14377.44
321.934	15681.03
322.387	15717.15
322.841	16970.25
323.295	15257.76
323.748	17572.44
324.202	17857.21
324.655	21436.99
325.108	29927.53
325.562	21160.91
326.015	25163.43
326.468	19006.15
326.921	21260.45
327.374	19824.63
327.827	20679.59
328.28	23421.72
328.733	15686.15
329.186	13793.45
329.639	13153.73
330.092	11074.66
330.545	10540.32
330.997	10639.9
331.45	11638.73
331.903	13634.03
332.355	23476.74
332.808	22807.63
333.26	18815.74
333.713	20472.5
334.165	20612.64
334.617	27552.99
335.069	22271.3
335.522	40323.49
335.974	44640.02
336.426	40810.3
336.878	28315.9
337.33	14339.05
337.782	13978.01
338.234	17507.88
338.686	20911.98
339.137	24807.82
339.589	23320.86
340.041	18301.55
340.493	15716.86
340.944	16108.72
341.396	17335.95
341.847	14572.69
342.299	17223.49
342.75	21054.31
343.201	18419.25
343.653	21213.73
344.104	26023.42
344.555	20503.68
345.006	31862.27
345.457	24377.55
345.908	19375.59
346.359	18237.72
346.81	14850.86
347.261	15642.19
347.712	15402.07
348.163	16516.8
348.613	16703.67
349.064	15568.75
349.515	13604.48
349.965	13955.71
350.416	16817.09
350.866	18427.84
351.317	20838.41
351.767	34464.89
352.217	43508.68
352.668	36093.04
353.118	32979.68
353.568	31804.9
354.018	25210.01
354.468	26625.91
354.918	19139.3
355.368	16732.83
355.818	23623.94
356.268	68000.5
356.718	284839.27
357.168	70913.91
357.617	35596.06
358.067	39644.32
358.517	37197.56
358.966	43633.56
359.416	48935.27
359.865	52855.77
360.315	63102.47
360.764	29470.4
361.213	16503.9
361.663	15650.12
362.112	19311.97
362.561	31167.48
363.01	23502.91
363.459	19772.75
363.908	21378.89
364.357	18191.4
364.806	30691.15
365.255	21044.33
365.703	19282.5
366.152	19315.2
366.601	15638.92
367.05	12690.51
367.498	11557.59
367.947	12087.3
368.395	12597.08
368.844	11189.49
369.292	13494.1
369.74	9345.8
370.189	14340.43
370.637	16847.17
371.085	14567.02
371.533	17806.86
371.981	17239.65
372.429	16458.01
372.877	17196.49
373.325	14397.04
373.773	14693.94
374.221	13130.84
374.669	16325.32
375.116	14154.67
375.564	14317.87
376.012	16078.94
376.459	13303.83
376.907	15938.21
377.354	19360.07
377.801	18130.66
378.249	20904.13
378.696	26825.8
379.143	32610.01
379.591	34930.13
380.038	59368.75
380.485	43188.07
380.932	46765.52
381.379	42947.4
381.826	31801.5
382.273	22698.34
382.72	19946.03
383.166	19554.91
383.613	12734.29
384.06	11530.36
384.506	13391.03
384.953	9878.6
385.4	9964.33
385.846	8755.91
386.292	8556.61
386.739	8383.13
387.185	8310.89
387.631	8325.78
388.078	8089.41
388.524	8683.06
388.97	8028.82
389.416	6710.65
389.862	7137.1
390.308	6767.17
390.754	6886.63
391.2	7495.28
391.645	7683.47
392.091	7354.37
392.537	7123.54
392.983	7135.76
393.428	7010.4
393.874	7516.86
394.319	7531.05
394.765	7142.39
395.21	7337.33
395.655	6866.51
396.101	6420.51
396.546	5785.86
396.991	5828.31
397.436	5385.28
397.881	5202.52
398.326	4919.35
398.771	4640.29
399.216	4052.24
399.661	3646.3
400.106	3630.55
400.551	3711.05
400.995	3321.62
401.44	3280.22
401.885	3079.57
402.329	3113.44
402.774	2974.62
403.218	2876.36
403.663	2765.4
404.107	2834.53
404.551	2845.41
404.995	2600.83
405.44	2497.45
405.884	2523.84
406.328	2436.59
406.772	2419.01
407.216	2193.03
407.66	2113.36
408.104	1996.25
408.547	1864.2
408.991	1800.77
409.435	1728.38
409.879	1699.8
410.322	1674.87
410.766	1614.69
411.209	1530
411.653	1468.76
412.096	1437.15
412.54	1436.01
412.983	1425.4
413.426	1426.95
413.869	1421.96
414.312	1393.99
414.756	1343.01
415.199	1279.96
415.642	1239.34
416.085	1240.17
416.527	1226.66
416.97	1243.57
417.413	1178.3
417.856	1163.23
418.298	1148.08
418.741	1140.37
419.184	1132.59
419.626	1174.03
420.069	1170.66
420.511	1175.82
420.953	1146.26
421.396	1135.4
421.838	1105.93
422.28	1129.17
422.722	1134.55
423.164	1148.11
423.606	1126.17
424.048	1125.62
424.49	1071.65
424.932	1067.21
425.374	1053.56
425.816	1073.15
426.258	1091.86
426.699	1101.51
427.141	1081.83
427.582	1096.28
428.024	1089.48
428.465	1083.38
428.907	1057.56
429.348	1044.2
429.789	1042.9
430.231	1018.63
430.672	1030.41
431.113	1005.13
431.554	990.28
431.995	967.72
432.436	934.23
432.877	914.04
433.318	896.47
433.759	890.37
434.2	889.11
434.64	879.57
435.081	883.71
435.522	839.08
435.962	809.17
436.403	791.93
436.843	802.96
437.284	785.57
437.724	765.2
438.164	768.21
438.604	753.08
439.045	722.95
439.485	692.37
439.925	677.69
440.365	660.62
440.805	649.18
441.245	641.29
441.685	618.95
442.125	613.5
442.564	615.67
443.004	600.09
443.444	596.72
443.883	597.37
444.323	592.9
444.762	591.86
445.202	598.67
445.641	611.94
446.081	607.36
446.52	610.32
446.959	602.93
447.398	588.26
447.837	581.43
448.276	570.63
448.716	576.65
449.154	578.31
449.593	564.11
450.032	561.94
450.471	548.84
450.91	549.13
451.349	547.75
451.787	545.29
452.226	553.4
452.664	552.42
453.103	553.27
453.541	550.57
453.98	550.14
454.418	552.78
454.856	543.43
455.295	541.21
455.733	543.52
456.171	544.66
456.609	546.28
457.047	546.28
457.485	554.54
457.923	555.88
458.361	548.47
458.798	550.73
459.236	549.92
459.674	552.81
460.111	556.24
460.549	552.16
460.987	550.75
461.424	547.7
461.862	545.17
462.299	535.66
462.736	534.43
463.173	537.31
463.611	532.15
464.048	531.89
464.485	536.2
464.922	531.47
465.359	528.33
465.796	523.5
466.233	520.26
466.67	515.52
467.106	515.06
467.543	509.95
467.98	503.29
468.416	489.42
468.853	484
469.29	470.97
469.726	466.26
470.162	453.64
470.599	445.22
471.035	440.4
471.471	429.37
471.907	425.99
472.344	423.4
472.78	423.24
473.216	427.88
473.652	422.85
474.088	420.9
474.523	418.84
474.959	422.23
475.395	418.49
475.831	415.53
476.266	416.66
476.702	414.39
477.138	407.9
477.573	405.39
478.008	403.37
478.444	405.38
478.879	408.07
479.314	408.92
479.75	407.4
480.185	408.75
480.62	411.39
481.055	413.08
481.49	417.1
481.925	423.23
482.36	431.41
482.795	442.52
483.229	453.27
483.664	461.74
484.099	463.08
484.534	471.04
484.968	474.95
485.403	475.96
485.837	474.88
486.271	472.33
486.706	472.94
487.14	467.42
487.574	460.25
488.009	455.65
488.443	451.86
488.877	456.8
489.311	457.45
489.745	463.25
490.179	468.26
490.613	477.19
491.046	481.76
491.48	484.58
491.914	484.61
492.348	488.31
492.781	491.5
493.215	493.52
493.648	493.76
494.082	497.42
494.515	497.02
494.948	502.62
495.382	505.45
495.815	508.66
496.248	513.54
496.681	523.46
497.114	531.63
497.547	538.95
497.98	548.34
498.413	554.29
498.846	562.43
499.279	569.59
499.711	572.86
500.144	576.14
500.577	584.99
501.009	593.51
501.442	601.75
501.874	603.76
502.306	607.66
502.739	614.85
503.171	626.46
503.603	631.01
504.036	640.35
504.468	646.65
504.9	656.7
505.332	664.3
505.764	670.01
506.196	677.4
506.627	690.78
507.059	703.35
507.491	712.07
507.923	713.74
508.354	727.47
508.786	738.22
509.217	755.19
509.649	770.31
510.08	788.61
510.512	805.43
510.943	821.11
511.374	833.52
511.805	852.84
512.237	872.22
512.668	902.73
513.099	928.96
513.53	955.38
513.961	977.18
514.391	1007.14
514.822	1038.88
515.253	1073.64
515.684	1100.11
516.114	1131.36
516.545	1155.17
516.975	1182.94
517.406	1203.29
517.836	1211.21
518.267	1224.63
518.697	1245.2
519.127	1256
519.558	1267.7
519.988	1275.64
520.418	1289.99
520.848	1309.93
521.278	1322.32
521.708	1343.77
522.138	1360.07
522.567	1391.84
522.997	1418.31
523.427	1436.42
523.857	1455.47
524.286	1469.08
524.716	1486.94
525.145	1507.48
525.575	1521.96
526.004	1539.99
526.433	1539.05
526.863	1542.35
527.292	1537.02
527.721	1544.63
528.15	1552.96
528.579	1556.61
529.008	1569.01
529.437	1592.76
529.866	1607.96
530.295	1626.38
530.724	1639.15
531.152	1665.43
531.581	1680.9
532.01	1699.38
532.438	1709.72
532.867	1725.97
533.295	1744.43
533.723	1751.95
534.152	1751.61
534.58	1753.32
535.008	1739.36
535.436	1742.8
535.865	1752.4
536.293	1767.32
536.721	1783.83
537.149	1807.72
537.576	1811.56
538.004	1824.88
538.432	1834.23
538.86	1833.94
539.287	1841.15
539.715	1855.83
540.143	1858.99
540.57	1855.59
540.998	1852
541.425	1829.56
541.852	1810.67
542.28	1809.86
542.707	1794.88
543.134	1781.31
543.561	1777.27
543.988	1770.87
544.415	1769.65
544.842	1764.18
545.269	1757.04
545.696	1760.39
546.123	1772.96
546.549	1762.91
546.976	1749.4
547.403	1748.26
547.829	1749.96
548.256	1752.8
548.682	1748.19
549.108	1740.6
549.535	1740.48
549.961	1742.01
550.387	1728.01
550.813	1722.36
551.24	1728.21
551.666	1728.72
552.092	1719.48
552.518	1712.05
552.943	1704.06
553.369	1710.32
553.795	1713.93
554.221	1714.03
554.646	1710.03
555.072	1719.86
555.498	1723.64
555.923	1730.39
556.349	1744.04
556.774	1750.02
557.199	1749.12
557.625	1754.38
558.05	1747.01
558.475	1755.87
558.9	1751.72
559.325	1740.94
559.75	1731.47
560.175	1722.7
560.6	1713.4
561.025	1707.48
561.449	1705.83
561.874	1709.6
562.299	1710.43
562.723	1715.36
563.148	1703.25
563.572	1704.37
563.997	1711.45
564.421	1712.48
564.846	1710.61
565.27	1711.42
565.694	1707.98
566.118	1715.44
566.542	1718.88
566.966	1709.11
567.39	1701.03
567.814	1687.43
568.238	1683.64
568.662	1684.85
569.086	1685.21
569.509	1688.43
569.933	1671.03
570.357	1659.83
570.78	1637.86
571.204	1622.46
571.627	1608.81
572.05	1603.2
572.474	1599.37
572.897	1584.68
573.32	1574.31
573.743	1561.56
574.166	1541.76
574.589	1539.18
575.012	1529.82
575.435	1525.28
575.858	1513.27
576.281	1501.29
576.704	1483.37
577.126	1469.07
577.549	1457.1
577.972	1444.69
578.394	1433.51
578.817	1424.54
579.239	1404.7
579.661	1388.9
580.084	1372.54
580.506	1358.8
580.928	1352.23
581.35	1340.88
581.772	1334.88
582.194	1321.16
582.616	1310.12
583.038	1295.29
583.46	1282.89
583.882	1277.46
584.303	1278.92
584.725	1272.57
585.147	1272.59
585.568	1279.36
585.99	1287.9
586.411	1292.28
586.833	1301.92
587.254	1300.21
587.675	1309.12
588.096	1318.34
588.518	1312.74
588.939	1296.87
589.36	1293.91
589.781	1283.03
590.202	1258.57
590.623	1249.57
591.043	1246.32
591.464	1234.85
591.885	1229.48
592.305	1224.89
592.726	1212.99
593.147	1213.77
593.567	1209.77
593.987	1203.47
594.408	1198.37
594.828	1195.7
595.248	1190.87
595.669	1175.56
596.089	1168.53
596.509	1163.54
596.929	1151.22
597.349	1150.79
597.769	1140.93
598.189	1134.21
598.608	1134.2
599.028	1134.37
599.448	1134.35
599.867	1123.51
600.287	1119.17
600.706	1115.32
601.126	1106.64
601.545	1105.07
601.965	1103.87
602.384	1098.65
602.803	1100.05
603.222	1095.67
603.641	1089.41
604.061	1084.64
604.48	1079.84
604.898	1084.1
605.317	1086.11
605.736	1086.26
606.155	1082.42
606.574	1072.38
606.992	1076.4
607.411	1071.45
607.829	1062.98
608.248	1059.44
608.666	1056.35
609.085	1054
609.503	1045.69
609.921	1039.63
610.339	1038.33
610.758	1035.99
611.176	1031.78
611.594	1021.47
612.012	1016.7
612.43	1016.39
612.847	1019.17
613.265	1018.07
613.683	1019.77
614.101	1018.97
614.518	1013.62
614.936	1004.97
615.353	992.48
615.771	987.56
616.188	986.77
616.606	982.03
617.023	975.81
617.44	963.84
617.857	956.84
618.274	948.74
618.691	942.35
619.108	934.26
619.525	928.46
619.942	931.77
620.359	932.86
620.776	927.36
621.192	924.52
621.609	922.13
622.026	925.18
622.442	928.68
622.859	930.51
623.275	924.75
623.691	928.23
624.108	935.9
624.524	945.93
624.94	944.84
625.356	952.34
625.772	961.12
626.188	969.24
626.604	971.19
627.02	967.49
627.436	965.49
627.852	970.78
628.268	979.32
628.683	972.53
629.099	965.73
629.514	962.19
629.93	964.72
630.345	967.5
630.761	964.39
631.176	966.11
631.591	961.33
632.007	956.85
632.422	954.53
632.837	945.61
633.252	942.84
633.667	935.02
634.082	926.45
634.497	915.44
634.911	900.44
635.326	895.1
635.741	880.85
636.155	871.56
636.57	870.31
636.984	868.3
637.399	868.36
637.813	866.27
638.228	862.16
638.642	863.93
639.056	854.56
639.47	852.07
639.884	844.93
640.298	838.54
640.712	836.33
641.126	824.7
641.54	816.23
641.954	809.61
642.368	799.07
642.781	793.38
643.195	779.89
643.609	777.82
644.022	771.7
644.436	767.27
644.849	757.44
645.262	746.64
645.676	747.04
646.089	741.8
646.502	730.81
646.915	725.46
647.328	712.06
647.741	709.28
648.154	700.35
648.567	698.11
648.98	688.74
649.393	688.04
649.805	686.14
650.218	679.77
650.631	668.85
651.043	664.24
651.456	659.37
651.868	659.74
652.28	669.86
652.693	677.88
653.105	681.19
653.517	686.21
653.929	685.02
654.341	687.29
654.753	679.64
655.165	682.75
655.577	679.75
655.989	676.46
656.401	669.5
656.813	646.03
657.224	632.77
657.636	612.75
658.047	600.93
658.459	588.66
658.87	582.16
659.282	573.49
659.693	560.47
660.104	550.82
660.515	541.87
660.926	539.85
661.338	536.66
661.749	531.32
662.159	525.93
662.57	523.66
662.981	520.76
663.392	516.58
663.803	519.48
664.213	517.7
664.624	515.26
665.035	518.37
665.445	510.45
665.855	507.37
666.266	503.55
666.676	503.14
667.086	497.77
667.497	498.19
667.907	495.73
668.317	490.7
668.727	490.82
669.137	492.4
669.547	490.94
669.956	493.3
670.366	495.91
670.776	498.05
671.186	501.31
671.595	504.45
672.005	507.53
672.414	508.17
672.824	509.25
673.233	512.37
673.642	515.73
674.052	519.21
674.461	521.96
674.87	525.99
675.279	526.04
675.688	527.32
676.097	529.54
676.506	528.14
676.915	538.63
677.323	539.9
677.732	539.91
678.141	540.03
678.549	533.49
678.958	533.32
679.366	533.43
679.775	536.34
680.183	544.62
680.592	548.43
681	553.55
681.408	548.45
681.816	554.11
682.224	559.73
682.632	565.9
683.04	584.78
683.448	601.78
683.856	621.43
684.264	644.85
684.671	665.36
685.079	692.17
685.487	720.8
685.894	762.32
686.302	794.99
686.709	821.41
687.116	852.33
687.524	880.95
687.931	905.26
688.338	925.32
688.745	944.01
689.152	965.44
689.559	996.04
689.966	1027.1
690.373	1045.66
690.78	1078.42
691.187	1129.37
691.593	1173.06
692	1210.05
692.407	1262.26
692.813	1327.95
693.22	1383.59
693.626	1440.54
694.032	1490.98
694.439	1561.68
694.845	1620.91
695.251	1693.29
695.657	1760.82
696.063	1853.57
696.469	1929.41
696.875	2003.2
697.281	2053.43
697.687	2112.27
698.093	2166.1
698.498	2248.67
698.904	2319.13
699.31	2415.5
699.715	2491.69
700.12	2591.59
