Data from C_1_HIR_WI_4N_Splice17_11-41-53-315.txt Node
Date: Sat Mar 14 11:41:53 EDT 2020
User: sa697716
Spectrometer: FLMS03696
Trigger mode: 0
Integration Time (sec): 3.180400E-1
Scans to average: 20
Electric dark correction enabled: true
Nonlinearity correction enabled: true
Boxcar width: 5
XAxis mode: Wavelengths
Number of Pixels in Spectrum: 2048
>>>>>Begin Spectral Data<<<<<
187.83	-108138.43
188.298	939.77
188.766	503.39
189.233	361
189.701	490.41
190.169	722.35
190.636	301.27
191.104	224.55
191.571	-11.52
192.039	-73.49
192.506	-92.43
192.974	264.45
193.441	-418.8
193.908	-134.03
194.375	-102.55
194.842	-90.19
195.31	-85.96
195.777	81.95
196.244	193.22
196.711	99.91
197.177	71.96
197.644	33.14
198.111	47.88
198.578	39.42
199.045	17.47
199.511	-10.53
199.978	-48.03
200.445	-10.51
200.911	-45.02
201.378	-138.67
201.844	-94.28
202.31	-203.49
202.777	-193.72
203.243	-110.71
203.709	-102.34
204.176	-136.34
204.642	-106.79
205.108	-106.41
205.574	-97.72
206.04	-123.46
206.506	-106.33
206.972	-115.55
207.438	-118.52
207.903	-136.6
208.369	-96.7
208.835	-71.34
209.301	-65.14
209.766	-68.17
210.232	-65.4
210.697	-104.61
211.163	-128.9
211.628	-243.6
212.094	-173.42
212.559	-95.43
213.024	-55.38
213.49	-44.09
213.955	-89.27
214.42	-127.43
214.885	-111.45
215.35	-66.27
215.815	32.19
216.28	51.01
216.745	46.05
217.21	81.67
217.675	35.35
218.14	35.09
218.604	3.36
219.069	21.39
219.534	73.53
219.998	64.46
220.463	40.54
220.927	-42.56
221.392	-46.44
221.856	-36.64
222.32	-117.04
222.785	-141
223.249	-147.86
223.713	-143.11
224.177	-136.66
224.642	-266.2
225.106	-328.08
225.57	-339.45
226.034	-179.44
226.497	-245.26
226.961	-153.84
227.425	-147.09
227.889	-152.1
228.353	-217.55
228.816	-582.69
229.28	-464.73
229.744	-379.47
230.207	-154.81
230.671	-159.2
231.134	-412.81
231.597	-371.85
232.061	-414.48
232.524	-409.77
232.987	-279.17
233.45	-187.85
233.914	-144.31
234.377	-219.31
234.84	-219.97
235.303	-314.1
235.766	-355.63
236.229	-368.21
236.691	-262.09
237.154	-332.71
237.617	-232.09
238.08	-239.44
238.542	-287.31
239.005	-189.01
239.468	-165.27
239.93	-135.71
240.393	-113.97
240.855	-91.76
241.317	-111.91
241.78	-160.7
242.242	-133.9
242.704	-95.38
243.166	-62.71
243.629	-26.41
244.091	-32.89
244.553	-40.24
245.015	-34.81
245.477	-47.74
245.939	-93.09
246.4	2.35
246.862	16.18
247.324	-25.81
247.786	-128.74
248.247	-230
248.709	-342.26
249.17	-210.08
249.632	-95.68
250.093	-66.15
250.555	-70.89
251.016	-3.2
251.477	-26.08
251.939	-10.04
252.4	-10.42
252.861	-32.92
253.322	-4.63
253.783	-40.4
254.244	-124.96
254.705	-168.14
255.166	-190.83
255.627	-178.17
256.088	-227.55
256.549	-226.65
257.009	-208.52
257.47	-284.08
257.931	-233.77
258.391	-169.22
258.852	-155
259.312	-160.26
259.773	-226.66
260.233	-132.38
260.694	-96.25
261.154	-144.33
261.614	-66.76
262.074	-73.05
262.534	-53.63
262.994	-32.38
263.455	-70.89
263.915	-59.39
264.374	-47.16
264.834	-35.42
265.294	-65.27
265.754	-49.19
266.214	-63.59
266.673	-70.61
267.133	-86.82
267.593	-110.63
268.052	-125.29
268.512	-117.7
268.971	-78.79
269.431	-63.97
269.89	-71.75
270.349	-103.94
270.809	-131.18
271.268	-65.13
271.727	-332.27
272.186	-224.57
272.645	-145.48
273.104	-157.48
273.563	-195.62
274.022	-244
274.481	-175.87
274.94	-114.06
275.399	-99.16
275.857	-154.35
276.316	-249.66
276.775	-232.54
277.233	-221.46
277.692	-189.29
278.15	-173.76
278.609	-145.51
279.067	-121.73
279.525	-124.5
279.984	-184.51
280.442	-221.29
280.9	-118.2
281.358	-76.28
281.816	-49.58
282.274	-49.21
282.732	-82.95
283.19	-121.19
283.648	-129.37
284.106	-145.43
284.564	-173.1
285.021	-138.47
285.479	-99.75
285.937	-137.5
286.394	-97.06
286.852	-109.48
287.309	-112.44
287.767	-62.49
288.224	-38.08
288.682	-44.9
289.139	-34.68
289.596	-15.61
290.053	-42.75
290.511	-77.43
290.968	-51.86
291.425	-113.02
291.882	-42.97
292.339	-27.17
292.796	-89.07
293.252	-119.53
293.709	-58.5
294.166	-56.34
294.623	-70.11
295.079	-69.36
295.536	-42.46
295.992	-34.6
296.449	-26.14
296.905	-15.46
297.362	14.75
297.818	19.12
298.274	56.24
298.731	41.47
299.187	26.29
299.643	22.76
300.099	35.1
300.555	23.57
301.011	12.99
301.467	74.28
301.923	36.18
302.379	21.3
302.835	25.83
303.291	29.06
303.746	22.67
304.202	38.87
304.658	15.16
305.113	19.3
305.569	24.8
306.024	15.09
306.479	-71.31
306.935	-24.01
307.39	-68.64
307.845	-74.11
308.301	-85.17
308.756	-108.29
309.211	-99.17
309.666	-106.04
310.121	-116.38
310.576	-148.55
311.031	-159.9
311.486	-205.98
311.94	-270.6
312.395	-383.04
312.85	-824.97
313.305	-4738.11
313.759	-19489.19
314.214	-1310.78
314.668	-968.12
315.123	-802.73
315.577	-239.25
316.032	-207.4
316.486	-270.13
316.94	-169.98
317.394	-90.05
317.849	-36.21
318.303	-44.53
318.757	-49.83
319.211	-69.34
319.665	-56.59
320.119	-47.51
320.572	-96.65
321.026	-76.06
321.48	-45.94
321.934	-87.38
322.387	-93.69
322.841	-87.88
323.295	-19.2
323.748	-75.07
324.202	-71.92
324.655	-85.7
325.108	-65.95
325.562	-14.17
326.015	-45.62
326.468	-26.72
326.921	-12.78
327.374	30.95
327.827	38.03
328.28	26.03
328.733	67.75
329.186	67.72
329.639	68.62
330.092	29
330.545	29.8
330.997	39.55
331.45	59.03
331.903	92.03
332.355	62.52
332.808	20.36
333.26	5.85
333.713	2.7
334.165	-31.3
334.617	-82.98
335.069	-107.78
335.522	-331.34
335.974	-374.63
336.426	-405
336.878	-345.02
337.33	-136.42
337.782	-121.26
338.234	-133.21
338.686	-207.49
339.137	-251.12
339.589	-227.41
340.041	-157.6
340.493	-117.07
340.944	-117.92
341.396	-141.66
341.847	-72.39
342.299	-60.72
342.75	-41.85
343.201	-81.78
343.653	-83.96
344.104	-94.58
344.555	-59.49
345.006	-159.54
345.457	-9.68
345.908	-8.95
346.359	33.78
346.81	24.15
347.261	5.5
347.712	-25.01
348.163	-37.09
348.613	13.51
349.064	20.9
349.515	17.34
349.965	31.86
350.416	-21
350.866	-28.66
351.317	-72.63
351.767	-157.41
352.217	-222.12
352.668	-185.66
353.118	-142.15
353.568	-215.32
354.018	-141.63
354.468	-115.84
354.918	-42.83
355.368	-21.38
355.818	-47.56
356.268	-209.16
356.718	-510.5
357.168	-40.78
357.617	5.83
358.067	-98.97
358.517	-135.45
358.966	-148.54
359.416	-133.61
359.865	-229.37
360.315	-451.23
360.764	-183.24
361.213	-82.42
361.663	-135.42
362.112	-222.78
362.561	-409.14
363.01	-239.44
363.459	-195.57
363.908	-243.68
364.357	-171.02
364.806	-321.42
365.255	-186.34
365.703	-153.7
366.152	-159.04
366.601	-105.05
367.05	-43.77
367.498	-13.36
367.947	-53.61
368.395	-56.12
368.844	-33.52
369.292	-121.73
369.74	-72.93
370.189	-142.46
370.637	-170.21
371.085	-155.08
371.533	-219.58
371.981	-266.49
372.429	-231.73
372.877	-246.02
373.325	-186.72
373.773	-222.8
374.221	-186.38
374.669	-243.2
375.116	-188.56
375.564	-207.57
376.012	-233.63
376.459	-150.58
376.907	-180.83
377.354	-266.25
377.801	-192.87
378.249	-208.38
378.696	-249.39
379.143	-271.12
379.591	-263.9
380.038	-468.27
380.485	-286.1
380.932	-264.14
381.379	-225.44
381.826	-63.31
382.273	-15.25
382.72	-56.23
383.166	-51.83
383.613	-11.14
384.06	-10.23
384.506	-0.67
384.953	0.53
385.4	-11.54
385.846	-9.99
386.292	-29.6
386.739	-50.51
387.185	-68.39
387.631	-64.34
388.078	-47.42
388.524	-66.93
388.97	-72.33
389.416	-53.33
389.862	-49.78
390.308	-38.9
390.754	-31.39
391.2	-27.02
391.645	-31.29
392.091	3.81
392.537	17.79
392.983	-8.27
393.428	31.78
393.874	36.53
394.319	50.94
394.765	65.37
395.21	53.58
395.655	46.44
396.101	39.45
396.546	45.28
396.991	23.11
397.436	21.01
397.881	20.41
398.326	-5.83
398.771	6.43
399.216	-1.42
399.661	-6.36
400.106	0.35
400.551	1.79
400.995	0.84
401.44	-1.52
401.885	0.25
402.329	-2.75
402.774	5.03
403.218	19.68
403.663	15.16
404.107	15.41
404.551	15.92
404.995	12.28
405.44	8.92
405.884	9.64
406.328	4.27
406.772	1.69
407.216	1.31
407.66	-3.12
408.104	-14.79
408.547	-14.44
408.991	-14.3
409.435	-15.45
409.879	-8.61
410.322	-6.23
410.766	-5.97
411.209	-0.96
411.653	1.15
412.096	5.1
412.54	1.61
412.983	4.32
413.426	8.38
413.869	6.67
414.312	10.27
414.756	4.82
415.199	1.63
415.642	5.88
416.085	6.43
416.527	4.49
416.97	1.7
417.413	7
417.856	6.26
418.298	3.35
418.741	0.35
419.184	-3.68
419.626	-9.18
420.069	-7.47
420.511	-9.39
420.953	-6.7
421.396	-5.86
421.838	-7.15
422.28	-9.82
422.722	-10.45
423.164	-11.21
423.606	-8.92
424.048	-9.72
424.49	-5.27
424.932	-8.57
425.374	-9.52
425.816	-13.7
426.258	-14.37
426.699	-11.45
427.141	-5.72
427.582	-8.12
428.024	-9.42
428.465	-12.2
428.907	-11.2
429.348	-11.99
429.789	-7.69
430.231	-4.1
430.672	-2.42
431.113	-4.48
431.554	-6.55
431.995	-10.62
432.436	-6.66
432.877	-5.08
433.318	-1.47
433.759	-1.38
434.2	-0.48
434.64	-1.43
435.081	-2.26
435.522	-1.14
435.962	1.29
436.403	3.37
436.843	1.34
437.284	-0.4
437.724	-2.66
438.164	-6.78
438.604	-7.04
439.045	-3.51
439.485	-1.08
439.925	-1.85
440.365	-4.48
440.805	-5.47
441.245	-4
441.685	-1.78
442.125	-0.98
442.564	-0.51
443.004	1.96
443.444	2.14
443.883	1.54
444.323	-3.43
444.762	-8.06
445.202	-8.02
445.641	-5.99
446.081	-9.55
446.52	-9.8
446.959	-9.5
447.398	-8
447.837	-8.22
448.276	-7.68
448.716	-7.82
449.154	-8.26
449.593	-4.15
450.032	-4.31
450.471	-6.2
450.91	-6.93
451.349	-6.3
451.787	-8.24
452.226	-9.12
452.664	-9.07
453.103	-9.77
453.541	-11.7
453.98	-7.3
454.418	-7.63
454.856	-4.65
455.295	-4.05
455.733	-1.73
456.171	-2.66
456.609	-0.47
457.047	0.23
457.485	2.3
457.923	4.13
458.361	4.09
458.798	2.21
459.236	1.66
459.674	-0.06
460.111	0.56
460.549	0.57
460.987	0.2
461.424	-0.17
461.862	-0.95
462.299	-1.47
462.736	-0.66
463.173	-1.56
463.611	2.24
464.048	3.7
464.485	4.12
464.922	2.86
465.359	2.39
465.796	11.09
466.233	11.91
466.67	15.08
467.106	16.62
467.543	14.47
467.98	14.46
468.416	12.2
468.853	10.48
469.29	8.99
469.726	8.43
470.162	8.16
470.599	1.13
471.035	-0.49
471.471	-2.25
471.907	-5.43
472.344	-5.55
472.78	-4.55
473.216	-5.96
473.652	-5.51
474.088	-5.4
474.523	-3.69
474.959	-4.74
475.395	-5.18
475.831	-5.05
476.266	-5.11
476.702	-4.65
477.138	-4.71
477.573	-4.77
478.008	-3.89
478.444	-2.62
478.879	-0.63
479.314	-0.73
479.75	0.1
480.185	0.4
480.62	0.38
481.055	0.31
481.49	1.18
481.925	1.77
482.36	4.1
482.795	2.89
483.229	1.73
483.664	0.27
484.099	-0.47
484.534	-0.16
484.968	1.08
485.403	0.98
485.837	0.03
486.271	-0.43
486.706	-1.18
487.14	-3.22
487.574	-2.32
488.009	-2.38
488.443	-2.23
488.877	-0.97
489.311	-1.79
489.745	-2.46
490.179	-1.72
490.613	0.93
491.046	0.67
491.48	1.25
491.914	1.57
492.348	1.19
492.781	1.83
493.215	1.7
493.648	0.52
494.082	0.81
494.515	0.91
494.948	1.23
495.382	-1.04
495.815	-0.83
496.248	-0.77
496.681	-0.89
497.114	-0.99
497.547	-0.87
497.98	0.56
498.413	2.28
498.846	2.92
499.279	2.14
499.711	1.14
500.144	1.47
500.577	2.53
501.009	2.18
501.442	2.9
501.874	3.78
502.306	3.19
502.739	5.12
503.171	4.32
503.603	4.63
504.036	4.87
504.468	5.36
504.9	5.13
505.332	3.98
505.764	4.34
506.196	4.33
506.627	4.14
507.059	4.2
507.491	1.17
507.923	1.66
508.354	1.54
508.786	2
509.217	2.13
509.649	2.28
510.08	2.46
510.512	3.41
510.943	3.25
511.374	3.14
511.805	2.75
512.237	2.48
512.668	0.91
513.099	-0.19
513.53	-0.8
513.961	-0.8
514.391	-0.58
514.822	0.84
515.253	0.4
515.684	0.44
516.114	0.47
516.545	1.11
516.975	1.15
517.406	1.34
517.836	0.95
518.267	1.62
518.697	2.04
519.127	2.12
519.558	0.99
519.988	0.49
520.418	-0.14
520.848	-1.32
521.278	-1.6
521.708	30.29
522.138	31.42
522.567	31.34
522.997	30.84
523.427	30.12
523.857	29.83
524.286	29.47
524.716	29.82
525.145	30.16
525.575	31.51
526.004	30.9
526.433	-0.43
526.863	-1.48
527.292	0.08
527.721	0.53
528.15	0.19
528.579	0.89
529.008	0.95
529.437	0.01
529.866	-0.51
530.295	-1.62
530.724	-0.38
531.152	0.11
531.581	0.96
532.01	0.2
532.438	-0.29
532.867	-0.31
533.295	-0.87
533.723	-0.79
534.152	0.03
534.58	0.61
535.008	1.17
535.436	1.77
535.865	1.09
536.293	-0.05
536.721	-0.3
537.149	0
537.576	0.73
538.004	1.03
538.432	0.67
538.86	0.43
539.287	0.14
539.715	0.22
540.143	-1.15
540.57	-0.54
540.998	-0.12
541.425	1.99
541.852	1.4
542.28	1.04
542.707	0.57
543.134	0.94
543.561	1.21
543.988	1.4
544.415	1.15
544.842	0.96
545.269	0.55
545.696	1.16
546.123	0.07
546.549	0.96
546.976	1.35
547.403	1.43
547.829	0.99
548.256	0.78
548.682	0.95
549.108	1.99
549.535	2.28
549.961	2.19
550.387	1.42
550.813	2.42
551.24	2.05
551.666	1.57
552.092	1.6
552.518	1.97
552.943	2.31
553.369	1.83
553.795	1.4
554.221	1.25
554.646	1.1
555.072	2.48
555.498	0.73
555.923	-0.04
556.349	0.02
556.774	-0.21
557.199	-1.09
557.625	-2.05
558.05	-2.01
558.475	-2.65
558.9	-2.04
559.325	-0.75
559.75	-1.05
560.175	-0.63
560.6	-0.11
561.025	-0.51
561.449	-0.44
561.874	-0.63
562.299	0.14
562.723	0.27
563.148	0.23
563.572	-0.48
563.997	-1.44
564.421	-2.27
564.846	-2.62
565.27	-2.27
565.694	-2.41
566.118	-2.11
566.542	-0.4
566.966	0.07
567.39	-0.03
567.814	0.58
568.238	1.07
568.662	0.72
569.086	0.89
569.509	0.43
569.933	1.47
570.357	1.67
570.78	1.46
571.204	1.64
571.627	1.12
572.05	1.39
572.474	1.94
572.897	1.51
573.32	2.09
573.743	1.62
574.166	2.65
574.589	1.38
575.012	1.21
575.435	0.98
575.858	0.69
576.281	0.12
576.704	-0.36
577.126	-1.3
577.549	-1.36
577.972	-1.8
578.394	-1.38
578.817	-0.09
579.239	0.4
579.661	1.22
580.084	2.45
580.506	2.71
580.928	2.7
581.35	2.45
581.772	2.71
582.194	3.32
582.616	2.6
583.038	1.55
583.46	0.03
583.882	-0.37
584.303	-1.57
584.725	-2.83
585.147	1.1
585.568	2.07
585.99	3.4
586.411	3.64
586.833	3.6
587.254	4.71
587.675	5.24
588.096	5.4
588.518	5.5
588.939	5.94
589.36	6.6
589.781	0.86
590.202	3.04
590.623	2.5
591.043	1.68
591.464	1.63
591.885	1.59
592.305	1.09
592.726	0.51
593.147	0.72
593.567	1.06
593.987	0.76
594.408	1.09
594.828	-2.08
595.248	-1.51
595.669	-0.35
596.089	-0.64
596.509	-1.4
596.929	-1.24
597.349	-1.14
597.769	-1.79
598.189	-1.66
598.608	-1.6
599.028	-1.68
599.448	-1.58
599.867	-2.48
600.287	-3.41
600.706	-2.41
601.126	-1.67
601.545	-0.44
601.965	-0.11
602.384	0.34
602.803	0.42
603.222	0.84
603.641	0.69
604.061	1.25
604.48	1.43
604.898	1.87
605.317	0.95
605.736	0.55
606.155	0.7
606.574	0.5
606.992	0.55
607.411	0.25
607.829	-0.9
608.248	-0.57
608.666	-1.08
609.085	-0.8
609.503	-1.64
609.921	-0.92
610.339	-0.88
610.758	-2.1
611.176	-1.91
611.594	-1.76
612.012	-1.53
612.43	-0.25
612.847	-0.74
613.265	0.37
613.683	-0.08
614.101	0.47
614.518	-0.75
614.936	-0.82
615.353	0.42
615.771	0.6
616.188	1.15
616.606	1.56
617.023	1.85
617.44	2.25
617.857	0.79
618.274	0.78
618.691	1.17
619.108	1.72
619.525	1.84
619.942	1.73
620.359	1.4
620.776	0.87
621.192	1.21
621.609	1.23
622.026	1.92
622.442	2.84
622.859	2.69
623.275	2.25
623.691	2.06
624.108	2.57
624.524	2.47
624.94	3.07
625.356	2.33
625.772	1.02
626.188	-0.06
626.604	-1.01
627.02	-1.37
627.436	-0.41
627.852	0.86
628.268	1.77
628.683	0.81
629.099	0.25
629.514	-0.85
629.93	-0.83
630.345	-1.03
630.761	-1.55
631.176	-1.5
631.591	-0.05
632.007	0.4
632.422	-1.26
632.837	-2.97
633.252	-1.49
633.667	-1.96
634.082	-1.55
634.497	-0.62
634.911	1.31
635.326	2.1
635.741	2.73
636.155	1.65
636.57	1.95
636.984	2.62
637.399	4.54
637.813	3.75
638.228	3.92
638.642	3.23
639.056	2.88
639.47	2.3
639.884	1.75
640.298	1.63
640.712	2.22
641.126	1.67
641.54	1.04
641.954	-1.76
642.368	-1.47
642.781	1.65
643.195	2.31
643.609	2.56
644.022	1.6
644.436	1.67
644.849	1.54
645.262	0.08
645.676	-1.09
646.089	-1.22
646.502	1.27
646.915	0.21
647.328	-1.31
647.741	-0.65
648.154	-0.76
648.567	2.67
648.98	2.94
649.393	2.8
649.805	3.78
650.218	3.57
650.631	4.26
651.043	3.93
651.456	5.09
651.868	4.56
652.28	3.16
652.693	2.6
653.105	-0.4
653.517	-0.07
653.929	-0.12
654.341	-0.02
654.753	1.29
655.165	0.69
655.577	-0.02
655.989	-0.63
656.401	-1.82
656.813	-0.15
657.224	-0.31
657.636	-0.64
658.047	0.19
658.459	-0.4
658.87	-0.79
659.282	-2.05
659.693	-1.2
660.104	0.27
660.515	0.2
660.926	-0.12
661.338	-1.01
661.749	-1.42
662.159	-0.82
662.57	-2.3
662.981	-1.28
663.392	-2.44
663.803	-1.79
664.213	-2.08
664.624	-3.05
665.035	-3.84
665.445	-3.72
665.855	-2.82
666.266	-1.37
666.676	-1.55
667.086	-1.86
667.497	-1.55
667.907	-1.05
668.317	-1.46
668.727	1.66
669.137	0.61
669.547	0.56
669.956	0.53
670.366	0.08
670.776	-0.15
671.186	-0.2
671.595	0.85
672.005	-0.57
672.414	0.16
672.824	0.98
673.233	-2.45
673.642	-2.11
674.052	-0.79
674.461	0.55
674.87	0.48
675.279	1.54
675.688	0.32
676.097	0.94
676.506	1.15
676.915	-0.22
677.323	-0.88
677.732	-0.58
678.141	-0.56
678.549	-1.07
678.958	-3
679.366	-3.97
679.775	-6.43
680.183	-3.93
680.592	-4.85
681	-4.8
681.408	-4.19
681.816	-4.82
682.224	-5.31
682.632	-2.84
683.04	-3.05
683.448	-2.62
683.856	-0.76
684.264	0.47
684.671	-1.93
685.079	-2.45
685.487	-2.71
685.894	-2.6
686.302	-3.21
686.709	-2.71
687.116	-4.1
687.524	-2.21
687.931	0.16
688.338	-0.7
688.745	-1.75
689.152	-1.44
689.559	-1.69
689.966	0.27
690.373	0.86
690.78	3.75
691.187	3.58
691.593	3.44
692	1.34
692.407	0.75
692.813	3.22
693.22	4.49
693.626	3.18
694.032	4.33
694.439	3.84
694.845	3.63
695.251	1.56
695.657	2.1
696.063	0.9
696.469	0.6
696.875	0.07
697.281	-2.58
697.687	-2.51
698.093	-1.06
698.498	-0.78
698.904	-2.5
699.31	-2.74
699.715	-0.6
700.12	-1.1
700.526	0.22
700.931	0.13
701.337	0.77
701.742	1.83
702.147	1.75
702.552	2.04
702.957	0.91
703.362	1.62
703.767	1.88
704.172	-0.37
704.577	-0.76
704.981	-2.21
705.386	-1.22
705.791	-1.44
706.195	-2.79
706.6	-3.65
707.004	-5.27
707.408	-5.32
707.813	-3.88
708.217	-3.42
708.621	-2.53
709.025	-2.39
709.43	-0.33
709.834	-1.11
710.237	-2.28
710.641	-1.65
711.045	-0.25
711.449	2.05
711.853	5.58
712.256	3.96
712.66	2.98
713.064	2.7
713.467	3.65
713.87	2.74
714.274	3.45
714.677	4.41
715.08	5.13
715.484	4.52
715.887	6.56
716.29	2.47
716.693	4.33
717.096	6.91
717.499	7.14
717.901	6.38
718.304	5.24
718.707	5.55
719.109	5.76
719.512	4.51
719.915	7.1
720.317	4.89
720.719	4.77
721.122	3.27
721.524	1.79
721.926	5.45
722.328	5.41
722.731	5.35
723.133	4.93
723.535	3.95
723.937	2.76
724.338	2.33
724.74	2.64
725.142	53.22
725.544	58.05
725.945	71.58
726.347	68.43
726.748	69.11
727.15	71.12
727.551	74.85
727.952	72.99
728.354	72.52
728.755	71.36
729.156	69.24
729.557	20.34
729.958	15.44
730.359	2.28
730.76	1.96
731.161	2.07
731.562	0.37
731.962	-2.75
732.363	-1.72
732.763	-0.8
733.164	-3.37
733.564	-2.85
733.965	-1.64
734.365	-0.69
734.766	-0.8
735.166	-1.47
735.566	-0.55
735.966	0.24
736.366	-0.14
736.766	0.73
737.166	-0.1
737.566	0.9
737.966	1.8
738.365	2.12
738.765	3.08
739.165	3.02
739.564	2.77
739.964	0.33
740.363	-0.74
740.763	-1.03
741.162	-0.09
741.561	0.24
741.96	0.33
742.36	-0.47
742.759	-0.94
743.158	-3.42
743.557	-3.74
743.955	-3.41
744.354	-3.28
744.753	-3.88
745.152	-2.44
745.55	-3.68
745.949	-3.29
746.348	-3.51
746.746	-5.34
747.144	-2.83
747.543	-2.62
747.941	-3.58
748.339	-3.6
748.737	-2.55
749.136	-1.39
749.534	-4.17
749.932	-2.58
750.33	-3.33
750.727	-4.37
751.125	-1.99
751.523	-4.08
751.921	-0.76
752.318	1.17
752.716	2.85
753.113	3.27
753.511	2.44
753.908	3.9
754.305	7.2
754.703	7.68
755.1	9.73
755.497	8.93
755.894	8.23
756.291	5.04
756.688	5.47
757.085	4.2
757.482	4.14
757.878	7.61
758.275	8.19
758.672	-2.18
759.068	-3.4
