Data from C_1_DIV_IL_4N_Splice17_11-59-17-175.txt Node
Date: Sat Mar 14 11:59:17 EDT 2020
User: sa697716
Spectrometer: FLMS03696
Trigger mode: 0
Integration Time (sec): 3.180400E-1
Scans to average: 20
Electric dark correction enabled: true
Nonlinearity correction enabled: true
Boxcar width: 5
XAxis mode: Wavelengths
Number of Pixels in Spectrum: 2048
>>>>>Begin Spectral Data<<<<<
187.83	-315720.95
188.298	2222.96
188.766	1190.14
189.233	1061.29
189.701	1501.71
190.169	2024.41
190.636	794.81
191.104	589.11
191.571	69.32
192.039	-63.42
192.506	-52.6
192.974	321.89
193.441	-498.72
193.908	-46.96
194.375	-9.47
194.842	25.84
195.31	5.48
195.777	100.43
196.244	273.2
196.711	340.52
197.177	452.73
197.644	635.55
198.111	1090.3
198.578	1492.67
199.045	1202.1
199.511	1985.14
199.978	2336.34
200.445	2021.56
200.911	2278.27
201.378	2529.33
201.844	2310.44
202.31	3982.16
202.777	4147.86
203.243	2315.41
203.709	2231.47
204.176	2675.66
204.642	2208.93
205.108	2074.31
205.574	1693.53
206.04	1541.05
206.506	1447.82
206.972	1353.58
207.438	1289.01
207.903	1470.77
208.369	1285.55
208.835	1289.97
209.301	1349.08
209.766	1372.66
210.232	1367.1
210.697	1699.99
211.163	2099.76
211.628	3185.4
212.094	2699.59
212.559	3362.65
213.024	2117.3
213.49	2618.83
213.955	2544.85
214.42	2505.48
214.885	2354.6
215.35	2274.57
215.815	2191.57
216.28	2340.04
216.745	1912.33
217.21	2101.96
217.675	1948.31
218.14	2212.48
218.604	2522.45
219.069	2941.42
219.534	3142.45
219.998	3716.57
220.463	4577.84
220.927	5744.83
221.392	5496.79
221.856	5650.28
222.32	7201.13
222.785	8963.3
223.249	11400.34
223.713	12822.61
224.177	12929.5
224.642	16674.22
225.106	20632.22
225.57	22607.2
226.034	16884.45
226.497	25778.94
226.961	23342.55
227.425	27200.38
227.889	30326.77
228.353	30378.02
228.816	62779.19
229.28	60127.81
229.744	50832.05
230.207	30930.91
230.671	30554.06
231.134	50630.17
231.597	58341.12
232.061	58352.5
232.524	57052.46
232.987	39308.62
233.45	35383.6
233.914	31762.8
234.377	32592.84
234.84	29842.24
235.303	35230.4
235.766	39312.35
236.229	40675.74
236.691	25679.99
237.154	28919.93
237.617	21767.37
238.08	22311.34
238.542	26180.72
239.005	18738.63
239.468	18593.3
239.93	17534.64
240.393	15944.81
240.855	14006.58
241.317	14348.01
241.78	17469.59
242.242	18042.49
242.704	19505.24
243.166	16990.05
243.629	15425.82
244.091	17785.55
244.553	19508.87
245.015	20997.75
245.477	27155.7
245.939	39809.41
246.4	42250.93
246.862	41096.45
247.324	38800.86
247.786	43391.74
248.247	56943.41
248.709	58864.75
249.17	44066.48
249.632	41598.32
250.093	48240.23
250.555	41736.31
251.016	25480.58
251.477	24206.22
251.939	26140.61
252.4	27439.36
252.861	32693.06
253.322	30422.63
253.783	36224.84
254.244	47001.75
254.705	37070.89
255.166	32987.41
255.627	32465.07
256.088	45759.63
256.549	48574.66
257.009	41848.09
257.47	50822.79
257.931	41398.27
258.391	31028.55
258.852	32012.08
259.312	33574.63
259.773	41475.25
260.233	35061.4
260.694	29633.47
261.154	33672.52
261.614	27075.68
262.074	24224.05
262.534	25183.84
262.994	23744.32
263.455	31677.6
263.915	26713.77
264.374	25198.07
264.834	27530.04
265.294	30558.59
265.754	31645.38
266.214	29946.74
266.673	28066.35
267.133	35448.01
267.593	35186.34
268.052	43089.35
268.512	37491.88
268.971	45216.83
269.431	49613.09
269.89	44454
270.349	66636.95
270.809	74343.33
271.268	66864.06
271.727	150020.48
272.186	97234.01
272.645	72957.19
273.104	52630.65
273.563	76216.42
274.022	59989.08
274.481	50974.08
274.94	39247.57
275.399	29187.75
275.857	34003.89
276.316	46026.9
276.775	40947.28
277.233	40312.57
277.692	37711.07
278.15	42654.12
278.609	43887.49
279.067	40570.95
279.525	37698.26
279.984	48747.22
280.442	58498.85
280.9	57586.59
281.358	37848.17
281.816	35264.93
282.274	34502.72
282.732	35651.48
283.19	35817.66
283.648	30894.14
284.106	32911.25
284.564	33465.36
285.021	31004.23
285.479	23109.51
285.937	21022.91
286.394	18450.4
286.852	18989.23
287.309	19959.36
287.767	19281.58
288.224	18335.55
288.682	20122.54
289.139	22080.36
289.596	20189.32
290.053	20976.55
290.511	26466.74
290.968	32135.05
291.425	43651.56
291.882	36355.98
292.339	31674.79
292.796	31472.36
293.252	29679.91
293.709	23571.3
294.166	21149.98
294.623	23407.99
295.079	22469.95
295.536	22591.1
295.992	20518.31
296.449	20280.42
296.905	21056.49
297.362	20170.39
297.818	21193.92
298.274	21968.82
298.731	22411.55
299.187	22165.71
299.643	23799.66
300.099	28799.91
300.555	31609.16
301.011	26417.2
301.467	25441.47
301.923	29819.41
302.379	29138.16
302.835	28628.7
303.291	28666.77
303.746	32571.34
304.202	41160.91
304.658	41308.87
305.113	27777.3
305.569	27199.93
306.024	28974.63
306.479	27633.72
306.935	23270.45
307.39	25415.56
307.845	23449.66
308.301	23587.51
308.756	22997.35
309.211	22136.81
309.666	22673.48
310.121	28121.4
310.576	28535.97
311.031	28286.04
311.486	32378.55
311.94	32352.08
312.395	43220.95
312.85	81262.67
313.305	399318.64
313.759	2065517.03
314.214	149570.51
314.668	118524.48
315.123	99558.27
315.577	35700.94
316.032	31782.79
316.486	39810.97
316.94	31395.17
317.394	21866.17
317.849	16995.87
318.303	16097.9
318.757	15185.46
319.211	16802.6
319.665	14696.95
320.119	14889.9
320.572	21363.35
321.026	19929.66
321.48	16584.49
321.934	18096.5
322.387	18136.44
322.841	19590.14
323.295	17596.71
323.748	20278.6
324.202	20578.51
324.655	24719.57
325.108	34511.67
325.562	24349.19
326.015	28984.83
326.468	21875.8
326.921	24452.19
327.374	22811.6
327.827	23743.9
328.28	26864.96
328.733	18006.92
329.186	15832.46
329.639	15086.7
330.092	12714.75
330.545	12103.4
330.997	12194.12
331.45	13351.8
331.903	15632.25
332.355	26862.2
332.808	26094.77
333.26	21565.35
333.713	23374.15
334.165	23527.3
334.617	31395.2
335.069	25363.42
335.522	45950.33
335.974	50945.41
336.426	46516.55
336.878	32168.99
337.33	16300.99
337.782	15907.39
338.234	19882.98
338.686	23808.44
339.137	28181.19
339.589	26532.75
340.041	20803.55
340.493	17857.45
340.944	18247.29
341.396	19633.32
341.847	16546
342.299	19537.11
342.75	23846.52
343.201	20852.12
343.653	24006.37
344.104	29479.95
344.555	23234.96
345.006	36197.45
345.457	27693.21
345.908	22012.4
346.359	20734.68
346.81	16878.01
347.261	17788.31
347.712	17539.44
348.163	18801.25
348.613	19004.36
349.064	17762.07
349.515	15532.54
349.965	15954.89
350.416	19217.71
350.866	21117.26
351.317	23855.48
351.767	39530.36
352.217	49993.2
352.668	41497.43
353.118	38094.22
353.568	36789.31
354.018	29118.63
354.468	30740.43
354.918	22012.11
355.368	19275.3
355.818	27229.87
356.268	78454.02
356.718	328761.61
357.168	81870.82
357.617	41068.33
358.067	45662.23
358.517	42797.07
358.966	50209.76
359.416	56324.15
359.865	60961.09
360.315	72702.14
360.764	34038.02
361.213	19081.7
361.663	18091.6
362.112	22354.14
362.561	36233.01
363.01	27338.17
363.459	23069.67
363.908	25018.41
364.357	21293.67
364.806	36034.33
365.255	24843.76
365.703	22782.42
366.152	22873.69
366.601	18616.76
367.05	15166.72
367.498	13794.48
367.947	14477.97
368.395	15108.26
368.844	13413.84
369.292	16253.66
369.74	11281.06
370.189	17315.93
370.637	20385.63
371.085	17667.48
371.533	21571.83
371.981	20894.43
372.429	20004.48
372.877	20945.74
373.325	17596.03
373.773	18083
374.221	16183.05
374.669	20175.68
375.116	17570.43
375.564	17788.29
376.012	20010.97
376.459	16608.66
376.907	19921.44
377.354	24236.52
377.801	22679.67
378.249	26206.05
378.696	33577.47
379.143	40856.66
379.591	43818.98
380.038	74439.59
380.485	54051.59
380.932	58702.7
381.379	53883.86
381.826	39888.03
382.273	28531.9
382.72	25143.44
383.166	24602.71
383.613	16028.68
384.06	14525.45
384.506	16866.23
384.953	12440.52
385.4	12579.37
385.846	11055.45
386.292	10829.17
386.739	10634.63
387.185	10552.56
387.631	10562.68
388.078	10282.7
388.524	11040.49
388.97	10203.29
389.416	8514.92
389.862	9056.54
390.308	8597.89
390.754	8741.15
391.2	9515.45
391.645	9756.74
392.091	9313.63
392.537	9018.48
392.983	9048.43
393.428	8873.95
393.874	9518.79
394.319	9545.87
394.765	9041.26
395.21	9309.1
395.655	8715.08
396.101	8151.23
396.546	7348.77
396.991	7422.51
397.436	6882.69
397.881	6643.66
398.326	6294.84
398.771	5939.92
399.216	5186.36
399.661	4673.66
400.106	4629.76
400.551	4729.91
400.995	4224.14
401.44	4171.24
401.885	3905.91
402.329	3934.87
402.774	3760.05
403.218	3626.17
403.663	3490.26
404.107	3583.28
404.551	3592.55
404.995	3291.79
405.44	3166.28
405.884	3210.4
406.328	3095.44
406.772	3085.31
407.216	2801
407.66	2699.94
408.104	2563
408.547	2389.59
408.991	2304.35
409.435	2215.58
409.879	2179.49
410.322	2141.96
410.766	2060.79
411.209	1956.07
411.653	1868.85
412.096	1826.96
412.54	1824.08
412.983	1805.09
413.426	1804.67
413.869	1799.16
414.312	1761.75
414.756	1696.72
415.199	1618.29
415.642	1568.5
416.085	1565.6
416.527	1552.08
416.97	1574.92
417.413	1489.81
417.856	1472.98
418.298	1459.55
418.741	1451.34
419.184	1446.41
419.626	1506.43
420.069	1504.36
420.511	1512.11
420.953	1476.6
421.396	1462.67
421.838	1422.6
422.28	1453.19
422.722	1458.38
423.164	1474.39
423.606	1446.55
424.048	1443.64
424.49	1367.11
424.932	1359.05
425.374	1338.53
425.816	1362.35
426.258	1386.54
426.699	1399.44
427.141	1376.07
427.582	1395.68
428.024	1388.24
428.465	1379.45
428.907	1341.34
429.348	1321.58
429.789	1316.88
430.231	1287.05
430.672	1300.02
431.113	1263.67
431.554	1243.79
431.995	1213.31
432.436	1166.13
432.877	1137.62
433.318	1113.4
433.759	1105.28
434.2	1104.94
434.64	1093.16
435.081	1093.44
435.522	1035.61
435.962	998.14
436.403	974.24
436.843	985.21
437.284	964.31
437.724	937.27
438.164	939.12
438.604	919.92
439.045	884.8
439.485	846.03
439.925	827.84
440.365	804.14
440.805	793.34
441.245	783.32
441.685	754.08
442.125	747.89
442.564	752.3
443.004	735.67
443.444	733.5
443.883	732.74
444.323	727.49
444.762	726.91
445.202	738.52
445.641	750.82
446.081	747.26
446.52	753.15
446.959	745.29
447.398	726.43
447.837	716.82
448.276	702.48
448.716	709.28
449.154	716.31
449.593	700.31
450.032	697.99
450.471	683.99
450.91	682.42
451.349	680.42
451.787	676.63
452.226	685.6
452.664	683.81
453.103	685.09
453.541	681.77
453.98	678.64
454.418	682.28
454.856	670.31
455.295	668.82
455.733	675.29
456.171	677.15
456.609	678.93
457.047	679.32
457.485	689.5
457.923	690.08
458.361	682.38
458.798	685.82
459.236	684.82
459.674	689.45
460.111	693.29
460.549	686.35
460.987	685.53
461.424	683.34
461.862	680.4
462.299	670.35
462.736	670.73
463.173	672.39
463.611	664.34
464.048	661.53
464.485	667.34
464.922	661.05
465.359	656.37
465.796	647.07
466.233	641.33
466.67	634.28
467.106	632.57
467.543	625.21
467.98	616.78
468.416	600.7
468.853	596.87
469.29	578.73
469.726	572.58
470.162	557.96
470.599	550.87
471.035	547.08
471.471	534.67
471.907	531.68
472.344	528.44
472.78	529.6
473.216	536.24
473.652	529.6
474.088	528.64
474.523	526.58
474.959	532.26
475.395	527.01
475.831	522.54
476.266	525
476.702	523.08
477.138	517.39
477.573	515.19
478.008	512.51
478.444	514.16
478.879	518.38
479.314	520.35
479.75	518.81
480.185	521.09
480.62	525.58
481.055	528.13
481.49	532.11
481.925	539.72
482.36	549.95
482.795	564.88
483.229	580.41
483.664	591.44
484.099	593.7
484.534	602.81
484.968	609.47
485.403	611.93
485.837	611.83
486.271	610.57
486.706	611.03
487.14	603.83
487.574	595.52
488.009	589.64
488.443	585.47
488.877	591.33
489.311	593.3
489.745	599.72
490.179	605.11
490.613	616.13
491.046	621.35
491.48	626.08
491.914	627.43
492.348	631.93
492.781	636.65
493.215	638.24
493.648	640.76
494.082	646.65
494.515	647.14
494.948	654.25
495.382	658.29
495.815	662.49
496.248	668.1
496.681	679.82
497.114	689.75
497.547	698.81
497.98	710.64
498.413	715.52
498.846	724.16
499.279	732.36
499.711	736.35
500.144	739.5
500.577	749.62
501.009	759.44
501.442	768.51
501.874	770.37
502.306	772.83
502.739	780.64
503.171	794.83
503.603	797.98
504.036	806.55
504.468	811.81
504.9	821.05
505.332	827.13
505.764	830.32
506.196	836.44
506.627	849.48
507.059	860.66
507.491	868.22
507.923	865.97
508.354	878.32
508.786	887.64
509.217	904.08
509.649	918.16
510.08	935.32
510.512	950.78
510.943	964.16
511.374	972.89
511.805	991.22
512.237	1007.11
512.668	1035.09
513.099	1058.92
513.53	1082.49
513.961	1099.28
514.391	1126.01
514.822	1154.31
515.253	1184.8
515.684	1205.77
516.114	1232.29
516.545	1249.31
516.975	1270.96
517.406	1285.27
517.836	1285.59
518.267	1288.83
518.697	1303.39
519.127	1305.35
519.558	1308.92
519.988	1310.51
520.418	1317.73
520.848	1330.24
521.278	1335.57
521.708	1351.54
522.138	1361.23
522.567	1386.83
522.997	1407.95
523.427	1418.79
523.857	1431.04
524.286	1439.49
524.716	1450.62
525.145	1465.88
525.575	1474.62
526.004	1486.28
526.433	1476.4
526.863	1474.9
527.292	1465
527.721	1468.15
528.15	1472.49
528.579	1473.04
529.008	1480.54
529.437	1499.57
529.866	1510.36
530.295	1523.06
530.724	1532.09
531.152	1554.42
531.581	1565.49
532.01	1580.43
532.438	1586.87
532.867	1598.62
533.295	1612.83
533.723	1616.73
534.152	1614.78
534.58	1613.7
535.008	1599.5
535.436	1600.43
535.865	1606.84
536.293	1619.11
536.721	1632.05
537.149	1653.71
537.576	1655.84
538.004	1667.42
538.432	1675.27
538.86	1673.58
539.287	1678.33
539.715	1690.53
540.143	1693.91
540.57	1690.77
540.998	1686.85
541.425	1666.56
541.852	1648.29
542.28	1647.46
542.707	1633.06
543.134	1620.12
543.561	1615.95
543.988	1610.43
544.415	1609.98
544.842	1604.41
545.269	1597.78
545.696	1599.25
546.123	1610.49
546.549	1600.62
546.976	1588.12
547.403	1586.87
547.829	1587.97
548.256	1588.58
548.682	1584.65
549.108	1577.43
549.535	1577.25
549.961	1578.26
550.387	1566.4
550.813	1560.71
551.24	1565.71
551.666	1566.36
552.092	1557.28
552.518	1552.41
552.943	1546.27
553.369	1552.13
553.795	1556.28
554.221	1555.36
554.646	1551.98
555.072	1560.17
555.498	1563.33
555.923	1572.17
556.349	1584.85
556.774	1593.09
557.199	1593.57
557.625	1599.63
558.05	1593.66
558.475	1603.24
558.9	1603.6
559.325	1597.54
559.75	1592.64
560.175	1587.4
560.6	1580.8
561.025	1577.57
561.449	1578.01
561.874	1581.56
562.299	1585.02
562.723	1591.53
563.148	1582.65
563.572	1585.27
563.997	1593.86
564.421	1598.68
564.846	1599.45
565.27	1602.95
565.694	1602.95
566.118	1613.25
566.542	1620.48
566.966	1615.67
567.39	1613.49
567.814	1605.84
568.238	1606.92
568.662	1612.29
569.086	1616.16
569.509	1624.27
569.933	1612.5
570.357	1605.88
570.78	1588.63
571.204	1578.84
571.627	1570.78
572.05	1569.5
572.474	1570.14
572.897	1559.78
573.32	1553.28
573.743	1545.29
574.166	1530.74
574.589	1532.21
575.012	1526.43
575.435	1526.17
575.858	1519.29
576.281	1510.31
576.704	1496.53
577.126	1484.7
577.549	1475.54
577.972	1466.83
578.394	1457.1
578.817	1450.61
579.239	1432.16
579.661	1420.15
580.084	1405.71
580.506	1393.35
580.928	1389.52
581.35	1380.68
581.772	1376.92
582.194	1365.2
582.616	1354.54
583.038	1341.82
583.46	1332.23
583.882	1330.69
584.303	1335.57
584.725	1332.83
585.147	1334.48
585.568	1343.33
585.99	1352.97
586.411	1358.44
586.833	1370.44
587.254	1371.25
587.675	1383.16
588.096	1393.42
588.518	1387.49
588.939	1371.74
589.36	1369.18
589.781	1359.27
590.202	1334.73
590.623	1327.87
591.043	1325.98
591.464	1315.19
591.885	1311.93
592.305	1307.89
592.726	1296.49
593.147	1298.82
593.567	1295.02
593.987	1288.45
594.408	1285.46
594.828	1283.84
595.248	1279.26
595.669	1263.75
596.089	1258.25
596.509	1253.89
596.929	1242.17
597.349	1243.54
597.769	1235.19
598.189	1229.63
598.608	1231.17
599.028	1232.59
599.448	1232.69
599.867	1221.19
600.287	1217.57
600.706	1214.57
601.126	1206.06
601.545	1205.93
601.965	1203.95
602.384	1198.92
602.803	1201.17
603.222	1197.37
603.641	1191.83
604.061	1188.89
604.48	1185.22
604.898	1192.55
605.317	1196.5
605.736	1197.84
606.155	1195.02
606.574	1187.18
606.992	1192.18
607.411	1189.07
607.829	1182.04
608.248	1178.57
608.666	1175.88
609.085	1175.51
609.503	1168.32
609.921	1162.72
610.339	1164.85
610.758	1164.46
611.176	1160.51
611.594	1152.16
612.012	1148.46
612.43	1151.04
612.847	1156.27
613.265	1157.82
613.683	1161.29
614.101	1161.96
614.518	1158.2
614.936	1148.93
615.353	1136.52
615.771	1134.15
616.188	1135.24
616.606	1132.3
617.023	1126.07
617.44	1114.72
617.857	1108.85
618.274	1102.28
618.691	1096.96
619.108	1090
619.525	1084.99
619.942	1090.79
620.359	1092.56
620.776	1087.6
621.192	1084.15
621.609	1082.73
622.026	1088.81
622.442	1093.87
622.859	1097.31
623.275	1091.68
623.691	1096.57
624.108	1107.13
624.524	1120.41
624.94	1120.94
625.356	1129.74
625.772	1142.15
626.188	1152.88
626.604	1153.73
627.02	1150.57
627.436	1148.77
627.852	1155.21
628.268	1165.55
628.683	1158.26
629.099	1150.04
629.514	1146.51
629.93	1150.03
630.345	1153.15
630.761	1149.81
631.176	1153.06
631.591	1148.25
632.007	1143.23
632.422	1141.57
632.837	1131.58
633.252	1128.3
633.667	1119.16
634.082	1111.05
634.497	1099.84
634.911	1083.08
635.326	1080.13
635.741	1065.28
636.155	1055.66
636.57	1056.71
636.984	1056.43
637.399	1058.48
637.813	1058.96
638.228	1058.17
638.642	1062.73
639.056	1054.76
639.47	1056.07
639.884	1048.76
640.298	1044.5
640.712	1044.33
641.126	1033.53
641.54	1026.75
641.954	1022.22
642.368	1012.06
642.781	1005.67
643.195	990.15
643.609	991.5
644.022	985.96
644.436	983.19
644.849	972.57
645.262	962.51
645.676	964.77
646.089	960.33
646.502	947.72
646.915	943.97
647.328	929.78
647.741	927.47
648.154	915.15
648.567	913.38
648.98	901.07
649.393	901.53
649.805	898.58
650.218	891.24
650.631	877.75
651.043	872.59
651.456	866.52
651.868	866.53
652.28	882.28
652.693	895.34
653.105	900.34
653.517	908.25
653.929	907.74
654.341	912.64
654.753	902.25
655.165	906.19
655.577	903.12
655.989	898.48
656.401	892.27
656.813	860.97
657.224	842.8
657.636	817.24
658.047	802.5
658.459	785.62
658.87	777.71
659.282	768.15
659.693	751.05
660.104	737.93
660.515	726.04
660.926	723.13
661.338	719.13
661.749	712.43
662.159	705.1
662.57	700.71
662.981	696.41
663.392	689.92
663.803	691.83
664.213	688.96
664.624	685.88
665.035	688.7
665.445	676.93
665.855	671.22
666.266	664.65
666.676	662.09
667.086	653.08
667.497	651.75
667.907	645.32
668.317	637.42
668.727	635.33
669.137	634.61
669.547	631.51
669.956	633.32
670.366	634.25
670.776	635.19
671.186	638.31
671.595	642.09
672.005	645.47
672.414	644.96
672.824	643.44
673.233	645.47
673.642	647.59
674.052	650.28
674.461	652.94
674.87	656.3
675.279	653.52
675.688	654.78
676.097	655.74
676.506	652.62
676.915	664.52
677.323	666.03
677.732	665.22
678.141	664.29
678.549	655.44
678.958	653.07
679.366	652.38
679.775	657.77
680.183	666.84
680.592	670.72
681	676.16
681.408	670.41
681.816	678.47
682.224	684.97
682.632	693.77
683.04	718.65
683.448	739.52
683.856	764.9
684.264	792.7
684.671	819.03
685.079	853.27
685.487	889.21
685.894	941.72
686.302	983.89
686.709	1018.64
687.116	1059.38
687.524	1092.08
687.931	1120.9
688.338	1145.7
688.745	1164.71
689.152	1185.66
689.559	1217.3
689.966	1249.88
690.373	1261.31
690.78	1289.18
691.187	1336.36
691.593	1369.98
692	1399.54
692.407	1445.47
692.813	1502.67
693.22	1547.69
693.626	1594.01
694.032	1627.94
694.439	1683.86
694.845	1727.38
695.251	1783.83
695.657	1834.12
696.063	1912.01
696.469	1967.48
696.875	2018.27
697.281	2045.02
