Data from C_1_DEC_CT_2N_Splice17_11-46-22-504.txt Node
Date: Sat Mar 14 11:46:22 EDT 2020
User: sa697716
Spectrometer: FLMS03696
Trigger mode: 0
Integration Time (sec): 3.180400E-1
Scans to average: 20
Electric dark correction enabled: true
Nonlinearity correction enabled: true
Boxcar width: 5
XAxis mode: Wavelengths
Number of Pixels in Spectrum: 2048
>>>>>Begin Spectral Data<<<<<
187.83	-201517.4
188.298	1598.14
188.766	871.57
189.233	731.25
189.701	1050.69
190.169	1422.49
190.636	547.91
191.104	442.23
191.571	71.11
192.039	-20.05
192.506	25.62
192.974	536.33
193.441	-789.86
193.908	-259.15
194.375	-75.32
194.842	-3.96
195.31	36.71
195.777	124.15
196.244	247.13
196.711	162.65
197.177	142.72
197.644	143.86
198.111	204.9
198.578	249.91
199.045	175.7
199.511	208.36
199.978	166.28
200.445	158.95
200.911	118.9
201.378	76.43
201.844	116.32
202.31	192.85
202.777	214.11
203.243	149.3
203.709	157.74
204.176	180.13
204.642	173.77
205.108	177.15
205.574	129.68
206.04	95.9
206.506	81.35
206.972	54.19
207.438	55.9
207.903	48
208.369	46.67
208.835	41.85
209.301	54.76
209.766	39.92
210.232	30.94
210.697	40.08
211.163	41.69
211.628	-0.64
212.094	19.33
212.559	86.59
213.024	96.58
213.49	126.42
213.955	122.65
214.42	70.53
214.885	79.35
215.35	86.18
215.815	155.43
216.28	197.9
216.745	163.43
217.21	196.51
217.675	131.46
218.14	124.21
218.604	133.59
219.069	139.98
219.534	182.12
219.998	166.33
220.463	179.27
220.927	106.82
221.392	78.65
221.856	89.61
222.32	38.94
222.785	81.5
223.249	97.64
223.713	56.92
224.177	57.37
224.642	-20.01
225.106	2.98
225.57	-7.1
226.034	68.76
226.497	72.04
226.961	132.08
227.425	198.28
227.889	142.31
228.353	127.82
228.816	159.45
229.28	223.6
229.744	182.73
230.207	153.59
230.671	179.06
231.134	146.7
231.597	265.25
232.061	117.8
232.524	53.69
232.987	49.73
233.45	95.73
233.914	91.28
234.377	33.29
234.84	41.9
235.303	2.57
235.766	-4.41
236.229	-45.68
236.691	-50.17
237.154	-52.82
237.617	-23.27
238.08	-32.02
238.542	-86.95
239.005	-40.6
239.468	-32.07
239.93	-24.73
240.393	-16.89
240.855	-11.37
241.317	-11.12
241.78	-29.99
242.242	-14.53
242.704	26.12
243.166	22.66
243.629	72.52
244.091	84.62
244.553	96.81
245.015	113.87
245.477	117.69
245.939	105.69
246.4	124.52
246.862	100.91
247.324	85.11
247.786	11.12
248.247	7.63
248.709	-192.12
249.17	-140.24
249.632	-18.33
250.093	19.5
250.555	39.18
251.016	84.44
251.477	94.42
251.939	108.45
252.4	96.66
252.861	97.37
253.322	129.46
253.783	149.5
254.244	150.21
254.705	48.93
255.166	-5.14
255.627	-9.19
256.088	-38.12
256.549	-62.8
257.009	-52.1
257.47	-59.9
257.931	-62.91
258.391	-50.41
258.852	-39.75
259.312	-35.76
259.773	-92.42
260.233	-17.14
260.694	3.8
261.154	-7.26
261.614	68.66
262.074	73.4
262.534	90.98
262.994	105.72
263.455	112
263.915	109.87
264.374	92.25
264.834	125.22
265.294	110.13
265.754	131.33
266.214	125
266.673	90.06
267.133	79.96
267.593	65.46
268.052	85.34
268.512	79.41
268.971	134.65
269.431	184.44
269.89	138.23
270.349	243.43
270.809	276.13
271.268	252.5
271.727	374.24
272.186	279.78
272.645	202.56
273.104	81.1
273.563	95.32
274.022	-16.28
274.481	16.78
274.94	32.67
275.399	-5.98
275.857	-46.92
276.316	-91.14
276.775	-59.01
277.233	-56.24
277.692	-26.25
278.15	13.42
278.609	71.5
279.067	93.67
279.525	97.66
279.984	83.29
280.442	126.13
280.9	247.06
281.358	175.44
281.816	153.26
282.274	130.46
282.732	80.79
283.19	73.51
283.648	24.61
284.106	10.07
284.564	-9.02
285.021	19.82
285.479	3.83
285.937	-51.43
286.394	-32.33
286.852	-34.14
287.309	-27.52
287.767	30.56
288.224	37.35
288.682	53.81
289.139	83.61
289.596	92.49
290.053	93
290.511	99.31
290.968	170.74
291.425	212.12
291.882	237.36
292.339	204.91
292.796	141.56
293.252	124.13
293.709	128.95
294.166	98.37
294.623	74.21
295.079	41.06
295.536	65.44
295.992	51.15
296.449	48.12
296.905	67.32
297.362	107.54
297.818	111.62
298.274	122.94
298.731	91.6
299.187	86.45
299.643	109.45
300.099	159.13
300.555	175.53
301.011	148.75
301.467	215.01
301.923	162.72
302.379	135.38
302.835	119.43
303.291	128.33
303.746	135.95
304.202	179.17
304.658	146.29
305.113	94.5
305.569	91.23
306.024	68.82
306.479	-30.47
306.935	9.29
307.39	-25.89
307.845	6.45
308.301	20.4
308.756	7.34
309.211	-1.11
309.666	-2.27
310.121	34.87
310.576	2.83
311.031	-0.34
311.486	-1.91
311.94	-53.57
312.395	-95.77
312.85	-364.31
313.305	-2783.24
313.759	-8875.82
314.214	-521.98
314.668	-362.03
315.123	-342.36
315.577	-89.3
316.032	-49.78
316.486	-66.36
316.94	-7.11
317.394	35.15
317.849	71.37
318.303	56.22
318.757	55.68
319.211	47.7
319.665	42.92
320.119	47.85
320.572	59.45
321.026	88.77
321.48	83.67
321.934	62.18
322.387	44.52
322.841	28.79
323.295	92.65
323.748	48.92
324.202	74.13
324.655	121.39
325.108	267.28
325.562	205.99
326.015	204.83
326.468	167.48
326.921	210.48
327.374	236.01
327.827	299.4
328.28	314.97
328.733	245.76
329.186	211.21
329.639	196.31
330.092	133.82
330.545	137.12
330.997	139.06
331.45	176.26
331.903	231.4
332.355	343.23
332.808	260.36
333.26	182.03
333.713	209.06
334.165	175.35
334.617	161.62
335.069	82.14
335.522	50.43
335.974	16.57
336.426	-152.21
336.878	-197.08
337.33	-84.74
337.782	-90.55
338.234	-81.73
338.686	-137.88
339.137	-163.31
339.589	-104.75
340.041	-42.37
340.493	-45.96
340.944	-38.04
341.396	5.81
341.847	48.09
342.299	101.44
342.75	206.76
343.201	161.63
343.653	150.88
344.104	176.43
344.555	114.5
345.006	39.65
345.457	160.09
345.908	106.28
346.359	110.97
346.81	87.79
347.261	60.87
347.712	14.45
348.163	-5.09
348.613	79.34
349.064	104.16
349.515	85.63
349.965	112.84
350.416	78.26
350.866	69.15
351.317	20.34
351.767	-6.76
352.217	-66.33
352.668	-70.47
353.118	-37.19
353.568	-178.54
354.018	-124.8
354.468	-89.49
354.918	-32.8
355.368	-16.48
355.818	-14.08
356.268	-61.16
356.718	228.87
357.168	156.19
357.617	88.25
358.067	69.32
358.517	108.15
358.966	206.49
359.416	303.82
359.865	255.97
360.315	150.6
360.764	80.62
361.213	44.07
361.663	1.73
362.112	-23.63
362.561	-44.19
363.01	-29.38
363.459	-42.83
363.908	-114.53
364.357	-78.27
364.806	-123.32
365.255	-56.93
365.703	-6.32
366.152	24.44
366.601	2.57
367.05	40.57
367.498	45.17
367.947	31.4
368.395	17.98
368.844	17.07
369.292	-25.18
369.74	-8.39
370.189	-51.51
370.637	-65.54
371.085	-83.9
371.533	-94.25
371.981	-142.85
372.429	-82.49
372.877	-78.9
373.325	-41.81
373.773	-56.8
374.221	-75.21
374.669	-130.62
375.116	-100.64
375.564	-114.6
376.012	-99.49
376.459	-47.65
376.907	-59.56
377.354	-126.79
377.801	-122.55
378.249	-135
378.696	-179.7
379.143	-190.4
379.591	-179.26
380.038	-290.32
380.485	-165.32
380.932	-238.28
381.379	-119.23
381.826	3.13
382.273	-11.66
382.72	-18.95
383.166	-10.47
383.613	9.2
384.06	8.07
384.506	11.42
384.953	6.54
385.4	-10.19
385.846	0.58
386.292	-39.09
386.739	-53.49
387.185	-63.75
387.631	-59.65
388.078	-22.26
388.524	-24.74
388.97	-20.27
389.416	-4.58
389.862	10.49
390.308	14.91
390.754	11.39
391.2	13.83
391.645	7.47
392.091	50.84
392.537	63.87
392.983	32.06
393.428	60.83
393.874	58.71
394.319	74.49
394.765	84.03
395.21	70.01
395.655	67.68
396.101	65.95
396.546	59.83
396.991	31.06
397.436	27.18
397.881	21.08
398.326	0.64
398.771	10.83
399.216	-2.7
399.661	-9.59
400.106	2.85
400.551	5.38
400.995	7.42
401.44	8.33
401.885	9.28
402.329	8.18
402.774	13.94
403.218	26.71
403.663	23.88
404.107	27.99
404.551	31.39
404.995	23.28
405.44	18.01
405.884	16.96
406.328	13.31
406.772	11.36
407.216	11.02
407.66	5.16
408.104	-2.42
408.547	-1.37
408.991	-3.19
409.435	-7.02
409.879	-2.06
410.322	1.67
410.766	4.42
411.209	8.22
411.653	9.63
412.096	12.75
412.54	12.23
412.983	10.94
413.426	15.77
413.869	14.65
414.312	19.4
414.756	17.97
415.199	17
415.642	17.88
416.085	18.17
416.527	17.41
416.97	12.74
417.413	15.82
417.856	13.95
418.298	10.31
418.741	7.6
419.184	2.91
419.626	-2.99
420.069	-3.62
420.511	-3.28
420.953	-1.79
421.396	0.28
421.838	1.92
422.28	1.91
422.722	4.13
423.164	1.07
423.606	3.78
424.048	4.09
424.49	7.38
424.932	5.02
425.374	0.87
425.816	-2
426.258	-4.58
426.699	-6.56
427.141	-1.7
427.582	-4.42
428.024	-3.3
428.465	-5.51
428.907	-5.36
429.348	-4.92
429.789	-2.86
430.231	0.48
430.672	0.53
431.113	-0.29
431.554	0.76
431.995	-2.97
432.436	0.82
432.877	3.26
433.318	8.98
433.759	8.5
434.2	9.13
434.64	8.58
435.081	9.1
435.522	10.01
435.962	9.32
436.403	10.38
436.843	5.62
437.284	3.88
437.724	0.7
438.164	-5.8
438.604	-5.46
439.045	-5.37
439.485	-2.53
439.925	-2.86
440.365	-3.04
440.805	-2.03
441.245	-0.09
441.685	1.13
442.125	0.34
442.564	0.31
443.004	2.77
443.444	2.45
443.883	2.3
444.323	-0.77
444.762	-5.84
445.202	-7.3
445.641	-4.74
446.081	-8.08
446.52	-5.74
446.959	-4.6
447.398	-4.46
447.837	-5.52
448.276	-6.69
448.716	-4.6
449.154	-5.85
449.593	-1.7
450.032	-2.05
450.471	-5.37
450.91	-5.05
451.349	-3.52
451.787	-3.53
452.226	-3
452.664	-2.59
453.103	-2.3
453.541	-4.44
453.98	0.01
454.418	-0.5
454.856	1.86
455.295	2.8
455.733	3.47
456.171	0.97
456.609	1.88
457.047	2.43
457.485	5.04
457.923	6.69
458.361	6.15
458.798	3.87
459.236	3.24
459.674	1.79
460.111	1.55
460.549	1.67
460.987	0.96
461.424	-0.09
461.862	0.89
462.299	-0.07
462.736	0.56
463.173	1.46
463.611	5.3
464.048	7.33
464.485	8.45
464.922	9.33
465.359	8.48
465.796	18.97
466.233	19.64
466.67	21.12
467.106	22.42
467.543	20.88
467.98	19.81
468.416	16.4
468.853	14.05
469.29	13.1
469.726	12.59
470.162	11.71
470.599	3.46
471.035	1.98
471.471	0.14
471.907	-2.06
472.344	-1.6
472.78	-1.09
473.216	-1.95
473.652	-1.62
474.088	-2.58
474.523	-1.76
474.959	-1.8
475.395	-1.8
475.831	-0.72
476.266	-0.93
476.702	-0.9
477.138	-1.09
477.573	-1.67
478.008	-1.22
478.444	0.4
478.879	2.73
479.314	2.63
479.75	3.4
480.185	3.14
480.62	2.28
481.055	1.56
481.49	1.88
481.925	2.28
482.36	4.72
482.795	4.47
483.229	3.3
483.664	2.21
484.099	1.85
484.534	2.07
484.968	2.53
485.403	2.61
485.837	2.37
486.271	2.31
486.706	1.78
487.14	-0.16
487.574	0.16
488.009	-0.19
488.443	-0.51
488.877	0.69
489.311	-0.18
489.745	-0.34
490.179	0.62
490.613	3.17
491.046	2.36
491.48	2.52
491.914	2.9
492.348	2.98
492.781	3.59
493.215	3.73
493.648	1.95
494.082	2.32
494.515	2.63
494.948	2.54
495.382	0.54
495.815	1.4
496.248	1.96
496.681	1.52
497.114	0.27
497.547	0.7
497.98	1.94
498.413	3.5
498.846	3.91
499.279	3.28
499.711	2.47
500.144	2.3
500.577	2.83
501.009	1.78
501.442	3.65
501.874	5.17
502.306	4.37
502.739	6.47
503.171	6.03
503.603	6.02
504.036	6.13
504.468	6.07
504.9	5.75
505.332	4.82
505.764	6.29
506.196	5.05
506.627	4.95
507.059	4.73
507.491	1.21
507.923	1.06
508.354	1.67
508.786	1.65
509.217	1.84
509.649	2.18
510.08	2.11
510.512	2.1
510.943	2.36
511.374	2.44
511.805	2.45
512.237	2.63
512.668	2.1
513.099	0.59
513.53	0.4
513.961	0.83
514.391	1.13
514.822	3.13
515.253	2.87
515.684	2.68
516.114	2.1
516.545	2.96
516.975	2.67
517.406	2.6
517.836	2.64
518.267	3.08
518.697	3.39
519.127	2.81
519.558	1.3
519.988	0.49
520.418	-0.37
520.848	-0.88
521.278	-1.53
521.708	22.11
522.138	23
522.567	22.55
522.997	22.06
523.427	21.55
523.857	22.2
524.286	22.25
524.716	22.33
525.145	23.28
525.575	24.08
526.004	23.67
526.433	0.35
526.863	-1
527.292	0.79
527.721	1.82
528.15	1.63
528.579	1.76
529.008	1.69
529.437	1.37
529.866	0.72
530.295	0.07
530.724	1.21
531.152	1.56
531.581	3.46
532.01	2.37
532.438	1.68
532.867	1.37
533.295	1.68
533.723	1.56
534.152	2.17
534.58	2.62
535.008	2.71
535.436	3.02
535.865	2.75
536.293	0.98
536.721	0.72
537.149	0.75
537.576	1.81
538.004	1.53
538.432	1.23
538.86	1.29
539.287	0.6
539.715	0.87
540.143	-0.18
540.57	0.42
540.998	0.48
541.425	2.36
541.852	2.12
542.28	1.37
542.707	0.89
543.134	1.26
543.561	1.04
543.988	1.49
544.415	1.04
544.842	0.78
545.269	0.27
545.696	0.78
546.123	0.17
546.549	0.45
546.976	0.9
547.403	1.17
547.829	0.58
548.256	0.37
548.682	0.28
549.108	1.61
549.535	1.61
549.961	1.32
550.387	1.37
550.813	2.36
551.24	2.41
551.666	1.89
552.092	1.61
552.518	1.65
552.943	2.56
553.369	2.27
553.795	1.76
554.221	2.1
554.646	2.09
555.072	3.53
555.498	1.55
555.923	1.08
556.349	1.13
556.774	1.06
557.199	0.66
557.625	-0.19
558.05	0.27
558.475	-0.42
558.9	-0.1
559.325	1.78
559.75	1.16
560.175	1.78
560.6	2.01
561.025	1.48
561.449	1.63
561.874	2.02
562.299	2.82
562.723	2.85
563.148	2.72
563.572	2.48
563.997	1.26
564.421	-0.06
564.846	-0.84
565.27	-0.75
565.694	-0.58
566.118	-0.87
566.542	-0.22
566.966	-0.26
567.39	-0.31
567.814	0.23
568.238	0.51
568.662	-0.85
569.086	-0.63
569.509	-0.73
569.933	0.62
570.357	1.55
570.78	1.69
571.204	2.52
571.627	1.66
572.05	1.7
572.474	2.42
572.897	1.89
573.32	3.75
573.743	3.54
574.166	4.39
574.589	3.13
575.012	2.53
575.435	2.17
575.858	1.61
576.281	2.04
576.704	1.43
577.126	0.4
577.549	0.45
577.972	-0.77
578.394	-0.45
578.817	1.55
579.239	1.25
579.661	1.65
580.084	2.85
580.506	2.76
580.928	2.55
581.35	3.2
581.772	3.75
582.194	4.01
582.616	3.46
583.038	3.04
583.46	0.74
583.882	0.98
584.303	0.16
584.725	-0.49
585.147	4.35
585.568	4.62
585.99	4.55
586.411	5.03
586.833	5.4
587.254	6.57
587.675	6.51
588.096	7.12
588.518	7.25
588.939	7.67
589.36	8.07
589.781	2.02
590.202	4.44
590.623	4.33
591.043	3.05
591.464	2.85
591.885	3.35
592.305	3.7
592.726	2.81
593.147	2.61
593.567	2.47
593.987	2.32
594.408	2.45
594.828	-0.53
595.248	0.66
595.669	1.67
596.089	1.89
596.509	0.65
596.929	-0.32
597.349	0.42
597.769	0.43
598.189	0.47
598.608	0.1
599.028	0.09
599.448	-0.37
599.867	-1.2
600.287	-1.73
600.706	-1.39
601.126	-0.65
601.545	0.66
601.965	0.54
602.384	0.88
602.803	0.57
603.222	0.78
603.641	0.64
604.061	1.69
604.48	1.59
604.898	0.89
605.317	0.05
605.736	-0.06
606.155	0.79
606.574	0.49
606.992	0.2
607.411	0.42
607.829	-0.41
608.248	-0.69
608.666	-1.4
609.085	-1.35
609.503	-0.41
609.921	0.89
610.339	1.16
610.758	-0.27
611.176	-0.36
611.594	-0.03
612.012	0.2
612.43	1.72
612.847	1.98
613.265	3.58
613.683	3.45
614.101	3.24
614.518	1.87
614.936	1.71
615.353	2.72
615.771	2.69
616.188	3.2
616.606	3.01
617.023	2.66
617.44	2.8
617.857	0.68
618.274	0.6
618.691	1.42
619.108	1.22
619.525	0.85
619.942	0.97
620.359	1.53
620.776	0.79
621.192	1.86
621.609	2.15
622.026	3.03
622.442	4.23
622.859	3.96
623.275	3.19
623.691	3.71
624.108	3.81
624.524	3.16
624.94	3.05
625.356	2.53
625.772	1.19
626.188	0.4
626.604	-0.36
627.02	-0.81
627.436	-0.49
627.852	0.84
628.268	1.37
628.683	1.11
629.099	0.99
629.514	-0.22
629.93	0.46
630.345	0.31
630.761	-0.34
631.176	-0.15
631.591	2.34
632.007	3.35
632.422	1.86
632.837	0.47
633.252	1.59
633.667	1.45
634.082	2.46
634.497	2.83
634.911	5.45
635.326	6.44
635.741	6.64
636.155	5.32
636.57	5.92
636.984	6.43
637.399	8.47
637.813	7.36
638.228	7.55
638.642	7.03
639.056	6.72
639.47	5.2
639.884	5.31
640.298	4.92
640.712	5.03
641.126	3.91
641.54	2.6
641.954	-0.92
642.368	0.13
642.781	2.83
643.195	3.32
643.609	3.49
644.022	3.65
644.436	2.9
644.849	2.52
645.262	0.62
645.676	-0.55
646.089	0.2
646.502	3.35
646.915	1.97
647.328	-0.12
647.741	0.61
648.154	0.76
648.567	2.31
648.98	3.17
649.393	3.22
649.805	4.21
650.218	4.39
650.631	4.48
651.043	4.05
651.456	5.38
651.868	5.13
652.28	3.4
652.693	2.67
653.105	1.32
653.517	0.05
653.929	0.55
654.341	1.08
654.753	2.84
655.165	2.79
655.577	3.01
655.989	2.68
656.401	1.27
656.813	4.53
657.224	4.39
657.636	3.17
658.047	5.29
658.459	5.19
658.87	3.62
659.282	2.9
659.693	4.64
660.104	4.31
660.515	4.05
660.926	4.65
661.338	2.83
661.749	1.91
662.159	2.93
662.57	0.96
662.981	0.71
663.392	1.06
663.803	0.81
664.213	-0.58
664.624	-0.91
665.035	-2.09
665.445	-2.74
665.855	-1.63
666.266	0.44
666.676	0.46
667.086	0.17
667.497	0.89
667.907	1.32
668.317	0.55
668.727	4.04
669.137	3.09
669.547	3.43
669.956	3.01
670.366	2.36
670.776	2.64
671.186	2.05
671.595	3.56
672.005	2.23
672.414	2.7
672.824	4.72
673.233	0.73
673.642	0.98
674.052	3.18
674.461	4.9
674.87	4.65
675.279	4.41
675.688	2.78
676.097	3.39
676.506	4.28
676.915	3.2
677.323	2.57
677.732	3
678.141	3.5
678.549	1.98
678.958	0.94
679.366	-0.43
679.775	-1.55
680.183	1.22
680.592	0.23
681	0.53
681.408	1.06
681.816	0.37
682.224	-0.57
682.632	1.59
683.04	1.59
683.448	1.82
683.856	3.93
684.264	4.95
684.671	3.39
685.079	3.45
685.487	1.99
685.894	1.76
686.302	0.35
686.709	1.38
687.116	-0.7
687.524	0.63
687.931	1.41
688.338	0.35
688.745	-0.69
689.152	-1
689.559	-1.23
689.966	1.48
690.373	1.72
690.78	3.45
691.187	3.34
691.593	3.85
692	2.6
692.407	3.19
692.813	5.84
693.22	6.51
693.626	5.79
694.032	6.48
694.439	6.15
694.845	6.49
695.251	5.25
695.657	5.75
696.063	3.93
696.469	3.38
696.875	2.15
697.281	0.09
697.687	-0.53
698.093	0.22
698.498	-0.02
698.904	-1.7
699.31	-2.18
699.715	0.67
700.12	-0.03
700.526	1.41
700.931	1.66
701.337	3.05
701.742	3.77
702.147	3.93
702.552	4.32
702.957	3.09
703.362	3.05
703.767	3.3
704.172	0.99
704.577	0.7
704.981	-0.71
705.386	-0.02
705.791	-0.08
706.195	-2.3
706.6	-2.32
707.004	-4.98
707.408	-5.37
707.813	-3.58
708.217	-2.29
708.621	-1.8
709.025	-2.21
709.43	0.09
709.834	-0.49
710.237	-1.26
710.641	0.3
711.045	1.48
711.449	4.69
711.853	9.7
712.256	8.47
712.66	7.1
713.064	7.24
713.467	8.16
713.87	7.88
714.274	8.51
714.677	8.84
715.08	9.58
715.484	9.18
715.887	11.88
716.29	6.83
716.693	7.7
717.096	8.87
717.499	9.29
717.901	9.26
718.304	7.89
718.707	8.2
719.109	7.58
719.512	6.03
719.915	8.32
720.317	5.95
720.719	6.24
721.122	5.78
721.524	5.73
721.926	10.2
722.328	10.15
722.731	10.33
723.133	9.3
723.535	8.94
723.937	9.78
724.338	9.82
724.74	10.26
725.142	65.51
725.544	69.75
725.945	82.62
726.347	77.66
726.748	78.37
727.15	79.79
727.551	84.07
727.952	82.79
728.354	79.66
728.755	78.71
729.156	77.1
729.557	22.99
729.958	17.75
730.359	4.64
730.76	4.78
731.161	4.19
731.562	2.53
731.962	-2.13
732.363	-0.4
732.763	0.88
733.164	-2.18
733.564	-1.69
733.965	0.33
734.365	1.99
734.766	2.72
735.166	1.81
735.566	2.27
735.966	3.5
736.366	4.58
736.766	3.85
737.166	3.86
737.566	5.35
737.966	4.99
738.365	5.09
738.765	5.36
739.165	5.76
739.564	6.46
739.964	5.16
740.363	3.46
740.763	1.96
741.162	3.84
741.561	3.74
741.96	3.33
742.36	2.54
742.759	2.25
743.158	0.43
743.557	-0.33
743.955	-1.82
744.354	-1.25
744.753	-1.52
745.152	0.26
745.55	-1.71
745.949	-1.82
746.348	-1.6
746.746	-2.42
747.144	-0.11
747.543	-0.87
747.941	-1.94
748.339	-0.67
748.737	0.26
749.136	1.76
749.534	-0.66
749.932	1.62
750.33	1.79
750.727	1.3
751.125	2.4
751.523	0.24
751.921	5.21
752.318	6.45
752.716	7.9
753.113	7.28
753.511	6.33
753.908	8.56
754.305	13.26
754.703	13.46
755.1	14.63
755.497	15.09
755.894	15.13
756.291	11.71
756.688	11.35
757.085	10.05
757.482	11.29
757.878	14.68
758.275	16.24
758.672	6.35
759.068	5.48
759.465	1.74
759.861	-0.18
760.258	-4.94
760.654	-3.48
761.05	-0.16
761.447	-2.22
761.843	-2.04
762.239	-2.89
762.635	-7.45
763.031	-8.57
763.427	-7.07
763.822	-5.91
764.218	-5.95
764.614	-3.75
765.01	-7.62
765.405	-8.53
765.801	-5.87
766.196	-6.78
766.592	-7.68
766.987	-6.27
767.382	-5.84
767.778	-4.5
768.173	-4.33
768.568	-3.58
768.963	-2.31
769.358	-0.49
769.753	0.88
770.148	1.22
770.542	0.96
770.937	-0.3
771.332	0.53
