Data from C_1_DEC_CT_2N_Splice17_11-46-01-727.txt Node
Date: Sat Mar 14 11:46:01 EDT 2020
User: sa697716
Spectrometer: FLMS03696
Trigger mode: 0
Integration Time (sec): 3.180400E-1
Scans to average: 20
Electric dark correction enabled: true
Nonlinearity correction enabled: true
Boxcar width: 5
XAxis mode: Wavelengths
Number of Pixels in Spectrum: 2048
>>>>>Begin Spectral Data<<<<<
187.83	-123974.57
188.298	1108.61
188.766	658.4
189.233	557.75
189.701	822.55
190.169	1100.61
190.636	433.9
191.104	334.28
191.571	37.99
192.039	-28.62
192.506	-21.75
192.974	371.41
193.441	-573.35
193.908	-141.2
194.375	-30.92
194.842	51.56
195.31	116.09
195.777	168.37
196.244	282.63
196.711	196.27
197.177	200.42
197.644	208.75
198.111	299.49
198.578	418.29
199.045	328.98
199.511	457.2
199.978	436.05
200.445	367.37
200.911	371.31
201.378	333.77
201.844	328.99
202.31	517.4
202.777	585.53
203.243	340.76
203.709	317.39
204.176	368.74
204.642	323.11
205.108	326.26
205.574	264.3
206.04	224.29
206.506	196.34
206.972	166.47
207.438	147.39
207.903	163.21
208.369	164.04
208.835	180.78
209.301	196.54
209.766	184.63
210.232	192.22
210.697	249.14
211.163	268.35
211.628	379.15
212.094	319.97
212.559	484.54
213.024	288.32
213.49	351.13
213.955	304
214.42	241.71
214.885	230.03
215.35	217.99
215.815	258.27
216.28	293.75
216.745	243.7
217.21	277.3
217.675	210.48
218.14	228.57
218.604	207.39
219.069	235.19
219.534	266.29
219.998	263.23
220.463	271.07
220.927	212.75
221.392	166.19
221.856	170.96
222.32	138.48
222.785	154.29
223.249	162.1
223.713	181.11
224.177	141.66
224.642	94.74
225.106	141.5
225.57	131.75
226.034	150.11
226.497	239.95
226.961	248.09
227.425	340.98
227.889	333.19
228.353	304.27
228.816	540.38
229.28	616.78
229.744	534.17
230.207	359.73
230.671	343.69
231.134	399.86
231.597	542.03
232.061	399
232.524	318.36
232.987	291.7
233.45	321.99
233.914	279.85
234.377	213.17
234.84	189.59
235.303	160.48
235.766	205.88
236.229	217.62
236.691	94.04
237.154	103.33
237.617	95.28
238.08	75.96
238.542	68.62
239.005	54.22
239.468	79.95
239.93	73.64
240.393	77.91
240.855	65.15
241.317	55.37
241.78	52.49
242.242	66.74
242.704	111.65
243.166	102.35
243.629	122.26
244.091	151.48
244.553	153.97
245.015	157.02
245.477	170.66
245.939	222.06
246.4	238.38
246.862	261.44
247.324	245.91
247.786	212.52
248.247	204.03
248.709	54.3
249.17	59.98
249.632	140.6
250.093	277.27
250.555	268.74
251.016	208.27
251.477	210.22
251.939	232.74
252.4	221.56
252.861	249.92
253.322	269.99
253.783	287.69
254.244	327.57
254.705	199.3
255.166	115.81
255.627	102.62
256.088	161.81
256.549	177.59
257.009	120.62
257.47	161.61
257.931	117.72
258.391	122.18
258.852	166.37
259.312	169.41
259.773	195.56
260.233	235.7
260.694	242.95
261.154	254.6
261.614	258.33
262.074	221.47
262.534	253.26
262.994	249.27
263.455	284.58
263.915	235.62
264.374	212.47
264.834	232.75
265.294	206.75
265.754	204.63
266.214	172.74
266.673	136.93
267.133	162.92
267.593	116.81
268.052	145.71
268.512	97.42
268.971	185.32
269.431	207.86
269.89	186.13
270.349	312.41
270.809	373.11
271.268	335.06
271.727	616.94
272.186	408.47
272.645	336.46
273.104	198.25
273.563	321.39
274.022	157.63
274.481	179.66
274.94	159.94
275.399	96.31
275.857	59.01
276.316	33.39
276.775	16.43
277.233	21.64
277.692	63.59
278.15	105.34
278.609	148.86
279.067	138.09
279.525	135.65
279.984	123.6
280.442	188.65
280.9	340.78
281.358	261.41
281.816	277.58
282.274	269.37
282.732	224.98
283.19	206.74
283.648	175.44
284.106	187.49
284.564	180.44
285.021	197.71
285.479	135.1
285.937	57.2
286.394	78.68
286.852	77.03
287.309	79.04
287.767	105.79
288.224	107.66
288.682	106.2
289.139	142.53
289.596	139.45
290.053	121.55
290.511	135.23
290.968	200.54
291.425	203.15
291.882	213.44
292.339	203.28
292.796	196.73
293.252	187.92
293.709	186.74
294.166	166.04
294.623	169.68
295.079	169.12
295.536	193.22
295.992	167.99
296.449	180.43
296.905	174.01
297.362	194.7
297.818	179.16
298.274	200.4
298.731	175.5
299.187	162.72
299.643	166.19
300.099	198.81
300.555	199.46
301.011	188.25
301.467	243.53
301.923	250.18
302.379	255.12
302.835	263.24
303.291	255.85
303.746	299.75
304.202	355.22
304.658	358.66
305.113	242.79
305.569	249.82
306.024	240.04
306.479	144.8
306.935	165.25
307.39	125.34
307.845	109.61
308.301	120.93
308.756	93.44
309.211	106.81
309.666	97.61
310.121	157.06
310.576	135.47
311.031	124.21
311.486	123.91
311.94	64.93
312.395	95.07
312.85	115.53
313.305	-372.51
313.759	3271.85
314.214	111.24
314.668	310.54
315.123	297.04
315.577	153.47
316.032	188.64
316.486	182.25
316.94	205.04
317.394	163.8
317.849	157.47
318.303	162.3
318.757	148.14
319.211	178.92
319.665	145.75
320.119	149.6
320.572	180.36
321.026	176.69
321.48	178.7
321.934	145.63
322.387	128.14
322.841	129.09
323.295	179.23
323.748	156.86
324.202	163.3
324.655	208.03
325.108	333.9
325.562	258.71
326.015	266.67
326.468	206.52
326.921	284.63
327.374	324.99
327.827	385.03
328.28	391.03
328.733	304.6
329.186	257.42
329.639	254.53
330.092	193.84
330.545	191.45
330.997	210.14
331.45	255.75
331.903	313.83
332.355	441.56
332.808	354.82
333.26	260.28
333.713	279.99
334.165	254.43
334.617	246.22
335.069	153.45
335.522	183.35
335.974	156.34
336.426	6.12
336.878	-121.44
337.33	-19.11
337.782	-13
338.234	49.67
338.686	31.08
339.137	74.29
339.589	113.95
340.041	122.51
340.493	106
340.944	105.03
341.396	137.7
341.847	150.91
342.299	209.89
342.75	297.01
343.201	186.07
343.653	230.69
344.104	238.18
344.555	173.45
345.006	112.02
345.457	226.85
345.908	175.47
346.359	196.89
346.81	159.72
347.261	124.09
347.712	96.36
348.163	76.47
348.613	117.19
349.064	143.71
349.515	140.5
349.965	177.17
350.416	158.86
350.866	161.29
351.317	112.81
351.767	214.67
352.217	293.65
352.668	246.99
353.118	326.59
353.568	209.77
354.018	180.2
354.468	176.95
354.918	171.97
355.368	151.71
355.818	220.69
356.268	631.39
356.718	3047.52
357.168	790.24
357.617	435.13
358.067	419.1
358.517	377.23
358.966	512.56
359.416	658.9
359.865	610.97
360.315	617.8
360.764	293.97
361.213	183.39
361.663	126.86
362.112	127.9
362.561	159.95
363.01	112.38
363.459	108.57
363.908	82.02
364.357	115.33
364.806	170.33
365.255	118.14
365.703	158.38
366.152	171.59
366.601	146.53
367.05	137.93
367.498	159.62
367.947	146.11
368.395	118.42
368.844	105.18
369.292	34.26
369.74	52.8
370.189	76.44
370.637	62.58
371.085	30.75
371.533	28.72
371.981	-0.79
372.429	-2.38
372.877	16.36
373.325	52.54
373.773	34.85
374.221	58.98
374.669	70.22
375.116	60.8
375.564	52.02
376.012	66.77
376.459	77.88
376.907	85.69
377.354	82.66
377.801	141.64
378.249	197.62
378.696	257.6
379.143	308.31
379.591	219.9
380.038	316.02
380.485	259.97
380.932	279.62
381.379	394.86
381.826	426.16
382.273	290.6
382.72	201.37
383.166	184.75
383.613	126.15
384.06	130.5
384.506	179.4
384.953	141.87
385.4	142.31
385.846	126.7
386.292	105.01
386.739	83.75
387.185	77.52
387.631	84
388.078	107.68
388.524	115.63
388.97	98.68
389.416	98
389.862	112.44
390.308	107.15
390.754	118.3
391.2	124.09
391.645	124.45
392.091	161.81
392.537	170.31
392.983	152.22
393.428	184.04
393.874	206.01
394.319	223.68
394.765	248.89
395.21	269.83
395.655	269.03
396.101	273.33
396.546	270.16
396.991	267.48
397.436	266.02
397.881	277.63
398.326	266.82
398.771	280.98
399.216	258.75
399.661	243.93
400.106	265.43
400.551	293.3
400.995	275.07
401.44	285.14
401.885	278.64
402.329	289.61
402.774	288.53
403.218	303.59
403.663	301.4
404.107	323.51
404.551	339.51
404.995	319.35
405.44	317.16
405.884	334.49
406.328	330.61
406.772	342.85
407.216	323.92
407.66	324.1
408.104	311.29
408.547	302.71
408.991	301.31
409.435	299.15
409.879	306.37
410.322	311.02
410.766	310.02
411.209	307.96
411.653	306.61
412.096	313.16
412.54	320.22
412.983	327.55
413.426	339.51
413.869	346.24
414.312	347.73
414.756	342.64
415.199	332.5
415.642	330.64
416.085	337.62
416.527	340.02
416.97	347.88
417.413	337.11
417.856	337.37
418.298	336.48
418.741	334.67
419.184	331.1
419.626	341.79
420.069	344.46
420.511	346.29
420.953	344.63
421.396	344.85
421.838	338.11
422.28	347.79
422.722	354.24
423.164	363.04
423.606	362.63
424.048	370.22
424.49	360.33
424.932	362.46
425.374	361.68
425.816	365.29
426.258	369.78
426.699	371.16
427.141	363.71
427.582	358.63
428.024	350.08
428.465	347.81
428.907	342.22
429.348	341.81
429.789	350.1
430.231	350.91
430.672	361.33
431.113	360.74
431.554	368.65
431.995	370.12
432.436	377.25
432.877	382.91
433.318	390.24
433.759	395.73
434.2	401.96
434.64	402.64
435.081	407.22
435.522	393.72
435.962	386.98
436.403	385.03
436.843	397.58
437.284	390.59
437.724	383.35
438.164	385.18
438.604	381.62
439.045	372.8
439.485	364.93
439.925	363.24
440.365	360.65
440.805	358.86
441.245	359.77
441.685	348.64
442.125	348.06
442.564	352.51
443.004	345.77
443.444	344.94
443.883	346.3
444.323	342.27
444.762	342.85
445.202	348.82
445.641	359.71
446.081	356.79
446.52	363.54
446.959	364.68
447.398	362.48
447.837	363.41
448.276	361.7
448.716	370.1
449.154	372.81
449.593	365.93
450.032	363.7
450.471	355.81
450.91	356.48
451.349	355.2
451.787	352.06
452.226	353.87
452.664	351.22
453.103	350.39
453.541	347.47
453.98	349.49
454.418	352.78
454.856	347.71
455.295	345.55
455.733	347.92
456.171	348.8
456.609	349.45
457.047	349.19
457.485	355.13
457.923	355.97
458.361	350.06
458.798	349.82
459.236	348.89
459.674	352.02
460.111	355.68
460.549	353.34
460.987	351.47
461.424	350.84
461.862	349.8
462.299	345.24
462.736	346.94
463.173	349.99
463.611	349.81
464.048	349.69
464.485	352.9
464.922	351.73
465.359	351.4
465.796	354.51
466.233	355.31
466.67	355.68
467.106	357.81
467.543	356.05
467.98	353.72
468.416	346.96
468.853	348.72
469.29	342.36
469.726	341.99
470.162	335.77
470.599	330.64
471.035	330.12
471.471	325.84
471.907	326.55
472.344	327.36
472.78	331.78
473.216	336.98
473.652	333.79
474.088	333.49
474.523	333.74
474.959	339
475.395	338.04
475.831	336.85
476.266	337.64
476.702	337.55
477.138	334.27
477.573	333.02
478.008	332.19
478.444	332.93
478.879	336.37
479.314	336.35
479.75	335.36
480.185	335.56
480.62	336.5
481.055	336.95
481.49	336.54
481.925	338.29
482.36	339.63
482.795	341.47
483.229	342.99
483.664	342.17
484.099	337.22
484.534	337.11
484.968	335.68
485.403	332.82
485.837	328
486.271	324.66
486.706	323.17
487.14	319.09
487.574	316.88
488.009	316.86
488.443	315.5
488.877	319.42
489.311	319.06
489.745	321.4
490.179	323.2
490.613	329.61
491.046	331.13
491.48	332.33
491.914	332.4
492.348	333.47
492.781	334.15
493.215	334.89
493.648	334.78
494.082	337.79
494.515	338.14
494.948	341.7
495.382	341.99
495.815	342.86
496.248	343.74
496.681	347.06
497.114	349.13
497.547	351.25
497.98	354.09
498.413	354.66
498.846	355.43
499.279	356.43
499.711	355.84
500.144	354.12
500.577	356.45
501.009	358.79
501.442	360.85
501.874	361
502.306	361.35
502.739	366.36
503.171	372.48
503.603	374.87
504.036	378.32
504.468	379.55
504.9	384.25
505.332	387.07
505.764	389.31
506.196	391.83
506.627	396.81
507.059	401.19
507.491	401.44
507.923	399.6
508.354	405.09
508.786	409.29
509.217	416.32
509.649	421.57
510.08	427.63
510.512	432.41
510.943	437.1
511.374	440.11
511.805	446.21
512.237	452.38
512.668	463.06
513.099	469.26
513.53	474.4
513.961	476.94
514.391	483.69
514.822	492.37
515.253	501.69
515.684	508.14
516.114	517.53
516.545	525.19
516.975	535.17
517.406	542.04
517.836	545.71
518.267	553.03
518.697	566.35
519.127	573.33
519.558	580.28
519.988	585.66
520.418	593.12
520.848	603.84
521.278	611.26
521.708	634.88
522.138	644.35
522.567	658.98
522.997	670.29
523.427	674.02
523.857	678.92
524.286	681.62
524.716	688.21
525.145	697.46
525.575	703.02
526.004	710.32
526.433	696.72
526.863	696.64
527.292	695.24
527.721	701.66
528.15	710.67
528.579	717.91
529.008	727.49
529.437	738.9
529.866	744.58
530.295	751.4
530.724	755.57
531.152	765.41
531.581	771.18
532.01	777.38
532.438	778.82
532.867	783.9
533.295	789.76
533.723	791.43
534.152	790.27
534.58	791.01
535.008	785.32
535.436	787.21
535.865	790.42
536.293	794.48
536.721	798.13
537.149	805.37
537.576	801.33
538.004	803.13
538.432	803.96
538.86	802.58
539.287	804.39
539.715	808.57
540.143	807.89
540.57	806.06
540.998	805.8
541.425	800.23
541.852	794.23
542.28	797.69
542.707	794.62
543.134	792.24
543.561	793.53
543.988	793.58
544.415	796.07
544.842	795.44
545.269	793.97
545.696	797.76
546.123	804.57
546.549	803.4
546.976	799.43
547.403	801.05
547.829	802.87
548.256	805.17
548.682	805.42
549.108	803.33
549.535	805.75
549.961	808.46
550.387	802.95
550.813	802.59
551.24	806.08
551.666	808.49
552.092	805.46
552.518	803.77
552.943	802.46
553.369	805.47
553.795	807.46
554.221	806.6
554.646	803.18
555.072	807.09
555.498	804.74
555.923	804.68
556.349	806.07
556.774	804.57
557.199	800.62
557.625	798.03
558.05	791.7
558.475	794
558.9	791.02
559.325	786.78
559.75	781.26
560.175	777.48
560.6	773.39
561.025	771.04
561.449	771.4
561.874	771.47
562.299	771
562.723	770.44
563.148	761.74
563.572	758.37
563.997	758.14
564.421	756.91
564.846	752.6
565.27	749.99
565.694	744.43
566.118	744.35
566.542	744.13
566.966	737.31
567.39	731
567.814	722.55
568.238	719.26
568.662	716.62
569.086	713.69
569.509	714.6
569.933	707.96
570.357	704.66
570.78	695.45
571.204	689.76
571.627	685.25
572.05	685.03
572.474	685.07
572.897	680.67
573.32	678.62
573.743	674.26
574.166	666.35
574.589	663.79
575.012	659.19
575.435	656.35
575.858	651.14
576.281	645.97
576.704	638.5
577.126	633.74
577.549	628.6
577.972	623.47
578.394	620.02
578.817	617.99
579.239	611.98
579.661	608
580.084	604.51
580.506	601.74
580.928	601.59
581.35	599.43
581.772	598.46
582.194	592.87
582.616	587.65
583.038	580.73
583.46	574.52
583.882	571.71
584.303	570.7
584.725	565.69
585.147	563.79
585.568	562.12
585.99	558.85
586.411	553.51
586.833	552.31
587.254	546.86
587.675	546.34
588.096	545.86
588.518	539.55
588.939	530.46
589.36	526.47
589.781	517.28
590.202	508.86
590.623	507.3
591.043	507.81
591.464	504.98
591.885	504.74
592.305	502.96
592.726	497.93
593.147	498.24
593.567	496.26
593.987	493.41
594.408	491.66
594.828	488.23
595.248	486.02
595.669	480.34
596.089	477.45
596.509	474.86
596.929	469.81
597.349	469.56
597.769	465.15
598.189	461.62
598.608	460.26
599.028	459.59
599.448	459.35
599.867	454.28
600.287	450.79
600.706	449.57
601.126	446.37
601.545	446.36
601.965	446.16
602.384	444.06
602.803	444.35
603.222	443.21
603.641	440.68
604.061	438.64
604.48	435.76
604.898	437.97
605.317	437.24
605.736	435.99
606.155	433.4
606.574	428.18
606.992	427.33
607.411	423.75
607.829	417.84
608.248	414.6
608.666	411.39
609.085	409.72
609.503	404.62
609.921	402.14
610.339	400.62
610.758	397.55
611.176	394.51
611.594	390.84
612.012	388.59
612.43	389.35
612.847	389.25
613.265	388
613.683	386.46
614.101	385.61
614.518	382.33
614.936	377.47
615.353	372.73
615.771	371.87
616.188	370.96
616.606	368.87
617.023	366.31
617.44	362.71
617.857	360.4
618.274	358.05
618.691	356.28
619.108	353.08
619.525	351.21
619.942	352.25
620.359	350.78
620.776	347.53
621.192	345.78
621.609	343.07
622.026	342.96
622.442	343.04
622.859	342.29
623.275	338.28
623.691	338.15
624.108	340.38
624.524	342.14
624.94	340.18
625.356	341.38
625.772	343.03
626.188	343.93
626.604	343.02
627.02	339.85
627.436	338.36
627.852	339.77
628.268	341.07
628.683	336.13
629.099	333.76
629.514	331.71
629.93	332.05
630.345	332.11
630.761	329.83
631.176	330.14
631.591	330.7
632.007	329.83
632.422	327.95
632.837	325.22
633.252	325.74
633.667	322.25
634.082	320.73
634.497	318.11
634.911	314.46
635.326	315.45
635.741	312.32
636.155	309.01
636.57	309.72
636.984	309.83
637.399	310.79
637.813	310.24
638.228	309.68
638.642	309.95
639.056	306.98
639.47	306.37
639.884	303.6
640.298	301.02
640.712	300.83
641.126	297.26
641.54	295.01
641.954	292.36
642.368	288.99
642.781	289.77
643.195	285.73
643.609	285.59
644.022	283.71
644.436	281.93
644.849	277.43
645.262	272.71
645.676	271.02
646.089	268.66
646.502	265.43
646.915	263.23
647.328	258
647.741	256.99
648.154	253.81
648.567	254.13
648.98	251.66
649.393	252.02
649.805	252.59
650.218	252.19
650.631	249.99
651.043	249.1
651.456	248.94
651.868	247.21
652.28	249.87
652.693	251.21
653.105	249
653.517	247.41
653.929	245.14
654.341	243.84
654.753	239.41
655.165	239.1
655.577	237.75
655.989	236.48
656.401	234.75
656.813	228.96
657.224	226.11
657.636	222.05
658.047	223.01
658.459	222.49
658.87	221.73
659.282	221.51
659.693	218.16
660.104	216.13
660.515	213.45
660.926	213.72
661.338	214.15
661.749	212.91
662.159	211.97
662.57	210.77
662.981	209.82
663.392	209.43
663.803	210.75
664.213	211.06
664.624	209.81
665.035	211.11
665.445	208.26
665.855	206.64
666.266	205.8
666.676	205.71
667.086	203.14
667.497	202.56
667.907	201.03
668.317	197.82
668.727	199.12
669.137	198.83
669.547	197.44
669.956	197.4
670.366	197.27
670.776	197.58
671.186	198.25
671.595	198.64
672.005	199.19
672.414	198.67
672.824	198.17
673.233	195.92
673.642	195.56
674.052	196.75
674.461	197.91
674.87	197.96
675.279	197.02
675.688	195.31
676.097	195.61
676.506	194.34
676.915	196.98
677.323	196.23
677.732	194.65
678.141	193.52
678.549	189.04
678.958	186.68
679.366	184.85
679.775	183.87
680.183	187.06
680.592	186.53
681	186.53
681.408	183.63
681.816	184.5
682.224	184.84
682.632	187.21
683.04	192.38
683.448	194.91
683.856	198.81
684.264	202.07
684.671	201.9
685.079	203.24
685.487	205.84
685.894	210.9
686.302	213.86
686.709	216.82
687.116	218.33
687.524	220.89
687.931	224.49
688.338	226.25
688.745	228.31
689.152	230.32
689.559	236.27
689.966	242.36
690.373	243.9
690.78	247.66
691.187	253.3
691.593	258.04
692	259.67
692.407	265.02
692.813	274.91
693.22	280.84
693.626	288.08
694.032	294.45
694.439	303.84
694.845	311.68
695.251	322.43
695.657	333.58
696.063	347.38
696.469	357.65
696.875	366.13
697.281	369.47
697.687	374.9
698.093	379.43
698.498	387.95
698.904	394.3
699.31	404.77
699.715	414.42
700.12	425.23
700.526	429.14
700.931	441.11
701.337	452.24
701.742	460.59
702.147	476.43
702.552	484.92
702.957	497.99
703.362	503.46
703.767	511.67
704.172	519.65
704.577	515.58
704.981	524.13
705.386	529.86
705.791	531.13
706.195	545.3
706.6	548.66
707.004	562.13
707.408	558.95
707.813	567.97
708.217	569.36
708.621	571.53
709.025	591.01
709.43	596.24
709.834	608.54
710.237	620.59
710.641	618.34
711.045	624.8
711.449	627.23
711.853	636.18
712.256	641.97
712.66	648.29
713.064	659.55
713.467	662.05
713.87	670.88
714.274	667.16
714.677	672.25
715.08	683.04
715.484	690.33
715.887	703.18
716.29	708.25
716.693	716.52
717.096	726.88
717.499	727.72
717.901	718.59
718.304	720.69
718.707	728.65
719.109	726.21
719.512	733.87
719.915	732.43
720.317	734.87
720.719	750.04
721.122	753.54
721.524	755.07
721.926	756.9
722.328	773.82
722.731	768.48
723.133	767.84
723.535	787.24
723.937	783.93
724.338	783.34
724.74	784.77
725.142	817.64
725.544	822.04
725.945	837.22
726.347	835.67
726.748	837.47
727.15	844.14
727.551	844.01
727.952	841.81
728.354	837.53
728.755	842.88
729.156	841.54
729.557	806.94
729.958	794.63
730.359	786.92
730.76	794.75
