Data from C_1_DEC_NC_4N_Splice17_11-44-08-940.txt Node
Date: Sat Mar 14 11:44:08 EDT 2020
User: sa697716
Spectrometer: FLMS03696
Trigger mode: 0
Integration Time (sec): 3.180400E-1
Scans to average: 20
Electric dark correction enabled: true
Nonlinearity correction enabled: true
Boxcar width: 5
XAxis mode: Wavelengths
Number of Pixels in Spectrum: 2048
>>>>>Begin Spectral Data<<<<<
187.83	-200201.5
188.298	1507.51
188.766	801.03
189.233	731.76
189.701	1032.96
190.169	1355.49
190.636	459.94
191.104	405.24
191.571	49.26
192.039	-70.83
192.506	-111.19
192.974	375.4
193.441	-730.27
193.908	-323.37
194.375	-109.65
194.842	-16.53
195.31	-8.27
195.777	65.35
196.244	200.73
196.711	110.25
197.177	94.12
197.644	74.78
198.111	97.37
198.578	112.63
199.045	75.29
199.511	76.62
199.978	-17.46
200.445	-8.19
200.911	-65.52
201.378	-172.08
201.844	-104.2
202.31	-234.86
202.777	-291.48
203.243	-153.66
203.709	-125.37
204.176	-169.26
204.642	-122.51
205.108	-81.88
205.574	-80.04
206.04	-89.15
206.506	-69.22
206.972	-110.67
207.438	-114.01
207.903	-124.22
208.369	-77.11
208.835	-80.13
209.301	-72.07
209.766	-106.2
210.232	-119.14
210.697	-166.67
211.163	-200.56
211.628	-347.14
212.094	-253.41
212.559	-202.84
213.024	-119.27
213.49	-149.49
213.955	-150.71
214.42	-185.17
214.885	-139.62
215.35	-100.59
215.815	12.75
216.28	13.18
216.745	5.51
217.21	38.06
217.675	-6.76
218.14	-1.62
218.604	-18.28
219.069	-22.53
219.534	18.1
219.998	5.16
220.463	-23.69
220.927	-128.82
221.392	-100.79
221.856	-69.98
222.32	-145.13
222.785	-140.57
223.249	-184.31
223.713	-186.73
224.177	-172.03
224.642	-271.72
225.106	-368.29
225.57	-382.96
226.034	-208.74
226.497	-304.14
226.961	-210.75
227.425	-177.16
227.889	-248.03
228.353	-266.59
228.816	-678.99
229.28	-555.22
229.744	-468.49
230.207	-156.16
230.671	-165.71
231.134	-453.17
231.597	-433.22
232.061	-519.8
232.524	-579.23
232.987	-363.3
233.45	-248.82
233.914	-183.7
234.377	-252.6
234.84	-242.99
235.303	-348.57
235.766	-389.67
236.229	-341.93
236.691	-251.76
237.154	-302.57
237.617	-185.62
238.08	-220.39
238.542	-281.16
239.005	-187.4
239.468	-154.93
239.93	-123.53
240.393	-95.96
240.855	-70
241.317	-92.05
241.78	-124.2
242.242	-99.64
242.704	-79.65
243.166	-39.47
243.629	-8.51
244.091	-10.95
244.553	-20.73
245.015	-9.85
245.477	-32.88
245.939	-75.52
246.4	-45.41
246.862	-59.39
247.324	-81.07
247.786	-152.4
248.247	-282.04
248.709	-452.44
249.17	-326.69
249.632	-214.41
250.093	-230.05
250.555	-180.7
251.016	-63.32
251.477	-60.33
251.939	-45.14
252.4	-61.24
252.861	-108.88
253.322	-65.24
253.783	-82.77
254.244	-151.07
254.705	-167.76
255.166	-206.77
255.627	-211.86
256.088	-305.74
256.549	-340.38
257.009	-325.48
257.47	-421.58
257.931	-353.28
258.391	-247.46
258.852	-248.36
259.312	-259.34
259.773	-330.73
260.233	-178.72
260.694	-128.76
261.154	-184.27
261.614	-67.87
262.074	-56.47
262.534	-26
262.994	-2.37
263.455	-32.1
263.915	1.57
264.374	6.36
264.834	12.68
265.294	-41
265.754	-29.63
266.214	-12.17
266.673	-36.63
267.133	-59.31
267.593	-92.95
268.052	-118.94
268.512	-118.32
268.971	-91.37
269.431	-73.79
269.89	-85.72
270.349	-103.84
270.809	-98.52
271.268	-88.53
271.727	-401.83
272.186	-226.74
272.645	-165.36
273.104	-151.94
273.563	-213.75
274.022	-264.46
274.481	-212.48
274.94	-143.57
275.399	-132.63
275.857	-202.66
276.316	-294.87
276.775	-241.38
277.233	-236.06
277.692	-179.35
278.15	-186.2
278.609	-141.2
279.067	-129.46
279.525	-120.22
279.984	-188.33
280.442	-199.63
280.9	-90.93
281.358	-63.89
281.816	-37.76
282.274	-50.91
282.732	-96.76
283.19	-95.77
283.648	-120.64
284.106	-123.7
284.564	-146.71
285.021	-110.86
285.479	-93.45
285.937	-133.54
286.394	-94.68
286.852	-137.24
287.309	-139
287.767	-99.1
288.224	-86.34
288.682	-90.2
289.139	-89.23
289.596	-52.47
290.053	-71.31
290.511	-97.82
290.968	-91.3
291.425	-157.31
291.882	-37.84
292.339	-0.04
292.796	-26.74
293.252	-31.96
293.709	20.01
294.166	26.05
294.623	-11.71
295.079	-27.39
295.536	-17.77
295.992	-6.88
296.449	-6.63
296.905	-19.66
297.362	-5.46
297.818	-13.8
298.274	-1.87
298.731	-40.62
299.187	-53.02
299.643	-42.37
300.099	-39.52
300.555	-48.48
301.011	-43.5
301.467	34.18
301.923	-12.16
302.379	-32.26
302.835	-58.57
303.291	-48.51
303.746	-58.43
304.202	-90.34
304.658	-110.04
305.113	-70.99
305.569	-47.03
306.024	-90.61
306.479	-184.75
306.935	-102.74
307.39	-131.26
307.845	-106.79
308.301	-98.31
308.756	-124.35
309.211	-110.85
309.666	-120.28
310.121	-113.42
310.576	-150.97
311.031	-158.56
311.486	-188.31
311.94	-234.03
312.395	-339.14
312.85	-663.06
313.305	-4422.64
313.759	-15201.45
314.214	-1171.04
314.668	-870.39
315.123	-709.75
315.577	-189.24
316.032	-133.13
316.486	-177.99
316.94	-123.95
317.394	-54.2
317.849	-33.23
318.303	-30.67
318.757	-43.68
319.211	-56.98
319.665	-41.87
320.119	-52.88
320.572	-117.3
321.026	-94.68
321.48	-69.9
321.934	-91.51
322.387	-101.29
322.841	-106.14
323.295	-42.66
323.748	-82.55
324.202	-57.33
324.655	-62.88
325.108	-11.33
325.562	25.69
326.015	14.12
326.468	18.4
326.921	9.91
327.374	29.01
327.827	60.45
328.28	51.78
328.733	54.14
329.186	48.48
329.639	38.62
330.092	17.07
330.545	27.73
330.997	40.04
331.45	58.74
331.903	107
332.355	115.29
332.808	76.39
333.26	32.82
333.713	55.1
334.165	25.85
334.617	-16.93
335.069	-87.56
335.522	-288.43
335.974	-348.35
336.426	-402.17
336.878	-380.07
337.33	-165.53
337.782	-178.53
338.234	-183.47
338.686	-296.67
339.137	-337.16
339.589	-296.24
340.041	-198.43
340.493	-168.53
340.944	-182.13
341.396	-178.85
341.847	-119.84
342.299	-100.88
342.75	-47.29
343.201	-89.51
343.653	-69.03
344.104	-115.46
344.555	-98.25
345.006	-237.75
345.457	-82.08
345.908	-81.5
346.359	-47.97
346.81	-38.46
347.261	-88.61
347.712	-140.18
348.163	-153.62
348.613	-103.43
349.064	-76.43
349.515	-55.24
349.965	-27.78
350.416	-67.36
350.866	-82.32
351.317	-158.16
351.767	-240.57
352.217	-266.15
352.668	-140.27
353.118	-133.33
353.568	-240.65
354.018	-168.47
354.468	-158.99
354.918	-109.52
355.368	-99.93
355.818	-126.81
356.268	-351.03
356.718	-1211.78
357.168	-209.94
357.617	-161.04
358.067	-239.67
358.517	-217.18
358.966	-212.32
359.416	-155.31
359.865	-262.72
360.315	-457.98
360.764	-212.58
361.213	-105.19
361.663	-131.7
362.112	-198.92
362.561	-309.51
363.01	-168.84
363.459	-156.81
363.908	-233.2
364.357	-181.32
364.806	-323.31
365.255	-187.44
365.703	-146.53
366.152	-161.73
366.601	-136.09
367.05	-91.2
367.498	-76.92
367.947	-99.84
368.395	-122.3
368.844	-87.82
369.292	-157.37
369.74	-80.35
370.189	-152.01
370.637	-179.46
371.085	-166.68
371.533	-211.4
371.981	-242.96
372.429	-196.14
372.877	-211.11
373.325	-125.55
373.773	-153.42
374.221	-151.71
374.669	-206.19
375.116	-180.51
375.564	-183.03
376.012	-206.51
376.459	-161.93
376.907	-188.64
377.354	-293.06
377.801	-221.65
378.249	-267.33
378.696	-382.02
379.143	-429.92
379.591	-442.78
380.038	-661.19
380.485	-449.79
380.932	-444.76
381.379	-273.3
381.826	-114.21
382.273	-79.45
382.72	-115.39
383.166	-115.84
383.613	-25.81
384.06	-25.78
384.506	-38.06
384.953	-30.47
385.4	-34.94
385.846	-28.6
386.292	-63.99
386.739	-85.55
387.185	-83.66
387.631	-87.49
388.078	-60.47
388.524	-82.63
388.97	-77.71
389.416	-58.08
389.862	-53.61
390.308	-57.68
390.754	-51.07
391.2	-55.62
391.645	-52.97
392.091	-15.53
392.537	-9.23
392.983	-33.69
393.428	4.79
393.874	4.24
394.319	18.53
394.765	30.77
395.21	29.42
395.655	29.03
396.101	33.03
396.546	30.22
396.991	6.87
397.436	7.36
397.881	14.01
398.326	-10.28
398.771	-2.69
399.216	-11.78
399.661	-17.5
400.106	-9.42
400.551	-8.28
400.995	-6.22
401.44	-2.61
401.885	-1.44
402.329	-1.88
402.774	-1
403.218	15.12
403.663	11.96
404.107	15.2
404.551	18.17
404.995	14.68
405.44	6.47
405.884	4.15
406.328	-1.53
406.772	-4.08
407.216	-2.24
407.66	-4.34
408.104	-15.6
408.547	-13.81
408.991	-14.75
409.435	-15.92
409.879	-15.04
410.322	-12.32
410.766	-10.11
411.209	-7.06
411.653	-5.68
412.096	-4.13
412.54	-7.26
412.983	-6.69
413.426	-3.39
413.869	-3.41
414.312	0.42
414.756	-1.62
415.199	-2.48
415.642	-0.07
416.085	-0.24
416.527	-1.48
416.97	-3.45
417.413	-0.47
417.856	-1.44
418.298	-3.54
418.741	-7.87
419.184	-12.93
419.626	-19.41
420.069	-18.65
420.511	-18.47
420.953	-14.19
421.396	-12.18
421.838	-12.58
422.28	-13.71
422.722	-11.53
423.164	-12.72
423.606	-9.88
424.048	-10.6
424.49	-3.46
424.932	-6.71
425.374	-8.69
425.816	-14.03
426.258	-16.14
426.699	-15.74
427.141	-10
427.582	-12.4
428.024	-13.8
428.465	-14.55
428.907	-14.6
429.348	-16.91
429.789	-11.83
430.231	-7.99
430.672	-5.76
431.113	-3.43
431.554	-3.25
431.995	-8.67
432.436	-3.59
432.877	-1.37
433.318	0.65
433.759	0.38
434.2	0.12
434.64	-0.93
435.081	-1.66
435.522	-0.91
435.962	-1.72
436.403	0.99
436.843	-0.43
437.284	-3.56
437.724	-7.46
438.164	-10.47
438.604	-9.05
439.045	-5.67
439.485	-2.16
439.925	-3.21
440.365	-4.04
440.805	-4.35
441.245	-3.11
441.685	-2.02
442.125	-3.46
442.564	-2.64
443.004	-2.25
443.444	-2.5
443.883	-2.28
444.323	-7.98
444.762	-11.78
445.202	-13.07
445.641	-11.9
446.081	-15.35
446.52	-13.68
446.959	-12.6
447.398	-9.87
447.837	-9.55
448.276	-9.06
448.716	-9.1
449.154	-7.61
449.593	-3.99
450.032	-3.48
450.471	-6.01
450.91	-6.86
451.349	-5.5
451.787	-6.14
452.226	-7.06
452.664	-6.33
453.103	-6.29
453.541	-7.45
453.98	-4.72
454.418	-4.95
454.856	-2.48
455.295	-1.18
455.733	0.08
456.171	-1.52
456.609	1.18
457.047	1.31
457.485	2.25
457.923	3.44
458.361	2.79
458.798	1.53
459.236	1.83
459.674	0.09
460.111	1.16
460.549	1.57
460.987	-0.41
461.424	-2.14
461.862	-1.94
462.299	-2.11
462.736	-1.32
463.173	-1.02
463.611	2.75
464.048	3.31
464.485	4.08
464.922	2.1
465.359	0.82
465.796	10.95
466.233	12.26
466.67	14.02
467.106	16.34
467.543	14.32
467.98	13.89
468.416	10.59
468.853	8.98
469.29	8.24
469.726	8.71
470.162	8.76
470.599	2.26
471.035	0.07
471.471	-0.15
471.907	-3.08
472.344	-2.98
472.78	-2.26
473.216	-3.08
473.652	-2.37
474.088	-3.15
474.523	-2.48
474.959	-3.02
475.395	-3.18
475.831	-2.2
476.266	-2.7
476.702	-2.29
477.138	-1.98
477.573	-2.59
478.008	-2
478.444	-1.39
478.879	0.49
479.314	0.09
479.75	0.67
480.185	-0.03
480.62	-0.62
481.055	-1.19
481.49	-0.64
481.925	-0.36
482.36	1.93
482.795	0.69
483.229	-0.44
483.664	-1.14
484.099	-0.4
484.534	0.79
484.968	2.1
485.403	2.47
485.837	1.68
486.271	1.03
486.706	0.24
487.14	-1.39
487.574	-0.19
488.009	-0.03
488.443	-0.33
488.877	0.05
489.311	-1.11
489.745	-1.54
490.179	-1.48
490.613	1.42
491.046	1.43
491.48	1.46
491.914	1.8
492.348	1.48
492.781	2.03
493.215	2.03
493.648	0.66
494.082	0.78
494.515	0.79
494.948	1.04
495.382	-1.72
495.815	-1.56
496.248	-0.74
496.681	-1.31
497.114	-2.28
497.547	-2.48
497.98	-1.79
498.413	-0.25
498.846	-0.17
499.279	-0.51
499.711	-0.69
500.144	-0.62
500.577	0.21
501.009	-0.32
501.442	0.86
501.874	2.01
502.306	1.79
502.739	4.19
503.171	3.92
503.603	4.69
504.036	4.19
504.468	4.13
504.9	4.49
505.332	4.02
505.764	4.63
506.196	4.01
506.627	3.84
507.059	3.85
507.491	0.21
507.923	-0.11
508.354	-0.3
508.786	0.06
509.217	0.11
509.649	0.44
510.08	0.07
510.512	0.38
510.943	0.37
511.374	0.26
511.805	-0.04
512.237	0.09
512.668	-0.35
513.099	-1.48
513.53	-1.6
513.961	-1.45
514.391	-1.69
514.822	0.2
515.253	0.18
515.684	-0.08
516.114	0.4
516.545	1.38
516.975	1.26
517.406	1.13
517.836	1.36
518.267	2.48
518.697	3.31
519.127	3.59
519.558	2.13
519.988	1.44
520.418	0.98
520.848	-0.02
521.278	-0.92
521.708	32.41
522.138	33.8
522.567	33.22
522.997	32.36
523.427	31.46
523.857	31.21
524.286	31.14
524.716	31.42
525.145	32.24
525.575	33.21
526.004	32.57
526.433	0.17
526.863	-0.97
527.292	0.72
527.721	1.06
528.15	1
528.579	1.44
529.008	1.75
529.437	0.73
529.866	0.32
530.295	-0.63
530.724	0.79
531.152	0.81
531.581	1.6
532.01	1.28
532.438	0.74
532.867	0.36
533.295	0.34
533.723	0.21
534.152	0.82
534.58	1.3
535.008	1.73
535.436	2.45
535.865	2.49
536.293	1.11
536.721	0.37
537.149	0.85
537.576	2.21
538.004	2.34
538.432	1.36
538.86	1.4
539.287	0.39
539.715	0.35
540.143	-0.91
540.57	-0.56
540.998	-0.02
541.425	1.79
541.852	1.83
542.28	1.24
542.707	1.06
543.134	1.79
543.561	2.14
543.988	3.24
544.415	3
544.842	3.27
545.269	3.03
545.696	3.58
546.123	2.96
546.549	3.34
546.976	3.11
547.403	3.1
547.829	2.36
548.256	1.88
548.682	1.59
549.108	2.77
549.535	2.48
549.961	1.92
550.387	1.56
550.813	2.37
551.24	2.25
551.666	2.09
552.092	1.73
552.518	2.12
552.943	3.02
553.369	2.84
553.795	2.27
554.221	2.48
554.646	2.7
555.072	3.93
555.498	2.3
555.923	1.33
556.349	1.08
556.774	0.8
557.199	0.35
557.625	-0.9
558.05	-0.93
558.475	-1.5
558.9	-1.53
559.325	-0.49
559.75	-1.1
560.175	-0.9
560.6	-0.67
561.025	-0.92
561.449	-0.94
561.874	-1.11
562.299	0.14
562.723	-0.06
563.148	-0.35
563.572	-0.76
563.997	-1.94
564.421	-2.67
564.846	-3.11
565.27	-2.88
565.694	-2.63
566.118	-2.16
566.542	-0.68
566.966	-0.68
567.39	-0.3
567.814	0.37
568.238	0.42
568.662	0.36
569.086	0.4
569.509	0.25
569.933	1.53
570.357	1.22
570.78	0.94
571.204	1.58
571.627	0.89
572.05	0.81
572.474	1.68
572.897	1.66
573.32	2.36
573.743	1.83
574.166	2.51
574.589	1.55
575.012	1.5
575.435	1.38
575.858	0.75
576.281	1.03
576.704	0.32
577.126	-1.3
577.549	-1.5
577.972	-2.17
578.394	-1.46
578.817	0.5
579.239	0.41
579.661	1.25
580.084	2.25
580.506	2.31
580.928	1.96
581.35	2.38
581.772	3.56
582.194	3.99
582.616	3.73
583.038	2.84
583.46	0.79
583.882	0.81
584.303	-0.71
584.725	-1.5
585.147	2.61
585.568	3.02
585.99	3.97
586.411	4.49
586.833	5.05
587.254	6.01
587.675	6.21
588.096	6.24
588.518	6.02
588.939	6.77
589.36	7.21
589.781	1.43
590.202	3.87
590.623	2.88
591.043	1.44
591.464	0.54
591.885	0.67
592.305	0.42
592.726	0.05
593.147	0.3
593.567	1.02
593.987	0.62
594.408	0.77
594.828	-2.36
595.248	-1.19
595.669	-0.39
596.089	0.05
596.509	-0.59
596.929	-0.72
597.349	-0.18
597.769	-0.35
598.189	-0.63
598.608	-0.43
599.028	0.07
599.448	0.25
599.867	-0.23
600.287	-0.68
600.706	-0.03
601.126	0.06
601.545	1.11
601.965	0.82
602.384	0.68
602.803	0.5
603.222	0.93
603.641	0.47
604.061	1.09
604.48	0.67
604.898	0.5
605.317	-0.31
605.736	-0.23
606.155	-0.12
606.574	-0.05
606.992	-0.04
607.411	0.43
607.829	-1.26
608.248	-1.2
608.666	-1.9
609.085	-1.52
609.503	-1.09
609.921	-0.43
610.339	-0.53
610.758	-1.22
611.176	-1.13
611.594	-0.93
612.012	-1.22
612.43	0.19
612.847	-0.05
613.265	0.99
613.683	1.38
614.101	1.2
614.518	0.25
614.936	0.52
615.353	1.41
615.771	1.71
616.188	1.87
616.606	1.58
617.023	1.65
617.44	1.83
617.857	0.36
618.274	-0.6
618.691	-0.08
619.108	0.51
619.525	-0.05
619.942	-0.65
620.359	-1.26
620.776	-1.13
621.192	0.04
621.609	0.08
622.026	0.38
622.442	1.07
622.859	0.88
623.275	0.08
623.691	-0.5
624.108	-0.18
624.524	-0.08
624.94	0.06
625.356	-0.93
625.772	-2.24
626.188	-2.78
626.604	-3.21
627.02	-3.49
627.436	-3.1
627.852	-2.08
628.268	-1.7
628.683	-2.04
629.099	-1.99
629.514	-2.25
629.93	-2.06
630.345	-2.05
630.761	-2.46
631.176	-2.07
631.591	-0.14
632.007	0.78
632.422	-0.58
632.837	-1.18
633.252	0.16
633.667	-0.07
634.082	0.22
634.497	1.02
634.911	2.95
635.326	3.37
635.741	3.27
636.155	2.26
636.57	2.25
636.984	3.1
637.399	5.11
637.813	3.9
638.228	3.82
638.642	3.69
639.056	3.2
639.47	2.45
639.884	3.44
640.298	4
640.712	4.41
641.126	3.72
641.54	2.98
641.954	-0.56
642.368	0.24
642.781	2.87
643.195	3.01
643.609	3.42
644.022	2.65
644.436	1.28
644.849	-0.29
645.262	-1.4
645.676	-1.94
646.089	-1.47
646.502	1.63
646.915	0.4
647.328	-1.43
647.741	-1.15
648.154	-1.68
648.567	1.04
648.98	2.4
649.393	3.04
649.805	3.67
650.218	3.61
650.631	4
651.043	3.54
651.456	4.65
651.868	3.94
652.28	2.7
652.693	1.92
653.105	-0.52
653.517	-1.14
653.929	-1.13
654.341	-1.69
654.753	-0.76
655.165	-1.66
655.577	-2.64
655.989	-2.7
656.401	-3.34
656.813	-0.59
657.224	-0.39
657.636	-0.87
658.047	-0.08
658.459	0.28
658.87	-0.76
659.282	-1.19
659.693	0.09
660.104	1.16
660.515	0.5
660.926	0.31
661.338	-0.75
661.749	-1.13
662.159	0.27
662.57	-1.31
662.981	-1.25
663.392	-0.71
663.803	-0.7
664.213	-1.83
664.624	-2.67
665.035	-3.48
665.445	-2.85
665.855	-2.12
666.266	-0.64
666.676	-1.69
667.086	-2.08
667.497	-2.16
667.907	-2.2
668.317	-2.45
668.727	1.43
669.137	0.93
669.547	1.78
669.956	0.55
670.366	-0.65
670.776	-0.48
671.186	-1.32
671.595	-0.72
672.005	-1.67
672.414	-0.93
672.824	0.31
673.233	-4.27
673.642	-4.51
674.052	-4.03
674.461	-1.93
674.87	-2.18
675.279	-1.67
675.688	-1.95
676.097	-1.37
676.506	-0.59
676.915	-1.72
677.323	-2.5
677.732	-1.85
678.141	-1.23
678.549	-1.71
678.958	-2.76
679.366	-3.3
679.775	-4.91
680.183	-2.45
680.592	-2.42
681	-2.67
681.408	-2.29
681.816	-3.06
682.224	-3.91
682.632	-2.27
683.04	-2.44
683.448	-3.61
683.856	-2.39
684.264	-1.09
684.671	-3.64
685.079	-5.41
685.487	-5.48
685.894	-4.98
686.302	-5.29
686.709	-3.69
687.116	-5.05
687.524	-3.7
687.931	-1.4
688.338	-1.69
688.745	-2.63
689.152	-2.16
689.559	0.47
689.966	2.26
690.373	2.14
690.78	3.05
691.187	2.84
691.593	3.22
692	1.91
692.407	1.97
692.813	4.38
693.22	4.65
693.626	3.31
694.032	3.3
694.439	3.05
694.845	3.37
695.251	2.96
695.657	3.75
696.063	2.28
696.469	1.51
696.875	1.76
697.281	-1.13
697.687	-1.67
698.093	-0.29
698.498	-0.49
698.904	-2.5
699.31	-2.82
699.715	-0.76
700.12	-1.76
700.526	-0.52
700.931	-0.09
701.337	0.14
701.742	2.32
702.147	2.06
702.552	2.72
702.957	0.92
703.362	1.11
703.767	0.32
704.172	-1.57
704.577	-1.01
704.981	-2.92
705.386	-2.35
705.791	-2.33
706.195	-3.96
706.6	-3.83
707.004	-5.87
707.408	-5.25
707.813	-3.72
708.217	-2.6
708.621	-2.34
709.025	-3.58
709.43	-1.15
709.834	-0.54
710.237	-1.43
710.641	-0.92
711.045	0.2
711.449	2.63
711.853	6.48
712.256	4.71
712.66	4.16
713.064	4.34
713.467	5.87
713.87	6.28
714.274	6.46
714.677	7.72
715.08	6.86
715.484	6.99
715.887	8.44
716.29	4.7
716.693	6.88
717.096	7.66
717.499	7.33
717.901	5.47
718.304	2.85
718.707	1.83
719.109	0.56
719.512	0.14
719.915	3.3
720.317	2.85
720.719	1.68
721.122	0.53
721.524	0.6
721.926	5.72
722.328	7.02
722.731	6.63
723.133	6.96
723.535	8.27
723.937	8.96
724.338	8.27
724.74	8.64
725.142	63.84
725.544	68.79
725.945	81.18
726.347	77.01
726.748	76.83
727.15	79.26
727.551	82.04
727.952	79.12
728.354	77.57
728.755	75.15
729.156	72.7
729.557	19.9
729.958	14.71
730.359	3.12
730.76	2.41
731.161	1.56
731.562	-0.87
731.962	-3.98
732.363	-3.33
732.763	-1.87
733.164	-3.66
733.564	-3.17
733.965	-1.63
734.365	-0.61
734.766	-0.54
735.166	0.47
735.566	2.06
735.966	3.61
736.366	4.37
736.766	4.15
737.166	2.52
737.566	3.73
737.966	3.2
738.365	1.93
738.765	2.58
739.165	2.1
739.564	0.35
739.964	-1.24
740.363	-2.42
740.763	-4.21
741.162	-1.73
741.561	-1.23
741.96	-0.78
742.36	-1.09
742.759	-0.45
743.158	-1.76
743.557	-2.71
743.955	-2.9
744.354	-2.8
744.753	-2.67
745.152	-1.02
745.55	-3.73
745.949	-4.05
746.348	-3.8
746.746	-4.41
747.144	-1.99
747.543	-3.13
747.941	-3.76
748.339	-2.97
748.737	-1.72
749.136	-1.05
749.534	-2.82
749.932	-1.16
750.33	-0.63
750.727	-2.59
751.125	-1.54
751.523	-4.58
751.921	-0.11
752.318	1.21
752.716	3.38
753.113	3.13
753.511	2.53
753.908	3.29
754.305	8.23
754.703	9.33
