Data from C_1_HIR_WI_4N_Splice17_11-42-01-316.txt Node
Date: Sat Mar 14 11:42:01 EDT 2020
User: sa697716
Spectrometer: FLMS03696
Trigger mode: 0
Integration Time (sec): 3.180400E-1
Scans to average: 20
Electric dark correction enabled: true
Nonlinearity correction enabled: true
Boxcar width: 5
XAxis mode: Wavelengths
Number of Pixels in Spectrum: 2048
>>>>>Begin Spectral Data<<<<<
187.83	-225902.74
188.298	1655.98
188.766	902.49
189.233	814.9
189.701	1094.34
190.169	1508.11
190.636	506.94
191.104	355.96
191.571	22.54
192.039	-80.57
192.506	-100.26
192.974	175.47
193.441	-333.3
193.908	62.74
194.375	22.66
194.842	-19.6
195.31	29.07
195.777	72.4
196.244	153.95
196.711	74.74
197.177	73.05
197.644	27.8
198.111	-4.82
198.578	5.21
199.045	-20.9
199.511	-45.76
199.978	-93.84
200.445	-55.57
200.911	-97.05
201.378	-208.87
201.844	-118.72
202.31	-261.77
202.777	-267.44
203.243	-129.36
203.709	-131.88
204.176	-137.78
204.642	-113.84
205.108	-87.33
205.574	-87.16
206.04	-95.74
206.506	-68.63
206.972	-111.05
207.438	-102.06
207.903	-127.12
208.369	-69.18
208.835	-55.06
209.301	-75.07
209.766	-100.34
210.232	-102.44
210.697	-130.28
211.163	-174.27
211.628	-286.01
212.094	-193.54
212.559	-160.19
213.024	-90.35
213.49	-142.02
213.955	-140.34
214.42	-144.31
214.885	-97.82
215.35	-64.18
215.815	16.54
216.28	38.94
216.745	25.03
217.21	47.25
217.675	0.84
218.14	10.26
218.604	-17.24
219.069	-16.86
219.534	25.88
219.998	6.34
220.463	-17.01
220.927	-107.57
221.392	-102.28
221.856	-84.41
222.32	-172.44
222.785	-168.02
223.249	-217.94
223.713	-213.16
224.177	-213.81
224.642	-353.96
225.106	-457.36
225.57	-477.72
226.034	-291.15
226.497	-430.39
226.961	-322.49
227.425	-278.16
227.889	-355.89
228.353	-371.39
228.816	-852.29
229.28	-755.68
229.744	-670.32
230.207	-276.42
230.671	-280.47
231.134	-618.19
231.597	-649.19
232.061	-722.62
232.524	-778.52
232.987	-495.33
233.45	-360.65
233.914	-289.99
234.377	-348.91
234.84	-280.41
235.303	-402.61
235.766	-435.12
236.229	-398.26
236.691	-269
237.154	-303.74
237.617	-186.92
238.08	-202.03
238.542	-266.64
239.005	-180.2
239.468	-155.39
239.93	-150.31
240.393	-128.9
240.855	-109.27
241.317	-134.76
241.78	-179.02
242.242	-172.11
242.704	-164.69
243.166	-138.65
243.629	-88.66
244.091	-97.26
244.553	-113.14
245.015	-93.4
245.477	-132.97
245.939	-198.56
246.4	-166.65
246.862	-182.26
247.324	-166.95
247.786	-248.94
248.247	-355.62
248.709	-502.36
249.17	-361.94
249.632	-256.22
250.093	-237.79
250.555	-192.95
251.016	-92.82
251.477	-90.81
251.939	-53.78
252.4	-80.02
252.861	-119.1
253.322	-80.71
253.783	-129.28
254.244	-220.15
254.705	-231.54
255.166	-269.71
255.627	-286.08
256.088	-425.55
256.549	-437.49
257.009	-419.73
257.47	-484.55
257.931	-392.79
258.391	-274.96
258.852	-269.17
259.312	-263.82
259.773	-342.24
260.233	-200.39
260.694	-133.23
261.154	-145.18
261.614	-60.51
262.074	-44.48
262.534	-29.35
262.994	1.11
263.455	-47.35
263.915	0.29
264.374	0.79
264.834	11.02
265.294	-36.34
265.754	-15.83
266.214	-17.98
266.673	-38.98
267.133	-82.75
267.593	-122.59
268.052	-139.93
268.512	-113.62
268.971	-95.82
269.431	-109.25
269.89	-105.3
270.349	-147.36
270.809	-184.71
271.268	-163.78
271.727	-479.72
272.186	-251.67
272.645	-162.77
273.104	-186.91
273.563	-279.47
274.022	-344.73
274.481	-249.16
274.94	-175.62
275.399	-145.69
275.857	-193.8
276.316	-268.33
276.775	-234.13
277.233	-229.62
277.692	-188.64
278.15	-196.27
278.609	-157.15
279.067	-128.66
279.525	-102.59
279.984	-152.92
280.442	-199.44
280.9	-116.54
281.358	-80.56
281.816	-51.77
282.274	-59.76
282.732	-101.56
283.19	-125.12
283.648	-124.36
284.106	-130.35
284.564	-170.46
285.021	-157.95
285.479	-108.41
285.937	-147.14
286.394	-110.19
286.852	-137.95
287.309	-146.17
287.767	-100.41
288.224	-83.51
288.682	-111.79
289.139	-117.72
289.596	-91.45
290.053	-103.99
290.511	-163.16
290.968	-194.41
291.425	-273.18
291.882	-162.27
292.339	-109.24
292.796	-150.66
293.252	-156.54
293.709	-84.26
294.166	-75.63
294.623	-96.99
295.079	-100.37
295.536	-66.36
295.992	-32.36
296.449	-47.57
296.905	-46.89
297.362	-32.38
297.818	-43.11
298.274	-10.24
298.731	-34.68
299.187	-45.46
299.643	-65.95
300.099	-70.89
300.555	-105.85
301.011	-111.85
301.467	-36
301.923	-91.72
302.379	-93.51
302.835	-91.68
303.291	-99.83
303.746	-96.37
304.202	-124.34
304.658	-97.05
305.113	-59.05
305.569	-46.99
306.024	-65.64
306.479	-157.27
306.935	-125.49
307.39	-176.27
307.845	-163.78
308.301	-150.23
308.756	-188.37
309.211	-169.67
309.666	-190.8
310.121	-218.5
310.576	-259.67
311.031	-277.43
311.486	-345.15
311.94	-365.05
312.395	-524.89
312.85	-1068.93
313.305	-6505.4
313.759	-27040.02
314.214	-1974.47
314.668	-1471.54
315.123	-1142.74
315.577	-328.71
316.032	-253.84
316.486	-294.39
316.94	-187.19
317.394	-100.51
317.849	-61.61
318.303	-61.4
318.757	-50.77
319.211	-53.54
319.665	-47.01
320.119	-60.34
320.572	-128.23
321.026	-84.81
321.48	-67.59
321.934	-103.87
322.387	-111.75
322.841	-98.11
323.295	-29.33
323.748	-86.58
324.202	-84.11
324.655	-106.08
325.108	-108.16
325.562	-55.62
326.015	-82.33
326.468	-42.83
326.921	-45.17
327.374	-15.63
327.827	3.83
328.28	-22.7
328.733	1.02
329.186	9.35
329.639	15.2
330.092	2.7
330.545	9.95
330.997	-4.3
331.45	17.48
331.903	45.72
332.355	12.83
332.808	-34.32
333.26	-36.75
333.713	-35.58
334.165	-73.87
334.617	-168.29
335.069	-229.18
335.522	-535.01
335.974	-605.22
336.426	-641.69
336.878	-544.17
337.33	-250.3
337.782	-235.4
338.234	-262.94
338.686	-348.89
339.137	-416.91
339.589	-377.54
340.041	-227.15
340.493	-170.72
340.944	-175.15
341.396	-180.52
341.847	-96.72
342.299	-67
342.75	-40.53
343.201	-83.91
343.653	-99.09
344.104	-151.12
344.555	-102.73
345.006	-273.94
345.457	-117.38
345.908	-72.43
346.359	-51.73
346.81	-64.34
347.261	-121.94
347.712	-172.15
348.163	-199.13
348.613	-141.39
349.064	-120.79
349.515	-107.74
349.965	-81.37
350.416	-144.41
350.866	-192.66
351.317	-266.76
351.767	-412.58
352.217	-469.63
352.668	-333.07
353.118	-259
353.568	-337.73
354.018	-205.81
354.468	-177.18
354.918	-108.71
355.368	-98.63
355.818	-132.63
356.268	-504.75
356.718	-1663.15
357.168	-341.15
357.617	-167.79
358.067	-224.66
358.517	-233.71
358.966	-303.7
359.416	-299.24
359.865	-357.47
360.315	-445.11
360.764	-187.19
361.213	-55.22
361.663	-111.05
362.112	-188.53
362.561	-341.26
363.01	-269.57
363.459	-228.33
363.908	-298.62
364.357	-268.04
364.806	-519.7
365.255	-364.5
365.703	-321.06
366.152	-310.36
366.601	-229.18
367.05	-135.5
367.498	-113.8
367.947	-122.77
368.395	-142.79
368.844	-101.19
369.292	-166.85
369.74	-81.19
370.189	-142.55
370.637	-160.81
371.085	-165.83
371.533	-226.9
371.981	-280.86
372.429	-243.43
372.877	-283.62
373.325	-202.83
373.773	-217.56
374.221	-177.21
374.669	-232.13
375.116	-190.96
375.564	-206.81
376.012	-250.69
376.459	-185.05
376.907	-232.68
377.354	-325.34
377.801	-251.16
378.249	-313.11
378.696	-419.15
379.143	-508.87
379.591	-530.43
380.038	-945.48
380.485	-647.55
380.932	-625.85
381.379	-494.05
381.826	-224.71
382.273	-147.36
382.72	-160.04
383.166	-107.88
383.613	-52.96
384.06	-46
384.506	-54.25
384.953	-32.12
385.4	-45.89
385.846	-51.65
386.292	-72.82
386.739	-105.94
387.185	-126.34
387.631	-131.68
388.078	-113.03
388.524	-116.86
388.97	-99.06
389.416	-75.35
389.862	-76.31
390.308	-65.49
390.754	-62.83
391.2	-71.82
391.645	-69.03
392.091	-21.21
392.537	-12.4
392.983	-38
393.428	-12.02
393.874	-22.5
394.319	-8.75
394.765	16.28
395.21	7.55
395.655	15.97
396.101	18.69
396.546	19.34
396.991	-2.68
397.436	-0.88
397.881	1.47
398.326	-20.63
398.771	-8.24
399.216	-18.16
399.661	-25.3
400.106	-17.88
400.551	-13.15
400.995	-10.35
401.44	-7.92
401.885	-7.8
402.329	-8.22
402.774	-5.64
403.218	10.94
403.663	8.05
404.107	10.17
404.551	15.5
404.995	9.12
405.44	2.2
405.884	0.98
406.328	-4.96
406.772	-5.62
407.216	-2.61
407.66	-5.97
408.104	-15.89
408.547	-19
408.991	-18.62
409.435	-22.79
409.879	-18.91
410.322	-15.64
410.766	-12.36
411.209	-6.79
411.653	-5.7
412.096	-2.96
412.54	-4.6
412.983	-4.57
413.426	-0.07
413.869	-2.54
414.312	1.44
414.756	0.61
415.199	-0.52
415.642	-0.21
416.085	0.6
416.527	-0.95
416.97	-2.73
417.413	1.12
417.856	-2.66
418.298	-3.94
418.741	-5.04
419.184	-9.74
419.626	-15.92
420.069	-16.24
420.511	-16.74
420.953	-15.65
421.396	-14.92
421.838	-16.62
422.28	-18.07
422.722	-14.18
423.164	-17.6
423.606	-16.27
424.048	-15.35
424.49	-9.83
424.932	-12.04
425.374	-14.13
425.816	-18.93
426.258	-17.84
426.699	-16.88
427.141	-11.77
427.582	-13.81
428.024	-12.33
428.465	-12.89
428.907	-13.42
429.348	-14.34
429.789	-11.88
430.231	-8.37
430.672	-5.97
431.113	-6.83
431.554	-7.26
431.995	-10.31
432.436	-7.8
432.877	-7.89
433.318	-4.57
433.759	-3.46
434.2	-2.5
434.64	-2.21
435.081	-1.84
435.522	-1.67
435.962	-2
436.403	-0.07
436.843	-2.77
437.284	-4.6
437.724	-5.85
438.164	-12.04
438.604	-14.65
439.045	-12.55
439.485	-9.44
439.925	-11.2
440.365	-10.93
440.805	-10.69
441.245	-8.12
441.685	-6.79
442.125	-7.33
442.564	-7.2
443.004	-3.56
443.444	-1.7
443.883	-2.11
444.323	-5.69
444.762	-8.32
445.202	-9.33
445.641	-7.58
446.081	-10.4
446.52	-9.92
446.959	-9.64
447.398	-7.42
447.837	-8.29
448.276	-8.57
448.716	-7.2
449.154	-9.04
449.593	-5.94
450.032	-4.96
450.471	-6.96
450.91	-8.55
451.349	-6.39
451.787	-6.28
452.226	-6.59
452.664	-7.18
453.103	-6.35
453.541	-7.82
453.98	-3.51
454.418	-4.47
454.856	-2.49
455.295	-1.97
455.733	-0.31
456.171	-2.28
456.609	0.14
457.047	-0.56
457.485	1.94
457.923	2.62
458.361	1.37
458.798	-0.54
459.236	0.94
459.674	-1.87
460.111	-1.04
460.549	-1.38
460.987	-2.65
461.424	-3.99
461.862	-3.67
462.299	-4.26
462.736	-3.15
463.173	-2.4
463.611	1.14
464.048	1.34
464.485	2.8
464.922	1.43
465.359	1.3
465.796	10.54
466.233	11.65
466.67	13.92
467.106	15.05
467.543	12.54
467.98	11.51
468.416	8.93
468.853	7.1
469.29	6.6
469.726	6.11
470.162	5.96
470.599	-0.33
471.035	-2.18
471.471	-3.7
471.907	-5.95
472.344	-5.7
472.78	-4.71
473.216	-5.62
473.652	-5.1
474.088	-6.51
474.523	-5.34
474.959	-6.38
475.395	-6.95
475.831	-5.8
476.266	-5.3
476.702	-4.88
477.138	-3.86
477.573	-4.66
478.008	-3.69
478.444	-2.38
478.879	0.21
479.314	1.53
479.75	2.41
480.185	2.26
480.62	2.24
481.055	2.17
481.49	3.37
481.925	3.14
482.36	5.46
482.795	4.37
483.229	3.53
483.664	2.16
484.099	0.85
484.534	1.18
484.968	1.32
485.403	0.71
485.837	-0.45
486.271	-1.38
486.706	-1.78
487.14	-2.48
487.574	-1.75
488.009	-2.14
488.443	-2.43
488.877	-1.74
489.311	-2.26
489.745	-1.48
490.179	-0.38
490.613	1.94
491.046	1.31
491.48	1.68
491.914	1.23
492.348	1.31
492.781	1.92
493.215	2.53
493.648	1.07
494.082	1.31
494.515	1.02
494.948	1.32
495.382	-0.21
495.815	-0.1
496.248	0.16
496.681	-0.21
497.114	-0.87
497.547	-0.33
497.98	0.62
498.413	2.53
498.846	2.97
499.279	2.53
499.711	1.68
500.144	1.38
500.577	2.72
501.009	1.95
501.442	3.01
501.874	3.63
502.306	3.15
502.739	4.9
503.171	4.04
503.603	3.8
504.036	3.94
504.468	3.94
504.9	4.17
505.332	3.28
505.764	4.16
506.196	3.8
506.627	3.59
507.059	3.18
507.491	0.11
507.923	1.07
508.354	1.39
508.786	1.62
509.217	1.46
509.649	1.09
510.08	1.26
510.512	1.9
510.943	2.13
511.374	2.53
511.805	2.33
512.237	2.38
512.668	1.23
513.099	-0.31
513.53	-0.91
513.961	-0.07
514.391	0.55
514.822	1.9
515.253	1.26
515.684	0.39
516.114	0.02
516.545	0.83
516.975	0.86
517.406	1.06
517.836	1.69
518.267	1.75
518.697	1.87
519.127	1.69
519.558	0.4
519.988	-0.21
520.418	-0.09
520.848	-0.85
521.278	-1.77
521.708	30.75
522.138	31.65
522.567	30.84
522.997	30.88
523.427	30.24
523.857	30.14
524.286	30.38
524.716	30.99
525.145	31.48
525.575	32.34
526.004	32.13
526.433	0.29
526.863	-1.22
527.292	0.81
527.721	2.02
528.15	1.95
528.579	2.11
529.008	1.96
529.437	0.95
529.866	0.43
530.295	-0.3
530.724	1.05
531.152	0.95
531.581	2.52
532.01	1.97
532.438	1.19
532.867	0.63
533.295	1.42
533.723	1.47
534.152	2.26
534.58	2.53
535.008	3.19
535.436	3.51
535.865	3.39
536.293	2.48
536.721	1.79
537.149	2.03
537.576	3.22
538.004	2.85
538.432	2.04
538.86	2.45
539.287	1.92
539.715	1.76
540.143	1.19
540.57	1.84
540.998	1.7
541.425	3.24
541.852	2.94
542.28	1.88
542.707	2.18
543.134	2.78
543.561	2.35
543.988	3.03
544.415	2.69
544.842	1.93
545.269	1.77
545.696	2.43
546.123	2.02
546.549	2.16
546.976	2.81
547.403	2.49
547.829	1.77
548.256	0.9
548.682	0.95
549.108	2.09
549.535	2.57
549.961	1.82
550.387	1.15
550.813	1.98
551.24	1.36
551.666	0.66
552.092	-0.03
552.518	0.3
552.943	1.56
553.369	0.93
553.795	0.56
554.221	0.34
554.646	0.8
555.072	1.56
555.498	-0.64
555.923	-0.71
556.349	-0.52
556.774	-0.43
557.199	-0.54
557.625	-1.19
558.05	-0.47
558.475	-0.61
558.9	-0.25
559.325	0.38
559.75	0.16
560.175	1.27
560.6	1
561.025	0.5
561.449	0.55
561.874	0.33
562.299	0.4
562.723	-0.32
563.148	-0.71
563.572	-1.26
563.997	-1.6
564.421	-2.5
564.846	-3.25
565.27	-3.03
565.694	-2.55
566.118	-2.17
566.542	-0.89
566.966	-0.68
567.39	-0.31
567.814	0.37
568.238	1.14
568.662	0.13
569.086	0.72
569.509	0.34
569.933	1.6
570.357	1.19
570.78	0.88
571.204	1.1
571.627	1.11
572.05	1.21
572.474	2.14
572.897	1.63
573.32	2.74
573.743	2.03
574.166	3.35
574.589	2.01
575.012	2.59
575.435	2.23
575.858	1.94
576.281	1.71
576.704	1.38
577.126	-0.56
577.549	-0.91
577.972	-1.18
578.394	-0.21
578.817	1.39
579.239	1.26
579.661	1.53
580.084	3.31
580.506	3.59
580.928	3.26
581.35	2.72
581.772	3.21
582.194	3.77
582.616	3.11
583.038	2.28
583.46	-0.28
583.882	0.62
584.303	-0.22
584.725	-1.88
585.147	1.92
585.568	2.51
585.99	3.51
586.411	3.75
586.833	4.14
587.254	4.53
587.675	4.16
588.096	4.25
588.518	3.91
588.939	4.28
589.36	4.72
589.781	-0.97
590.202	1.71
590.623	1.72
591.043	0.67
591.464	0.14
591.885	0.59
592.305	0.33
592.726	0.48
593.147	0.55
593.567	0.73
593.987	0.82
594.408	0.95
594.828	-2.25
595.248	-1.65
595.669	0.13
596.089	0.08
596.509	-1.08
596.929	-0.77
597.349	-0.5
597.769	-0.79
598.189	-0.91
598.608	-1.35
599.028	-1.15
599.448	-1.24
599.867	-1.7
600.287	-2.69
600.706	-1.83
601.126	-0.75
601.545	-0.05
601.965	-0.31
602.384	-0.09
602.803	-0.61
603.222	0.03
603.641	-0
604.061	0.8
604.48	0.52
604.898	0.42
605.317	-0.36
605.736	-0.79
606.155	-0.33
606.574	-0.22
606.992	-0.21
607.411	0.29
607.829	-0.43
608.248	-0.59
608.666	-1.19
609.085	-0.52
609.503	-0.66
609.921	-0.19
610.339	-0.15
610.758	-1.27
611.176	-0.92
611.594	-0.26
612.012	-0.09
612.43	1.18
612.847	1.04
613.265	2.14
613.683	1.61
614.101	2.06
614.518	1.68
614.936	1.81
615.353	2.64
615.771	2.55
616.188	2.36
616.606	2.33
617.023	1.71
617.44	2.26
617.857	0.88
618.274	0.73
618.691	1.56
619.108	1.65
619.525	1.67
619.942	1.59
620.359	1.63
620.776	1.57
621.192	2.36
621.609	2.94
622.026	3.25
622.442	3.68
622.859	3.42
623.275	2.22
623.691	1.93
624.108	2.57
624.524	2.43
624.94	2.7
625.356	2.31
625.772	0.85
626.188	-0.34
626.604	-0.83
627.02	-0.76
627.436	-0.53
627.852	1.12
628.268	1.37
628.683	0.08
629.099	-0.3
629.514	-1.25
629.93	-1.77
630.345	-1.56
630.761	-2.05
631.176	-2.24
631.591	-1.07
632.007	-1.11
632.422	-3.32
632.837	-3.99
633.252	-2.65
633.667	-1.92
634.082	-1.91
634.497	-1.28
634.911	0.2
635.326	0.95
635.741	1.73
636.155	1.1
636.57	1.92
636.984	2.88
637.399	4.31
637.813	2.92
638.228	1.92
638.642	1.81
639.056	2.02
639.47	0.96
639.884	1.26
640.298	0.47
640.712	0.51
641.126	0.32
641.54	-0.6
641.954	-2.73
642.368	-1.63
642.781	2.01
643.195	2.42
643.609	2.58
644.022	2.51
644.436	1.78
644.849	1.82
645.262	1.06
645.676	-0.15
646.089	0.37
646.502	1.77
646.915	0.55
647.328	-1.41
647.741	-1.53
648.154	-1.87
648.567	0.81
648.98	1.56
649.393	1.68
649.805	2.59
650.218	2.87
650.631	3.4
651.043	3.73
651.456	3.8
651.868	3.18
652.28	2.57
652.693	1.88
653.105	-0.46
653.517	-1.28
653.929	-1.01
654.341	-1.27
654.753	-0.29
655.165	-0.99
655.577	-1.5
655.989	-1.01
656.401	-2.28
656.813	-0.17
657.224	-0.73
657.636	-1.6
658.047	-0.46
658.459	-0.66
658.87	-2.25
659.282	-2.37
659.693	-1.78
660.104	-0.87
660.515	-0.79
660.926	-0.93
661.338	-1.99
661.749	-2.75
662.159	-1.18
662.57	-2.52
662.981	-2.3
663.392	-1.4
663.803	-1.99
664.213	-2.79
664.624	-3.54
665.035	-3.9
665.445	-3.65
665.855	-2.62
666.266	0.06
666.676	-0.54
667.086	-1.12
667.497	-1.23
667.907	-0.94
668.317	-1.21
668.727	1.7
669.137	0.48
669.547	-0.03
669.956	-1.05
670.366	-1.83
670.776	-2.15
671.186	-2.63
671.595	-1.27
672.005	-2.41
672.414	-2.25
672.824	-1.33
673.233	-3.97
673.642	-2.81
674.052	-1.86
674.461	0.08
674.87	-0.19
675.279	0.44
675.688	-0.86
676.097	0.35
676.506	0.39
676.915	-0.58
677.323	-0.71
677.732	-0
678.141	-0.79
678.549	-0.67
678.958	-2.16
679.366	-2.65
679.775	-4.63
680.183	-1.95
680.592	-3.43
681	-2.13
681.408	-1.43
681.816	-1.48
682.224	-2.96
682.632	-0.8
683.04	-0.97
683.448	-1.41
683.856	-1.22
684.264	0.18
684.671	-2.37
685.079	-3.04
685.487	-3.59
685.894	-4.93
686.302	-7.49
686.709	-5.97
687.116	-7.12
687.524	-5.63
687.931	-3.22
688.338	-2.38
688.745	-3.58
689.152	-3.05
689.559	-1.81
689.966	-1.07
690.373	0.62
690.78	2.31
691.187	1.72
691.593	1.51
692	0.03
692.407	0.21
692.813	2.89
693.22	3.71
693.626	2.88
694.032	3.01
694.439	3.12
694.845	2.45
695.251	2.51
695.657	2.66
696.063	0.6
696.469	0.25
696.875	-0.23
697.281	-3.38
697.687	-3.73
698.093	-2.72
698.498	-2.28
698.904	-3.6
699.31	-3.72
699.715	-2.15
700.12	-2.22
700.526	-0.06
700.931	-0.58
701.337	0.02
701.742	1.87
702.147	1.23
702.552	1.73
702.957	-0.65
703.362	-0.12
703.767	-0.64
704.172	-1.69
704.577	-2.83
704.981	-3.72
705.386	-3
705.791	-2.7
706.195	-4.71
706.6	-4.22
707.004	-5.88
707.408	-4.91
707.813	-4.06
708.217	-3.29
708.621	-3.78
709.025	-2.51
709.43	-0.94
709.834	-0.4
710.237	-1.31
710.641	-0.88
711.045	-0.6
711.449	1.8
711.853	5.36
712.256	4.06
712.66	3.48
713.064	4.15
713.467	5.09
713.87	3.94
714.274	4.12
714.677	5.07
715.08	5.4
715.484	5.96
715.887	8.32
716.29	3.78
716.693	5.51
717.096	7.31
717.499	6.85
717.901	4.6
718.304	4.18
718.707	3.36
719.109	1.93
719.512	0.43
719.915	2.12
720.317	-0.83
720.719	-0.66
721.122	-2.34
721.524	-2.56
721.926	2.62
722.328	3.09
722.731	3.24
723.133	3.06
723.535	2.94
723.937	3.98
724.338	5.33
724.74	5.95
725.142	55.59
725.544	60.36
725.945	71.96
726.347	66.29
726.748	67.49
727.15	69.02
727.551	73.17
727.952	72.24
728.354	71.23
728.755	68.5
729.156	67.16
729.557	18.37
729.958	14.59
730.359	3.24
730.76	3.76
731.161	3.7
731.562	2.11
731.962	-1.77
732.363	-0.91
732.763	-0.12
733.164	-1.77
733.564	-1.34
733.965	0.76
734.365	0.46
734.766	-0.08
735.166	-0.36
735.566	0.39
735.966	1.24
736.366	2.35
736.766	2.43
737.166	0.83
737.566	1.7
737.966	1.91
738.365	2.22
738.765	3.73
739.165	4.44
739.564	4.5
739.964	2.32
740.363	1.39
740.763	-0.89
741.162	-0.12
741.561	0.5
741.96	0.54
742.36	-1.88
742.759	-3.1
743.158	-3.67
743.557	-4.47
743.955	-5.15
744.354	-4.8
744.753	-6.07
745.152	-3.98
745.55	-4.93
745.949	-4.88
746.348	-4.01
746.746	-3.84
747.144	-0.95
747.543	-2.33
747.941	-1.87
748.339	-1.71
748.737	-0.16
749.136	2.63
749.534	0.1
749.932	2.25
750.33	1.8
750.727	0.22
751.125	2.04
751.523	0.56
751.921	4.13
752.318	4.74
752.716	6.74
753.113	5.18
