Data from C_1_HIR_WI_4N_Splice17_11-42-12-397.txt Node
Date: Sat Mar 14 11:42:12 EDT 2020
User: sa697716
Spectrometer: FLMS03696
Trigger mode: 0
Integration Time (sec): 3.180400E-1
Scans to average: 20
Electric dark correction enabled: true
Nonlinearity correction enabled: true
Boxcar width: 5
XAxis mode: Wavelengths
Number of Pixels in Spectrum: 2048
>>>>>Begin Spectral Data<<<<<
187.83	-193465
188.298	1469.48
188.766	838.52
189.233	717.3
189.701	993.43
190.169	1315.31
190.636	497.19
191.104	445.25
191.571	53.31
192.039	-46.17
192.506	-55.85
192.974	312.09
193.441	-531.81
193.908	-68.27
194.375	-31.51
194.842	18.43
195.31	60.45
195.777	150.96
196.244	291.24
196.711	172.01
197.177	139.72
197.644	126.83
198.111	133.72
198.578	185.94
199.045	102.63
199.511	97.83
199.978	33.99
200.445	15.3
200.911	-34.78
201.378	-141.78
201.844	-112.32
202.31	-244.04
202.777	-235.12
203.243	-112.05
203.709	-137.68
204.176	-141.74
204.642	-101.3
205.108	-82.84
205.574	-71.21
206.04	-98.99
206.506	-78.69
206.972	-104.5
207.438	-105.51
207.903	-141.72
208.369	-100.03
208.835	-89.63
209.301	-91.07
209.766	-104.96
210.232	-115.19
210.697	-149.11
211.163	-208.78
211.628	-368.42
212.094	-236.73
212.559	-185.14
213.024	-77.37
213.49	-76.55
213.955	-83.49
214.42	-122.18
214.885	-85.9
215.35	-57.73
215.815	35.17
216.28	56.83
216.745	38.09
217.21	45.83
217.675	2.5
218.14	-11.39
218.604	-37.53
219.069	-23.5
219.534	27.24
219.998	-0.32
220.463	-6.04
220.927	-97.35
221.392	-70.35
221.856	-47.85
222.32	-105.38
222.785	-107.65
223.249	-132.5
223.713	-134.2
224.177	-151.35
224.642	-274.38
225.106	-322
225.57	-382.68
226.034	-214.71
226.497	-335.53
226.961	-225.34
227.425	-201.87
227.889	-225.98
228.353	-219.04
228.816	-503.21
229.28	-392.38
229.744	-346.53
230.207	-137.49
230.671	-120.2
231.134	-374
231.597	-384.98
232.061	-480.08
232.524	-522.87
232.987	-374.23
233.45	-291.01
233.914	-242.65
234.377	-281.05
234.84	-248.57
235.303	-357.69
235.766	-378.62
236.229	-379.86
236.691	-228.7
237.154	-258.96
237.617	-169.97
238.08	-170.54
238.542	-225.26
239.005	-142.7
239.468	-121.28
239.93	-103.39
240.393	-85.01
240.855	-68.03
241.317	-81.12
241.78	-132.4
242.242	-123.09
242.704	-92.72
243.166	-63.44
243.629	-32.49
244.091	-47.79
244.553	-69.2
245.015	-52.08
245.477	-69.19
245.939	-133.99
246.4	-93.64
246.862	-70.73
247.324	-64.95
247.786	-169.3
248.247	-304.59
248.709	-448.56
249.17	-302.89
249.632	-198.1
250.093	-193.17
250.555	-174.35
251.016	-77.83
251.477	-81.76
251.939	-82.85
252.4	-102.03
252.861	-120.53
253.322	-72.19
253.783	-99.52
254.244	-185.94
254.705	-210.02
255.166	-241.04
255.627	-224.24
256.088	-286.54
256.549	-282.51
257.009	-241.46
257.47	-316.86
257.931	-265.59
258.391	-189.38
258.852	-162.04
259.312	-149.11
259.773	-200.64
260.233	-97.96
260.694	-61.49
261.154	-99.98
261.614	-34.27
262.074	-41.96
262.534	-31.12
262.994	-16
263.455	-42.83
263.915	-30.65
264.374	-31.64
264.834	-16.77
265.294	-55.46
265.754	-58.13
266.214	-44.41
266.673	-58.14
267.133	-71.6
267.593	-71.99
268.052	-110.34
268.512	-113.78
268.971	-50.21
269.431	-27.11
269.89	-34.34
270.349	-34.64
270.809	-26.53
271.268	-17.27
271.727	-192.58
272.186	-105.52
272.645	-90.69
273.104	-76.51
273.563	-117.56
274.022	-215.27
274.481	-152.9
274.94	-109.48
275.399	-97.5
275.857	-140.62
276.316	-221.45
276.775	-196.08
277.233	-194.84
277.692	-135.5
278.15	-139.28
278.609	-86.98
279.067	-97.74
279.525	-98.61
279.984	-151.93
280.442	-174.91
280.9	-90.73
281.358	-63.49
281.816	-43.2
282.274	-59.87
282.732	-128.96
283.19	-152.05
283.648	-143.22
284.106	-148.74
284.564	-190.8
285.021	-161.46
285.479	-127.69
285.937	-156.1
286.394	-119.37
286.852	-134.51
287.309	-146.57
287.767	-97.6
288.224	-65.58
288.682	-87.31
289.139	-72.53
289.596	-42.49
290.053	-49.94
290.511	-80.42
290.968	-67.31
291.425	-95.62
291.882	7.15
292.339	54.22
292.796	9.36
293.252	-25.75
293.709	3.43
294.166	1.43
294.623	-2
295.079	-10.55
295.536	6
295.992	5.1
296.449	2.63
296.905	1.4
297.362	19.69
297.818	26.49
298.274	50.13
298.731	47.15
299.187	44.3
299.643	36.32
300.099	54.77
300.555	62.61
301.011	61.23
301.467	109.21
301.923	62.99
302.379	46.39
302.835	4.9
303.291	10.31
303.746	-4.75
304.202	-47.61
304.658	-35.36
305.113	-31.83
305.569	-40.18
306.024	-77.29
306.479	-140.09
306.935	-103.45
307.39	-151.09
307.845	-114.88
308.301	-120.59
308.756	-138.39
309.211	-107.46
309.666	-129.69
310.121	-120.05
310.576	-130.59
311.031	-149.38
311.486	-214.1
311.94	-241.11
312.395	-340.9
312.85	-688.71
313.305	-4037.67
313.759	-17020.71
314.214	-1380.39
314.668	-1055.85
315.123	-858.4
315.577	-263.79
316.032	-202.17
316.486	-249.3
316.94	-149.15
317.394	-75.29
317.849	-37.91
318.303	-35.47
318.757	-19.4
319.211	-17.14
319.665	-12.84
320.119	-20.81
320.572	-55.37
321.026	-30.17
321.48	-10.94
321.934	-39.48
322.387	-70.43
322.841	-81.84
323.295	-23.78
323.748	-80.37
324.202	-71.94
324.655	-67.82
325.108	-60.8
325.562	-25.13
326.015	-62.63
326.468	-33.37
326.921	-19.12
327.374	31.63
327.827	50.34
328.28	38.63
328.733	64.82
329.186	61.1
329.639	60.81
330.092	44.76
330.545	45.45
330.997	51.94
331.45	67.56
331.903	98.32
332.355	96.72
332.808	77.1
333.26	41.92
333.713	33.95
334.165	9.03
334.617	-35.61
335.069	-101.65
335.522	-249.45
335.974	-301.8
336.426	-286.51
336.878	-303.29
337.33	-115.59
337.782	-129.83
338.234	-123.26
338.686	-158.78
339.137	-178.55
339.589	-184.62
340.041	-98.67
340.493	-88.36
340.944	-77.03
341.396	-101
341.847	-39.5
342.299	13.32
342.75	53.86
343.201	-21.26
343.653	-40.24
344.104	-59.7
344.555	-46.9
345.006	-148.76
345.457	-39.54
345.908	-64.22
346.359	-28.94
346.81	-21.91
347.261	-103.03
347.712	-127.37
348.163	-149.37
348.613	-96.42
349.064	-85.95
349.515	-58.79
349.965	-41.55
350.416	-59.95
350.866	-64.33
351.317	-107.22
351.767	-173.79
352.217	-145.39
352.668	-101.95
353.118	-14.95
353.568	-151.74
354.018	-95.07
354.468	-106.97
354.918	-46.72
355.368	-53.09
355.818	-91.77
356.268	-414.02
356.718	-1594.47
357.168	-392.65
357.617	-184.28
358.067	-281.06
358.517	-205.3
358.966	-245.97
359.416	-215.96
359.865	-393.79
360.315	-654.02
360.764	-240.85
361.213	-87.82
361.663	-131.07
362.112	-186.14
362.561	-289.99
363.01	-219.94
363.459	-219.1
363.908	-234.79
364.357	-144.96
364.806	-269.57
365.255	-162.72
365.703	-149.88
366.152	-173.12
366.601	-117.56
367.05	-72.2
367.498	-60.62
367.947	-69.49
368.395	-72.45
368.844	-68.85
369.292	-164.14
369.74	-79.22
370.189	-124.1
370.637	-136.23
371.085	-129.74
371.533	-195.89
371.981	-229.17
372.429	-198.03
372.877	-186.68
373.325	-133.27
373.773	-146.63
374.221	-119.27
374.669	-176.25
375.116	-146.25
375.564	-164.06
376.012	-166.47
376.459	-92.69
376.907	-131.96
377.354	-219.49
377.801	-175.61
378.249	-197.21
378.696	-295.77
379.143	-381.19
379.591	-407.72
380.038	-740.2
380.485	-495.76
380.932	-562.12
381.379	-401.52
381.826	-124.37
382.273	-47.73
382.72	-116.84
383.166	-117.08
383.613	-40.65
384.06	-22.4
384.506	-35.7
384.953	-18.97
385.4	-28.61
385.846	-17.39
386.292	-52.94
386.739	-84.3
387.185	-99.32
387.631	-85.33
388.078	-56.12
388.524	-66.94
388.97	-62.39
389.416	-35.42
389.862	-32.27
390.308	-21.23
390.754	-17.27
391.2	-19.53
391.645	-22.93
392.091	22.57
392.537	34.64
392.983	12.14
393.428	49.83
393.874	51.84
394.319	71.96
394.765	86.71
395.21	76.43
395.655	61.71
396.101	60.38
396.546	61.86
396.991	41.89
397.436	32.12
397.881	31.37
398.326	-0.14
398.771	8.12
399.216	-4.1
399.661	-6.93
400.106	-0.62
400.551	10.08
400.995	13.08
401.44	14.59
401.885	12.25
402.329	11.98
402.774	12.13
403.218	28.76
403.663	22.52
404.107	22.99
404.551	27.62
404.995	23.03
405.44	15.53
405.884	10.2
406.328	1.77
406.772	-2
407.216	-2.67
407.66	-5.84
408.104	-16.18
408.547	-16.76
408.991	-15.04
409.435	-17.22
409.879	-13.66
410.322	-13.34
410.766	-9.33
411.209	-1.75
411.653	-1.1
412.096	2.56
412.54	2.74
412.983	3.48
413.426	9.61
413.869	8.64
414.312	11.13
414.756	8.2
415.199	7.02
415.642	8.99
416.085	8.15
416.527	8.34
416.97	5.84
417.413	7.31
417.856	4.23
418.298	1.71
418.741	-0.67
419.184	-5.88
419.626	-13.25
420.069	-12.85
420.511	-14.01
420.953	-11.3
421.396	-9.98
421.838	-11.1
422.28	-11.17
422.722	-8.4
423.164	-10.26
423.606	-10.11
424.048	-11.7
424.49	-4.48
424.932	-5.02
425.374	-7.15
425.816	-10.54
426.258	-12.8
426.699	-11.6
427.141	-8.21
427.582	-10
428.024	-9.76
428.465	-10.78
428.907	-9.01
429.348	-8.89
429.789	-6.41
430.231	-0.54
430.672	0.68
431.113	1.55
431.554	3.02
431.995	-1.18
432.436	1.88
432.877	2.87
433.318	7.07
433.759	5.94
434.2	5.83
434.64	2.84
435.081	0.09
435.522	-0.14
435.962	-0.29
436.403	1.12
436.843	-0.65
437.284	-2.44
437.724	-5.22
438.164	-12.27
438.604	-11.75
439.045	-9.44
439.485	-4.53
439.925	-5.14
440.365	-5
440.805	-4.84
441.245	-3.81
441.685	-1.79
442.125	-2.67
442.564	-2.62
443.004	-0.61
443.444	-0.05
443.883	-0.53
444.323	-3.98
444.762	-8.43
445.202	-10.59
445.641	-9.04
446.081	-13.29
446.52	-13.34
446.959	-11.89
447.398	-9.89
447.837	-8.77
448.276	-10.55
448.716	-9.29
449.154	-10.84
449.593	-7.13
450.032	-5.68
450.471	-9.86
450.91	-9.14
451.349	-8.17
451.787	-8.39
452.226	-9.9
452.664	-10.67
453.103	-8.87
453.541	-12.41
453.98	-7.82
454.418	-7.66
454.856	-6.28
455.295	-3.38
455.733	-2.6
456.171	-3.36
456.609	-1.68
457.047	-0.4
457.485	1.65
457.923	2.76
458.361	3.54
458.798	1.28
459.236	0.83
459.674	-1.02
460.111	-0.43
460.549	-0.04
460.987	-0.52
461.424	-2.59
461.862	-2.88
462.299	-2.61
462.736	-2.25
463.173	-1.77
463.611	2.48
464.048	4.09
464.485	5.82
464.922	3.97
465.359	3.57
465.796	12.82
466.233	15.21
466.67	17.25
467.106	18.87
467.543	17.41
467.98	16.04
468.416	13.37
468.853	12.16
469.29	10.71
469.726	10.54
470.162	10.74
470.599	3.2
471.035	0.86
471.471	-0.29
471.907	-2.82
472.344	-3.09
472.78	-2.11
473.216	-4.14
473.652	-4.23
474.088	-4.99
474.523	-3.22
474.959	-4.26
475.395	-4.61
475.831	-3.72
476.266	-3.73
476.702	-4.2
477.138	-3.64
477.573	-3.34
478.008	-2.14
478.444	-1.43
478.879	0.66
479.314	0.94
479.75	1.06
480.185	1.09
480.62	0.21
481.055	0.48
481.49	1.67
481.925	1.96
482.36	3.73
482.795	2.53
483.229	1.92
483.664	1.53
484.099	0.21
484.534	1.22
484.968	2.13
485.403	2.9
485.837	1.56
486.271	1.17
486.706	0.62
487.14	-0.96
487.574	-0.46
488.009	-0.46
488.443	-1.04
488.877	-0.02
489.311	-0.98
489.745	-1.38
490.179	-1.26
490.613	0.43
491.046	-0.16
491.48	-0.13
491.914	0.27
492.348	0.6
492.781	0.62
493.215	0.86
493.648	0.21
494.082	0.1
494.515	0.66
494.948	1.42
495.382	1.01
495.815	1.6
496.248	1.78
496.681	0.86
497.114	-0.08
497.547	0.58
497.98	1.26
498.413	2.87
498.846	3.28
499.279	2.37
499.711	1.29
500.144	1.02
500.577	1.43
501.009	1.61
501.442	2.72
501.874	4.09
502.306	3.19
502.739	5.36
503.171	4.07
503.603	4.2
504.036	4.21
504.468	4.11
504.9	3.6
505.332	2.62
505.764	2.91
506.196	2.77
506.627	3.03
507.059	3.04
507.491	-0.11
507.923	0.38
508.354	0.98
508.786	1.13
509.217	1.41
509.649	1.91
510.08	1.91
510.512	2.18
510.943	2.01
511.374	1.49
511.805	1.11
512.237	0.82
512.668	0.1
513.099	-1.29
513.53	-1.55
513.961	-1.48
514.391	-1.84
514.822	0.13
515.253	0.41
515.684	0.44
516.114	0.27
516.545	1.5
516.975	2.12
517.406	1.82
517.836	1.66
518.267	2.67
518.697	3.56
519.127	3.49
519.558	1.79
519.988	1.14
520.418	0.36
520.848	-0.44
521.278	-1.23
521.708	31
522.138	32.35
522.567	32.25
522.997	31.48
523.427	30.84
523.857	30.99
524.286	30.85
524.716	30.81
525.145	31.87
525.575	33.07
526.004	32.88
526.433	1.22
526.863	0.02
527.292	1.3
527.721	2.14
528.15	1.83
528.579	2.42
529.008	2.83
529.437	1.99
529.866	1.83
530.295	1.12
530.724	1.87
531.152	1.82
531.581	2.26
532.01	2.35
532.438	0.95
532.867	0.6
533.295	0.31
533.723	0.14
534.152	0.92
534.58	0.46
535.008	0.47
535.436	1.68
535.865	1.26
536.293	0.09
536.721	-1.11
537.149	-0.17
537.576	0.85
538.004	1.12
538.432	0.5
538.86	0.74
539.287	0.82
539.715	0.98
540.143	-0.61
540.57	-0.08
540.998	0.11
541.425	2.39
541.852	1.82
542.28	1.08
542.707	1.06
543.134	1.8
543.561	1.43
543.988	1.64
544.415	0.93
544.842	0.7
545.269	1.05
545.696	2.07
546.123	1.38
546.549	1.48
546.976	1.7
547.403	0.73
547.829	0.23
548.256	-0
548.682	-0.29
549.108	1.27
549.535	1.4
549.961	0.65
550.387	0.82
550.813	1.53
551.24	1.88
551.666	1.39
552.092	1.68
552.518	1.52
552.943	2.15
553.369	1.92
553.795	1.51
554.221	1.54
554.646	1.72
555.072	2.56
555.498	0.83
555.923	0.24
556.349	0.8
556.774	0.63
557.199	0.85
557.625	-0.09
558.05	0.33
558.475	0.42
558.9	0.76
559.325	1.3
559.75	0.18
560.175	0.39
560.6	0.24
561.025	-0.78
561.449	-0
561.874	-0.56
562.299	0.46
562.723	0.38
563.148	0.02
563.572	-0.32
563.997	-0.69
564.421	-1.63
564.846	-2.07
565.27	-1.98
565.694	-1.28
566.118	-2.03
566.542	-0.66
566.966	-1.12
567.39	-1.24
567.814	-1.6
568.238	-1.66
568.662	-2.48
569.086	-1.43
569.509	-1.62
569.933	0.33
570.357	-0.08
570.78	0.13
571.204	1.04
571.627	1.37
572.05	1.17
572.474	2.21
572.897	2.34
573.32	3.62
573.743	3.38
574.166	4.41
574.589	3.04
575.012	2.93
575.435	2.7
575.858	1.56
576.281	1.03
576.704	0.78
577.126	-0.42
577.549	-0.5
577.972	-1.13
578.394	-1.4
578.817	-0.04
579.239	-0.67
579.661	0.03
580.084	1.18
580.506	1.05
580.928	0.54
581.35	0.87
581.772	1.41
582.194	1.68
582.616	0.6
583.038	0.2
583.46	-1.63
583.882	-0.61
584.303	-1.45
584.725	-2.29
585.147	2.58
585.568	3.53
585.99	3.65
586.411	4.35
586.833	4.07
587.254	4.95
587.675	4.55
588.096	4.56
588.518	4.18
588.939	5.44
589.36	5.42
589.781	-0.28
590.202	2.38
590.623	3.29
591.043	1.87
591.464	1.74
591.885	2.28
592.305	2.51
592.726	3.19
593.147	3.79
593.567	3.5
593.987	3.7
594.408	3.24
594.828	-0.04
595.248	-0.32
595.669	0.88
596.089	1.36
596.509	0.76
596.929	0.61
597.349	0.48
597.769	0.08
598.189	-0.37
598.608	-0.64
599.028	-0.22
599.448	-0.31
599.867	-0.65
600.287	-1.48
600.706	-1.1
601.126	-0.54
601.545	0.3
601.965	0.2
602.384	0.15
602.803	0.14
603.222	0.28
603.641	0.41
604.061	1.52
604.48	1.3
604.898	1.56
605.317	0.97
605.736	0.76
606.155	1.32
606.574	1.07
606.992	0.68
607.411	0.74
607.829	0.1
608.248	-0
608.666	-1.01
609.085	-0.49
609.503	-1.19
609.921	-0.64
610.339	-0.4
610.758	-1.43
611.176	-1.52
611.594	-0.71
612.012	-0.61
612.43	0.8
612.847	0.54
613.265	1.93
613.683	2.21
614.101	2.97
614.518	1.97
614.936	1.37
615.353	2.11
615.771	2.59
616.188	1.87
616.606	2.26
617.023	1.28
617.44	1.03
617.857	-0.64
618.274	-1.54
618.691	-1.54
619.108	-1.05
619.525	-1.19
619.942	-1.05
620.359	-1.34
620.776	-0.99
621.192	-0.56
621.609	0.09
622.026	1.78
622.442	2.25
622.859	2.11
623.275	1.85
623.691	0.83
624.108	1.58
624.524	1.17
624.94	1.49
625.356	1.17
625.772	0.02
626.188	-0.87
626.604	-2.32
627.02	-2.6
627.436	-1.43
627.852	0.01
628.268	1.52
628.683	0.92
629.099	0.54
629.514	-0.4
629.93	-0.39
630.345	-0.06
630.761	0.06
631.176	0.48
631.591	2.91
632.007	2.8
632.422	1.24
632.837	0.27
633.252	0.95
633.667	0.63
634.082	1.2
634.497	1.97
634.911	3.74
635.326	3.98
635.741	4.37
636.155	2.67
636.57	3.14
636.984	4.03
637.399	6.24
637.813	4.92
638.228	5.36
638.642	4.54
639.056	3.9
639.47	2.57
639.884	2.95
640.298	2.54
640.712	3.31
641.126	2.55
641.54	1.55
641.954	-1.9
642.368	-0.73
642.781	1.59
643.195	2.12
643.609	2.11
644.022	1.88
644.436	0.41
644.849	-0.44
645.262	-1.64
645.676	-2.77
646.089	-2.48
646.502	-0.61
646.915	-1.61
647.328	-2.62
647.741	-2.07
648.154	-1.67
648.567	0.56
648.98	2.46
649.393	3.17
649.805	4.04
650.218	4.86
650.631	5.39
651.043	5.89
651.456	7.1
651.868	6.25
652.28	5.09
652.693	4.12
653.105	2.9
653.517	1.44
653.929	0.7
654.341	0.99
654.753	1.01
655.165	0.03
655.577	-0.54
655.989	-1.06
656.401	-1.95
656.813	0.4
657.224	0.57
657.636	-1.18
658.047	0.38
658.459	1.36
658.87	0.03
659.282	-0.02
659.693	1.07
660.104	1.86
660.515	1.7
660.926	1.21
661.338	-0.26
661.749	-1.21
662.159	0.49
662.57	-1.46
662.981	-2.44
663.392	-2.62
663.803	-3.32
664.213	-4.32
664.624	-5.41
665.035	-6.42
665.445	-6.26
665.855	-5.05
666.266	-3.17
666.676	-4.03
667.086	-3.92
667.497	-2.8
667.907	-2.11
668.317	-2.1
668.727	1.44
669.137	0.82
669.547	1.55
669.956	1.13
670.366	0.67
670.776	0.49
671.186	0.04
671.595	0.27
672.005	-0.43
672.414	0.12
672.824	1.42
673.233	-2.73
673.642	-1.74
674.052	-0.87
674.461	1.1
674.87	0.52
675.279	1.42
675.688	1.06
676.097	3.19
676.506	3.08
676.915	1.04
677.323	0.74
677.732	1.22
678.141	1.27
678.549	0.2
678.958	-1.74
679.366	-2.3
679.775	-4.2
680.183	-2.32
680.592	-4.18
681	-3.89
681.408	-2.97
681.816	-3.21
682.224	-3.63
682.632	-2.83
683.04	-2.77
683.448	-2.24
683.856	-1.56
684.264	-0.26
684.671	-1.97
685.079	-3.19
685.487	-4.18
685.894	-4.89
686.302	-6.88
686.709	-5.99
687.116	-6.96
687.524	-5.93
687.931	-3.63
688.338	-3.22
688.745	-4.04
689.152	-4.63
689.559	-3.43
689.966	-1.5
690.373	-0.77
690.78	0.63
691.187	1.04
691.593	1.63
692	0.92
692.407	0.32
692.813	2.8
693.22	2.69
693.626	2.14
694.032	3.47
694.439	3.52
694.845	3.49
695.251	3.49
695.657	3.39
696.063	1.38
696.469	1.45
696.875	0.66
697.281	-1.29
697.687	-0.95
698.093	-0.87
698.498	-1.12
698.904	-2.72
699.31	-3.22
699.715	-0.81
700.12	-0.57
700.526	1.21
700.931	0
701.337	1.65
701.742	2.13
702.147	1.76
702.552	2.92
702.957	0.97
703.362	1.14
703.767	1.55
704.172	-0.41
704.577	-1.92
704.981	-3.74
705.386	-2.29
705.791	-3.21
706.195	-4.55
706.6	-4.84
707.004	-6.05
707.408	-5.12
707.813	-3.74
708.217	-3.63
708.621	-3.71
709.025	-3.58
709.43	-0.48
709.834	-0.4
710.237	-0.32
710.641	-0.31
711.045	1.23
711.449	3.02
711.853	6.83
712.256	5.33
712.66	5.46
713.064	5.75
713.467	6.96
713.87	5.23
714.274	5.82
714.677	5.5
715.08	6.79
715.484	6.56
715.887	9.38
716.29	4.77
716.693	6.63
717.096	8.03
717.499	7.61
717.901	6.38
718.304	6.27
718.707	5.31
719.109	5.36
719.512	3.71
719.915	6.07
720.317	3.08
720.719	2.07
721.122	1.12
721.524	0.8
721.926	5.59
722.328	6.5
722.731	5.89
723.133	6.16
723.535	5.82
723.937	6.74
724.338	6.61
724.74	7.88
725.142	62.26
725.544	65.72
725.945	77.53
726.347	73.24
726.748	74.27
727.15	75.97
727.551	78.01
727.952	76.56
728.354	75.24
728.755	73.57
729.156	71.4
729.557	19.47
729.958	16.08
730.359	4.25
730.76	4.63
731.161	3.41
731.562	0.79
731.962	-1.73
732.363	-0.39
732.763	-0.21
733.164	-3.41
733.564	-2.4
733.965	-0.99
734.365	-1.21
734.766	-1.14
735.166	-2.34
735.566	-0.75
735.966	0.06
736.366	0.76
736.766	1.07
737.166	-0.14
737.566	1.53
737.966	0.23
738.365	0.11
738.765	1.24
739.165	1.28
739.564	1.13
739.964	-1.03
740.363	-0.67
740.763	-1.65
741.162	-0.69
741.561	-0.24
741.96	-0.17
742.36	-0.67
742.759	-0.38
743.158	-2.48
743.557	-3.76
743.955	-3.7
744.354	-3.77
744.753	-4.1
745.152	-2.99
745.55	-5.88
745.949	-4.75
746.348	-4.86
746.746	-5.34
747.144	-3.62
747.543	-2.79
747.941	-2.71
748.339	-2.27
748.737	-1.11
749.136	-0.49
749.534	-3.02
749.932	0.41
750.33	-1.14
750.727	-1.56
751.125	0.79
751.523	-1.04
751.921	2.15
752.318	3.02
752.716	4.9
753.113	5.32
753.511	4.85
753.908	6.87
754.305	10.07
754.703	10.77
755.1	12.44
755.497	11.69
755.894	11.11
756.291	8.47
756.688	9.08
757.085	6.93
757.482	7.11
757.878	9.8
758.275	11.25
758.672	3.31
