Data from C_1_DEC_VA_2N_Splice17_11-57-21-424.txt Node
Date: Sat Mar 14 11:57:21 EDT 2020
User: sa697716
Spectrometer: FLMS03696
Trigger mode: 0
Integration Time (sec): 3.180400E-1
Scans to average: 20
Electric dark correction enabled: true
Nonlinearity correction enabled: true
Boxcar width: 5
XAxis mode: Wavelengths
Number of Pixels in Spectrum: 2048
>>>>>Begin Spectral Data<<<<<
187.83	-220329.91
188.298	1608.46
188.766	919.31
189.233	828.06
189.701	1079.1
190.169	1468.77
190.636	550.77
191.104	378.95
191.571	35.45
192.039	-89.89
192.506	-192.9
192.974	174.27
193.441	-361.16
193.908	18.63
194.375	3.95
194.842	-16.61
195.31	-4.8
195.777	106.88
196.244	246.24
196.711	283.71
197.177	356.45
197.644	471.01
198.111	852.58
198.578	1191.97
199.045	947.23
199.511	1529.05
199.978	1741.83
200.445	1485.15
200.911	1630.88
201.378	1771.8
201.844	1603.29
202.31	2686.58
202.777	2761.2
203.243	1489.39
203.709	1416.07
204.176	1697.81
204.642	1395.78
205.108	1306.28
205.574	1066.57
206.04	941.62
206.506	887.43
206.972	833.43
207.438	799.42
207.903	893.69
208.369	787.22
208.835	780.48
209.301	807.71
209.766	811.97
210.232	796.78
210.697	953.58
211.163	1166.41
211.628	1703.63
212.094	1407.72
212.559	1771.57
213.024	1093.31
213.49	1346.24
213.955	1285.94
214.42	1209.13
214.885	1115.99
215.35	1074.89
215.815	1077.8
216.28	1135.92
216.745	886.93
217.21	934.22
217.675	780.95
218.14	823.47
218.604	824.76
219.069	870.06
219.534	878.09
219.998	928.34
220.463	1035.27
220.927	1086.65
221.392	939.56
221.856	919.72
222.32	1025.53
222.785	1225.74
223.249	1472.16
223.713	1581.19
224.177	1541.94
224.642	1837.41
225.106	2156.39
225.57	2232.35
226.034	1685.8
226.497	2503.66
226.961	2244.01
227.425	2628.3
227.889	2815.72
228.353	2722.59
228.816	5455.88
229.28	5054.43
229.744	4169.56
230.207	2603.89
230.671	2546.93
231.134	3970.53
231.597	4586.49
232.061	4393.84
232.524	4084.57
232.987	2791.02
233.45	2544.39
233.914	2239.14
234.377	2222.69
234.84	2016.43
235.303	2297.75
235.766	2522.86
236.229	2604.35
236.691	1592.9
237.154	1772.92
237.617	1384.36
238.08	1372.03
238.542	1573.21
239.005	1131.97
239.468	1144.26
239.93	1067.17
240.393	968.69
240.855	853.82
241.317	854.68
241.78	1012.03
242.242	1062.21
242.704	1175.87
243.166	1047.69
243.629	981.09
244.091	1150.02
244.553	1239.69
245.015	1360.34
245.477	1737.21
245.939	2515.46
246.4	2693.13
246.862	2596.01
247.324	2422.29
247.786	2639.21
248.247	3413.92
248.709	3367.36
249.17	2489.62
249.632	2454.07
250.093	2907.12
250.555	2511.18
251.016	1562.06
251.477	1488.64
251.939	1639.37
252.4	1716.21
252.861	2010.02
253.322	1879.33
253.783	2209.79
254.244	2860.93
254.705	2195.61
255.166	1883.32
255.627	1872.6
256.088	2657.33
256.549	2832.06
257.009	2407.33
257.47	2920.39
257.931	2380.25
258.391	1800.69
258.852	1869.49
259.312	1945.69
259.773	2397.33
260.233	2098.02
260.694	1786.65
261.154	2004.77
261.614	1653.43
262.074	1477.65
262.534	1540.47
262.994	1466.15
263.455	1931.17
263.915	1633.93
264.374	1532.84
264.834	1655.06
265.294	1778.4
265.754	1843.88
266.214	1729.99
266.673	1597.21
267.133	1999.81
267.593	1945.37
268.052	2355.27
268.512	2034.59
268.971	2514.84
269.431	2752.16
269.89	2475.32
270.349	3712.74
270.809	4117.68
271.268	3719.14
271.727	8192.74
272.186	5341.58
272.645	4003.32
273.104	2858.23
273.563	4114.58
274.022	3136.2
274.481	2736.36
274.94	2105.26
275.399	1550.02
275.857	1780.8
276.316	2395.5
276.775	2141.63
277.233	2100.28
277.692	2034.8
278.15	2338.36
278.609	2467.99
279.067	2312.47
279.525	2177.17
279.984	2808.04
280.442	3445.25
280.9	3504.09
281.358	2317.71
281.816	2185.63
282.274	2161.76
282.732	2183.91
283.19	2190.56
283.648	1873.28
284.106	2018.23
284.564	2006.9
285.021	1903.01
285.479	1424.83
285.937	1266.83
286.394	1130.15
286.852	1158.9
287.309	1218.6
287.767	1234.4
288.224	1188.33
288.682	1312.78
289.139	1450.11
289.596	1348.17
290.053	1391.36
290.511	1732.82
290.968	2115.85
291.425	2823.31
291.882	2438.47
292.339	2150.9
292.796	2089.99
293.252	1959.93
293.709	1584.58
294.166	1418.44
294.623	1553.36
295.079	1477.64
295.536	1505.35
295.992	1379.27
296.449	1363.91
296.905	1407.2
297.362	1377.33
297.818	1429
298.274	1495.38
298.731	1509.98
299.187	1478.59
299.643	1577.34
300.099	1940.18
300.555	2113.22
301.011	1750.48
301.467	1769.52
301.923	2014.11
302.379	1951.66
302.835	1931.67
303.291	1929.53
303.746	2182.85
304.202	2773.96
304.658	2801.04
305.113	1864.77
305.569	1848.57
306.024	1962.84
306.479	1801.99
306.935	1547.22
307.39	1669.16
307.845	1557.34
308.301	1604.65
308.756	1577.83
309.211	1526.87
309.666	1569.35
310.121	2018.97
310.576	2034.36
311.031	2013.48
311.486	2260.55
311.94	2237.75
312.395	2999.07
312.85	5603.75
313.305	26707.69
313.759	142892.42
314.214	10364.63
314.668	8296.76
315.123	7049.46
315.577	2576.58
316.032	2343.55
316.486	2987.06
316.94	2441.24
317.394	1720.6
317.849	1347.01
318.303	1285.2
318.757	1219.99
319.211	1364.34
319.665	1195.43
320.119	1186.82
320.572	1683.15
321.026	1573.04
321.48	1308.9
321.934	1379.99
322.387	1384.6
322.841	1507.64
323.295	1395.08
323.748	1551.66
324.202	1573.11
324.655	1897.96
325.108	2716.56
325.562	1919.96
326.015	2268.8
326.468	1744.88
326.921	1975.43
327.374	1867.64
327.827	1996.13
328.28	2258.91
328.733	1541.72
329.186	1349.79
329.639	1294.2
330.092	1086.9
330.545	1059.02
330.997	1096.67
331.45	1231.81
331.903	1479.7
332.355	2486.86
332.808	2370.25
333.26	1914.07
333.713	2089.35
334.165	2122.83
334.617	2824.07
335.069	2223.26
335.522	3944.13
335.974	4326.52
336.426	3821.47
336.878	2559.53
337.33	1319.79
337.782	1292.21
338.234	1678.94
338.686	1998.95
339.137	2388.22
339.589	2250.43
340.041	1787.22
340.493	1527.78
340.944	1566.33
341.396	1718.51
341.847	1494.6
342.299	1795.32
342.75	2217.89
343.201	1902.58
343.653	2201.46
344.104	2668.13
344.555	2085.33
345.006	3220.72
345.457	2581.2
345.908	2016.83
346.359	1925.79
346.81	1555.32
347.261	1609.44
347.712	1561.03
348.163	1655.71
348.613	1726.37
349.064	1612.82
349.515	1416.32
349.965	1478.57
350.416	1740.6
350.866	1931.59
351.317	2080.47
351.767	3457.28
352.217	4365.12
352.668	3642.81
353.118	3402.23
353.568	3137.86
354.018	2559.85
354.468	2734.42
354.918	1980.49
355.368	1731.35
355.818	2446.56
356.268	7052.32
356.718	30057.19
357.168	7621.23
357.617	3784
358.067	4100.6
358.517	3860.03
358.966	4533.4
359.416	5174.6
359.865	5519.81
360.315	6517.09
360.764	3064.7
361.213	1783.78
361.663	1622.65
362.112	1980.04
362.561	3204.28
363.01	2446.44
363.459	2059.49
363.908	2192.21
364.357	1897.09
364.806	3121.95
365.255	2157.4
365.703	2042.96
366.152	2056.45
366.601	1705.36
367.05	1401.13
367.498	1308.82
367.947	1357.71
368.395	1423.55
368.844	1283.07
369.292	1485.06
369.74	1063.93
370.189	1618.03
370.637	1845.45
371.085	1560.44
371.533	1880.38
371.981	1767.71
372.429	1727.9
372.877	1814.33
373.325	1528.73
373.773	1527.69
374.221	1382.73
374.669	1663.12
375.116	1444.58
375.564	1474.23
376.012	1638.44
376.459	1378.14
376.907	1659.09
377.354	1946.63
377.801	1862.29
378.249	2145.74
378.696	2731.53
379.143	3300.92
379.591	3553.9
380.038	6144.54
380.485	4503.16
380.932	4952.39
381.379	4700.55
381.826	4218.41
382.273	3049.76
382.72	2657.05
383.166	2644.59
383.613	1763.78
384.06	1618.7
384.506	1929.54
384.953	1437.59
385.4	1463.23
385.846	1318.99
386.292	1292.48
386.739	1139.7
387.185	1169.52
387.631	1237.16
388.078	1300.78
388.524	1474.23
388.97	1441.22
389.416	1256.32
389.862	1395.22
390.308	1377.47
390.754	1462.52
391.2	1685.85
391.645	1864.03
392.091	1958.46
392.537	2055.93
392.983	2169.19
393.428	2265.82
393.874	2547.04
394.319	2772.68
394.765	2899.43
395.21	3306.69
395.655	3458.13
396.101	3600.65
396.546	3578.99
396.991	3957.98
397.436	4038.47
397.881	4293.12
398.326	4487.24
398.771	4678.42
399.216	4482.05
399.661	4368.83
400.106	4667.4
400.551	5090.31
400.995	4827.05
401.44	5022.64
401.885	4931.87
402.329	5183.12
402.774	5158.2
403.218	5155.04
403.663	5148.8
404.107	5470.56
404.551	5715.74
404.995	5458.07
405.44	5492.77
405.884	5814.39
406.328	5853.75
406.772	6044.42
407.216	5692.66
407.66	5712.06
408.104	5675.32
408.547	5538.42
408.991	5562.51
409.435	5533.27
409.879	5603.49
410.322	5664.3
410.766	5603.23
411.209	5472.89
411.653	5413.37
412.096	5459.17
412.54	5615.3
412.983	5710.67
413.426	5833.84
413.869	5956.95
414.312	5952.16
414.756	5856.5
415.199	5704.87
415.642	5637.65
416.085	5730.91
416.527	5780.5
416.97	5953.54
417.413	5708.29
417.856	5709.79
418.298	5699.86
418.741	5691.8
419.184	5709.03
419.626	5980.26
420.069	5995.69
420.511	6056.28
420.953	5967.22
421.396	5959.82
421.838	5869.75
422.28	6054.31
422.722	6133.01
423.164	6311.13
423.606	6290.39
424.048	6386.38
424.49	6136.32
424.932	6191.56
425.374	6183.1
425.816	6335.04
426.258	6435.25
426.699	6426.67
427.141	6198.9
427.582	6180.13
428.024	6065.1
428.465	6037.4
428.907	5949.82
429.348	5997.45
429.789	6090.1
430.231	6034.26
430.672	6191.2
431.113	6160.19
431.554	6260.75
431.995	6381.02
432.436	6408.06
432.877	6504.23
433.318	6550.46
433.759	6660.43
434.2	6755.39
434.64	6776.67
435.081	6888.66
435.522	6628.92
435.962	6511.42
436.403	6471.2
436.843	6669.92
437.284	6635.28
437.724	6542.55
438.164	6659.14
438.604	6569.76
439.045	6373.92
439.485	6175.65
439.925	6149.06
440.365	6100.9
440.805	6102.73
441.245	6091.56
441.685	5912.28
442.125	5913.59
442.564	5979.75
443.004	5850.35
443.444	5858.95
443.883	5896.33
444.323	5921.51
444.762	6002.44
445.202	6129.96
445.641	6261.26
446.081	6286.82
446.52	6381.65
446.959	6368.85
447.398	6268.67
447.837	6277.2
448.276	6245.05
448.716	6360.62
449.154	6446.75
449.593	6273.22
450.032	6238.94
450.471	6142.1
450.91	6143.28
451.349	6101.89
451.787	6064.83
452.226	6138.08
452.664	6107.92
453.103	6089.89
453.541	6076.37
453.98	6030.98
454.418	6081.51
454.856	5970.12
455.295	5947.29
455.733	5966.27
456.171	5989.12
456.609	5964.73
457.047	5947.25
457.485	5999.62
457.923	5988.23
458.361	5898.75
458.798	5925.4
459.236	5915.29
459.674	5985.06
460.111	6034.83
460.549	5994.62
460.987	6008.9
461.424	6026.33
461.862	6017.76
462.299	5957.46
462.736	5970.86
463.173	6011.2
463.611	5935.2
464.048	5927.79
464.485	5996.39
464.922	5981.02
465.359	6008.16
465.796	5890.82
466.233	5889.68
466.67	5868.67
467.106	5890.73
467.543	5893.22
467.98	5878.58
468.416	5820.71
468.853	5864.78
469.29	5767.46
469.726	5763.31
470.162	5663.84
470.599	5725.2
471.035	5744.15
471.471	5680.87
471.907	5730.88
472.344	5749.48
472.78	5795.21
473.216	5903.01
473.652	5842.44
474.088	5849.81
474.523	5844.76
474.959	5921.66
475.395	5882.14
475.831	5842.82
476.266	5877.19
476.702	5866.7
477.138	5805.6
477.573	5791.17
478.008	5766.2
478.444	5786.42
478.879	5815.17
479.314	5824.86
479.75	5798.73
480.185	5809.12
480.62	5838.63
481.055	5836.51
481.49	5826.68
481.925	5850.24
482.36	5845.24
482.795	5900.19
483.229	5933.1
483.664	5932.39
484.099	5852.62
484.534	5852.47
484.968	5828.19
485.403	5785.96
485.837	5730.27
486.271	5680.26
486.706	5671.12
487.14	5636.17
487.574	5577.95
488.009	5571.15
488.443	5553.69
488.877	5602.27
489.311	5613.49
489.745	5662.01
490.179	5690.92
490.613	5758.61
491.046	5792.03
491.48	5812.48
491.914	5796.13
492.348	5816.41
492.781	5826.64
493.215	5831.48
493.648	5854.24
494.082	5899.36
494.515	5890.29
494.948	5927.19
495.382	5953.15
495.815	5956.8
496.248	5962.07
496.681	6026.2
497.114	6077.41
497.547	6105.58
497.98	6137.61
498.413	6105.36
498.846	6106.49
499.279	6119.09
499.711	6113.95
500.144	6090.55
500.577	6109.92
501.009	6139.93
501.442	6151.94
501.874	6115.78
502.306	6110.36
502.739	6135.71
503.171	6240.55
503.603	6251.39
504.036	6294.31
504.468	6292.9
504.9	6331.84
505.332	6349.13
505.764	6348.1
506.196	6372.21
506.627	6434.83
507.059	6475.2
507.491	6504.2
507.923	6434
508.354	6483.77
508.786	6510.96
509.217	6587.42
509.649	6633.35
510.08	6703.61
510.512	6739.84
510.943	6762.46
511.374	6757.39
511.805	6813.74
512.237	6863.93
512.668	6992.63
513.099	7064.79
513.53	7098.79
513.961	7076.94
514.391	7125.74
514.822	7173.96
515.253	7254.03
515.684	7284.45
516.114	7356.29
516.545	7390.08
516.975	7459.42
517.406	7490.89
517.836	7468.58
518.267	7500.8
518.697	7608.23
519.127	7648.92
519.558	7701.94
519.988	7723.94
520.418	7785.09
520.848	7877.43
521.278	7917.44
521.708	7809.83
522.138	7855.6
522.567	7989.11
522.997	8067.73
523.427	8075.73
523.857	8075.51
524.286	8055.08
524.716	8075.46
525.145	8119.08
525.575	8129.04
526.004	8166.94
526.433	8263.82
526.863	8230.74
527.292	8150.27
527.721	8175.51
528.15	8229.36
528.579	8266.74
529.008	8333.56
529.437	8439.09
529.866	8475.89
530.295	8517.76
530.724	8521.13
531.152	8603.67
531.581	8626.36
532.01	8677.81
532.438	8684.93
532.867	8721.07
533.295	8768.15
533.723	8766.53
534.152	8731.08
534.58	8718.27
535.008	8636.7
535.436	8629.89
535.865	8652.41
536.293	8701.44
536.721	8735.71
537.149	8797.76
537.576	8746.29
538.004	8757.24
538.432	8765.1
538.86	8738.8
539.287	8755.96
539.715	8800.14
540.143	8809.11
540.57	8786.56
540.998	8775.56
541.425	8686.02
541.852	8625.58
542.28	8661.9
542.707	8625.71
543.134	8591.87
543.561	8603.04
543.988	8591.66
544.415	8609.89
544.842	8602.11
545.269	8585.59
545.696	8606.45
546.123	8687.83
546.549	8656.73
546.976	8610.18
547.403	8625.31
547.829	8651.52
548.256	8676.75
548.682	8679.95
549.108	8661.44
549.535	8680.84
549.961	8707.79
550.387	8660.54
550.813	8640.94
551.24	8684.04
551.666	8706.93
552.092	8675.68
552.518	8659.43
552.943	8634.3
553.369	8669.12
553.795	8689.72
554.221	8685.65
554.646	8663.8
555.072	8696.21
555.498	8708.32
555.923	8719.96
556.349	8752.96
556.774	8756.18
557.199	8732.4
557.625	8744.96
558.05	8703.23
558.475	8747.47
558.9	8730.77
559.325	8681.65
559.75	8651.03
560.175	8622.43
560.6	8603.71
561.025	8605.43
561.449	8616.83
561.874	8642.83
562.299	8644.98
562.723	8659.77
563.148	8590.82
563.572	8595.5
563.997	8627.48
564.421	8645.95
564.846	8631.18
565.27	8623.62
565.694	8585.17
566.118	8615.25
566.542	8619.41
566.966	8571.67
567.39	8529.91
567.814	8461.26
568.238	8438.21
568.662	8452.24
569.086	8455.52
569.509	8497.72
569.933	8437.39
570.357	8431.45
570.78	8362.81
571.204	8330.01
571.627	8314.54
572.05	8338.88
572.474	8370.26
572.897	8349.92
573.32	8340.16
573.743	8322.15
574.166	8249.67
574.589	8273.58
575.012	8247.36
575.435	8252.86
575.858	8223.48
576.281	8188.67
576.704	8141.45
577.126	8118.14
577.549	8098.58
577.972	8087.43
578.394	8064.37
578.817	8055.42
579.239	8000.42
579.661	7973.21
580.084	7931.96
580.506	7908.11
580.928	7927.65
581.35	7904.82
581.772	7910.56
582.194	7858.49
582.616	7803.84
583.038	7742.19
583.46	7700.84
583.882	7681.58
584.303	7703.61
584.725	7675.72
585.147	7632.83
585.568	7628.05
585.99	7608.38
586.411	7544.3
586.833	7534.27
587.254	7476.86
587.675	7492.59
588.096	7503.82
588.518	7433.44
588.939	7309.4
589.36	7264.69
589.781	7229.42
590.202	7097.55
590.623	7091.8
591.043	7131.91
591.464	7105.9
591.885	7102.58
592.305	7082.82
592.726	7026.05
593.147	7038.98
593.567	7019.21
593.987	6985.47
594.408	6959.74
594.828	6959.32
595.248	6923.63
595.669	6828.54
596.089	6798.92
596.509	6780.19
596.929	6720.6
597.349	6720.27
597.769	6665.76
598.189	6625.28
598.608	6618.9
599.028	6612.38
599.448	6602.78
599.867	6538.86
600.287	6519.69
600.706	6498.21
601.126	6449.26
601.545	6442
601.965	6438.43
602.384	6416.71
602.803	6434.63
603.222	6411.3
603.641	6387.32
604.061	6368.56
604.48	6351.39
604.898	6382.08
605.317	6397.25
605.736	6394.16
606.155	6365.32
606.574	6308.06
606.992	6317.17
607.411	6276.87
607.829	6233.67
608.248	6205.83
608.666	6186.39
609.085	6170.08
609.503	6121.92
609.921	6080.05
610.339	6079.54
610.758	6066.45
611.176	6034.09
611.594	5984.83
612.012	5966.73
612.43	5969.53
612.847	5986.13
613.265	5970.02
613.683	5973.43
614.101	5965.63
614.518	5943.53
614.936	5898
615.353	5835.67
615.771	5826.93
616.188	5832.1
616.606	5820.3
617.023	5798.2
617.44	5751.21
617.857	5745.41
618.274	5726.2
618.691	5707.94
619.108	5673.93
619.525	5647.01
619.942	5671.32
620.359	5673.23
620.776	5640.2
621.192	5604.7
621.609	5572.78
622.026	5573.37
622.442	5568.95
622.859	5559.01
623.275	5508.84
623.691	5514.52
624.108	5545.01
624.524	5584.69
624.94	5558.79
625.356	5576.15
625.772	5613.7
626.188	5648.93
626.604	5637.11
627.02	5603.34
627.436	5575.19
627.852	5583.16
628.268	5613.83
628.683	5557.99
629.099	5512.17
629.514	5494.34
629.93	5509.38
630.345	5525.5
630.761	5511.01
631.176	5529.66
631.591	5503.35
632.007	5484.43
632.422	5488.93
632.837	5451.07
633.252	5445.89
633.667	5414.36
634.082	5384.91
634.497	5339.78
634.911	5266.05
635.326	5267.07
635.741	5210.67
636.155	5192.53
636.57	5209.41
636.984	5218.19
637.399	5230.35
637.813	5248.87
638.228	5257.71
638.642	5292.25
639.056	5264.63
639.47	5284.13
639.884	5261.15
640.298	5250.34
640.712	5260.97
641.126	5229.41
641.54	5216.11
641.954	5230.08
642.368	5198.57
642.781	5175.27
643.195	5112.94
643.609	5128.33
644.022	5113.96
644.436	5102.97
644.849	5055.08
645.262	5007.45
645.676	5021.48
646.089	4995.82
646.502	4915.55
646.915	4890.87
647.328	4829.76
647.741	4833.09
648.154	4789.01
648.567	4778.05
648.98	4727.52
649.393	4746.67
649.805	4746.34
650.218	4729.23
650.631	4677.45
651.043	4671.3
651.456	4659.93
651.868	4670.69
652.28	4748.41
652.693	4789.02
653.105	4784.23
653.517	4779.54
653.929	4733.48
654.341	4721.03
654.753	4641.96
655.165	4662.01
655.577	4649.95
655.989	4635.04
656.401	4621.04
656.813	4478.38
657.224	4440.05
657.636	4387.84
658.047	4384.62
658.459	4373.04
658.87	4407.36
659.282	4409.88
659.693	4350.92
660.104	4319.09
660.515	4290.36
660.926	4309.29
661.338	4329.94
661.749	4327.83
662.159	4299.81
662.57	4309.04
662.981	4305.56
663.392	4283.62
663.803	4322.95
664.213	4330.97
664.624	4326.45
665.035	4357.69
665.445	4304.83
665.855	4276.23
666.266	4239.67
666.676	4239.02
667.086	4199.48
667.497	4197.66
667.907	4166.89
668.317	4115.96
668.727	4077.91
669.137	4080.89
669.547	4061.4
669.956	4070.29
670.366	4072.63
670.776	4070.8
671.186	4083.4
671.595	4086.01
672.005	4095.21
672.414	4073.38
672.824	4050.58
673.233	4079.9
673.642	4076.29
674.052	4072.46
674.461	4059.33
674.87	4070.17
675.279	4037.23
675.688	4033.54
676.097	4013.7
676.506	3978.33
676.915	4037.74
677.323	4030.91
677.732	4000.07
678.141	3977.02
678.549	3910.1
678.958	3889.39
679.366	3864.99
679.775	3872.87
680.183	3884.62
680.592	3891.74
681	3889.09
681.408	3822.32
681.816	3827.93
682.224	3833.48
682.632	3832.29
683.04	3917.22
683.448	3957.22
683.856	3988.41
684.264	4011.68
684.671	4019.67
685.079	4049.73
685.487	4089.59
685.894	4191.76
686.302	4239.13
686.709	4240.61
687.116	4268.2
687.524	4260.12
687.931	4252.52
688.338	4261.1
688.745	4277.51
689.152	4305.76
689.559	4351.8
689.966	4381.48
690.373	4335.93
690.78	4339.07
691.187	4402.66
691.593	4409.1
692	4400.95
692.407	4442.09
692.813	4507.97
693.22	4539.67
693.626	4587.83
694.032	4607.49
694.439	4695.13
694.845	4747.45
695.251	4835.08
695.657	4901.71
696.063	5041.75
696.469	5116.47
696.875	5174.49
697.281	5167.64
697.687	5170.93
698.093	5145.66
698.498	5192.9
698.904	5202.95
699.31	5269.82
699.715	5293.89
700.12	5380.81
