Data from C_1_HIR_IL_4N_Splice17_11-52-12-736.txt Node
Date: Sat Mar 14 11:52:12 EDT 2020
User: sa697716
Spectrometer: FLMS03696
Trigger mode: 0
Integration Time (sec): 3.180400E-1
Scans to average: 20
Electric dark correction enabled: true
Nonlinearity correction enabled: true
Boxcar width: 5
XAxis mode: Wavelengths
Number of Pixels in Spectrum: 2048
>>>>>Begin Spectral Data<<<<<
187.83	-264164.55
188.298	1816.59
188.766	1019.21
189.233	951.86
189.701	1349.09
190.169	1851.29
190.636	703.57
191.104	538.36
191.571	90.23
192.039	-81
192.506	-76.77
192.974	364.71
193.441	-806.5
193.908	-145.49
194.375	-1.85
194.842	33.43
195.31	132.62
195.777	119.22
196.244	319.65
196.711	414.96
197.177	524.64
197.644	771.02
198.111	1346.02
198.578	1894.72
199.045	1552.24
199.511	2561.92
199.978	2999.65
200.445	2543.96
200.911	2851.18
201.378	3173.98
201.844	2909.93
202.31	5014.68
202.777	5244.69
203.243	2909.63
203.709	2791.13
204.176	3305.28
204.642	2714.8
205.108	2552.58
205.574	2108.27
206.04	1943.43
206.506	1818.5
206.972	1699.39
207.438	1632.07
207.903	1854.26
208.369	1643.67
208.835	1645.42
209.301	1717.75
209.766	1766.29
210.232	1745.17
210.697	2124.77
211.163	2612.84
211.628	3957.48
212.094	3363.52
212.559	4145.42
213.024	2605.03
213.49	3149.24
213.955	3073.02
214.42	3030.06
214.885	2814.97
215.35	2704.25
215.815	2596.69
216.28	2751.43
216.745	2245.67
217.21	2421.14
217.675	2217.32
218.14	2483.64
218.604	2787.05
219.069	3182.79
219.534	3325.06
219.998	3892.01
220.463	4735.8
220.927	5871.42
221.392	5553.24
221.856	5640.41
222.32	7126.64
222.785	8817.47
223.249	11114.42
223.713	12414.2
224.177	12420.44
224.642	15976.98
225.106	19682.35
225.57	21533.8
226.034	16027.22
226.497	24393.25
226.961	22038.66
227.425	25675.75
227.889	28559
228.353	28565.32
228.816	59122.43
229.28	56596.49
229.744	47743.53
230.207	29019.56
230.671	28568.83
231.134	47275.29
231.597	54525.79
232.061	54630.16
232.524	53391.04
232.987	36797.71
233.45	33205.85
233.914	29798.39
234.377	30608.1
234.84	28039.69
235.303	33097.92
235.766	36915.99
236.229	38184.78
236.691	24065.5
237.154	27006.85
237.617	20303.01
238.08	20805.04
238.542	24336.84
239.005	17396
239.468	17248.89
239.93	16259.15
240.393	14773.43
240.855	12989.23
241.317	13308.62
241.78	16214.72
242.242	16784.31
242.704	18159.06
243.166	15803
243.629	14353.17
244.091	16564.08
244.553	18183.59
245.015	19562.37
245.477	25302.11
245.939	37108.27
246.4	39434.72
246.862	38375.57
247.324	36237.82
247.786	40549.16
248.247	53263.82
248.709	55065.9
249.17	41202.07
249.632	38855.57
250.093	45103.37
250.555	39037.22
251.016	23830.58
251.477	22600.77
251.939	24421.7
252.4	25635.89
252.861	30522.45
253.322	28419.25
253.783	33866.95
254.244	43936.35
254.705	34645.95
255.166	30839.32
255.627	30411.3
256.088	42948.6
256.549	45708.43
257.009	39344.66
257.47	47753.81
257.931	38843.51
258.391	29111.55
258.852	30056.87
259.312	31541.78
259.773	39004
260.233	32971.08
260.694	27821.67
261.154	31607.91
261.614	25388.66
262.074	22730.58
262.534	23622.15
262.994	22323.41
263.455	29778.45
263.915	25082.68
264.374	23660.2
264.834	25856.73
265.294	28694.19
265.754	29743.86
266.214	28162.02
266.673	26383.84
267.133	33343.64
267.593	33111.03
268.052	40532.67
268.512	35279.08
268.971	42572.97
269.431	46704.82
269.89	41891.38
270.349	62800.82
270.809	70031.79
271.268	63010.73
271.727	141444.6
272.186	91622.33
272.645	68765.06
273.104	49645.64
273.563	71919.49
274.022	56581.79
274.481	48164.87
274.94	37109.85
275.399	27609.08
275.857	32179.43
276.316	43501.59
276.775	38755.99
277.233	38177.7
277.692	35769.36
278.15	40487.28
278.609	41669.51
279.067	38565.35
279.525	35823.3
279.984	46260.34
280.442	55611.27
280.9	54772.93
281.358	36063.75
281.816	33615.14
282.274	32951.67
282.732	34069.1
283.19	34265.15
283.648	29609.39
284.106	31567.09
284.564	32153.41
285.021	29824.37
285.479	22217.25
285.937	20248.77
286.394	17770.53
286.852	18290.34
287.309	19218.01
287.767	18558.84
288.224	17638.02
288.682	19332.43
289.139	21245.2
289.596	19422.49
290.053	20198.05
290.511	25555.43
290.968	30998.65
291.425	42132.1
291.882	35117.41
292.339	30568.07
292.796	30396.29
293.252	28655.45
293.709	22768.45
294.166	20428.34
294.623	22607.02
295.079	21691.82
295.536	21779.47
295.992	19802.85
296.449	19578.71
296.905	20334.68
297.362	19495.44
297.818	20501.85
298.274	21274.41
298.731	21722.65
299.187	21485.97
299.643	23079.98
300.099	27940.99
300.555	30658.11
301.011	25592.24
301.467	24669.83
301.923	28899.52
302.379	28253.36
302.835	27750.94
303.291	27782.83
303.746	31615.28
304.202	39994.48
304.658	40182.99
305.113	27021.88
305.569	26502.4
306.024	28250.5
306.479	26924.21
306.935	22698.45
307.39	24821.05
307.845	22922.57
308.301	23054.73
308.756	22474.07
309.211	21634.33
309.666	22149.77
310.121	27514.61
310.576	27931.27
311.031	27764.82
311.486	31844.53
311.94	31816.38
312.395	42534.39
312.85	79973.05
313.305	393168.15
313.759	2032567.48
314.214	147437.71
314.668	116764.4
315.123	98220.5
315.577	35230.64
316.032	31337.19
316.486	39245.98
316.94	31014.2
317.394	21624.42
317.849	16828.18
318.303	15967.37
318.757	15066
319.211	16645
319.665	14595.92
320.119	14773.24
320.572	21177.2
321.026	19798.15
321.48	16477.79
321.934	17983.79
322.387	18037.4
322.841	19478.08
323.295	17493.81
323.748	20186.89
324.202	20458.57
324.655	24566.52
325.108	34327.76
325.562	24265.98
326.015	28825.84
326.468	21796.7
326.921	24357.02
327.374	22672.33
327.827	23586.85
328.28	26700.17
328.733	17898.54
329.186	15770.41
329.639	15038.36
330.092	12682.56
330.545	12098.96
330.997	12205.41
331.45	13322.17
331.903	15615.43
332.355	26903.54
332.808	26169.79
333.26	21621.23
333.713	23464.37
334.165	23661.27
334.617	31609.97
335.069	25549.54
335.522	46164.17
335.974	51138.09
336.426	46804.34
336.878	32461.38
337.33	16479.22
337.782	16102.72
338.234	20164.47
338.686	24123.42
339.137	28595.86
339.589	26926.94
340.041	21109.03
340.493	18138.56
340.944	18608.23
341.396	20048.11
341.847	16850.95
342.299	19841.62
342.75	24204.72
343.201	21213.69
343.653	24418.15
344.104	30001.79
344.555	23648.72
345.006	36879.35
345.457	28229.03
345.908	22439.97
346.359	21141.77
346.81	17227.33
347.261	18159.75
347.712	17934.7
348.163	19219.97
348.613	19478.29
349.064	18189.14
349.515	15914.32
349.965	16316.67
350.416	19699.37
350.866	21627.05
351.317	24449.92
351.767	40536.32
352.217	51338.69
352.668	42565.46
353.118	39029.39
353.568	37687.39
354.018	29789.4
354.468	31425.11
354.918	22547.74
355.368	19737.73
355.818	27904.44
356.268	80256.01
356.718	335912.05
357.168	83499.88
357.617	41898.43
358.067	46577.39
358.517	43597.99
358.966	51194.71
359.416	57429.34
359.865	62112
360.315	73897.65
360.764	34507.77
361.213	19360.62
361.663	18354.65
362.112	22666.67
362.561	36693.27
363.01	27706.75
363.459	23314.48
363.908	25207.6
364.357	21393.41
364.806	36114.06
365.255	24853.56
365.703	22762.69
366.152	22794.64
366.601	18484.83
367.05	15045.4
367.498	13644.07
367.947	14264.66
368.395	14862.26
368.844	13196.84
369.292	15959.95
369.74	11052.28
370.189	16906.65
370.637	19829.37
371.085	17126.89
371.533	20894.72
371.981	20133.4
372.429	19239.42
372.877	20039.38
373.325	16765.42
373.773	17101.86
374.221	15241.03
374.669	18957.47
375.116	16460.64
375.564	16640.56
376.012	18653.89
376.459	15392.92
376.907	18455.36
377.354	22390.46
377.801	20945.88
378.249	24192.88
378.696	31009
379.143	37690.18
379.591	40261.23
380.038	68165.59
380.485	49399.18
380.932	53480.42
381.379	49050.19
381.826	36187.85
382.273	25759.61
382.72	22585.46
383.166	22041.76
383.613	14341.36
384.06	12959.12
384.506	15017.56
384.953	11069.86
385.4	11153.37
385.846	9791.83
386.292	9579.08
386.739	9400.76
387.185	9331.43
387.631	9346.96
388.078	9073.16
388.524	9718.6
388.97	8972.85
389.416	7493.04
389.862	7956.21
390.308	7545.74
390.754	7657.6
391.2	8308.1
391.645	8483.58
392.091	8090.94
392.537	7815.23
392.983	7832.82
393.428	7682.32
393.874	8216.34
394.319	8228.05
394.765	7805.53
395.21	8018.31
395.655	7499.26
396.101	7015.1
396.546	6337.64
396.991	6387.81
397.436	5927.68
397.881	5714
398.326	5413.9
398.771	5121.93
399.216	4475.98
399.661	4019.92
400.106	3999.08
400.551	4089.91
400.995	3658.31
401.44	3607.85
401.885	3381.81
402.329	3412.82
402.774	3268.96
403.218	3153.39
403.663	3031.94
404.107	3105.65
404.551	3122.89
404.995	2857.98
405.44	2748.68
405.884	2790.68
406.328	2693.15
406.772	2684.66
407.216	2435.29
407.66	2345.53
408.104	2221.81
408.547	2075.4
408.991	2006.83
409.435	1927.12
409.879	1895.52
410.322	1866.29
410.766	1795.72
411.209	1705.6
411.653	1633.58
412.096	1597.39
412.54	1598.52
412.983	1587.77
413.426	1590.66
413.869	1588.07
414.312	1557.81
414.756	1499.61
415.199	1430.67
415.642	1385.26
416.085	1386.55
416.527	1373.99
416.97	1396.3
417.413	1321.65
417.856	1307.17
418.298	1290.45
418.741	1280.52
419.184	1275.15
419.626	1325.14
420.069	1324.37
420.511	1330.12
420.953	1299.28
421.396	1287.24
421.838	1252.23
422.28	1278.86
422.722	1282.05
423.164	1301.07
423.606	1275.78
424.048	1272.38
424.49	1208.59
424.932	1201.21
425.374	1186.94
425.816	1204.44
426.258	1226.83
426.699	1239.17
427.141	1222.77
427.582	1242.44
428.024	1236.57
428.465	1233.18
428.907	1202.04
429.348	1188.28
429.789	1185.96
430.231	1158.36
430.672	1175.57
431.113	1147.48
431.554	1129.01
431.995	1100.26
432.436	1060.14
432.877	1034.24
433.318	1011.9
433.759	1009.83
434.2	1010.73
434.64	1001.77
435.081	1004.75
435.522	953.1
435.962	916.89
436.403	899.04
436.843	911.92
437.284	892.12
437.724	869.47
438.164	876.51
438.604	857.4
439.045	823.46
439.485	789.96
439.925	773.92
440.365	753.18
440.805	743.66
441.245	733.31
441.685	705.72
442.125	701.26
442.564	705.01
443.004	687.09
443.444	681.94
443.883	683.69
444.323	676.79
444.762	675.48
445.202	684.49
445.641	695.45
446.081	690.25
446.52	694.01
446.959	684.48
447.398	666.24
447.837	654.8
448.276	643.13
448.716	648.96
449.154	654.65
449.593	639.21
450.032	635.79
450.471	623.1
450.91	623.42
451.349	621.71
451.787	619.34
452.226	628.35
452.664	630.52
453.103	632.71
453.541	628.47
453.98	627.32
454.418	631.35
454.856	620.08
455.295	619.67
455.733	624.25
456.171	627.24
456.609	627.81
457.047	626.68
457.485	634.6
457.923	634.81
458.361	625.83
458.798	627.44
459.236	626.79
459.674	633.58
460.111	636.28
460.549	630.41
460.987	628.81
461.424	627.65
461.862	624.65
462.299	614.92
462.736	614.12
463.173	617.62
463.611	611.21
464.048	609.27
464.485	612.29
464.922	608.46
465.359	604.68
465.796	597.86
466.233	593.62
466.67	590.16
467.106	589.25
467.543	584.65
467.98	577.99
468.416	563.63
468.853	558.3
469.29	542.9
469.726	536.24
470.162	522.54
470.599	514.83
471.035	509.69
471.471	497.69
471.907	495.32
472.344	491.12
472.78	491.54
473.216	496.96
473.652	492.05
474.088	489.6
474.523	487
474.959	490.88
475.395	486.37
475.831	482.6
476.266	482.85
476.702	480.43
477.138	475.63
477.573	473.69
478.008	471.14
478.444	471.66
478.879	476.31
479.314	477.5
479.75	476.79
480.185	478.27
480.62	482.25
481.055	485.46
481.49	488.28
481.925	493.47
482.36	501.97
482.795	515.01
483.229	528.48
483.664	538.66
484.099	541.38
484.534	549.39
484.968	554.25
485.403	554.38
485.837	552.61
486.271	551.22
486.706	551.79
487.14	544.15
487.574	535.41
488.009	530.26
488.443	524.8
488.877	528.9
489.311	529.78
489.745	534.86
490.179	539.31
490.613	549.67
491.046	552.8
491.48	556.07
491.914	556.61
492.348	559.87
492.781	562.23
493.215	562.22
493.648	562.28
494.082	565.72
494.515	564.78
494.948	571.07
495.382	572.61
495.815	575.47
496.248	579.4
496.681	588.08
497.114	596.5
497.547	603.99
497.98	613.49
498.413	617.79
498.846	624.12
499.279	629.84
499.711	631.1
500.144	631.65
500.577	638.94
501.009	644.92
501.442	652.54
501.874	652.04
502.306	652.4
502.739	658.28
503.171	668.36
503.603	669.93
504.036	676.63
504.468	680.63
504.9	688.88
505.332	693.76
505.764	697.58
506.196	702.31
506.627	713.64
507.059	723.6
507.491	729.22
507.923	727.89
508.354	739.07
508.786	747.96
509.217	762.56
509.649	774.48
510.08	789.34
510.512	802.61
510.943	813.9
511.374	823.44
511.805	840.27
512.237	856.72
512.668	883.75
513.099	907.73
513.53	930.02
513.961	946.67
514.391	973.76
514.822	1001.74
515.253	1031.98
515.684	1054.74
516.114	1079.95
516.545	1098.47
516.975	1121.57
517.406	1136.61
517.836	1140.77
518.267	1148.77
518.697	1166.96
519.127	1173.49
519.558	1181.79
519.988	1187.08
520.418	1198.03
520.848	1215.55
521.278	1225.35
521.708	1245.78
522.138	1259.14
522.567	1286.54
522.997	1310.28
523.427	1324.78
523.857	1340.47
524.286	1352.53
524.716	1369.06
525.145	1387.33
525.575	1398.03
526.004	1412.15
526.433	1405.65
526.863	1408.13
527.292	1403.05
527.721	1408.67
528.15	1414.79
528.579	1417.23
529.008	1426.58
529.437	1445.85
529.866	1458.98
530.295	1475.27
530.724	1486.94
531.152	1511.55
531.581	1525.67
532.01	1540.98
532.438	1550.41
532.867	1564.22
533.295	1580.8
533.723	1586.82
534.152	1587.17
534.58	1587.07
535.008	1573.23
535.436	1575.96
535.865	1583.45
536.293	1596.7
536.721	1611.54
537.149	1634.14
537.576	1638.11
538.004	1649.99
538.432	1658.77
538.86	1657.12
539.287	1664.72
539.715	1678.17
540.143	1682.13
540.57	1680.05
540.998	1675.68
541.425	1654.41
541.852	1636.15
542.28	1634.74
542.707	1621.32
543.134	1609.28
543.561	1607.03
543.988	1600.25
544.415	1600.04
544.842	1595.58
545.269	1588.8
545.696	1591.11
546.123	1603.82
546.549	1594.66
546.976	1582.57
547.403	1581.29
547.829	1582.43
548.256	1582.86
548.682	1579.87
549.108	1573.62
549.535	1571.88
549.961	1573.3
550.387	1561.36
550.813	1555.57
551.24	1561.58
551.666	1562.66
552.092	1554.03
552.518	1548.17
552.943	1542.36
553.369	1547.34
553.795	1551.05
554.221	1552.15
554.646	1548.38
555.072	1556.8
555.498	1559.89
555.923	1565.95
556.349	1577.64
556.774	1583.33
557.199	1583.13
557.625	1586.42
558.05	1580.35
558.475	1588.19
558.9	1585.36
559.325	1576.46
559.75	1568.64
560.175	1561.61
560.6	1554.51
561.025	1551.26
561.449	1551.34
561.874	1553.14
562.299	1555.85
562.723	1560.66
563.148	1549.94
563.572	1551.98
563.997	1558.78
564.421	1561.85
564.846	1560.96
565.27	1561.57
565.694	1557.39
566.118	1565.37
566.542	1571.79
566.966	1564.45
567.39	1557.43
567.814	1546.01
568.238	1541.97
568.662	1543.78
569.086	1543.76
569.509	1546.78
569.933	1532.09
570.357	1523.43
570.78	1503.32
571.204	1488.4
571.627	1476.33
572.05	1472.76
572.474	1469.37
572.897	1457.38
573.32	1449.28
573.743	1438.51
574.166	1421.38
574.589	1418.94
575.012	1410.55
575.435	1407.03
575.858	1397.73
576.281	1386.89
576.704	1371.97
577.126	1359.43
577.549	1348.56
577.972	1337.69
578.394	1326.86
578.817	1319.53
579.239	1302.02
579.661	1288.78
580.084	1274.26
580.506	1261.48
580.928	1256.36
581.35	1246.28
581.772	1242.95
582.194	1230.22
582.616	1218.84
583.038	1207.84
583.46	1197.49
583.882	1194.33
584.303	1197.32
584.725	1192.59
585.147	1194.41
585.568	1201.07
585.99	1209.59
586.411	1212.6
586.833	1223.02
587.254	1223.67
587.675	1232.05
588.096	1240.84
588.518	1235.63
588.939	1220.19
589.36	1217.3
589.781	1206.12
590.202	1184.59
590.623	1175.68
591.043	1173.27
591.464	1162.88
591.885	1159.03
592.305	1153.88
592.726	1143.19
593.147	1143.82
593.567	1139.8
593.987	1133.64
594.408	1130.64
594.828	1127.91
595.248	1123.79
595.669	1108.83
596.089	1103.41
596.509	1097.25
596.929	1086.92
597.349	1087.22
597.769	1078.14
598.189	1072.74
598.608	1073.77
599.028	1074.83
599.448	1074.98
599.867	1064.41
600.287	1060.44
600.706	1057.06
601.126	1049.3
601.545	1048.19
601.965	1046.53
602.384	1042.66
602.803	1044.96
603.222	1040.8
603.641	1035.09
604.061	1031.87
604.48	1029.23
604.898	1035.61
605.317	1038.48
605.736	1039.85
606.155	1037
606.574	1029.81
606.992	1032.49
607.411	1028.29
607.829	1020.49
608.248	1016.6
608.666	1013.45
609.085	1011.43
609.503	1003.36
609.921	997.65
610.339	998.15
610.758	996.52
611.176	991.41
611.594	984.43
612.012	980.25
612.43	982.5
612.847	986.67
613.265	987.81
613.683	990.37
614.101	990.69
614.518	987
614.936	978.97
615.353	967.66
615.771	965.18
616.188	964.89
616.606	961.81
617.023	956.35
617.44	945.63
617.857	938.31
618.274	931.65
618.691	927.53
619.108	919.35
619.525	914.53
619.942	918.49
620.359	919.56
620.776	915.21
621.192	912.57
621.609	909.83
622.026	914.17
622.442	918.94
622.859	920.69
623.275	914
623.691	918.3
624.108	927.09
624.524	937.97
624.94	938.08
625.356	944.98
625.772	954.37
626.188	963.89
626.604	964.89
627.02	960.46
627.436	959.33
627.852	964.86
628.268	974.66
628.683	966.8
629.099	960.81
629.514	957.35
629.93	960.98
630.345	963.89
630.761	959.99
631.176	962.29
631.591	958.99
632.007	954.63
632.422	953.41
632.837	944.93
633.252	943.66
633.667	936.26
634.082	929.16
634.497	918.74
634.911	903.93
635.326	901.37
635.741	888.85
636.155	881.77
636.57	882.03
636.984	881.2
637.399	881.86
637.813	880.11
638.228	877.55
638.642	879.66
639.056	871.55
639.47	871.45
639.884	865.71
640.298	860.07
640.712	859.56
641.126	850.61
641.54	843.38
641.954	838.07
642.368	830.45
642.781	826.53
643.195	814.09
643.609	815.92
644.022	812.01
644.436	808.77
644.849	801.07
645.262	792.19
645.676	793.97
646.089	792.35
646.502	783.41
646.915	780.37
647.328	768.6
647.741	768.35
648.154	759.21
648.567	758.75
648.98	750.27
649.393	751.36
649.805	749.58
650.218	744.38
650.631	733.51
651.043	730.13
651.456	726.16
651.868	726.62
652.28	739.72
652.693	749.41
653.105	753.71
653.517	761.26
653.929	761.59
654.341	766.22
654.753	758.9
655.165	764.09
655.577	762.46
655.989	759.41
656.401	754.66
656.813	729.23
657.224	716.07
657.636	696.26
658.047	683.56
658.459	671.28
658.87	665.15
659.282	656.68
659.693	643.36
660.104	635.12
660.515	627.3
660.926	626.99
661.338	626.86
661.749	623.64
662.159	619.85
662.57	618.84
662.981	617.05
663.392	613.9
663.803	619.1
664.213	618.45
664.624	617.26
665.035	621.78
665.445	614.27
665.855	610.94
666.266	608.04
666.676	608.5
667.086	604.04
667.497	606.01
667.907	603.34
668.317	598.7
668.727	597.72
669.137	599.92
669.547	599.2
669.956	602.93
670.366	606.14
670.776	608.14
671.186	611.06
671.595	615.13
672.005	619.9
672.414	620.17
672.824	619.61
673.233	623.6
673.642	625.19
674.052	628.89
674.461	631.75
674.87	636.14
675.279	634.11
675.688	636.42
676.097	638.21
676.506	635.49
676.915	647.69
677.323	650.84
677.732	650.96
678.141	650.6
678.549	641.3
678.958	639.59
679.366	637.9
679.775	641.41
680.183	650.44
680.592	652.43
681	655.16
681.408	647.31
681.816	651.04
682.224	655.94
682.632	661.78
683.04	683.37
683.448	698.9
683.856	719.2
684.264	742.13
684.671	760.18
685.079	786.76
685.487	814.25
685.894	856.76
686.302	887.27
686.709	911.45
687.116	941.35
687.524	963.9
687.931	983.25
688.338	997.03
688.745	1009.05
689.152	1024.82
689.559	1048.52
689.966	1074.27
690.373	1083.1
690.78	1109.68
691.187	1150.73
691.593	1182.11
692	1210.24
692.407	1252.61
692.813	1308.95
693.22	1355.26
693.626	1403.49
694.032	1443.63
694.439	1503.23
694.845	1551.83
695.251	1612.88
695.657	1670.39
696.063	1752.35
696.469	1816.51
696.875	1879.42
697.281	1920.44
697.687	1969.14
698.093	2010.74
698.498	2084.67
698.904	2143.25
699.31	2227.95
699.715	2293.37
