Data from C_2_DEC_ON_6N_Splice17_12-16-14-129.txt Node
Date: Sat Mar 14 12:16:14 EDT 2020
User: sa697716
Spectrometer: FLMS03696
Trigger mode: 0
Integration Time (sec): 3.180400E-1
Scans to average: 20
Electric dark correction enabled: true
Nonlinearity correction enabled: true
Boxcar width: 5
XAxis mode: Wavelengths
Number of Pixels in Spectrum: 2048
>>>>>Begin Spectral Data<<<<<
187.83	-224880.03
188.298	1726.5
188.766	921.83
189.233	814.95
189.701	1144.12
190.169	1604.92
190.636	591.06
191.104	476.77
191.571	49.29
192.039	-108.75
192.506	-87.92
192.974	414.1
193.441	-495.22
193.908	-156.67
194.375	-63.54
194.842	14.84
195.31	88.83
195.777	131.59
196.244	323.62
196.711	377.02
197.177	474.95
197.644	680.85
198.111	1166.01
198.578	1634.26
199.045	1330.18
199.511	2152.74
199.978	2465.26
200.445	2101.03
200.911	2325.86
201.378	2592.78
201.844	2361.64
202.31	4003.49
202.777	4219.78
203.243	2377.67
203.709	2268.5
204.176	2711.86
204.642	2277.71
205.108	2133.93
205.574	1739.32
206.04	1599.25
206.506	1499.88
206.972	1413.1
207.438	1371.23
207.903	1546.76
208.369	1358.71
208.835	1352.61
209.301	1417.86
209.766	1437.34
210.232	1434.64
210.697	1783.85
211.163	2206.93
211.628	3320.11
212.094	2809.15
212.559	3511.02
213.024	2196.43
213.49	2687.21
213.955	2606.1
214.42	2537.16
214.885	2389.77
215.35	2307.02
215.815	2235.5
216.28	2379.79
216.745	1975.14
217.21	2170.9
217.675	2004.38
218.14	2294.89
218.604	2615.91
219.069	3070.62
219.534	3297
219.998	3891.85
220.463	4790.73
220.927	6002.92
221.392	5734.36
221.856	5838.62
222.32	7406.91
222.785	9187.83
223.249	11632.95
223.713	13032.32
224.177	13054.48
224.642	16797.16
225.106	20739.21
225.57	22779.89
226.034	16968.86
226.497	25849.88
226.961	23387.78
227.425	27294.43
227.889	30357.28
228.353	30431.51
228.816	62931.55
229.28	60317.64
229.744	50921.67
230.207	30987.13
230.671	30479.81
231.134	50460.22
231.597	58270.74
232.061	58358.62
232.524	56996.91
232.987	39367.46
233.45	35444.57
233.914	31874.95
234.377	32727.57
234.84	29981.3
235.303	35387.39
235.766	39502.83
236.229	40879.12
236.691	25761
237.154	28956.39
237.617	21793.9
238.08	22323.14
238.542	26128.76
239.005	18687.95
239.468	18555.15
239.93	17487.62
240.393	15894.52
240.855	13959.34
241.317	14313.88
241.78	17445.85
242.242	18047.14
242.704	19490.97
243.166	16979.85
243.629	15427.63
244.091	17781.67
244.553	19488.87
245.015	20983.21
245.477	27153.05
245.939	39902.05
246.4	42360.43
246.862	41193.25
247.324	38882.13
247.786	43587.32
248.247	57173.03
248.709	59116.2
249.17	44250.75
249.632	41746.45
250.093	48420.51
250.555	41931.38
251.016	25557.78
251.477	24273.54
251.939	26217.87
252.4	27544.09
252.861	32800.66
253.322	30561.28
253.783	36425.34
254.244	47293.69
254.705	37317.96
255.166	33176.4
255.627	32647.57
256.088	46070.98
256.549	48914.25
257.009	42138.49
257.47	51147.82
257.931	41615.2
258.391	31183.66
258.852	32132.84
259.312	33696.31
259.773	41617.7
260.233	35178.65
260.694	29641.56
261.154	33633.18
261.614	27006.55
262.074	24157.27
262.534	25099.53
262.994	23643.67
263.455	31494.44
263.915	26546.75
264.374	25029.59
264.834	27361.97
265.294	30347.86
265.754	31508.69
266.214	29842.84
266.673	27964.21
267.133	35276.71
267.593	35020.73
268.052	42911.05
268.512	37324.06
268.971	45015.59
269.431	49327.79
269.89	44138.65
270.349	66162.87
270.809	73804.21
271.268	66352.74
271.727	148884.83
272.186	96556.46
272.645	72383.47
273.104	52227.64
273.563	75660.1
274.022	59497.49
274.481	50573.79
274.94	38962.1
275.399	29003.72
275.857	33722.6
276.316	45583.43
276.775	40536.11
277.233	39897.04
277.692	37369.38
278.15	42265.86
278.609	43469.76
279.067	40215.91
279.525	37390.89
279.984	48299.63
280.442	57955.46
280.9	57140.67
281.358	37623.58
281.816	35090.47
282.274	34349.63
282.732	35478.55
283.19	35652.17
283.648	30788.2
284.106	32817.86
284.564	33381.74
285.021	30968.32
285.479	23093.58
285.937	21022.29
286.394	18415.43
286.852	18949.35
287.309	19928.82
287.767	19240.38
288.224	18309.41
288.682	20079.05
289.139	22055.22
289.596	20198.14
290.053	21008.72
290.511	26513.37
290.968	32161.51
291.425	43775.59
291.882	36459.29
292.339	31726.82
292.796	31537.92
293.252	29755.94
293.709	23653.6
294.166	21229.16
294.623	23475.98
295.079	22550.83
295.536	22680.78
295.992	20622.44
296.449	20405.54
296.905	21219.21
297.362	20369.75
297.818	21455.26
298.274	22263.88
298.731	22712.39
299.187	22493.31
299.643	24176.37
300.099	29281.23
300.555	32134.32
301.011	26876.44
301.467	25916.29
301.923	30393.04
302.379	29708.74
302.835	29178.91
303.291	29256.09
303.746	33328.17
304.202	42118.08
304.658	42315.22
305.113	28491.78
305.569	27956.98
306.024	29826.6
306.479	28449.93
306.935	23992.17
307.39	26253.1
307.845	24292.5
308.301	24438.83
308.756	23848.99
309.211	22976.39
309.666	23542.87
310.121	29205.9
310.576	29659.51
311.031	29480.73
311.486	33781.68
311.94	33805.9
312.395	45290.1
312.85	85247.22
313.305	419436.34
313.759	2172720.8
314.214	157622.16
314.668	125153.8
315.123	105374.86
315.577	37852.49
316.032	33686.7
316.486	42226.06
316.94	33366.69
317.394	23229.24
317.849	18065.02
318.303	17137.63
318.757	16189.21
319.211	17957.74
319.665	15758.6
320.119	15981.78
320.572	22963.78
321.026	21465.02
321.48	17881.08
321.934	19521.26
322.387	19570.47
322.841	21119.1
323.295	18995.05
323.748	21906.25
324.202	22230.99
324.655	26670.76
325.108	37221.75
325.562	26276.29
326.015	31215.81
326.468	23631.35
326.921	26405.95
327.374	24653.88
327.827	25726.24
328.28	29122.84
328.733	19515.33
329.186	17151.39
329.639	16363.42
330.092	13817.76
330.545	13165.38
330.997	13288.81
331.45	14521.64
331.903	17026.22
332.355	29301.28
332.808	28467.78
333.26	23494.05
333.713	25509.61
334.165	25713.68
334.617	34335.32
335.069	27756.1
335.522	50250.99
335.974	55692.61
336.426	50915
336.878	35273.25
337.33	17876.5
337.782	17479.72
338.234	21858.17
338.686	26165.92
339.137	30974.71
339.589	29193.92
340.041	22886.79
340.493	19671.59
340.944	20156.07
341.396	21693.91
341.847	18249.25
342.299	21553.96
342.75	26291.35
343.201	23005.57
343.653	26490.18
344.104	32663.9
344.555	25738.27
345.006	40067.85
345.457	30701.45
345.908	24426.51
346.359	23011.65
346.81	18806.41
347.261	19843.44
347.712	19565.07
348.163	21023.39
348.613	21267.52
349.064	19866.46
349.515	17422.17
349.965	17894.43
350.416	21572.07
350.866	23698.98
351.317	26834.77
351.767	44404.79
352.217	56052.86
352.668	46574.3
353.118	42705.85
353.568	41271.36
354.018	32600.12
354.468	34328.6
354.918	24619.35
355.368	21555.44
355.818	30450.6
356.268	87716.93
356.718	367104.31
357.168	91625.23
357.617	46033.1
358.067	51252.82
358.517	48024.93
358.966	56421.58
359.416	63344.53
359.865	68615.58
360.315	81790.09
360.764	38195.19
361.213	21400.1
361.663	20302.31
362.112	25061.5
362.561	40464.67
363.01	30545.22
363.459	25739.31
363.908	27891.09
364.357	23686.02
364.806	40030.69
365.255	27522.56
365.703	25255.42
366.152	25299.32
366.601	20517.22
367.05	16667.38
367.498	15170.08
367.947	15846.01
368.395	16487.73
368.844	14584.7
369.292	17622.93
369.74	12171.09
370.189	18679.47
370.637	21901.36
371.085	18898.13
371.533	23008.93
371.981	22212.12
372.429	21138.93
372.877	22026.99
373.325	18463.16
373.773	18831.17
374.221	16745.14
374.669	20752.44
375.116	17921
375.564	18072.93
376.012	20254.84
376.459	16719.04
376.907	19982.03
377.354	24171.01
377.801	22532.43
378.249	25868.22
378.696	33077.9
379.143	40070.29
379.591	42765.9
380.038	72417.05
380.485	52255.84
380.932	56321.73
381.379	51440.98
381.826	37823.7
382.273	26917.52
382.72	23535.56
383.166	22934.8
383.613	14855.65
384.06	13396.49
384.506	15515.87
384.953	11392.95
385.4	11479.11
385.846	10065.47
386.292	9836.46
386.739	9628.06
387.185	9517.3
387.631	9526.29
388.078	9240.65
388.524	9893.3
388.97	9134.5
389.416	7609.49
389.862	8083.91
390.308	7658.78
390.754	7764.54
391.2	8419
391.645	8614.47
392.091	8235.88
392.537	7963.89
392.983	7978.59
393.428	7834.37
393.874	8399.65
394.319	8421.96
394.765	7990.56
395.21	8214.54
395.655	7708.47
396.101	7208.77
396.546	6502.87
396.991	6562.43
397.436	6091.35
397.881	5880.66
398.326	5582.62
398.771	5279.96
399.216	4613.08
399.661	4153.42
400.106	4139.32
400.551	4244.24
400.995	3813.58
401.44	3779.24
401.885	3553.61
402.329	3598.2
402.774	3456.37
403.218	3343.29
403.663	3222.01
404.107	3317.98
404.551	3342.12
404.995	3066.75
405.44	2959.35
405.884	3005.73
406.328	2913.29
406.772	2906.69
407.216	2648.52
407.66	2560.55
408.104	2435.7
408.547	2285.93
408.991	2217.5
409.435	2138.18
409.879	2113.63
410.322	2086.68
410.766	2016.8
411.209	1916.3
411.653	1840.95
412.096	1802.64
412.54	1809.17
412.983	1801.01
413.426	1806.61
413.869	1806.89
414.312	1774.63
414.756	1708.78
415.199	1630.26
415.642	1584.1
416.085	1588.94
416.527	1579.75
416.97	1606.95
417.413	1522.84
417.856	1507.69
418.298	1492.42
418.741	1485.86
419.184	1483.34
419.626	1546.51
420.069	1546.68
420.511	1557.15
420.953	1522.46
421.396	1510.39
421.838	1472.06
422.28	1506.97
422.722	1511.93
423.164	1533.04
423.606	1506.87
424.048	1504.83
424.49	1428.16
424.932	1421.18
425.374	1400.44
425.816	1426.95
426.258	1453.79
426.699	1471.53
427.141	1450.18
427.582	1474.98
428.024	1470.69
428.465	1459.93
428.907	1422.33
429.348	1407.32
429.789	1407.74
430.231	1378.88
430.672	1396.37
431.113	1360.35
431.554	1338.99
431.995	1303.89
432.436	1256.3
432.877	1226.28
433.318	1202.95
433.759	1197.33
434.2	1195.48
434.64	1181.78
435.081	1183.49
435.522	1119.5
435.962	1078.53
436.403	1054.12
436.843	1070.59
437.284	1046.13
437.724	1018.42
438.164	1022.54
438.604	999.58
439.045	961.28
439.485	920.9
439.925	900.87
440.365	877.58
440.805	866.96
441.245	854.81
441.685	821.09
442.125	816.1
442.564	819.26
443.004	799.13
443.444	796.36
443.883	797.72
444.323	791.79
444.762	793.18
445.202	804.51
445.641	817.02
446.081	812.14
446.52	818.09
446.959	807.88
447.398	788.25
447.837	778.51
448.276	765.29
448.716	772.29
449.154	779.04
449.593	759.31
450.032	756.34
450.471	743.19
450.91	744.88
451.349	744.29
451.787	741.24
452.226	752.07
452.664	752.37
453.103	753.31
453.541	752.71
453.98	750.67
454.418	756.59
454.856	745.63
455.295	743.3
455.733	748.67
456.171	752.44
456.609	754.44
457.047	755.72
457.485	766.32
457.923	768.47
458.361	757.34
458.798	759.95
459.236	757.48
459.674	762.1
460.111	766.86
460.549	758.24
460.987	756.39
461.424	753.19
461.862	749.7
462.299	737.95
462.736	736.48
463.173	739.78
463.611	731.37
464.048	730.15
464.485	735.03
464.922	727.68
465.359	725.52
465.796	714.7
466.233	710.41
466.67	702.96
467.106	701.54
467.543	695.45
467.98	686.5
468.416	669.34
468.853	665.15
469.29	646.23
469.726	638.95
470.162	621.18
470.599	613.88
471.035	607.5
471.471	592.28
471.907	589.16
472.344	584.65
472.78	585.68
473.216	593.2
473.652	585.47
474.088	583.91
474.523	582.88
474.959	588.98
475.395	582.69
475.831	578.71
476.266	583.04
476.702	581.06
477.138	574.69
477.573	571.99
478.008	569.4
478.444	571.52
478.879	576.06
479.314	578.08
479.75	575.92
480.185	578.84
480.62	585.12
481.055	587.74
481.49	593.02
481.925	601.73
482.36	613.51
482.795	631.12
483.229	648.9
483.664	663.52
484.099	666.87
484.534	678.54
484.968	686.75
485.403	688.85
485.837	687.92
486.271	686.71
486.706	688.67
487.14	680.93
487.574	670.46
488.009	665.29
488.443	659.73
488.877	666.7
489.311	669.39
489.745	676.6
490.179	683.49
490.613	697.09
491.046	703.82
491.48	709.24
491.914	710.34
492.348	716.9
492.781	721.64
493.215	723.83
493.648	726.19
494.082	732.37
494.515	733.61
494.948	741.74
495.382	746.83
495.815	751.98
496.248	757.87
496.681	772
497.114	783.62
497.547	793.83
497.98	807.47
498.413	813.82
498.846	824.37
499.279	834.48
499.711	839.04
500.144	842.01
500.577	853.13
501.009	865.29
501.442	875.82
501.874	877.49
502.306	881.01
502.739	889.16
503.171	904.01
503.603	907.15
504.036	916.15
504.468	922.38
504.9	934.48
505.332	940.61
505.764	945.06
506.196	951.32
506.627	964.98
507.059	976.38
507.491	984.64
507.923	982.23
508.354	996.25
508.786	1005.46
509.217	1021.88
509.649	1034.81
510.08	1052.38
510.512	1066.59
510.943	1080.4
511.374	1090.56
511.805	1109.35
512.237	1126.71
512.668	1156.24
513.099	1180.68
513.53	1205.33
513.961	1222.92
514.391	1251.57
514.822	1280.91
515.253	1312.65
515.684	1334.11
516.114	1359.65
516.545	1376.85
516.975	1398.08
517.406	1412.02
517.836	1410.61
518.267	1413
518.697	1426.93
519.127	1427.72
519.558	1431.03
519.988	1431.12
520.418	1436.45
520.848	1448.41
521.278	1453.45
521.708	1467.14
522.138	1475.74
522.567	1502.3
522.997	1522.21
523.427	1532.53
523.857	1544.87
524.286	1551.71
524.716	1562.68
525.145	1577.47
525.575	1584.86
526.004	1595.16
526.433	1584.64
526.863	1581.76
527.292	1569.48
527.721	1572.12
528.15	1574.77
528.579	1572.48
529.008	1579.52
529.437	1598.97
529.866	1609.72
530.295	1623.93
530.724	1632.44
531.152	1656.46
531.581	1668.43
532.01	1683.26
532.438	1690.25
532.867	1703.73
533.295	1719.28
533.723	1723.95
534.152	1720.29
534.58	1719.36
535.008	1703.82
535.436	1706.6
535.865	1711.76
536.293	1724.2
536.721	1738.49
537.149	1761
537.576	1762.53
538.004	1774.04
538.432	1780.96
538.86	1779.48
539.287	1785.6
539.715	1798.02
540.143	1799.52
540.57	1796.79
540.998	1793.67
541.425	1772.16
541.852	1752.86
542.28	1750.55
542.707	1735.17
543.134	1721.33
543.561	1716.75
543.988	1709.7
544.415	1708.99
544.842	1702.4
545.269	1694.77
545.696	1695.31
546.123	1706.29
546.549	1694.66
546.976	1682.39
547.403	1681.33
547.829	1683.83
548.256	1685.4
548.682	1681.18
549.108	1673.53
549.535	1672.64
549.961	1674.16
550.387	1661.21
550.813	1656.74
551.24	1663.03
551.666	1663.25
552.092	1654.5
552.518	1647.39
552.943	1641.72
553.369	1648.29
553.795	1652.71
554.221	1654.56
554.646	1651.06
555.072	1661.13
555.498	1664.82
555.923	1673.82
556.349	1688.23
556.774	1695.66
557.199	1697.19
557.625	1703.06
558.05	1697.39
558.475	1708.96
558.9	1708.32
559.325	1701.87
559.75	1696.07
560.175	1690.82
560.6	1685.22
561.025	1684.16
561.449	1686.64
561.874	1693
562.299	1697.75
562.723	1706.18
563.148	1697.76
563.572	1703
563.997	1713.56
564.421	1720.86
564.846	1722.5
565.27	1727.5
565.694	1726.86
566.118	1739.62
566.542	1747.64
566.966	1742.75
567.39	1739.74
567.814	1730.72
568.238	1732.23
568.662	1739.47
569.086	1743.18
569.509	1752.14
569.933	1740.55
570.357	1736.19
570.78	1718.92
571.204	1709.48
571.627	1701.63
572.05	1703.08
572.474	1704.63
572.897	1694.37
573.32	1688.05
573.743	1681.35
574.166	1666.19
574.589	1667.56
575.012	1661.96
575.435	1661.89
575.858	1654.47
576.281	1645.27
576.704	1631.13
577.126	1621.48
577.549	1611.99
577.972	1604.08
578.394	1595.22
578.817	1589.27
579.239	1572.62
579.661	1560.52
580.084	1546.34
580.506	1534.49
580.928	1532.24
581.35	1521.88
581.772	1518.65
582.194	1506.96
582.616	1496.13
583.038	1482.38
583.46	1471.95
583.882	1469.54
584.303	1473.94
584.725	1471.23
585.147	1473.34
585.568	1484.07
585.99	1496.85
586.411	1504
586.833	1519.32
587.254	1521.36
587.675	1536.41
588.096	1551.14
588.518	1546.2
588.939	1530.94
589.36	1528.47
589.781	1519.29
590.202	1492.36
590.623	1485.4
591.043	1482.28
591.464	1469.71
591.885	1466.03
592.305	1461.6
592.726	1448.2
593.147	1450.21
593.567	1445.33
593.987	1438.4
594.408	1433.82
594.828	1431.74
595.248	1425.14
595.669	1408.56
596.089	1401.93
596.509	1395.04
596.929	1380.64
597.349	1380.95
597.769	1371.05
598.189	1365.12
598.608	1366.01
599.028	1367.23
599.448	1367.56
599.867	1356.21
600.287	1351.41
600.706	1347.98
601.126	1339.36
601.545	1339.02
601.965	1337.77
602.384	1333.31
602.803	1335.98
603.222	1332.63
603.641	1327.68
604.061	1325.11
604.48	1321.67
604.898	1331.55
605.317	1337.15
605.736	1340.24
606.155	1338.37
606.574	1331.05
606.992	1337.21
607.411	1334.64
607.829	1326.57
608.248	1325.13
608.666	1324.34
609.085	1325.07
609.503	1317.88
609.921	1313.24
610.339	1316.9
610.758	1318.27
611.176	1315.17
611.594	1307.52
612.012	1305.25
612.43	1311.65
612.847	1319.99
613.265	1323.01
613.683	1328.77
614.101	1331.05
614.518	1328.61
614.936	1319.79
615.353	1307.24
615.771	1306.2
616.188	1307.96
616.606	1305.74
617.023	1300.04
617.44	1285.72
617.857	1278.79
618.274	1271.62
618.691	1266.52
619.108	1257.8
619.525	1252.98
619.942	1259.92
620.359	1263.35
620.776	1259.82
621.192	1257.27
621.609	1255.27
622.026	1263.08
622.442	1269.78
622.859	1274.02
623.275	1268.44
623.691	1275.37
624.108	1287.91
624.524	1302.74
624.94	1303.21
625.356	1313.62
625.772	1327.09
626.188	1340.1
626.604	1342.26
627.02	1339.1
627.436	1336.55
627.852	1343.22
628.268	1355.81
628.683	1347.09
629.099	1338.39
629.514	1333.87
629.93	1337.45
630.345	1340.72
630.761	1336.29
631.176	1339.16
631.591	1332.46
632.007	1326.28
632.422	1323.99
632.837	1311.96
633.252	1307.6
633.667	1296.61
634.082	1286.02
634.497	1272.71
634.911	1253.17
635.326	1248.7
635.741	1230.64
636.155	1219.92
636.57	1221.11
636.984	1219.5
637.399	1219.71
637.813	1219.18
638.228	1218.1
638.642	1221.78
639.056	1211.05
639.47	1210.85
639.884	1201.04
640.298	1194.64
640.712	1193.03
641.126	1179.27
641.54	1170.62
641.954	1165.11
642.368	1153.22
642.781	1144.66
643.195	1127.39
643.609	1127.93
644.022	1122.21
644.436	1119.29
644.849	1107.87
645.262	1095.98
645.676	1098.63
646.089	1093.51
646.502	1079.9
646.915	1074.85
647.328	1058.76
647.741	1056.92
648.154	1043.72
648.567	1041.61
648.98	1028.51
649.393	1029.94
649.805	1028.19
650.218	1021.56
650.631	1006.65
651.043	1000.6
651.456	996.9
651.868	998.62
652.28	1017.96
652.693	1033.76
653.105	1041.19
653.517	1053.88
653.929	1054.46
654.341	1061.09
654.753	1050.75
655.165	1059.16
655.577	1059.75
655.989	1056.13
656.401	1050.28
656.813	1015.74
657.224	997.1
657.636	970.01
658.047	952.22
658.459	934.4
658.87	927.41
659.282	917.01
659.693	897.74
660.104	884.47
660.515	872.42
660.926	871.41
661.338	868.66
661.749	863.55
662.159	855.71
662.57	852.8
662.981	849.25
663.392	843.35
663.803	848.93
664.213	847.95
664.624	843.84
665.035	847.57
665.445	836.13
665.855	830.64
666.266	823.07
666.676	821.05
667.086	812.28
667.497	812.65
667.907	807.22
668.317	798.5
668.727	795.01
669.137	797.58
669.547	796.12
669.956	799.62
670.366	801.92
670.776	804.4
671.186	809.5
671.595	814.62
672.005	819.76
672.414	819.64
672.824	818.71
673.233	825.39
673.642	828.13
674.052	831.63
674.461	834.53
674.87	841.76
675.279	841.05
675.688	843.96
676.097	846.36
676.506	843.35
676.915	859.94
677.323	864.12
677.732	863.34
678.141	864.46
678.549	855.49
678.958	856.09
679.366	856.1
679.775	862.8
680.183	875.13
680.592	882.06
681	890.55
681.408	884.51
681.816	893.98
682.224	905.17
682.632	915.9
683.04	948.55
683.448	975.99
683.856	1009.11
684.264	1047.97
684.671	1083.06
685.079	1126.73
685.487	1174.21
685.894	1240.01
686.302	1293.06
686.709	1334.56
687.116	1385.1
687.524	1422.99
687.931	1451.65
688.338	1475.78
688.745	1493.05
689.152	1516.83
689.559	1550.44
689.966	1581.91
690.373	1590.03
690.78	1619.28
691.187	1671.21
691.593	1705.96
692	1735.28
692.407	1785.22
692.813	1849.17
693.22	1895.97
693.626	1944.03
694.032	1979.37
694.439	2039.07
694.845	2083.58
695.251	2143.62
695.657	2195.4
696.063	2278.88
696.469	2335.91
