Data from C_2_DIV_OH_2N_Splice17_12-23-01-203.txt Node
Date: Sat Mar 14 12:23:01 EDT 2020
User: sa697716
Spectrometer: FLMS03696
Trigger mode: 0
Integration Time (sec): 3.180400E-1
Scans to average: 20
Electric dark correction enabled: true
Nonlinearity correction enabled: true
Boxcar width: 5
XAxis mode: Wavelengths
Number of Pixels in Spectrum: 2048
>>>>>Begin Spectral Data<<<<<
187.83	-249625.45
188.298	1863.45
188.766	1001.87
189.233	885.15
189.701	1298.38
190.169	1794.47
190.636	632.7
191.104	484.42
191.571	26.54
192.039	-85.6
192.506	-103.17
192.974	383.38
193.441	-592.91
193.908	-240.8
194.375	-73.99
194.842	30.33
195.31	65.26
195.777	149.16
196.244	336.09
196.711	396.85
197.177	505.57
197.644	684.62
198.111	1204.52
198.578	1729.58
199.045	1413.16
199.511	2305.82
199.978	2670.67
200.445	2282.21
200.911	2531.31
201.378	2813.43
201.844	2545.63
202.31	4353.45
202.777	4549.1
203.243	2516.37
203.709	2383.95
204.176	2809.49
204.642	2302.3
205.108	2159.82
205.574	1768.54
206.04	1582.98
206.506	1491.81
206.972	1417.75
207.438	1365.6
207.903	1573.55
208.369	1394.76
208.835	1396.61
209.301	1474.29
209.766	1510.27
210.232	1483.15
210.697	1825.84
211.163	2265.26
211.628	3427.55
212.094	2884.56
212.559	3568.55
213.024	2232.47
213.49	2751.57
213.955	2680.28
214.42	2622.5
214.885	2478.13
215.35	2386.7
215.815	2304.33
216.28	2453.23
216.745	2008.16
217.21	2166.25
217.675	1986.67
218.14	2250.7
218.604	2510.1
219.069	2882.69
219.534	3059.15
219.998	3569.79
220.463	4353.43
220.927	5389.77
221.392	5113.83
221.856	5198.06
222.32	6595.29
222.785	8197.22
223.249	10361.81
223.713	11605.6
224.177	11656.95
224.642	14979.23
225.106	18460.84
225.57	20259.42
226.034	15111.34
226.497	23028.2
226.961	20816.29
227.425	24298.59
227.889	26997.33
228.353	27049.44
228.816	55990.17
229.28	53596.31
229.744	45273.6
230.207	27591.21
230.671	27170.47
231.134	45047.98
231.597	52121.74
232.061	52247.64
232.524	50980.88
232.987	35194.55
233.45	31706.79
233.914	28487.7
234.377	29249.67
234.84	26809.14
235.303	31637.4
235.766	35365.67
236.229	36593.98
236.691	23067.51
237.154	25955.47
237.617	19554.76
238.08	20026.38
238.542	23469.87
239.005	16777.85
239.468	16683.95
239.93	15741.19
240.393	14330.12
240.855	12591.51
241.317	12908.87
241.78	15722.98
242.242	16278.5
242.704	17625.36
243.166	15390.09
243.629	13979.91
244.091	16144.64
244.553	17729.56
245.015	19067.56
245.477	24702.36
245.939	36242.83
246.4	38545.57
246.862	37513.31
247.324	35383.31
247.786	39595.5
248.247	51962.41
248.709	53750.53
249.17	40261.08
249.632	37982.64
250.093	44164.65
250.555	38186.41
251.016	23336.94
251.477	22150.45
251.939	23925.55
252.4	25143.48
252.861	29944.15
253.322	27868.13
253.783	33218.21
254.244	43103.62
254.705	33997.8
255.166	30238.8
255.627	29793.54
256.088	42045.95
256.549	44667.8
257.009	38466.25
257.47	46712.28
257.931	38072.27
258.391	28546.6
258.852	29449.22
259.312	30883.82
259.773	38116.2
260.233	32210.57
260.694	27182.03
261.154	30852.03
261.614	24779.11
262.074	22184.3
262.534	23043.34
262.994	21724.59
263.455	28990.01
263.915	24409.22
264.374	22992.29
264.834	25109.88
265.294	27822.06
265.754	28818.34
266.214	27262.28
266.673	25565.86
267.133	32273.98
267.593	32038.7
268.052	39220.48
268.512	34070.86
268.971	41137.27
269.431	45143.15
269.89	40465.09
270.349	60685.4
270.809	67598.98
271.268	60822.79
271.727	136337.25
272.186	88323.32
272.645	66240.5
273.104	47772.42
273.563	69170.7
274.022	54343.8
274.481	46219.53
274.94	35602.09
275.399	26465.78
275.857	30878.73
276.316	41755.51
276.775	37158.38
277.233	36575.66
277.692	34243.16
278.15	38731.95
278.609	39854.73
279.067	36882.89
279.525	34257.39
279.984	44230.05
280.442	53183.61
280.9	52344.96
281.358	34412.37
281.816	32094.06
282.274	31423.38
282.732	32461.07
283.19	32594.88
283.648	28126.87
284.106	29971.14
284.564	30456.65
285.021	28223.15
285.479	20995.9
285.937	19099.76
286.394	16761.43
286.852	17214.34
287.309	18065.96
287.767	17442.97
288.224	16585.94
288.682	18190.01
289.139	19953.28
289.596	18263.8
290.053	18987.44
290.511	23987.26
290.968	29116.99
291.425	39526.46
291.882	32973.45
292.339	28756.23
292.796	28571.43
293.252	26926.74
293.709	21385.44
294.166	19180.16
294.623	21215.24
295.079	20365.96
295.536	20470.88
295.992	18580.87
296.449	18392.28
296.905	19107.94
297.362	18327.01
297.818	19270.55
298.274	20007.56
298.731	20413.79
299.187	20190.2
299.643	21667.05
300.099	26186.99
300.555	28693.89
301.011	23966.93
301.467	23072.2
301.923	26991.85
302.379	26349.57
302.835	25890.14
303.291	25947.4
303.746	29530.89
304.202	37348.49
304.658	37538.57
305.113	25295.69
305.569	24818.6
306.024	26483.79
306.479	25259.32
306.935	21325.73
307.39	23299.39
307.845	21528.35
308.301	21654.22
308.756	21106.48
309.211	20326.67
309.666	20824.84
310.121	25832.82
310.576	26228.13
311.031	26019.38
311.486	29788.87
311.94	29727.79
312.395	39786.27
312.85	74823.83
313.305	367340.3
313.759	1900886.92
314.214	137700.72
314.668	109233.63
315.123	91868.25
315.577	32986.39
316.032	29421.73
316.486	36870.65
316.94	29089.23
317.394	20256.79
317.849	15727.3
318.303	14921.53
318.757	14081.95
319.211	15594.69
319.665	13658.85
320.119	13852.18
320.572	19858.41
321.026	18536.79
321.48	15432.84
321.934	16872.51
322.387	16928.79
322.841	18283.11
323.295	16445.05
323.748	18968.28
324.202	19252.29
324.655	23123.16
325.108	32301.56
325.562	22846.02
326.015	27162.56
326.468	20561.92
326.921	22984.21
327.374	21425.71
327.827	22346.8
328.28	25285.97
328.733	16956.68
329.186	14927.42
329.639	14226.07
330.092	11994.35
330.545	11422.13
330.997	11524.7
331.45	12608.91
331.903	14753.55
332.355	25399.57
332.808	24677.68
333.26	20374.18
333.713	22134.87
334.165	22297.74
334.617	29789.1
335.069	24089.93
335.522	43622.44
335.974	48314.13
336.426	44112
336.878	30667.77
337.33	15560.97
337.782	15228.56
338.234	19096.47
338.686	22855.99
339.137	27066.88
339.589	25479.08
340.041	19959.22
340.493	17150.01
340.944	17554.12
341.396	18909.96
341.847	15897.33
342.299	18732.35
342.75	22850
343.201	19957.25
343.653	22958.34
344.104	28258.07
344.555	22283.64
345.006	34722.75
345.457	26610.27
345.908	21172.93
346.359	19969.07
346.81	16280.1
347.261	17194.63
347.712	16927.32
348.163	18157.55
348.613	18386.51
349.064	17176.84
349.515	15024.54
349.965	15412.97
350.416	18567.14
350.866	20391.31
351.317	23018.89
351.767	38097.92
352.217	48138.21
352.668	39968.26
353.118	36653.67
353.568	35357.99
354.018	27934.35
354.468	29502.5
354.918	21178.07
355.368	18542.51
355.818	26226.53
356.268	75587.16
356.718	316809.45
357.168	78812.7
357.617	39711.47
358.067	44273.68
358.517	41527.46
358.966	48783.4
359.416	54819.44
359.865	59299.08
360.315	70594.65
360.764	32992.53
361.213	18501.62
361.663	17542.73
362.112	21714.63
362.561	35025.59
363.01	26393.19
363.459	22219.85
363.908	24065.92
364.357	20460.5
364.806	34640.74
365.255	23870.75
365.703	21898.51
366.152	21966.88
366.601	17820.35
367.05	14487.4
367.498	13202.66
367.947	13821.01
368.395	14411.1
368.844	12796.62
369.292	15443.61
369.74	10685.95
370.189	16379.37
370.637	19239.18
371.085	16619.77
371.533	20283.4
371.981	19596.06
372.429	18700.52
372.877	19551.81
373.325	16406.13
373.773	16758.61
374.221	14984.98
374.669	18653.26
375.116	16191.21
375.564	16369
376.012	18374.98
376.459	15220.31
376.907	18240.19
377.354	22165.19
377.801	20754.21
378.249	23961.06
378.696	30756.22
379.143	37402.33
379.591	40102.2
380.038	68201.49
380.485	49673.84
380.932	54018.97
381.379	49714.48
381.826	36948.57
382.273	26458.15
382.72	23316.9
383.166	22913.16
383.613	15024.9
384.06	13657.36
384.506	15945.46
384.953	11824.57
385.4	12012.01
385.846	10626.33
386.292	10482.47
386.739	10347.94
387.185	10349.89
387.631	10449.33
388.078	10241.23
388.524	11057.92
388.97	10321.86
389.416	8696.71
389.862	9344.51
390.308	8939.01
390.754	9162.37
391.2	10030.77
391.645	10355.55
392.091	9959.62
392.537	9693.83
392.983	9793.8
393.428	9684.44
393.874	10445.65
394.319	10542
394.765	10057.24
395.21	10415.46
395.655	9837.83
396.101	9269.08
396.546	8427.05
396.991	8573.09
397.436	8018.09
397.881	7783.68
398.326	7428.65
398.771	7055.44
399.216	6198.87
399.661	5609.29
400.106	5601.03
400.551	5747.88
400.995	5170.88
401.44	5121.53
401.885	4829.04
402.329	4888.53
402.774	4696.83
403.218	4541.65
403.663	4388.05
404.107	4516.93
404.551	4552.08
404.995	4181.22
405.44	4039.09
405.884	4108.38
406.328	3987.72
406.772	3974.22
407.216	3620.72
407.66	3504.42
408.104	3336.11
408.547	3126.91
408.991	3028.62
409.435	2918.93
409.879	2881.69
410.322	2840.23
410.766	2743.95
411.209	2606
411.653	2500.65
412.096	2446.99
412.54	2447.64
412.983	2434.12
413.426	2437.26
413.869	2436.75
414.312	2389.74
414.756	2299.87
415.199	2193.14
415.642	2120.69
416.085	2120.69
416.527	2101.86
416.97	2135.85
417.413	2025.49
417.856	2002.37
418.298	1982.36
418.741	1968.34
419.184	1961.35
419.626	2044.29
420.069	2047.17
420.511	2062.17
420.953	2016.16
421.396	1998.49
421.838	1946.86
422.28	1990.8
422.722	1997.76
423.164	2025.29
423.606	1988.3
424.048	1986.12
424.49	1884.07
424.932	1872.49
425.374	1847.24
425.816	1881.25
426.258	1914.93
426.699	1934.55
427.141	1900.67
427.582	1929.42
428.024	1919.64
428.465	1908.07
428.907	1857.33
429.348	1832.39
429.789	1826.58
430.231	1782.55
430.672	1801.73
431.113	1757.07
431.554	1730
431.995	1688.11
432.436	1620.46
432.877	1581.39
433.318	1551.65
433.759	1546.31
434.2	1547.06
434.64	1533.39
435.081	1536.72
435.522	1454.25
435.962	1403.27
436.403	1371.36
436.843	1390.62
437.284	1365.56
437.724	1329.74
438.164	1337.27
438.604	1308.41
439.045	1259.22
439.485	1206.29
439.925	1180.94
440.365	1153.53
440.805	1138.22
441.245	1125.41
441.685	1085.43
442.125	1080.97
442.564	1089.63
443.004	1065.37
443.444	1066.11
443.883	1068.83
444.323	1065.47
444.762	1071.8
445.202	1088.08
445.641	1106.8
446.081	1103.76
446.52	1115.92
446.959	1103.43
447.398	1076.16
447.837	1065.78
448.276	1045.99
448.716	1057.3
449.154	1065.31
449.593	1043.76
450.032	1043.94
450.471	1029.55
450.91	1032.63
451.349	1031.07
451.787	1029.69
452.226	1048.13
452.664	1049.31
453.103	1053.43
453.541	1054.78
453.98	1054.53
454.418	1062.76
454.856	1045.45
455.295	1045.57
455.733	1054.24
456.171	1060.69
456.609	1063.87
457.047	1065.93
457.485	1081.19
457.923	1083.98
458.361	1071.64
458.798	1076.28
459.236	1073.98
459.674	1083.07
460.111	1088.66
460.549	1078.41
460.987	1076.74
461.424	1074.16
461.862	1068.52
462.299	1053.23
462.736	1051.77
463.173	1055.21
463.611	1042.14
464.048	1038.19
464.485	1046.04
464.922	1036.18
465.359	1031.61
465.796	1013.31
466.233	1003.62
466.67	993.2
467.106	990.65
467.543	982.5
467.98	969.83
468.416	946.56
468.853	940.06
469.29	913.25
469.726	903.81
470.162	880.64
470.599	873.41
471.035	867.31
471.471	846.76
471.907	842.21
472.344	835.64
472.78	837.12
473.216	848.11
473.652	837.76
474.088	834.94
474.523	831.46
474.959	838.57
475.395	829.23
475.831	823.82
476.266	827.4
476.702	824.17
477.138	815.19
477.573	812.34
478.008	808.82
478.444	812.22
478.879	819.81
479.314	823.05
479.75	823.53
480.185	829.12
480.62	836.81
481.055	842.39
481.49	849.3
481.925	863.04
482.36	878.67
482.795	905.2
483.229	930.93
483.664	952.1
484.099	959.39
484.534	974.62
484.968	985.29
485.403	990.36
485.837	992.13
486.271	993.92
486.706	996.84
487.14	988.78
487.574	975.25
488.009	969.37
488.443	963.38
488.877	974.32
489.311	980.97
489.745	995.21
490.179	1007.04
490.613	1027.52
491.046	1038.29
491.48	1049.35
491.914	1054.19
492.348	1064.59
492.781	1074.74
493.215	1082.04
493.648	1088.4
494.082	1100.52
494.515	1103.5
494.948	1118.76
495.382	1130.1
495.815	1141.91
496.248	1153.09
496.681	1177.03
497.114	1199.33
497.547	1217.53
497.98	1239.3
498.413	1251.01
498.846	1268.32
499.279	1285.72
499.711	1296.11
500.144	1302.2
500.577	1319.45
501.009	1339.39
501.442	1355.14
501.874	1357.96
502.306	1362.56
502.739	1374.43
503.171	1397.45
503.603	1402.92
504.036	1417.63
504.468	1425.34
504.9	1442.88
505.332	1453.12
505.764	1458.08
506.196	1466.84
506.627	1487.43
507.059	1505.42
507.491	1517.46
507.923	1511.77
508.354	1530.62
508.786	1542.76
509.217	1565.69
509.649	1583.24
510.08	1605.99
510.512	1625.07
510.943	1641.56
511.374	1652.15
511.805	1675.59
512.237	1696.67
512.668	1737.05
513.099	1769.24
513.53	1800.81
513.961	1820.83
514.391	1857.3
514.822	1893.87
515.253	1934.83
515.684	1959.83
516.114	1987.98
516.545	2004.9
516.975	2030.01
517.406	2041.8
517.836	2032.45
518.267	2027.72
518.697	2039.58
519.127	2031.91
519.558	2029.72
519.988	2021.76
520.418	2024.42
520.848	2036.53
521.278	2036.29
521.708	2034.16
522.138	2039.01
522.567	2068.73
522.997	2090.93
523.427	2099.88
523.857	2111.63
524.286	2113.54
524.716	2122.55
525.145	2135.66
525.575	2139.5
526.004	2148.27
526.433	2139.23
526.863	2131.31
527.292	2110.05
527.721	2108.33
528.15	2106.6
528.579	2099.71
529.008	2107.42
529.437	2129.67
529.866	2140.2
530.295	2156.84
530.724	2166.92
531.152	2195.08
531.581	2207.5
532.01	2223.34
532.438	2231.23
532.867	2246.55
533.295	2266.29
533.723	2270.38
534.152	2264.42
534.58	2261.58
535.008	2238.06
535.436	2237.6
535.865	2246.14
536.293	2261.98
536.721	2281.35
537.149	2309.96
537.576	2312.14
538.004	2325.76
538.432	2334.54
538.86	2332.21
539.287	2341.13
539.715	2358.55
540.143	2363.15
540.57	2357.48
540.998	2353
541.425	2324.58
541.852	2297.43
542.28	2294.83
542.707	2274.15
543.134	2255.09
543.561	2250.07
543.988	2240.59
544.415	2238.7
544.842	2229.43
545.269	2219.73
545.696	2220.63
546.123	2234.46
546.549	2221.34
546.976	2204.82
547.403	2203.63
547.829	2206.1
548.256	2205.58
548.682	2198.91
549.108	2188.29
549.535	2188.66
549.961	2190.8
550.387	2174.72
550.813	2167.23
551.24	2174.72
551.666	2176.29
552.092	2164.3
552.518	2156.36
552.943	2151.07
553.369	2161.09
553.795	2169.65
554.221	2171.2
554.646	2167.96
555.072	2181.8
555.498	2189.24
555.923	2202.42
556.349	2222.72
556.774	2236.25
557.199	2240.91
557.625	2250.55
558.05	2245.93
558.475	2262.36
558.9	2265.36
559.325	2259.27
559.75	2254.79
560.175	2251.78
560.6	2247.95
561.025	2249.4
561.449	2255.31
561.874	2266.34
562.299	2277.02
562.723	2291.36
563.148	2283.92
563.572	2293.59
563.997	2313.44
564.421	2327.79
564.846	2334.08
565.27	2344.84
565.694	2349.42
566.118	2372.96
566.542	2389.91
566.966	2389.21
567.39	2391.71
567.814	2385.15
568.238	2394.17
568.662	2409.88
569.086	2422.47
569.509	2442.7
569.933	2431.04
570.357	2429.86
570.78	2410.56
571.204	2402.63
571.627	2397.12
572.05	2403.5
572.474	2412.83
572.897	2404.21
573.32	2401.33
573.743	2395.26
574.166	2378.22
574.589	2388.64
575.012	2386.77
575.435	2392.23
575.858	2387.4
576.281	2379.58
576.704	2364.49
577.126	2354.9
577.549	2344.86
577.972	2337.28
578.394	2329.38
578.817	2325
579.239	2303.71
579.661	2289.09
580.084	2271.1
580.506	2257.6
580.928	2258.73
581.35	2247.86
581.772	2246.16
582.194	2232.9
582.616	2220.82
583.038	2205.49
583.46	2194.23
583.882	2193.37
584.303	2205.49
584.725	2204.96
585.147	2209.64
585.568	2228.36
585.99	2251.27
586.411	2265.09
586.833	2290.27
587.254	2296.04
587.675	2321.81
588.096	2345.79
588.518	2343.73
588.939	2321.15
589.36	2321.01
589.781	2311.47
590.202	2269.47
590.623	2259.14
591.043	2258.67
591.464	2243.19
591.885	2239.16
592.305	2231.95
592.726	2212.49
593.147	2215.24
593.567	2209.75
593.987	2201.32
594.408	2194.98
594.828	2196.85
595.248	2188.94
595.669	2160.83
596.089	2150.81
596.509	2142.72
596.929	2123.08
597.349	2124.47
597.769	2110.71
598.189	2102.92
598.608	2106.4
599.028	2111.76
599.448	2112.66
599.867	2096.26
600.287	2092.64
600.706	2088.01
601.126	2075.85
601.545	2076.44
601.965	2078.84
602.384	2073.39
602.803	2081.16
603.222	2076.27
603.641	2069.72
604.061	2067.58
604.48	2064.5
604.898	2081
605.317	2093.75
605.736	2100.92
606.155	2101.96
606.574	2092.54
606.992	2106.24
607.411	2104.24
607.829	2098.21
608.248	2097.79
608.666	2100.19
609.085	2104.92
609.503	2097.5
609.921	2092.82
610.339	2101.73
610.758	2106.07
611.176	2104.91
611.594	2096.93
612.012	2096.77
612.43	2106.65
612.847	2124.66
613.265	2131.54
613.683	2145.52
614.101	2154.51
614.518	2153.77
614.936	2143.87
615.353	2126.44
615.771	2127.43
616.188	2133.2
616.606	2133.47
617.023	2127.21
617.44	2107.75
617.857	2102.85
618.274	2093.74
618.691	2087.94
619.108	2079.34
619.525	2074.01
619.942	2089.76
620.359	2097.18
620.776	2092.52
621.192	2088.77
621.609	2089.52
622.026	2103.98
622.442	2115.95
622.859	2124.97
623.275	2115.99
623.691	2126.78
624.108	2148.11
624.524	2174.08
624.94	2176.16
625.356	2194.35
625.772	2218.94
626.188	2239.35
626.604	2244.94
627.02	2240.13
627.436	2237.68
627.852	2250.7
628.268	2272.14
628.683	2258
629.099	2243.22
629.514	2236.36
629.93	2244.07
630.345	2250.91
630.761	2245.27
631.176	2250.65
631.591	2239.41
632.007	2227.68
632.422	2224.67
632.837	2205.75
633.252	2201.25
633.667	2185.98
634.082	2171.7
634.497	2149.5
634.911	2117.26
635.326	2112.43
635.741	2084.5
636.155	2070.36
636.57	2075.16
636.984	2074.86
637.399	2078.71
637.813	2079.88
638.228	2079.27
638.642	2088.5
639.056	2073.29
639.47	2076.7
639.884	2064.06
640.298	2055.09
640.712	2053.02
641.126	2032.74
641.54	2020.64
641.954	2015.14
642.368	1996
642.781	1981.46
643.195	1951.66
643.609	1953.76
644.022	1945.08
644.436	1940.56
644.849	1922.44
645.262	1905.34
645.676	1910.1
646.089	1903.77
646.502	1878.35
646.915	1874.59
647.328	1848.3
647.741	1846.75
648.154	1825.95
648.567	1821.72
648.98	1798.77
649.393	1801.64
649.805	1797.76
650.218	1787.39
650.631	1762.02
651.043	1753.14
651.456	1742.94
651.868	1748.1
652.28	1783.05
652.693	1812.7
653.105	1828.74
653.517	1852.1
653.929	1855.95
654.341	1870.27
654.753	1853.6
655.165	1870.78
655.577	1872.69
655.989	1870.12
656.401	1862.31
656.813	1801.1
657.224	1770.2
657.636	1724.6
658.047	1695.56
658.459	1664.85
658.87	1655.4
659.282	1637.68
659.693	1602.66
660.104	1579.71
660.515	1558.24
660.926	1559.31
661.338	1556.63
661.749	1547.42
662.159	1531.71
662.57	1525.58
662.981	1519.09
663.392	1504.39
663.803	1512.91
664.213	1509.5
664.624	1500.96
665.035	1507.07
665.445	1480.99
665.855	1466.61
666.266	1450.01
666.676	1444.84
667.086	1428.26
667.497	1425.41
667.907	1412.44
668.317	1393.84
668.727	1381.6
669.137	1382.84
669.547	1374.09
669.956	1376.31
670.366	1376.97
670.776	1376.24
671.186	1381.15
671.595	1385.12
672.005	1387.94
672.414	1384.73
672.824	1379.27
673.233	1388.52
673.642	1390.48
674.052	1394.96
674.461	1395.22
674.87	1404.39
675.279	1399.28
675.688	1402.11
676.097	1402.85
676.506	1398
676.915	1424.96
677.323	1432.16
677.732	1431.89
678.141	1432.16
678.549	1416.86
678.958	1419.59
679.366	1421.26
679.775	1436.15
680.183	1457.55
680.592	1473.59
681	1490.23
681.408	1484.25
681.816	1506.15
682.224	1530.37
682.632	1556.88
683.04	1623.15
683.448	1680.27
683.856	1746.93
684.264	1823.82
684.671	1897.26
685.079	1986.88
685.487	2081.79
685.894	2209.53
686.302	2313.93
686.709	2397.01
687.116	2493.61
687.524	2561.35
687.931	2615.93
688.338	2658.71
688.745	2690.25
689.152	2722.81
689.559	2769.85
689.966	2811.31
690.373	2809.32
690.78	2840.35
691.187	2908.6
691.593	2944.3
692	2969.44
