Data from C_2_HIR_IL_4N_Splice17_12-11-54-046.txt Node
Date: Sat Mar 14 12:11:54 EDT 2020
User: sa697716
Spectrometer: FLMS03696
Trigger mode: 0
Integration Time (sec): 3.180400E-1
Scans to average: 20
Electric dark correction enabled: true
Nonlinearity correction enabled: true
Boxcar width: 5
XAxis mode: Wavelengths
Number of Pixels in Spectrum: 2048
>>>>>Begin Spectral Data<<<<<
187.83	-184785.37
188.298	1506.11
188.766	815
189.233	697.85
189.701	1034.38
190.169	1424.5
190.636	550.41
191.104	529.89
191.571	89.93
192.039	-40.69
192.506	-99.09
192.974	290.76
193.441	-436.04
193.908	-174.13
194.375	-78.02
194.842	13.13
195.31	24.04
195.777	136.73
196.244	340.99
196.711	389.24
197.177	507.88
197.644	691.51
198.111	1153.73
198.578	1668.67
199.045	1355.1
199.511	2249.47
199.978	2624.3
200.445	2283.22
200.911	2499.58
201.378	2801.71
201.844	2550.12
202.31	4352.81
202.777	4555.29
203.243	2571.59
203.709	2447.61
204.176	2941.77
204.642	2398.74
205.108	2245.84
205.574	1825.26
206.04	1676.89
206.506	1579.31
206.972	1498.2
207.438	1444.68
207.903	1638.02
208.369	1426.67
208.835	1414.88
209.301	1474.9
209.766	1508.86
210.232	1500.96
210.697	1844.83
211.163	2263.15
211.628	3361.17
212.094	2834.8
212.559	3517.58
213.024	2187.3
213.49	2691.12
213.955	2642.66
214.42	2578.82
214.885	2428.25
215.35	2320.17
215.815	2239.04
216.28	2371.46
216.745	1928.89
217.21	2069.38
217.675	1886.75
218.14	2110.21
218.604	2345.05
219.069	2667.94
219.534	2794.93
219.998	3233.56
220.463	3893.6
220.927	4778.93
221.392	4503.81
221.856	4571.03
222.32	5737.49
222.785	7066.22
223.249	8879.66
223.713	9910.39
224.177	9891.79
224.642	12644.78
225.106	15557.55
225.57	17012.42
226.034	12659.72
226.497	19251.82
226.961	17389.42
227.425	20293.36
227.889	22535.55
228.353	22552.77
228.816	46506
229.28	44474.82
229.744	37575.44
230.207	22840.27
230.671	22455.17
231.134	37083.37
231.597	42777.71
232.061	42751.25
232.524	41706.65
232.987	28743.29
233.45	25917.59
233.914	23257.85
234.377	23817.91
234.84	21809.52
235.303	25689.81
235.766	28697.56
236.229	29703.09
236.691	18723.13
237.154	21071.8
237.617	15841.75
238.08	16202.31
238.542	18950.05
239.005	13562.99
239.468	13489.78
239.93	12717.34
240.393	11562.51
240.855	10155.81
241.317	10399.37
241.78	12625.05
242.242	13045.91
242.704	14109.35
243.166	12285.48
243.629	11174.98
244.091	12857.05
244.553	14082.17
245.015	15125.82
245.477	19590.08
245.939	28747.09
246.4	30510.05
246.862	29683.69
247.324	27958.93
247.786	31258.72
248.247	40996.49
248.709	42283.83
249.17	31660.13
249.632	29857.04
250.093	34630.82
250.555	29908.68
251.016	18210.97
251.477	17295.17
251.939	18682.15
252.4	19622.26
252.861	23357.62
253.322	21706.91
253.783	25841.77
254.244	33556.46
254.705	26442.61
255.166	23514.46
255.627	23124.87
256.088	32645.08
256.549	34647.13
257.009	29847.62
257.47	36164.36
257.931	29433.77
258.391	22098.41
258.852	22774.43
259.312	23829.38
259.773	29419.2
260.233	24884.3
260.694	20998.75
261.154	23792.65
261.614	19083.27
262.074	17038.76
262.534	17702.48
262.994	16645.27
263.455	22140.06
263.915	18631.06
264.374	17532.31
264.834	19116.06
265.294	21154.6
265.754	21908.62
266.214	20731.59
266.673	19404.53
267.133	24470.93
267.593	24248.87
268.052	29692.28
268.512	25801.18
268.971	31087.22
269.431	34050.06
269.89	30491.84
270.349	45636.29
270.809	50806.3
271.268	45621.59
271.727	102156.48
272.186	66078.29
272.645	49538.43
273.104	35674.24
273.563	51583.82
274.022	40516.28
274.481	34474.29
274.94	26519.19
275.399	19700.64
275.857	22913.46
276.316	30927.01
276.775	27490.53
277.233	27055.25
277.692	25305.98
278.15	28590.86
278.609	29411.16
279.067	27193.67
279.525	25237.05
279.984	32545.21
280.442	39050.04
280.9	38493.55
281.358	25322.84
281.816	23587.52
282.274	23090.36
282.732	23831.04
283.19	23964.94
283.648	20676.93
284.106	22001.06
284.564	22363.39
285.021	20752.65
285.479	15455.94
285.937	14038.05
286.394	12333.05
286.852	12695.4
287.309	13346.24
287.767	12887.04
288.224	12246.37
288.682	13434.95
289.139	14754.86
289.596	13491.65
290.053	14020.16
290.511	17689.34
290.968	21457.72
291.425	29051.03
291.882	24185.09
292.339	21032.6
292.796	20867.99
293.252	19631.39
293.709	15576.44
294.166	13954.39
294.623	15401.19
295.079	14770.41
295.536	14825.74
295.992	13442.58
296.449	13293.86
296.905	13797.62
297.362	13219.71
297.818	13899.5
298.274	14429.67
298.731	14683.67
299.187	14515.67
299.643	15586.21
300.099	18831.02
300.555	20664.27
301.011	17262.33
301.467	16636.04
301.923	19468.71
302.379	19015.44
302.835	18660.44
303.291	18688.15
303.746	21289.25
304.202	26885.95
304.658	26958.77
305.113	18101.59
305.569	17719.71
306.024	18888.33
306.479	17983.15
306.935	15171.59
307.39	16547.71
307.845	15277.35
308.301	15360.33
308.756	14961.38
309.211	14421.07
309.666	14789.45
310.121	18395.87
310.576	18675.03
311.031	18531.26
311.486	21180.81
311.94	21135.46
312.395	28335.45
312.85	53282.31
313.305	261484.16
313.759	1352367.18
314.214	98049.21
314.668	77709.28
315.123	65471.31
315.577	23477.25
316.032	20918.63
316.486	26264.57
316.94	20738.66
317.394	14387.4
317.849	11189.31
318.303	10583.82
318.757	9997.53
319.211	11031.87
319.665	9659.34
320.119	9756.7
320.572	13985.13
321.026	13043.34
321.48	10854.88
321.934	11841.57
322.387	11880.24
322.841	12832.6
323.295	11571.76
323.748	13309.86
324.202	13514.52
324.655	16226.34
325.108	22687.42
325.562	16067.02
326.015	19103.33
326.468	14454.42
326.921	16144.02
327.374	15070.36
327.827	15689.48
328.28	17754.44
328.733	11937.58
329.186	10516.64
329.639	10025.4
330.092	8450.34
330.545	8033.73
330.997	8097.1
331.45	8852.89
331.903	10388.54
332.355	17865.86
332.808	17412.51
333.26	14352.61
333.713	15581.77
334.165	15717.69
334.617	21036.32
335.069	16984.4
335.522	30767.06
335.974	34184.66
336.426	31208.97
336.878	21578.18
337.33	10956.94
337.782	10668.14
338.234	13389.66
338.686	15979.71
339.137	18922.67
339.589	17819.13
340.041	14002.63
340.493	12031.49
340.944	12293.69
341.396	13243.12
341.847	11156.67
342.299	13181.48
342.75	16114.33
343.201	14030.16
343.653	16144.84
344.104	19798.47
344.555	15529.98
345.006	24107.42
345.457	18457.28
345.908	14648.41
346.359	13784.91
346.81	11220.92
347.261	11793.41
347.712	11589.68
348.163	12431.14
348.613	12616.17
349.064	11760.87
349.515	10297.76
349.965	10573.03
350.416	12715.82
350.866	13955.16
351.317	15754.21
351.767	26076.2
352.217	32921
352.668	27352.48
353.118	25048.91
353.568	24039.15
354.018	19033.26
354.468	20098.03
354.918	14428.26
355.368	12618.23
355.818	17804.81
356.268	51190.4
356.718	214532.7
357.168	53467.98
357.617	26767.16
358.067	29706.94
358.517	27817.17
358.966	32634.05
359.416	36707.3
359.865	39523.37
360.315	47046.89
360.764	21975.38
361.213	12319.25
361.663	11629.54
362.112	14335.62
362.561	23174.84
363.01	17511.01
363.459	14762.9
363.908	15979.76
364.357	13516.93
364.806	22847.05
365.255	15701.1
365.703	14389.37
366.152	14398.18
366.601	11681.74
367.05	9486.89
367.498	8614.76
367.947	8999.68
368.395	9342.14
368.844	8253.08
369.292	9892.01
369.74	6828.84
370.189	10449.64
370.637	12241.84
371.085	10536.95
371.533	12823.69
371.981	12326.45
372.429	11758.51
372.877	12238.85
373.325	10230.41
373.773	10389.06
374.221	9269.74
374.669	11509.29
375.116	9924.1
375.564	9974.03
376.012	11111.19
376.459	9153.47
376.907	10932.83
377.354	13159.54
377.801	12259.29
378.249	14107.39
378.696	18040.14
379.143	21856.82
379.591	23198.72
380.038	39283.66
380.485	28402.77
380.932	30718.44
381.379	28103.9
381.826	20666.34
382.273	14664.88
382.72	12787.26
383.166	12419.74
383.613	8059.13
384.06	7242.69
384.506	8372.01
384.953	6135.04
385.4	6165.91
385.846	5401.54
386.292	5234.35
386.739	5104.49
387.185	5049.01
387.631	5042.49
388.078	4917.28
388.524	5247.31
388.97	4852.01
389.416	4043.22
389.862	4285.89
390.308	4055.27
390.754	4107.84
391.2	4460.04
391.645	4552.13
392.091	4362.34
392.537	4211.87
392.983	4192.55
393.428	4141.21
393.874	4430.58
394.319	4470.25
394.765	4239.45
395.21	4344.01
395.655	4076.09
396.101	3806.63
396.546	3445.02
396.991	3459.59
397.436	3215.15
397.881	3108.43
398.326	2924.82
398.771	2769.28
399.216	2404.57
399.661	2172.58
400.106	2175.17
400.551	2230.92
400.995	2006.4
401.44	1978.05
401.885	1857.83
402.329	1875.04
402.774	1798.03
403.218	1750.92
403.663	1686.9
404.107	1736.6
404.551	1752.32
404.995	1601.86
405.44	1538.56
405.884	1561.11
406.328	1512.26
406.772	1511.45
407.216	1379.91
407.66	1335.37
408.104	1264.9
408.547	1181.35
408.991	1144.79
409.435	1097.88
409.879	1084.81
410.322	1072.76
410.766	1037.48
411.209	987.36
411.653	947.67
412.096	927.25
412.54	923.55
412.983	917.47
413.426	923.82
413.869	923.65
414.312	909.91
414.756	878.09
415.199	839.92
415.642	815.39
416.085	818.91
416.527	812.18
416.97	826.94
417.413	787.36
417.856	779.41
418.298	769.79
418.741	761.35
419.184	757.4
419.626	786.44
420.069	784.96
420.511	791.44
420.953	776.7
421.396	772.01
421.838	753.07
422.28	770.1
422.722	774.8
423.164	787
423.606	777.62
424.048	777.03
424.49	738.91
424.932	734.85
425.374	725.11
425.816	734.43
426.258	746.48
426.699	752.87
427.141	743.71
427.582	751.28
428.024	747.01
428.465	740.05
428.907	720.31
429.348	711.68
429.789	711.9
430.231	698.84
430.672	708.7
431.113	692.16
431.554	682.5
431.995	663.81
432.436	641.86
432.877	627.64
433.318	617.95
433.759	617.47
434.2	617.98
434.64	611.5
435.081	610.32
435.522	579.14
435.962	558.59
436.403	548.36
436.843	556.44
437.284	547.24
437.724	531.49
438.164	532.61
438.604	519.79
439.045	500.77
439.485	483.85
439.925	474.55
440.365	462.16
440.805	457.62
441.245	451.57
441.685	435.11
442.125	429.31
442.564	431.82
443.004	422.52
443.444	422.02
443.883	423.09
444.323	417.97
444.762	416.33
445.202	421.67
445.641	429.37
446.081	427.63
446.52	432.74
446.959	430.93
447.398	422.87
447.837	418.75
448.276	412.81
448.716	419.52
449.154	423.31
449.593	416.56
450.032	417.59
450.471	410.31
450.91	409.31
451.349	408.77
451.787	407.14
452.226	412.39
452.664	412.46
453.103	411.95
453.541	408.72
453.98	409.2
454.418	411.18
454.856	405.6
455.295	403.9
455.733	408.12
456.171	409.56
456.609	410.67
457.047	412.48
457.485	419.56
457.923	422.06
458.361	417.84
458.798	418.67
459.236	417.32
459.674	419.04
460.111	421.79
460.549	418.48
460.987	417.11
461.424	415.74
461.862	412.44
462.299	406.15
462.736	405.37
463.173	406.96
463.611	405.55
464.048	405.78
464.485	410.02
464.922	406.51
465.359	404.06
465.796	403.93
466.233	401.72
466.67	399.99
467.106	399.54
467.543	395.32
467.98	389.14
468.416	377.41
468.853	374.3
469.29	362.71
469.726	358.43
470.162	348.27
470.599	340.18
471.035	335.92
471.471	326.63
471.907	323.56
472.344	321.56
472.78	322.67
473.216	326.09
473.652	322.08
474.088	320.4
474.523	320
474.959	323.29
475.395	319.47
475.831	317.47
476.266	318.91
476.702	317.71
477.138	314.42
477.573	312.94
478.008	310.93
478.444	312.12
478.879	316.13
479.314	317.55
479.75	317.54
480.185	318.25
480.62	321.11
481.055	322.63
481.49	326.24
481.925	330.27
482.36	337.71
482.795	347.47
483.229	356.56
483.664	363.98
484.099	364.76
484.534	370.91
484.968	375.85
485.403	376.5
485.837	375.6
486.271	374.91
486.706	376.6
487.14	371.72
487.574	366.3
488.009	364.83
488.443	362.39
488.877	367.43
489.311	369.05
489.745	374.64
490.179	380.35
490.613	390.17
491.046	394.51
491.48	399
491.914	401.49
492.348	406.86
492.781	410.88
493.215	414.07
493.648	416.92
494.082	422.8
494.515	425.76
494.948	433.02
495.382	437.93
495.815	443.42
496.248	450.14
496.681	461.76
497.114	471.74
497.547	482.34
497.98	494.4
498.413	503.21
498.846	513.82
499.279	523.73
499.711	530.59
500.144	537.39
500.577	549.91
501.009	562.79
501.442	575.28
501.874	582.84
502.306	589.33
502.739	602.18
503.171	618.76
503.603	627.06
504.036	639.82
504.468	650.67
504.9	665.2
505.332	676.43
505.764	685.51
506.196	696.49
506.627	713.87
507.059	731.07
507.491	743.46
507.923	748.38
508.354	767.64
508.786	783.83
509.217	805.91
509.649	825.59
510.08	848.4
510.512	869.41
510.943	889.71
511.374	905.79
511.805	929.9
512.237	952.91
512.668	986.98
513.099	1016.83
513.53	1045.78
513.961	1069
514.391	1102.74
514.822	1138.41
515.253	1176.7
515.684	1205.24
516.114	1238.03
516.545	1262.72
516.975	1291.87
517.406	1313.89
517.836	1321.75
518.267	1333
518.697	1355.17
519.127	1363.5
519.558	1374.51
519.988	1381.79
520.418	1395.22
520.848	1416.18
521.278	1427.87
521.708	1448.54
522.138	1464.22
522.567	1496.32
522.997	1524.79
523.427	1542.22
523.857	1561.4
524.286	1573.02
524.716	1588.81
525.145	1609.34
525.575	1621.68
526.004	1638.18
526.433	1633.87
526.863	1635.25
527.292	1627.13
527.721	1631.54
528.15	1638.41
528.579	1640.28
529.008	1652.68
529.437	1676.53
529.866	1690.32
530.295	1707.24
530.724	1720.36
531.152	1747.82
531.581	1762.37
532.01	1780.5
532.438	1790.76
532.867	1806.55
533.295	1825.71
533.723	1832.15
534.152	1831.33
534.58	1831.35
535.008	1816.49
535.436	1818.95
535.865	1826.76
536.293	1842.36
536.721	1858.74
537.149	1884.42
537.576	1886.89
538.004	1899.67
538.432	1908.03
538.86	1906.58
539.287	1914.85
539.715	1929.5
540.143	1932.42
540.57	1929.5
540.998	1925.26
541.425	1901.98
541.852	1881.58
542.28	1879.56
542.707	1862.88
543.134	1849.99
543.561	1846.03
543.988	1839.03
544.415	1838.23
544.842	1832.13
545.269	1823.97
545.696	1824.5
546.123	1838.22
546.549	1828.16
546.976	1815.19
547.403	1814.35
547.829	1815.43
548.256	1816.69
548.682	1812.2
549.108	1804.41
549.535	1804.12
549.961	1806.67
550.387	1793.96
550.813	1787.32
551.24	1793.34
551.666	1794.8
552.092	1785.43
552.518	1778.12
552.943	1772.17
553.369	1779.2
553.795	1784.84
554.221	1785.28
554.646	1781.58
555.072	1792.82
555.498	1797.8
555.923	1805.58
556.349	1821.33
556.774	1830.16
557.199	1831.79
557.625	1837.1
558.05	1831.34
558.475	1840.54
558.9	1838.67
559.325	1829.85
559.75	1823.63
560.175	1816.65
560.6	1810.02
561.025	1807.22
561.449	1807.17
561.874	1811.99
562.299	1816.07
562.723	1821.99
563.148	1812.71
563.572	1817.12
563.997	1827.23
564.421	1831.68
564.846	1831.35
565.27	1833.45
565.694	1829.23
566.118	1839.51
566.542	1846.6
566.966	1839.24
567.39	1833.83
567.814	1821.21
568.238	1819.98
568.662	1823.59
569.086	1825.13
569.509	1832.01
569.933	1816.96
570.357	1808.54
570.78	1787.84
571.204	1773.66
571.627	1762.72
572.05	1760.73
572.474	1759.11
572.897	1745.14
573.32	1736.09
573.743	1725.65
574.166	1706.88
574.589	1706.74
575.012	1697.72
575.435	1695.77
575.858	1686.49
576.281	1674.67
576.704	1657.62
577.126	1645.67
577.549	1633.5
577.972	1623.58
578.394	1612.28
578.817	1603.68
579.239	1584.2
579.661	1571.29
580.084	1554.79
580.506	1539.46
580.928	1535.28
581.35	1523.42
581.772	1517.5
582.194	1503.45
582.616	1489.57
583.038	1473.61
583.46	1462.89
583.882	1457.2
584.303	1459.39
584.725	1453.68
585.147	1455.06
585.568	1463.1
585.99	1474.41
586.411	1479.15
586.833	1493.47
587.254	1494.01
587.675	1507.35
588.096	1518.32
588.518	1513.38
588.939	1496.79
589.36	1493.27
589.781	1483.16
590.202	1455.56
590.623	1446.27
591.043	1443.02
591.464	1429.05
591.885	1425.31
592.305	1419.72
592.726	1406.14
593.147	1406.95
593.567	1402.72
593.987	1395.32
594.408	1388.64
594.828	1385.31
595.248	1379.26
595.669	1361.56
596.089	1354.48
596.509	1346.52
596.929	1333.27
597.349	1332.94
597.769	1322.44
598.189	1315.11
598.608	1315.85
599.028	1317.85
599.448	1318.02
599.867	1305.21
600.287	1301.1
600.706	1296.64
601.126	1287.93
601.545	1285.7
601.965	1283.9
602.384	1277.92
602.803	1279.8
603.222	1273.79
603.641	1267.05
604.061	1261.92
604.48	1256.97
604.898	1263.97
605.317	1267.52
605.736	1268.64
606.155	1265.5
606.574	1255.93
606.992	1260.79
607.411	1255.1
607.829	1247.66
608.248	1243.62
608.666	1241.13
609.085	1240.46
609.503	1230.67
609.921	1224.32
610.339	1225.59
610.758	1223.34
611.176	1217.14
611.594	1207.17
612.012	1203.66
612.43	1205.31
612.847	1209.31
613.265	1208.83
613.683	1210.73
614.101	1210.88
614.518	1205.13
614.936	1192.83
615.353	1177.63
615.771	1174.06
616.188	1172.02
616.606	1166.26
617.023	1158.33
617.44	1144.33
617.857	1137.23
618.274	1128.87
618.691	1121.46
619.108	1111.85
619.525	1106.46
619.942	1111.67
620.359	1112.54
620.776	1108.31
621.192	1104.69
621.609	1101.83
622.026	1106.35
622.442	1109.53
622.859	1111.01
623.275	1104.38
623.691	1108.32
624.108	1116.93
624.524	1127.83
624.94	1128.21
625.356	1136.02
625.772	1146.46
626.188	1156.65
626.604	1158.35
627.02	1155.03
627.436	1152.99
627.852	1159.14
628.268	1170.28
628.683	1162.65
629.099	1156.25
629.514	1151.31
629.93	1153.96
630.345	1156.82
630.761	1153.02
631.176	1155.22
631.591	1149.26
632.007	1143.31
632.422	1140.49
632.837	1129.19
633.252	1124.81
633.667	1112.81
634.082	1103.41
634.497	1090.11
634.911	1071.63
635.326	1064.88
635.741	1047.49
636.155	1036
636.57	1034.01
636.984	1029.34
637.399	1027.6
637.813	1024.5
638.228	1020.84
638.642	1019.37
639.056	1006.56
639.47	1001.89
639.884	991.26
640.298	981.25
640.712	975.66
641.126	959.46
641.54	948.93
641.954	939.6
642.368	925.38
642.781	914.28
643.195	896.24
643.609	892.17
644.022	882.66
644.436	874.64
644.849	860.36
645.262	846.2
645.676	843.8
646.089	834.92
646.502	820.06
646.915	810.79
647.328	794.37
647.741	788.68
648.154	775.12
648.567	770.92
648.98	758.06
649.393	755.3
649.805	751.09
650.218	743.3
650.631	729.93
651.043	722.66
651.456	716.71
651.868	715.61
652.28	725.64
652.693	733.97
653.105	736.08
653.517	740.96
653.929	738.92
654.341	739.87
654.753	730
655.165	732.38
655.577	727.76
655.989	721.44
656.401	711.6
656.813	684.63
657.224	667.45
657.636	644.23
658.047	628.34
658.459	611.43
658.87	600.64
659.282	587.41
659.693	569.26
660.104	556.35
660.515	543.74
660.926	537.81
661.338	531.14
661.749	521.79
662.159	511.66
662.57	504.37
662.981	497.77
663.392	489.62
663.803	488.21
664.213	483.28
664.624	475.55
665.035	473.16
665.445	462.39
665.855	454.92
666.266	447.94
666.676	444.01
667.086	436.1
667.497	434.21
667.907	429.22
668.317	422.11
668.727	419.05
669.137	417.79
669.547	415.28
669.956	414.81
670.366	414.58
670.776	414.57
671.186	414.88
671.595	416.61
672.005	417.02
672.414	416.22
672.824	415.99
673.233	417.55
673.642	419.07
674.052	421.58
674.461	424.73
674.87	428.78
675.279	429.92
675.688	431.1
676.097	433.72
676.506	432.8
676.915	441.41
677.323	443.42
677.732	443.64
678.141	444.86
678.549	440.45
678.958	441.53
679.366	441.75
679.775	445.23
680.183	455.87
680.592	460.77
681	467.76
681.408	468.2
681.816	476.46
682.224	485.38
682.632	497.54
683.04	520.59
683.448	541
683.856	567.51
684.264	596.84
684.671	624.01
685.079	658.91
685.487	698.44
685.894	750.15
686.302	797.15
686.709	839.38
687.116	887.01
687.524	931.24
687.931	972.31
688.338	1009.7
688.745	1042.91
689.152	1082.83
689.559	1131.41
689.966	1180.5
690.373	1213.01
690.78	1261.03
691.187	1326.56
691.593	1380.24
692	1428.89
692.407	1494.31
692.813	1572.36
693.22	1638.74
693.626	1704.78
694.032	1760.11
694.439	1837.84
694.845	1899.96
695.251	1976.15
695.657	2044.64
696.063	2144.36
696.469	2220.36
696.875	2290.67
697.281	2332.35
697.687	2383.6
698.093	2427.11
698.498	2503.5
698.904	2562.42
699.31	2651.63
699.715	2716.09
