Data from C_2_DEC_NC_4N_Splice17_12-26-38-549.txt Node
Date: Sat Mar 14 12:26:38 EDT 2020
User: sa697716
Spectrometer: FLMS03696
Trigger mode: 0
Integration Time (sec): 3.180400E-1
Scans to average: 20
Electric dark correction enabled: true
Nonlinearity correction enabled: true
Boxcar width: 5
XAxis mode: Wavelengths
Number of Pixels in Spectrum: 2048
>>>>>Begin Spectral Data<<<<<
187.83	-301700.71
188.298	2426.2
188.766	1277.49
189.233	1102.89
189.701	1603.73
190.169	2176.59
190.636	819.33
191.104	649.2
191.571	99.49
192.039	-41.86
192.506	4.45
192.974	675.28
193.441	-780.87
193.908	-314.71
194.375	-104.77
194.842	43.83
195.31	70.32
195.777	130.02
196.244	340
196.711	413.6
197.177	551.56
197.644	785.14
198.111	1371.7
198.578	1957.53
199.045	1576.76
199.511	2568
199.978	2931.26
200.445	2534.87
200.911	2836.66
201.378	3162.68
201.844	2873.12
202.31	4873.18
202.777	5093.97
203.243	2835.78
203.709	2681.26
204.176	3217.95
204.642	2669.27
205.108	2522.26
205.574	2035.96
206.04	1846.71
206.506	1740.2
206.972	1644.08
207.438	1591.19
207.903	1814.19
208.369	1580.19
208.835	1572.48
209.301	1636.04
209.766	1649.65
210.232	1623.86
210.697	2008.21
211.163	2472.59
211.628	3699.45
212.094	3095.93
212.559	3805.18
213.024	2347.91
213.49	2868.96
213.955	2776.09
214.42	2686.55
214.885	2497.52
215.35	2403.36
215.815	2326.3
216.28	2469.04
216.745	1993.66
217.21	2148.33
217.675	1962.97
218.14	2200.51
218.604	2423.38
219.069	2739.75
219.534	2861.3
219.998	3286.97
220.463	3938.31
220.927	4776.19
221.392	4442.4
221.856	4499.74
222.32	5642.41
222.785	6921.61
223.249	8687.15
223.713	9692.98
224.177	9724.08
224.642	12461.48
225.106	15316.48
225.57	16705.27
226.034	12471.89
226.497	19010.12
226.961	17152.37
227.425	19959.32
227.889	22132.97
228.353	22135.29
228.816	45673.42
229.28	43604.33
229.744	36784.13
230.207	22455.82
230.671	22131
231.134	36582.93
231.597	42279.04
232.061	42295.91
232.524	41274.89
232.987	28464.12
233.45	25665.44
233.914	23029.78
234.377	23610.99
234.84	21640.69
235.303	25495.25
235.766	28459.9
236.229	29393.91
236.691	18512.75
237.154	20809.77
237.617	15678.7
238.08	16086.82
238.542	18838.79
239.005	13480.27
239.468	13405.37
239.93	12642.3
240.393	11525.09
240.855	10139.01
241.317	10402.65
241.78	12669.51
242.242	13133.47
242.704	14209.39
243.166	12391.57
243.629	11279.17
244.091	13032.69
244.553	14304.25
245.015	15391.23
245.477	19905.15
245.939	29182.74
246.4	31038.88
246.862	30184.95
247.324	28449.97
247.786	31817.89
248.247	41694.51
248.709	43014.72
249.17	32201.58
249.632	30378.72
250.093	35233.51
250.555	30407.43
251.016	18567
251.477	17587.56
251.939	18994.46
252.4	19923.37
252.861	23726.53
253.322	22096.46
253.783	26319.75
254.244	34134.57
254.705	26913.65
255.166	23980.66
255.627	23659.66
256.088	33396.03
256.549	35524
257.009	30615.77
257.47	37206.85
257.931	30322.29
258.391	22745.75
258.852	23452.69
259.312	24573.81
259.773	30366.45
260.233	25677.73
260.694	21688.6
261.154	24593.67
261.614	19764.14
262.074	17688.65
262.534	18405.5
262.994	17356.99
263.455	23123.9
263.915	19494.27
264.374	18397.1
264.834	20094.15
265.294	22242.91
265.754	23030.64
266.214	21816.62
266.673	20423.92
267.133	25781.93
267.593	25563.64
268.052	31281.92
268.512	27214.94
268.971	32832.39
269.431	35997.38
269.89	32255.79
270.349	48418.22
270.809	54009.89
271.268	48623.52
271.727	109145.83
272.186	70728.92
272.645	53095.02
273.104	38314
273.563	55511.26
274.022	43662.77
274.481	37191.86
274.94	28656.31
275.399	21308.58
275.857	24822.72
276.316	33576.02
276.775	29896.89
277.233	29458.43
277.692	27574.41
278.15	31239.93
278.609	32190.1
279.067	29862.35
279.525	27757.02
279.984	35887.38
280.442	43179.36
280.9	42630.11
281.358	28070.89
281.816	26211.68
282.274	25709.5
282.732	26622.89
283.19	26801.33
283.648	23164.25
284.106	24676.05
284.564	25137.2
285.021	23371.23
285.479	17428.05
285.937	15871.24
286.394	13956.69
286.852	14379.06
287.309	15133.98
287.767	14628.59
288.224	13920.78
288.682	15272.39
289.139	16783.86
289.596	15380.25
290.053	15981.99
290.511	20191.65
290.968	24514.48
291.425	33208.13
291.882	27684.63
292.339	24092.63
292.796	23918.41
293.252	22523.22
293.709	17906.03
294.166	16056.53
294.623	17735.8
295.079	17039.57
295.536	17119.04
295.992	15529.6
296.449	15369.84
296.905	15967.78
297.362	15350.25
297.818	16147.79
298.274	16776.52
298.731	17098.02
299.187	16920.57
299.643	18179.97
300.099	21972.01
300.555	24130.32
301.011	20195.86
301.467	19487.99
301.923	22806.24
302.379	22266.6
302.835	21899.55
303.291	21940.12
303.746	25007.1
304.202	31575.66
304.658	31681.2
305.113	21326.17
305.569	20904.37
306.024	22282.96
306.479	21248.51
306.935	17927.27
307.39	19578.16
307.845	18092.54
308.301	18232.06
308.756	17768.02
309.211	17157.86
309.666	17607.54
310.121	21879.33
310.576	22230.98
311.031	22100.84
311.486	25352.93
311.94	25379.21
312.395	33973.37
312.85	63910.92
313.305	313695.52
313.759	1625639.3
314.214	117754.14
314.668	93474.16
315.123	78758.22
315.577	28237.61
316.032	25156.95
316.486	31491.15
316.94	24870.3
317.394	17318.73
317.849	13467.64
318.303	12765.76
318.757	12042
319.211	13326.08
319.665	11648.68
320.119	11773.45
320.572	16871.55
321.026	15726.17
321.48	13083.19
321.934	14263.73
322.387	14284.25
322.841	15403.08
323.295	13851.89
323.748	15967.63
324.202	16217.39
324.655	19500.61
325.108	27286.63
325.562	19288.42
326.015	22947.18
326.468	17351.02
326.921	19391.78
327.374	18088.98
327.827	18870.44
328.28	21346.57
328.733	14302.92
329.186	12575.37
329.639	11984.16
330.092	10109.71
330.545	9645.07
330.997	9741.71
331.45	10671.4
331.903	12538.82
332.355	21564.41
332.808	20963.59
333.26	17330.76
333.713	18824.47
334.165	18989.47
334.617	25383.99
335.069	20476.15
335.522	37059.51
335.974	41089.8
336.426	37570.09
336.878	25978.93
337.33	13200.92
337.782	12885.51
338.234	16153.99
338.686	19344.48
339.137	22916.28
339.589	21563.81
340.041	16941.4
340.493	14539.72
340.944	14870.86
341.396	15990.92
341.847	13453.53
342.299	15883.42
342.75	19465.52
343.201	16983.6
343.653	19532.26
344.104	24019.6
344.555	18916.52
345.006	29405.47
345.457	22534.59
345.908	17906.8
346.359	16875.68
346.81	13754.22
347.261	14531.31
347.712	14270.54
348.163	15292.57
348.613	15508.31
349.064	14467.35
349.515	12691.23
349.965	13042.94
350.416	15724.09
350.866	17264.36
351.317	19510.58
351.767	32362.61
352.217	40852.47
352.668	33981.22
353.118	31177.03
353.568	30009.07
354.018	23772.22
354.468	25073.31
354.918	17960.76
355.368	15731.99
355.818	22264.13
356.268	64171.2
356.718	268454.74
357.168	66899.99
357.617	33568.14
358.067	37456.88
358.517	35184.17
358.966	41265.89
359.416	46360.75
359.865	50180.07
360.315	59807.75
360.764	27942.05
361.213	15655.1
361.663	14827.56
362.112	18274.28
362.561	29573.95
363.01	22265.05
363.459	18735.6
363.908	20283.75
364.357	17248.72
364.806	29134.91
365.255	20033.43
365.703	18357.86
366.152	18391.9
366.601	14959.88
367.05	12135.61
367.498	11011.4
367.947	11517.4
368.395	12002.93
368.844	10643.42
369.292	12798.84
369.74	8865.78
370.189	13571.14
370.637	15931.93
371.085	13781.19
371.533	16779.59
371.981	16234.1
372.429	15512.81
372.877	16191.75
373.325	13545.64
373.773	13780.22
374.221	12274.69
374.669	15226.92
375.116	13181.17
375.564	13282.43
376.012	14842.42
376.459	12260.62
376.907	14658.51
377.354	17720.51
377.801	16536.48
378.249	19067.21
378.696	24458.02
379.143	29714.24
379.591	31763.74
380.038	53813.85
380.485	38979.52
380.932	42123.83
381.379	38518.01
381.826	28372.09
382.273	20192.83
382.72	17665.04
383.166	17188.06
383.613	11135.9
384.06	10051.19
384.506	11647.12
384.953	8576.08
385.4	8625.21
385.846	7563.04
386.292	7375.14
386.739	7218.9
387.185	7154.14
387.631	7161.64
388.078	6968.63
388.524	7482.13
388.97	6907.22
389.416	5745.76
389.862	6110.57
390.308	5809.5
390.754	5906.99
391.2	6415.95
391.645	6577.51
392.091	6291.44
392.537	6088.95
392.983	6108.79
393.428	6018.84
393.874	6479.64
394.319	6532.4
394.765	6204.21
395.21	6378.25
395.655	5986.39
396.101	5616.23
396.546	5082.85
396.991	5145.55
397.436	4779.32
397.881	4618.25
398.326	4376.19
398.771	4136.64
399.216	3620.14
399.661	3261.1
400.106	3253.13
400.551	3336.66
400.995	2993.74
401.44	2957.29
401.885	2772.96
402.329	2802.84
402.774	2686.88
403.218	2604.54
403.663	2509.29
404.107	2575.25
404.551	2594.41
404.995	2377.34
405.44	2289.47
405.884	2325.24
406.328	2250.32
406.772	2245.67
407.216	2050.44
407.66	1982.33
408.104	1878.33
408.547	1757.8
408.991	1700.16
409.435	1638.06
409.879	1617.3
410.322	1597.68
410.766	1544.84
411.209	1472.87
411.653	1414.62
412.096	1384.4
412.54	1386.38
412.983	1380.65
413.426	1388.22
413.869	1390.87
414.312	1365.96
414.756	1317.01
415.199	1257.44
415.642	1224.23
416.085	1226.13
416.527	1218.78
416.97	1240.28
417.413	1178.38
417.856	1166.14
418.298	1152.31
418.741	1143.29
419.184	1140.15
419.626	1189.51
420.069	1192.55
420.511	1197.28
420.953	1173.31
421.396	1162.62
421.838	1134.68
422.28	1162.25
422.722	1168.96
423.164	1187.73
423.606	1170.26
424.048	1169.05
424.49	1110.86
424.932	1102.67
425.374	1088.8
425.816	1104.51
426.258	1124.63
426.699	1134.18
427.141	1115.66
427.582	1131.36
428.024	1123.52
428.465	1112.76
428.907	1083.94
429.348	1070.18
429.789	1070.94
430.231	1049.2
430.672	1063.25
431.113	1039.17
431.554	1027.08
431.995	1000.25
432.436	965.32
432.877	945.25
433.318	932.03
433.759	931.4
434.2	931.74
434.64	922
435.081	921.73
435.522	876.66
435.962	845.78
436.403	827.68
436.843	840.37
437.284	823.73
437.724	802.17
438.164	806.78
438.604	787.28
439.045	756.75
439.485	726.78
439.925	714.38
440.365	696.17
440.805	687.51
441.245	679.52
441.685	655.27
442.125	651.36
442.564	656.58
443.004	642.07
443.444	642.11
443.883	645.96
444.323	642.2
444.762	642.49
445.202	652.65
445.641	667.23
446.081	663.61
446.52	671.2
446.959	665.88
447.398	650.71
447.837	643.03
448.276	633.56
448.716	641.1
449.154	646.47
449.593	634.76
450.032	633.81
450.471	623.49
450.91	626.01
451.349	625.8
451.787	623.39
452.226	634.25
452.664	635.55
453.103	637.64
453.541	637.35
453.98	638
454.418	643.23
454.856	634.95
455.295	634.44
455.733	639.52
456.171	643.44
456.609	647.57
457.047	647.11
457.485	656.9
457.923	658.6
458.361	650.33
458.798	653.12
459.236	651.69
459.674	655.24
460.111	657.54
460.549	651.78
460.987	649.3
461.424	645.67
461.862	643.57
462.299	634.95
462.736	634.64
463.173	636.67
463.611	631.78
464.048	629.94
464.485	636.37
464.922	630.49
465.359	628.17
465.796	621.79
466.233	617.52
466.67	613.01
467.106	611.14
467.543	604.37
467.98	596.61
468.416	580.09
468.853	575.58
469.29	557.62
469.726	552.2
470.162	537.99
470.599	530.77
471.035	526.41
471.471	513.59
471.907	510.75
472.344	507.56
472.78	509.87
473.216	515.83
473.652	509.79
474.088	509.31
474.523	507.19
474.959	510.97
475.395	505.92
475.831	502.46
476.266	504.55
476.702	503.76
477.138	498.82
477.573	496.23
478.008	494.51
478.444	497.59
478.879	502.87
479.314	505.26
479.75	505.38
480.185	508.11
480.62	512.41
481.055	515.54
481.49	519.36
481.925	527.02
482.36	537.83
482.795	553.66
483.229	569.29
483.664	582.08
484.099	584.92
484.534	594.23
484.968	600.97
485.403	604.57
485.837	604.76
486.271	604.24
486.706	605.69
487.14	599.2
487.574	590.09
488.009	585.02
488.443	580
488.877	587.73
489.311	590.87
489.745	598.98
490.179	605.7
490.613	619.19
491.046	625.15
491.48	631.39
491.914	633.87
492.348	641.1
492.781	647.24
493.215	650.4
493.648	653.38
494.082	660.73
494.515	663.12
494.948	672.43
495.382	677.6
495.815	685.26
496.248	692.9
496.681	707.53
497.114	720.93
497.547	733.43
497.98	749.41
498.413	758.76
498.846	771.18
499.279	782.86
499.711	789.61
500.144	795.49
500.577	809.07
501.009	823.83
501.442	837.25
501.874	842.31
502.306	847.76
502.739	858.6
503.171	876.43
503.603	883.39
504.036	896.66
504.468	906.58
504.9	923.19
505.332	934.16
505.764	942.01
506.196	952.23
506.627	970.81
507.059	987.48
507.491	1000.34
507.923	1000.97
508.354	1019.26
508.786	1033.05
509.217	1054.55
509.649	1071.72
510.08	1094.36
510.512	1114.5
510.943	1133.81
511.374	1147.29
511.805	1171.88
512.237	1194.34
512.668	1232.24
513.099	1263.35
513.53	1294.92
513.961	1318.2
514.391	1353.92
514.822	1390.37
515.253	1431.01
515.684	1459.31
516.114	1492.22
516.545	1515.32
516.975	1544.47
517.406	1563.58
517.836	1566.53
518.267	1573.04
518.697	1592.82
519.127	1597.71
519.558	1604.87
519.988	1607.95
520.418	1618.56
520.848	1637.54
521.278	1646.52
521.708	1664.17
522.138	1677.8
522.567	1711.56
522.997	1739.5
523.427	1756.38
523.857	1774.52
524.286	1785.62
524.716	1800.24
525.145	1819.38
525.575	1830.45
526.004	1846.08
526.433	1838.79
526.863	1837.82
527.292	1825.84
527.721	1830.04
528.15	1835.72
528.579	1834.68
529.008	1845.97
529.437	1871.56
529.866	1887.25
530.295	1904.94
530.724	1917.19
531.152	1947.3
531.581	1962.36
532.01	1981.72
532.438	1990.75
532.867	2005.42
533.295	2025.8
533.723	2032.3
534.152	2028.74
534.58	2028.18
535.008	2011.23
535.436	2012.51
535.865	2020.26
536.293	2036.22
536.721	2053.45
537.149	2082.25
537.576	2085.93
538.004	2100.57
538.432	2110.2
538.86	2109.73
539.287	2116.29
539.715	2131.6
540.143	2135.72
540.57	2131.7
540.998	2127.51
541.425	2103.19
541.852	2079.23
542.28	2077.63
542.707	2060.01
543.134	2043.95
543.561	2038.63
543.988	2030.32
544.415	2030
544.842	2023.62
545.269	2015.15
545.696	2017.68
546.123	2031.49
546.549	2020.3
546.976	2006.26
547.403	2004.31
547.829	2006.6
548.256	2009.61
548.682	2006.95
549.108	1999.2
549.535	1999.65
549.961	2001.22
550.387	1985.87
550.813	1979.04
551.24	1986.43
551.666	1988.18
552.092	1979.03
552.518	1971.75
552.943	1964.37
553.369	1973.03
553.795	1978.94
554.221	1981.1
554.646	1978.33
555.072	1991.71
555.498	1998.7
555.923	2008.89
556.349	2025.28
556.774	2035.45
557.199	2036.6
557.625	2044.06
558.05	2037.73
558.475	2049.77
558.9	2048.04
559.325	2040.35
559.75	2033.95
560.175	2026.67
560.6	2021.59
561.025	2019.85
561.449	2021.85
561.874	2028.51
562.299	2034.83
562.723	2043.15
563.148	2033.31
563.572	2039.81
563.997	2051.89
564.421	2058.82
564.846	2060.8
565.27	2065.74
565.694	2064.34
566.118	2078.81
566.542	2089.52
566.966	2083.49
567.39	2080.35
567.814	2069.86
568.238	2070.55
568.662	2078.56
569.086	2083.62
569.509	2093.19
569.933	2076.67
570.357	2070.09
570.78	2047.36
571.204	2034.52
571.627	2024.7
572.05	2023.29
572.474	2024.39
572.897	2011.02
573.32	2004.06
573.743	1993.89
574.166	1974.37
574.589	1975.63
575.012	1968.38
575.435	1967.54
575.858	1957.87
576.281	1945.77
576.704	1930.25
577.126	1917
577.549	1905.85
577.972	1893.62
578.394	1882.43
578.817	1874.45
579.239	1853.22
579.661	1837.52
580.084	1821.19
580.506	1807.55
580.928	1804.65
581.35	1792.23
581.772	1787.53
582.194	1772.71
582.616	1760.01
583.038	1744.53
583.46	1733.91
583.882	1730.88
584.303	1736.9
584.725	1732.17
585.147	1733.76
585.568	1745.1
585.99	1759.29
586.411	1767.82
586.833	1785.18
587.254	1788.17
587.675	1804.97
588.096	1819.54
588.518	1815.05
588.939	1797.27
589.36	1794.92
589.781	1784.68
590.202	1751.34
590.623	1740.72
591.043	1736.95
591.464	1722.07
591.885	1716.32
592.305	1709.96
592.726	1694.36
593.147	1696.03
593.567	1689.61
593.987	1681.72
594.408	1675.34
594.828	1674.25
595.248	1668.35
595.669	1647.07
596.089	1639.36
596.509	1633.27
596.929	1616.96
597.349	1618.57
597.769	1607.13
598.189	1599.84
598.608	1601.37
599.028	1603.98
599.448	1604.26
599.867	1589.1
600.287	1585.8
600.706	1582.02
601.126	1570.51
601.545	1569.15
601.965	1567.08
602.384	1560.91
602.803	1564.95
603.222	1559.83
603.641	1551.46
604.061	1547.12
604.48	1543.68
604.898	1552.55
605.317	1556.76
605.736	1558.98
606.155	1556.52
606.574	1546.66
606.992	1552.28
607.411	1547.19
607.829	1537.84
608.248	1535.58
608.666	1532.89
609.085	1532.96
609.503	1523.89
609.921	1517.76
610.339	1520.36
610.758	1520.04
611.176	1515.27
611.594	1505.59
612.012	1501.16
612.43	1505.63
612.847	1513.51
613.265	1515.78
613.683	1519.74
614.101	1521.56
614.518	1517.71
614.936	1506.69
615.353	1489.75
615.771	1486.37
616.188	1487.14
616.606	1483.5
617.023	1474.25
617.44	1456.76
617.857	1448.15
618.274	1439.23
618.691	1432
619.108	1420.86
619.525	1413.76
619.942	1421.2
620.359	1424.52
620.776	1418.45
621.192	1414.26
621.609	1412.83
622.026	1420.79
622.442	1428.32
622.859	1432.21
623.275	1424.81
623.691	1431.98
624.108	1444.86
624.524	1461.3
624.94	1460.7
625.356	1471.57
625.772	1486.42
626.188	1499.86
626.604	1501.38
627.02	1495.97
627.436	1493.36
627.852	1500.84
628.268	1514.01
628.683	1503.95
629.099	1493.9
629.514	1487.67
629.93	1492.35
630.345	1496.66
630.761	1492.29
631.176	1495.92
631.591	1489.59
632.007	1482.3
632.422	1479.68
632.837	1465.96
633.252	1462.59
633.667	1450.46
634.082	1439.81
634.497	1422.87
634.911	1399.47
635.326	1393.74
635.741	1373.95
636.155	1360.65
636.57	1361.41
636.984	1358.82
637.399	1358.48
637.813	1355.95
638.228	1353.16
638.642	1356.19
639.056	1345
639.47	1342.86
639.884	1331.95
640.298	1321.35
640.712	1318.86
641.126	1301.37
641.54	1288.77
641.954	1280.79
642.368	1264.57
642.781	1252.87
643.195	1230.79
643.609	1228.04
644.022	1219.79
644.436	1211.95
644.849	1197.88
645.262	1181.01
645.676	1180.26
646.089	1173.46
646.502	1153.86
646.915	1145.9
647.328	1125.17
647.741	1120.08
648.154	1103.1
648.567	1097.91
648.98	1081.39
649.393	1079.73
649.805	1075.03
650.218	1065.28
650.631	1045.91
651.043	1039.61
651.456	1033.09
651.868	1033.39
652.28	1050.59
652.693	1065.08
653.105	1069.97
653.517	1078
653.929	1076.45
654.341	1080.72
654.753	1066.44
655.165	1071.48
655.577	1067.93
655.989	1060.77
656.401	1049.67
656.813	1010.79
657.224	987.78
657.636	955.83
658.047	935.97
658.459	913.56
658.87	901.42
659.282	887.01
659.693	863.75
660.104	844.45
660.515	827.01
660.926	822.49
661.338	815.23
661.749	804.84
662.159	792.55
662.57	783.15
662.981	774.67
663.392	763.08
663.803	762.68
664.213	757.41
664.624	750.04
665.035	749.94
665.445	732.48
665.855	723.05
666.266	712.67
666.676	706.94
667.086	697.5
667.497	694.27
667.907	686.3
668.317	675
668.727	669.57
669.137	666.28
669.547	661.19
669.956	660.86
670.366	659.45
670.776	658.91
671.186	660.74
671.595	661.57
672.005	662.07
672.414	660.72
672.824	657.7
673.233	658.19
673.642	660.38
674.052	662.2
674.461	663.92
674.87	666.73
675.279	663.41
675.688	663.89
676.097	664.66
676.506	661.78
676.915	671.25
677.323	674.15
677.732	673.67
678.141	673.47
678.549	665.21
678.958	665.03
679.366	665.91
679.775	672.25
680.183	683.47
680.592	691.74
681	700.11
681.408	699.96
681.816	710.85
682.224	723.4
682.632	737.98
683.04	770.41
683.448	799.61
683.856	835.73
684.264	876.16
684.671	916.43
685.079	963.19
685.487	1015.32
685.894	1085.94
686.302	1147.21
686.709	1200.9
687.116	1262.11
687.524	1315.19
687.931	1362.86
688.338	1404.99
688.745	1441.44
689.152	1481.92
689.559	1533.47
689.966	1586.17
690.373	1614.53
690.78	1663.83
691.187	1735.3
691.593	1790.91
692	1839.32
692.407	1907.87
692.813	1991.39
693.22	2057.21
693.626	2126.13
694.032	2179.71
694.439	2260.56
694.845	2322.92
695.251	2400.42
695.657	2471.58
696.063	2577.47
696.469	2655.3
696.875	2727.13
697.281	2765.68
