Data from C_2_DEC_CT_2N_Splice17_12-29-24-776.txt Node
Date: Sat Mar 14 12:29:24 EDT 2020
User: sa697716
Spectrometer: FLMS03696
Trigger mode: 0
Integration Time (sec): 3.180400E-1
Scans to average: 20
Electric dark correction enabled: true
Nonlinearity correction enabled: true
Boxcar width: 5
XAxis mode: Wavelengths
Number of Pixels in Spectrum: 2048
>>>>>Begin Spectral Data<<<<<
187.83	-346657.64
188.298	2586.78
188.766	1402.69
189.233	1247.75
189.701	1793.7
190.169	2319.08
190.636	848.21
191.104	649.13
191.571	104.49
192.039	-89.58
192.506	-94.61
192.974	586.89
193.441	-1025.76
193.908	-305.47
194.375	-133.01
194.842	16.2
195.31	-32.08
195.777	116.18
196.244	319.29
196.711	398.26
197.177	494.05
197.644	705.15
198.111	1211.85
198.578	1758.11
199.045	1403.48
199.511	2294.29
199.978	2615.51
200.445	2255.23
200.911	2479.97
201.378	2757.22
201.844	2530.62
202.31	4288.96
202.777	4504.45
203.243	2534.52
203.709	2408.35
204.176	2882.42
204.642	2387.99
205.108	2250.74
205.574	1823.57
206.04	1661.06
206.506	1552.93
206.972	1454.6
207.438	1413.54
207.903	1580.7
208.369	1377.51
208.835	1376.15
209.301	1441.44
209.766	1482.64
210.232	1474.7
210.697	1827.97
211.163	2256.62
211.628	3433.97
212.094	2893.7
212.559	3616.77
213.024	2290.2
213.49	2813.86
213.955	2738.87
214.42	2664.17
214.885	2462.35
215.35	2371.16
215.815	2325.12
216.28	2477.3
216.745	2029.04
217.21	2216.65
217.675	2029.28
218.14	2294.23
218.604	2592.25
219.069	3002.01
219.534	3220.42
219.998	3804.03
220.463	4680.56
220.927	5834.24
221.392	5570.86
221.856	5698.79
222.32	7266.41
222.785	9053.06
223.249	11499.63
223.713	12954.73
224.177	13073.74
224.642	16872.68
225.106	20918.69
225.57	22934.66
226.034	17129.08
226.497	26178.55
226.961	23730.27
227.425	27717.03
227.889	30896.18
228.353	31019.37
228.816	64205.46
229.28	61631.12
229.744	52157.53
230.207	31720.68
230.671	31304.17
231.134	51947.7
231.597	59985.02
232.061	60119.16
232.524	58781.89
232.987	40596.81
233.45	36607.08
233.914	32895.2
234.377	33773.72
234.84	30935.43
235.303	36549.23
235.766	40846.71
236.229	42218.13
236.691	26624.85
237.154	29947.92
237.617	22546.75
238.08	23091.41
238.542	27049.76
239.005	19353.32
239.468	19195.9
239.93	18096.59
240.393	16462.64
240.855	14453.6
241.317	14816.05
241.78	18060.85
242.242	18697.88
242.704	20187.31
243.166	17577.37
243.629	15964.42
244.091	18403.68
244.553	20167.94
245.015	21719.02
245.477	28162.86
245.939	41301.64
246.4	43872.99
246.862	42663.88
247.324	40265.65
247.786	45112.59
248.247	59307.16
248.709	61358.87
249.17	45974.25
249.632	43403.27
250.093	50328.87
250.555	43435.77
251.016	26528.67
251.477	25205.5
251.939	27240.39
252.4	28583.95
252.861	34033.7
253.322	31699.65
253.783	37763.79
254.244	49040.18
254.705	38710.19
255.166	34423.3
255.627	33940.25
256.088	47960.24
256.549	51005.02
257.009	43951.78
257.47	53440.76
257.931	43572.17
258.391	32686.94
258.852	33763.77
259.312	35472.98
259.773	43917.86
260.233	37248.75
260.694	31494.29
261.154	35793.2
261.614	28758.7
262.074	25759.92
262.534	26785.2
262.994	25304.26
263.455	33772.1
263.915	28492.19
264.374	26867.81
264.834	29394
265.294	32646.03
265.754	33869.79
266.214	32094.78
266.673	30156.77
267.133	38160.82
267.593	37985.38
268.052	46605.49
268.512	40621.71
268.971	49118.71
269.431	53999.4
269.89	48474.53
270.349	72797.85
270.809	81403.83
271.268	73430.02
271.727	165032.95
272.186	107059.57
272.645	80441.62
273.104	58102.08
273.563	84279.5
274.022	66373.47
274.481	56551.52
274.94	43576.9
275.399	32466.66
275.857	37819.91
276.316	51230.5
276.775	45645.44
277.233	45029.89
277.692	42164.47
278.15	47742.44
278.609	49146.5
279.067	45523.36
279.525	42336.17
279.984	54762.79
280.442	65752.44
280.9	64933.78
281.358	42735.6
281.816	39834.54
282.274	39041.58
282.732	40410.3
283.19	40662.31
283.648	35152.25
284.106	37499.65
284.564	38154.26
285.021	35432.31
285.479	26437.53
285.937	24068.76
286.394	21124.31
286.852	21768.17
287.309	22914.08
287.767	22163.36
288.224	21099.73
288.682	23178.92
289.139	25443
289.596	23302.49
290.053	24255.64
290.511	30695.15
290.968	37277.31
291.425	50681.54
291.882	42222
292.339	36766.09
292.796	36507.5
293.252	34452.66
293.709	27348.8
294.166	24548.29
294.623	27162.47
295.079	26099.03
295.536	26223.3
295.992	23816.73
296.449	23567.13
296.905	24500.89
297.362	23501.16
297.818	24738.73
298.274	25674.9
298.731	26207.39
299.187	25960.99
299.643	27900.07
300.099	33765.9
300.555	37059.32
301.011	31003.07
301.467	29902.51
301.923	35070.34
302.379	34296.73
302.835	33742.3
303.291	33813.87
303.746	38558.04
304.202	48751.81
304.658	49032.28
305.113	32998.01
305.569	32358.88
306.024	34514.47
306.479	32889.14
306.935	27719.16
307.39	30290.98
307.845	27965.87
308.301	28172.91
308.756	27437.69
309.211	26419.21
309.666	27063.91
310.121	33581.98
310.576	34140.31
311.031	33912.19
311.486	38845.17
311.94	38847.65
312.395	51960.74
312.85	97657.71
313.305	479748.08
313.759	2482109.9
314.214	179844.98
314.668	142636.31
315.123	120029.52
315.577	43025.22
316.032	38251.5
316.486	48022.48
316.94	37915.98
317.394	26413.69
317.849	20573.8
318.303	19507.73
318.757	18444.29
319.211	20456.09
319.665	17932.97
320.119	18186.12
320.572	26118.91
321.026	24459.39
321.48	20377.54
321.934	22280.46
322.387	22370.38
322.841	24144.01
323.295	21713.44
323.748	25040.69
324.202	25420.42
324.655	30525.64
325.108	42650.48
325.562	30120.18
326.015	35802.69
326.468	27067.26
326.921	30277.68
327.374	28223.43
327.827	29448.51
328.28	33377.73
328.733	22380.63
329.186	19686.63
329.639	18756.33
330.092	15821.41
330.545	15079.16
330.997	15186.36
331.45	16583.46
331.903	19416.61
332.355	33466.38
332.808	32513.47
333.26	26819.14
333.713	29111.61
334.165	29333.18
334.617	39227.07
335.069	31727.04
335.522	57489.26
335.974	63824.54
336.426	58393.73
336.878	40544.47
337.33	20528.76
337.782	20070.79
338.234	25099.8
338.686	30040.91
339.137	35629.17
339.589	33578.17
340.041	26322.09
340.493	22612.77
340.944	23132.53
341.396	24946.45
341.847	20976.48
342.299	24779.12
342.75	30246.53
343.201	26496.64
343.653	30522.64
344.104	37561.29
344.555	29547.1
345.006	46044.35
345.457	35212.94
345.908	28042.3
346.359	26400.17
346.81	21513.55
347.261	22707.76
347.712	22376.53
348.163	23998.33
348.613	24304.78
349.064	22701.48
349.515	19911.12
349.965	20429.51
350.416	24636.31
350.866	27057.65
351.317	30600.75
351.767	50637.79
352.217	64027.78
352.668	53197.3
353.118	48769.88
353.568	47057.61
354.018	37214.31
354.468	39274.93
354.918	28172.54
355.368	24664.59
355.818	34789.05
356.268	100182.66
356.718	419740.81
357.168	104463.39
357.617	52406.98
358.067	58326.32
358.517	54697.5
358.966	64067.22
359.416	71811.49
359.865	77614.96
360.315	92578.16
360.764	43314.03
361.213	24279.36
361.663	23009.72
362.112	28423.4
362.561	45944.69
363.01	34648.23
363.459	29152.4
363.908	31605.5
364.357	26817.08
364.806	45336.39
365.255	31146.61
365.703	28481.02
366.152	28504.53
366.601	23104.45
367.05	18758.59
367.498	17044.74
367.947	17816.34
368.395	18516.49
368.844	16366.94
369.292	19748.25
369.74	13642.09
370.189	20907.94
370.637	24510.51
371.085	21161.13
371.533	25791.46
371.981	24827.84
372.429	23630.08
372.877	24633.56
373.325	20624.45
373.773	21025.78
374.221	18692.81
374.669	23140.53
375.116	19990.1
375.564	20167.8
376.012	22529.28
376.459	18552.79
376.907	22184.38
377.354	26825.37
377.801	24951.44
378.249	28624.74
378.696	36566.09
379.143	44289.23
379.591	47258.96
380.038	79806.39
380.485	57600.23
380.932	62108.46
381.379	56669.34
381.826	41643.79
382.273	29593.52
382.72	25877
383.166	25214.03
383.613	16356.62
384.06	14723.86
384.506	17035.12
384.953	12506.03
385.4	12587.98
385.846	11023.7
386.292	10766.39
386.739	10539.22
387.185	10429.56
387.631	10422.08
388.078	10098.47
388.524	10779.89
388.97	9951.34
389.416	8279.7
389.862	8793.7
390.308	8328.46
390.754	8446.28
391.2	9146.57
391.645	9352.62
392.091	8921.43
392.537	8613.6
392.983	8623.7
393.428	8469.35
393.874	9081.18
394.319	9114.84
394.765	8655.93
395.21	8894.59
395.655	8342.96
396.101	7824.99
396.546	7057.66
396.991	7132.32
397.436	6625.65
397.881	6411.92
398.326	6084.67
398.771	5758.94
399.216	5040.75
399.661	4538.77
400.106	4522.92
400.551	4640.05
400.995	4164.87
401.44	4123.93
401.885	3882.5
402.329	3934.76
402.774	3778.06
403.218	3662.68
403.663	3536.31
404.107	3639.97
404.551	3670.27
404.995	3370.68
405.44	3252.15
405.884	3309.26
406.328	3206.79
406.772	3197.84
407.216	2916.5
407.66	2823.42
408.104	2683.34
408.547	2513.38
408.991	2434.75
409.435	2347.75
409.879	2319.48
410.322	2289.76
410.766	2210.19
411.209	2105.79
411.653	2022.46
412.096	1981.58
412.54	1986.47
412.983	1976.19
413.426	1981.24
413.869	1979.68
414.312	1942.72
414.756	1874.45
415.199	1790.26
415.642	1738.48
416.085	1743.04
416.527	1734.92
416.97	1763.23
417.413	1672.79
417.856	1654.05
418.298	1642.05
418.741	1636.51
419.184	1634.87
419.626	1707.48
420.069	1707.86
420.511	1720.47
420.953	1683.8
421.396	1668.47
421.838	1628.94
422.28	1664.46
422.722	1675.65
423.164	1698.29
423.606	1666.72
424.048	1662.96
424.49	1577.33
424.932	1568.29
425.374	1544.93
425.816	1569.1
426.258	1598.6
426.699	1614.16
427.141	1591.16
427.582	1616.78
428.024	1608.13
428.465	1599.89
428.907	1561.14
429.348	1539.14
429.789	1539.6
430.231	1506.38
430.672	1525.88
431.113	1487.48
431.554	1463.4
431.995	1424.34
432.436	1369.4
432.877	1336.12
433.318	1311.69
433.759	1305.56
434.2	1303.79
434.64	1288.6
435.081	1292.33
435.522	1225.1
435.962	1180.21
436.403	1151.94
436.843	1165.81
437.284	1140.1
437.724	1109.44
438.164	1110.77
438.604	1084.93
439.045	1041.84
439.485	996.96
439.925	972.43
440.365	946.13
440.805	933.23
441.245	919.99
441.685	886.4
442.125	879.97
442.564	882.69
443.004	859.64
443.444	854.68
443.883	854.18
444.323	847.97
444.762	850.54
445.202	860.67
445.641	872.86
446.081	867.83
446.52	873.33
446.959	860.86
447.398	840.29
447.837	830.02
448.276	813.48
448.716	820.79
449.154	825.83
449.593	804.86
450.032	801.17
450.471	786.28
450.91	786.57
451.349	784.25
451.787	781.72
452.226	794.09
452.664	794.21
453.103	796.34
453.541	796.13
453.98	795.76
454.418	800.33
454.856	788.21
455.295	787.52
455.733	793.18
456.171	798.03
456.609	799.26
457.047	798.91
457.485	809.32
457.923	810.85
458.361	798.83
458.798	800.48
459.236	797.74
459.674	802.53
460.111	805.52
460.549	796.28
460.987	792.64
461.424	790.47
461.862	786.22
462.299	774.04
462.736	773.31
463.173	775.71
463.611	766.74
464.048	764.85
464.485	770.16
464.922	762.57
465.359	759.66
465.796	749.32
466.233	743.51
466.67	736.45
467.106	735.04
467.543	727.73
467.98	719.56
468.416	701.05
468.853	695.44
469.29	675.43
469.726	667.2
470.162	650.22
470.599	641.96
471.035	635.51
471.471	619.22
471.907	615.37
472.344	611.24
472.78	612.42
473.216	620.22
473.652	612.29
474.088	610.48
474.523	608.3
474.959	612.98
475.395	607.88
475.831	603.65
476.266	607.11
476.702	605.66
477.138	598.98
477.573	596.61
478.008	594.32
478.444	597.19
478.879	602.62
479.314	605.34
479.75	606.58
480.185	609.4
480.62	615.93
481.055	618.75
481.49	623.8
481.925	632.53
482.36	643.97
482.795	661.88
483.229	680.58
483.664	694.07
484.099	697.12
484.534	707.2
484.968	713.27
485.403	714.96
485.837	714.55
486.271	712.56
486.706	713.66
487.14	705.72
487.574	694.56
488.009	688.98
488.443	683.86
488.877	691.43
489.311	693.25
489.745	701.15
490.179	707.34
490.613	719.45
491.046	724.3
491.48	729.61
491.914	730.48
492.348	734.75
492.781	738.08
493.215	739.19
493.648	739.4
494.082	744.38
494.515	744.44
494.948	752.45
495.382	757.5
495.815	763.31
496.248	767.28
496.681	779.7
497.114	792.28
497.547	802.01
497.98	815.06
498.413	820.66
498.846	831.34
499.279	839.61
499.711	842.43
500.144	844.86
500.577	855
501.009	866.59
501.442	875.57
501.874	875.45
502.306	876.35
502.739	883.3
503.171	898.13
503.603	898.62
504.036	908.75
504.468	913.52
504.9	923.39
505.332	929.33
505.764	932.64
506.196	938.79
506.627	952
507.059	965.75
507.491	972.45
507.923	969.1
508.354	983.58
508.786	991.81
509.217	1008.2
509.649	1022.07
510.08	1039.13
510.512	1054.7
510.943	1068.17
511.374	1077.67
511.805	1094.89
512.237	1112.35
512.668	1142.32
513.099	1166.24
513.53	1190.68
513.961	1209.98
514.391	1238.15
514.822	1267.35
515.253	1298.61
515.684	1320.13
516.114	1345.83
516.545	1363.53
516.975	1385.74
517.406	1400.17
517.836	1400.74
518.267	1403.65
518.697	1416.16
519.127	1416.08
519.558	1419.23
519.988	1418.79
520.418	1425.25
520.848	1439.69
521.278	1443.46
521.708	1460.72
522.138	1469.67
522.567	1495.28
522.997	1516.04
523.427	1528.31
523.857	1542.56
524.286	1550.52
524.716	1562.29
525.145	1577.2
525.575	1584.3
526.004	1597.31
526.433	1585.51
526.863	1583.27
527.292	1571.04
527.721	1574.52
528.15	1577.43
528.579	1576.05
529.008	1583.44
529.437	1603.52
529.866	1615.05
530.295	1629.18
530.724	1639.09
531.152	1661.78
531.581	1674.14
532.01	1690.15
532.438	1696.86
532.867	1710.48
533.295	1727.1
533.723	1732.34
534.152	1728.5
534.58	1727.52
535.008	1712.86
535.436	1713.41
535.865	1721.11
536.293	1734.24
536.721	1748.75
537.149	1772.25
537.576	1774.08
538.004	1785.52
538.432	1792.97
538.86	1793.32
539.287	1799.95
539.715	1812.15
540.143	1815.07
540.57	1810.6
540.998	1806.76
541.425	1784.55
541.852	1764.43
542.28	1762.33
542.707	1747.07
543.134	1733.02
543.561	1728.1
543.988	1721.51
544.415	1720.96
544.842	1715.19
545.269	1708.11
545.696	1708.7
546.123	1721.03
546.549	1710.97
546.976	1698.43
547.403	1697.17
547.829	1698.75
548.256	1700.99
548.682	1696.82
549.108	1690.33
549.535	1689.05
549.961	1689.68
550.387	1677.1
550.813	1671.83
551.24	1678
551.666	1679.06
552.092	1669.65
552.518	1663.82
552.943	1658.02
553.369	1665.73
553.795	1670.71
554.221	1671.65
554.646	1670.02
555.072	1681.38
555.498	1686.3
555.923	1694.48
556.349	1709.46
556.774	1719.13
557.199	1720.83
557.625	1726.92
558.05	1721.86
558.475	1731.34
558.9	1731.05
559.325	1723.92
559.75	1718.31
560.175	1713.18
560.6	1707.96
561.025	1706.42
561.449	1708.3
561.874	1713.59
562.299	1717.6
562.723	1725.44
563.148	1717.92
563.572	1723.03
563.997	1733.87
564.421	1739.6
564.846	1740.99
565.27	1746.79
565.694	1746.01
566.118	1757.91
566.542	1768.36
566.966	1763.91
567.39	1760.15
567.814	1750.81
568.238	1753.14
568.662	1758.96
569.086	1763.27
569.509	1772.02
569.933	1759.07
570.357	1754.2
570.78	1735.93
571.204	1725.81
571.627	1718.9
572.05	1718.7
572.474	1720.42
572.897	1709.11
573.32	1705.09
573.743	1698.12
574.166	1682.47
574.589	1683.21
575.012	1676.81
575.435	1677.56
575.858	1669.06
576.281	1658.58
576.704	1645.26
577.126	1634.87
577.549	1626.25
577.972	1616.85
578.394	1607.37
578.817	1602.33
579.239	1585.43
579.661	1574.45
580.084	1559.79
580.506	1548.99
580.928	1546.09
581.35	1536.39
581.772	1533.15
582.194	1521.33
582.616	1511.19
583.038	1498.67
583.46	1488.42
583.882	1486.95
584.303	1492.56
584.725	1489.76
585.147	1492.26
585.568	1502.94
585.99	1516.64
586.411	1523.37
586.833	1539.74
587.254	1541.07
587.675	1555.85
588.096	1569.11
588.518	1564.94
588.939	1547.96
589.36	1546.87
589.781	1535.94
590.202	1510.53
590.623	1502.1
591.043	1500.19
591.464	1487.08
591.885	1483.81
592.305	1478.15
592.726	1465.76
593.147	1467.59
593.567	1461.72
593.987	1453.63
594.408	1449.88
594.828	1447.11
595.248	1440.94
595.669	1423.34
596.089	1416.33
596.509	1410.3
596.929	1397.51
597.349	1398.26
597.769	1388.34
598.189	1383.84
598.608	1385.93
599.028	1388.13
599.448	1388.37
599.867	1375.7
600.287	1372.08
600.706	1367.85
601.126	1358.98
601.545	1358.45
601.965	1356.71
602.384	1351.65
602.803	1354.46
603.222	1349.19
603.641	1343.25
604.061	1340.7
604.48	1338.11
604.898	1347.54
605.317	1353.54
605.736	1355.58
606.155	1352.79
606.574	1344.16
606.992	1350.42
607.411	1346.75
607.829	1340.4
608.248	1337.59
608.666	1335.59
609.085	1335.62
609.503	1327.76
609.921	1322.45
610.339	1325.13
610.758	1326.12
611.176	1323.41
611.594	1314.6
612.012	1312.04
612.43	1316.2
612.847	1323.27
613.265	1325.42
613.683	1330.57
614.101	1332.36
614.518	1329.77
614.936	1321.14
615.353	1307.62
615.771	1305.89
616.188	1306.96
616.606	1304.25
617.023	1298.39
617.44	1284.98
617.857	1279.15
618.274	1271.62
618.691	1266.11
619.108	1256.95
619.525	1250.93
619.942	1257
620.359	1258.9
620.776	1255.3
621.192	1252.05
621.609	1249.54
622.026	1256.3
622.442	1262.61
622.859	1266.17
623.275	1258.96
623.691	1264.34
624.108	1277.49
624.524	1292.2
624.94	1293.42
625.356	1303.08
625.772	1316.81
626.188	1329.1
626.604	1331.33
627.02	1326.55
627.436	1324.89
627.852	1331.72
628.268	1344.42
628.683	1334.21
629.099	1324.96
629.514	1320.09
629.93	1323.9
630.345	1327.74
630.761	1324.79
631.176	1327.46
631.591	1323.21
632.007	1317.64
632.422	1316.77
632.837	1306.22
633.252	1306.07
633.667	1297.03
634.082	1287.86
634.497	1276.01
634.911	1256.92
635.326	1254.3
635.741	1239
636.155	1230.02
636.57	1232.34
636.984	1232.63
637.399	1235.18
637.813	1234.44
638.228	1235.84
638.642	1242.15
639.056	1232.32
639.47	1234.74
639.884	1227.42
640.298	1222
640.712	1222.01
641.126	1210.08
641.54	1202.7
641.954	1199.15
642.368	1188.8
642.781	1181.74
643.195	1164.17
643.609	1166.82
644.022	1160.14
644.436	1156.55
644.849	1145.87
645.262	1134.47
645.676	1137.29
646.089	1134.09
646.502	1118.97
646.915	1113.67
647.328	1096.02
647.741	1095.26
648.154	1082.35
648.567	1080.07
648.98	1067.23
649.393	1067.82
649.805	1063.89
650.218	1057.11
650.631	1041
651.043	1035.28
651.456	1029.89
651.868	1030.87
652.28	1048.79
652.693	1063.37
653.105	1071.24
653.517	1081.03
653.929	1082.04
654.341	1089.05
654.753	1075.41
655.165	1082.3
655.577	1080.52
655.989	1077.01
656.401	1070.18
656.813	1032.9
657.224	1012.33
657.636	983.88
658.047	966.57
658.459	946.76
658.87	937.51
659.282	926.6
659.693	905.71
660.104	891.02
660.515	876.97
660.926	875.59
661.338	873.98
661.749	868.29
662.159	858.68
662.57	853.66
662.981	849.16
663.392	841.92
663.803	847.38
664.213	845.85
664.624	841.4
665.035	843.74
665.445	829.65
665.855	821.21
666.266	812.06
666.676	809.83
667.086	800.9
667.497	800.37
667.907	794.47
668.317	783.1
668.727	778.77
669.137	778.01
669.547	776.71
669.956	778.74
670.366	780.94
670.776	782.83
671.186	786.32
671.595	789.44
672.005	792.1
672.414	790.64
672.824	789.54
673.233	793.52
673.642	796.4
674.052	797.92
674.461	799.21
674.87	803.28
675.279	800.07
675.688	800.68
676.097	800.5
676.506	795.82
676.915	808.59
677.323	810.29
677.732	807.34
678.141	806.12
678.549	794.43
678.958	793.44
679.366	791.15
679.775	794.75
680.183	805.73
680.592	811.2
681	816.01
681.408	808.66
681.816	816.58
682.224	825.62
682.632	834.91
683.04	865.03
683.448	889.41
683.856	920.64
684.264	957.2
684.671	988.07
685.079	1027.23
685.487	1072.35
685.894	1134.15
686.302	1183.21
686.709	1223.16
687.116	1270.7
687.524	1306.81
687.931	1335.72
688.338	1359.94
688.745	1377.54
689.152	1400.87
689.559	1436.41
689.966	1469
690.373	1479.95
690.78	1510.06
691.187	1559.7
691.593	1594.62
692	1624.98
692.407	1674.07
692.813	1738.14
693.22	1786.7
693.626	1837.09
694.032	1872.55
694.439	1934.69
694.845	1980.25
695.251	2040.85
695.657	2094.87
696.063	2179.48
696.469	2239.5
