Data from C_2_DEC_CT_2N_Splice17_12-29-33-679.txt Node
Date: Sat Mar 14 12:29:33 EDT 2020
User: sa697716
Spectrometer: FLMS03696
Trigger mode: 0
Integration Time (sec): 3.180400E-1
Scans to average: 20
Electric dark correction enabled: true
Nonlinearity correction enabled: true
Boxcar width: 5
XAxis mode: Wavelengths
Number of Pixels in Spectrum: 2048
>>>>>Begin Spectral Data<<<<<
187.83	-380496.53
188.298	2656.62
188.766	1474.61
189.233	1307.38
189.701	1900.46
190.169	2611.38
190.636	1041.56
191.104	906.28
191.571	228.5
192.039	34.19
192.506	11.29
192.974	595.08
193.441	-1138.22
193.908	-214.11
194.375	-58.2
194.842	53.05
195.31	132.45
195.777	174.23
196.244	373.98
196.711	419.87
197.177	520.75
197.644	737.6
198.111	1254.74
198.578	1755.05
199.045	1401.44
199.511	2289.69
199.978	2668.51
200.445	2277.53
200.911	2492.64
201.378	2774.99
201.844	2513.29
202.31	4254.7
202.777	4393.21
203.243	2420.54
203.709	2323.43
204.176	2737.79
204.642	2243.22
205.108	2075.1
205.574	1688.82
206.04	1532.24
206.506	1442.37
206.972	1371.21
207.438	1339.54
207.903	1542.37
208.369	1367.92
208.835	1372.77
209.301	1447.61
209.766	1477.19
210.232	1473.55
210.697	1831.93
211.163	2290.83
211.628	3422.68
212.094	2884.12
212.559	3548.7
213.024	2200.55
213.49	2709.74
213.955	2631.08
214.42	2573.01
214.885	2405.03
215.35	2336.39
215.815	2254.35
216.28	2406.48
216.745	1997.58
217.21	2171.01
217.675	2027.13
218.14	2317.45
218.604	2616.42
219.069	3033.56
219.534	3228.82
219.998	3824.37
220.463	4693.9
220.927	5861.6
221.392	5584.02
221.856	5707.9
222.32	7268.13
222.785	9049.2
223.249	11485.04
223.713	12936.28
224.177	13015.79
224.642	16803.57
225.106	20769.47
225.57	22794.15
226.034	17050.53
226.497	26007.15
226.961	23576.82
227.425	27570.59
227.889	30692.65
228.353	30777.21
228.816	63620.21
229.28	61023.89
229.744	51630.76
230.207	31447.85
230.671	31005.44
231.134	51399.21
231.597	59569.55
232.061	59657.65
232.524	58270.69
232.987	40184.21
233.45	36218.37
233.914	32586.39
234.377	33457.95
234.84	30669.43
235.303	36235.79
235.766	40517.29
236.229	41883.35
236.691	26374.78
237.154	29695.27
237.617	22377.86
238.08	22949.03
238.542	26891.06
239.005	19235.94
239.468	19108.76
239.93	18013.85
240.393	16375
240.855	14377.65
241.317	14744.42
241.78	17951.75
242.242	18562.44
242.704	20036.66
243.166	17460.56
243.629	15875.77
244.091	18293.43
244.553	20061.54
245.015	21596.3
245.477	27974.37
245.939	41084.96
246.4	43651.16
246.862	42472.06
247.324	40086.76
247.786	44939.29
248.247	58982.49
248.709	60938.88
249.17	45653.63
249.632	43080.25
250.093	49992.06
250.555	43215.01
251.016	26362.23
251.477	25055.09
251.939	27073.39
252.4	28438.73
252.861	33858.87
253.322	31514.75
253.783	37609.27
254.244	48818.19
254.705	38557.45
255.166	34342.33
255.627	33863.03
256.088	47815.92
256.549	50759.36
257.009	43765.33
257.47	53150.27
257.931	43326.74
258.391	32532.86
258.852	33545.32
259.312	35267.37
259.773	43601.9
260.233	36886.77
260.694	31171.55
261.154	35431.54
261.614	28509.77
262.074	25577.18
262.534	26610.11
262.994	25125.49
263.455	33549.96
263.915	28316.83
264.374	26690.9
264.834	29193.75
265.294	32432.8
265.754	33663.23
266.214	31919.38
266.673	29975.87
267.133	37891.47
267.593	37698.62
268.052	46270.67
268.512	40302.43
268.971	48693.05
269.431	53516.27
269.89	48043.93
270.349	72214.5
270.809	80699.12
271.268	72714.82
271.727	163393.1
272.186	106015.18
272.645	79717.07
273.104	57583.23
273.563	83597.6
274.022	65878.05
274.481	56193.9
274.94	43374.99
275.399	32308.67
275.857	37656.95
276.316	51010.83
276.775	45476.8
277.233	44803.34
277.692	41937
278.15	47489.17
278.609	48879.13
279.067	45264.95
279.525	42043.94
279.984	54344.98
280.442	65257.33
280.9	64422.73
281.358	42387.49
281.816	39530.81
282.274	38760.96
282.732	40108.06
283.19	40311.17
283.648	34813.34
284.106	37156.53
284.564	37818.04
285.021	35100.18
285.479	26204.23
285.937	23830.87
286.394	20938.91
286.852	21574.16
287.309	22721.94
287.767	21971.35
288.224	20941.1
288.682	23004.41
289.139	25259.23
289.596	23162.44
290.053	24100.57
290.511	30444.11
290.968	37011.09
291.425	50339.43
291.882	41955.67
292.339	36549.64
292.796	36346.95
293.252	34297.06
293.709	27249.18
294.166	24454.84
294.623	27060.69
295.079	26003.06
295.536	26151.82
295.992	23765.77
296.449	23513.02
296.905	24430.98
297.362	23434.1
297.818	24647.52
298.274	25576.54
298.731	26097.81
299.187	25840.61
299.643	27752.24
300.099	33580.07
300.555	36884.85
301.011	30824.75
301.467	29711.95
301.923	34820.71
302.379	34023.41
302.835	33460.18
303.291	33555.06
303.746	38257.82
304.202	48393.62
304.658	48641.23
305.113	32716.33
305.569	32052.29
306.024	34206.98
306.479	32627.68
306.935	27522.41
307.39	30080.57
307.845	27792.13
308.301	27943.98
308.756	27239.17
309.211	26233.61
309.666	26864.89
310.121	33353.59
310.576	33895.38
311.031	33644.33
311.486	38531.36
311.94	38514.2
312.395	51577.92
312.85	97033.17
313.305	477517.38
313.759	2470127.08
314.214	179305.65
314.668	142224.39
315.123	119793.92
315.577	42923.94
316.032	38227.64
316.486	48009.51
316.94	37919.93
317.394	26398.22
317.849	20524.69
318.303	19452.44
318.757	18374.6
319.211	20320.07
319.665	17819.86
320.119	18070.92
320.572	25976.74
321.026	24285.58
321.48	20232.92
321.934	22108.4
322.387	22202.52
322.841	24006.68
323.295	21584.52
323.748	24920.75
324.202	25325.07
324.655	30434.33
325.108	42517.32
325.562	30030.76
326.015	35718.18
326.468	26995.03
326.921	30194.69
327.374	28119.47
327.827	29276.86
328.28	33153.87
328.733	22207.12
329.186	19525.66
329.639	18613.19
330.092	15689.72
330.545	14948.79
330.997	15080.04
331.45	16451.31
331.903	19283.13
332.355	33235.06
332.808	32319.28
333.26	26690.61
333.713	28962.91
334.165	29171.29
334.617	38968.63
335.069	31538.75
335.522	57106.05
335.974	63272.56
336.426	57974.8
336.878	40206.28
337.33	20397.97
337.782	19936.13
338.234	24957.61
338.686	29941.11
339.137	35494.04
339.589	33436.93
340.041	26194.49
340.493	22525.88
340.944	23091.93
341.396	24869.51
341.847	20907.86
342.299	24665.85
342.75	30118.42
343.201	26373.8
343.653	30328.85
344.104	37339.26
344.555	29410.38
345.006	45873.45
345.457	35091.91
345.908	27900.32
346.359	26258.57
346.81	21415.35
347.261	22605.03
347.712	22292.9
348.163	23908.56
348.613	24190.59
349.064	22589.05
349.515	19777.39
349.965	20279.58
350.416	24456.81
350.866	26834.44
351.317	30391.72
351.767	50328.57
352.217	63649.8
352.668	52842.8
353.118	48451.64
353.568	46732.73
354.018	36947.27
354.468	38993.41
354.918	27966.24
355.368	24480.99
355.818	34635.44
356.268	99688.15
356.718	417102.06
357.168	103783.51
357.617	52154
358.067	58073.54
358.517	54415.04
358.966	63845.14
359.416	71571.5
359.865	77415.93
360.315	92239.37
360.764	43077.59
361.213	24129.35
361.663	22905.08
362.112	28264.64
362.561	45605.89
363.01	34386.67
363.459	28996.49
363.908	31393.37
364.357	26663.84
364.806	45122.59
365.255	30963.67
365.703	28335.24
366.152	28385.38
366.601	23008.15
367.05	18695.5
367.498	16980.24
367.947	17732.31
368.395	18438.83
368.844	16307.77
369.292	19679.39
369.74	13556.12
370.189	20819.49
370.637	24395.89
371.085	21043.19
371.533	25590.68
371.981	24660.04
372.429	23468
372.877	24440.55
373.325	20446.19
373.773	20853.78
374.221	18559.52
374.669	23050.75
375.116	19886.64
375.564	20036.95
376.012	22408.07
376.459	18479.75
376.907	22038.82
377.354	26661.1
377.801	24862.9
378.249	28554.88
378.696	36419.38
379.143	44049.1
379.591	46924.11
380.038	79401.06
380.485	57352.11
380.932	61718.49
381.379	56348.67
381.826	41437.55
382.273	29420.98
382.72	25667.46
383.166	25004.2
383.613	16213.32
384.06	14614.5
384.506	16891.5
384.953	12388.33
385.4	12465.45
385.846	10925.07
386.292	10654.43
386.739	10429.9
387.185	10318.79
387.631	10324.59
388.078	10014.53
388.524	10715.69
388.97	9886.41
389.416	8244.38
389.862	8761.59
390.308	8289.96
390.754	8410.67
391.2	9113.72
391.645	9330.7
392.091	8916.71
392.537	8598.26
392.983	8599.16
393.428	8442.66
393.874	9053.66
394.319	9067.18
394.765	8597.06
395.21	8844.6
395.655	8292.95
396.101	7772.02
396.546	7005.47
396.991	7067.64
397.436	6571.26
397.881	6362.79
398.326	6041.71
398.771	5714.08
399.216	5003.57
399.661	4511.88
400.106	4497.01
400.551	4610
400.995	4140.11
401.44	4104.2
401.885	3863.13
402.329	3915.5
402.774	3753.04
403.218	3636.28
403.663	3511.71
404.107	3613.12
404.551	3639.16
404.995	3346.76
405.44	3233.24
405.884	3288.55
406.328	3193.93
406.772	3186.43
407.216	2902.59
407.66	2809.89
408.104	2668.84
408.547	2500.89
408.991	2423.59
409.435	2335.45
409.879	2302.71
410.322	2270.15
410.766	2191.97
411.209	2078.3
411.653	1997.43
412.096	1958.22
412.54	1962.72
412.983	1951.45
413.426	1957.13
413.869	1956.37
414.312	1921.97
414.756	1853.48
415.199	1769.74
415.642	1718.74
416.085	1723.93
416.527	1713.9
416.97	1741.96
417.413	1651.95
417.856	1638.71
418.298	1623.29
418.741	1615.63
419.184	1615.67
419.626	1686.91
420.069	1691.97
420.511	1702.07
420.953	1667.98
421.396	1653.27
421.838	1613.19
422.28	1653.16
422.722	1662.61
423.164	1686.66
423.606	1657.95
424.048	1652.01
424.49	1568.74
424.932	1560
425.374	1540.48
425.816	1566.31
426.258	1596.37
426.699	1616.02
427.141	1590.72
427.582	1614.71
428.024	1606.47
428.465	1597.98
428.907	1560.4
429.348	1540.3
429.789	1539.16
430.231	1503.53
430.672	1522.76
431.113	1482.87
431.554	1457.08
431.995	1418.85
432.436	1364.97
432.877	1331.83
433.318	1305.43
433.759	1297.78
434.2	1295.18
434.64	1280.1
435.081	1281.12
435.522	1210.65
435.962	1166.48
436.403	1138.79
436.843	1152.16
437.284	1126.64
437.724	1096.03
438.164	1098.53
438.604	1073.09
439.045	1033.08
439.485	986.32
439.925	965.08
440.365	941.56
440.805	928.33
441.245	916.39
441.685	882.05
442.125	874.86
442.564	878.3
443.004	857.35
443.444	854.17
443.883	851.01
444.323	845.27
444.762	844.94
445.202	854.04
445.641	866.46
446.081	860.08
446.52	867.15
446.959	855.51
447.398	834.1
447.837	822.7
448.276	805.72
448.716	813.33
449.154	819.81
449.593	801.68
450.032	798.1
450.471	783.54
450.91	783.91
451.349	780.53
451.787	777.04
452.226	788.47
452.664	788.33
453.103	790.33
453.541	790.45
453.98	788.41
454.418	793.69
454.856	780.95
455.295	779.89
455.733	785.3
456.171	789.4
456.609	791.99
457.047	791.18
457.485	801.8
457.923	802.86
458.361	791.75
458.798	794.77
459.236	791.74
459.674	797.8
460.111	801.7
460.549	794.64
460.987	791.42
461.424	787.77
461.862	784.37
462.299	772.8
462.736	771.74
463.173	773.61
463.611	764.58
464.048	762.62
464.485	768.68
464.922	761.67
465.359	755.86
465.796	746.44
466.233	740.08
466.67	732.73
467.106	730.86
467.543	723.51
467.98	714.39
468.416	695.41
468.853	689.81
469.29	669.05
469.726	661.12
470.162	644.28
470.599	634.73
471.035	629.22
471.471	614.81
471.907	610.64
472.344	607.18
472.78	608.07
473.216	616.18
473.652	609.4
474.088	607.35
474.523	604.77
474.959	611.05
475.395	605.91
475.831	601.95
476.266	604.4
476.702	602.74
477.138	595.59
477.573	594.15
478.008	591
478.444	593.87
478.879	599.88
479.314	602.79
479.75	602.33
480.185	606.26
480.62	611.17
481.055	614.59
481.49	618.86
481.925	628.27
482.36	639.61
482.795	657.96
483.229	675.72
483.664	690.69
484.099	693.67
484.534	704.46
484.968	710.67
485.403	713.76
485.837	713.57
486.271	713.26
486.706	714.28
487.14	705.66
487.574	695.07
488.009	688
488.443	680.93
488.877	688.17
489.311	690.41
489.745	698.07
490.179	704.61
490.613	717.11
491.046	722.18
491.48	726.4
491.914	726.74
492.348	731.64
492.781	736.61
493.215	737.79
493.648	738.08
494.082	742.81
494.515	742.48
494.948	749.78
495.382	753.85
495.815	757.86
496.248	763.97
496.681	777.65
497.114	788.93
497.547	798.24
497.98	812.08
498.413	818.98
498.846	828.47
499.279	837.11
499.711	840.96
500.144	843.38
500.577	854.07
501.009	864.36
501.442	874.28
501.874	874.46
502.306	875.98
502.739	883.11
503.171	896.92
503.603	899.43
504.036	908.24
504.468	913.21
504.9	923.75
505.332	930.01
505.764	933.59
506.196	939.15
506.627	953.08
507.059	964.93
507.491	971.75
507.923	968.4
508.354	981.56
508.786	991.11
509.217	1006.32
509.649	1019.05
510.08	1035.39
510.512	1049.6
510.943	1061.95
511.374	1070.76
511.805	1089.77
512.237	1106.81
512.668	1135.88
513.099	1161.65
513.53	1186.99
513.961	1205.61
514.391	1234.44
514.822	1264.91
515.253	1297.6
515.684	1320.43
516.114	1346.87
516.545	1363.93
516.975	1386.22
517.406	1400.67
517.836	1398.05
518.267	1399.88
518.697	1414.22
519.127	1415.38
519.558	1418.8
519.988	1417.99
520.418	1423.5
520.848	1435.48
521.278	1440.11
521.708	1457.68
522.138	1467.32
522.567	1494.46
522.997	1515.24
523.427	1526.59
523.857	1538.92
524.286	1545.7
524.716	1558.35
525.145	1573.48
525.575	1583.49
526.004	1594.76
526.433	1581.6
526.863	1579.01
527.292	1568.43
527.721	1572.69
528.15	1576.83
528.579	1576.54
529.008	1585.23
529.437	1604.36
529.866	1615.69
530.295	1628.85
530.724	1639.49
531.152	1663.52
531.581	1675.6
532.01	1690.04
532.438	1696.12
532.867	1708.72
533.295	1725.59
533.723	1730.4
534.152	1727.85
534.58	1727.61
535.008	1712.96
535.436	1714.19
535.865	1720.77
536.293	1733.94
536.721	1748.68
537.149	1772.59
537.576	1774.51
538.004	1784.94
538.432	1791.82
538.86	1791.07
539.287	1797.55
539.715	1809.69
540.143	1811.68
540.57	1807.02
540.998	1803.13
541.425	1781.13
541.852	1760.81
542.28	1758.35
542.707	1742.71
543.134	1729.84
543.561	1725.12
543.988	1717.99
544.415	1717.77
544.842	1711.9
545.269	1705.82
545.696	1706.52
546.123	1719.35
546.549	1708.4
546.976	1696.39
547.403	1696.23
547.829	1697.22
548.256	1697.43
548.682	1692.84
549.108	1684.74
549.535	1684.94
549.961	1686.87
550.387	1675.21
550.813	1668.12
551.24	1674.44
551.666	1675.31
552.092	1665.98
552.518	1659.86
552.943	1655.22
553.369	1662.63
553.795	1668.07
554.221	1668.56
554.646	1665.2
555.072	1674.88
555.498	1680.48
555.923	1689.22
556.349	1703.8
556.774	1712.12
557.199	1713.42
557.625	1720.87
558.05	1715.8
558.475	1726.28
558.9	1725.42
559.325	1718.87
559.75	1713.43
560.175	1708.29
560.6	1703.26
561.025	1701.88
561.449	1703.64
561.874	1710.53
562.299	1714.19
562.723	1721.29
563.148	1713.54
563.572	1718.65
563.997	1729.55
564.421	1737.38
564.846	1738.79
565.27	1743.79
565.694	1742.65
566.118	1755.81
566.542	1765.38
566.966	1761.42
567.39	1759.09
567.814	1749.85
568.238	1751.88
568.662	1757.84
569.086	1761.06
569.509	1769.8
569.933	1756.77
570.357	1751.87
570.78	1733.52
571.204	1721.56
571.627	1712.52
572.05	1713.1
572.474	1714.96
572.897	1703.84
573.32	1699.17
573.743	1692.26
574.166	1677.15
574.589	1678.61
575.012	1673.74
575.435	1673.99
575.858	1666.36
576.281	1657.02
576.704	1643.08
577.126	1632.38
577.549	1623.75
577.972	1614.91
578.394	1605.34
578.817	1599.78
579.239	1583.06
579.661	1570.38
580.084	1556
580.506	1543.74
580.928	1541.15
581.35	1531.24
581.772	1528.16
582.194	1515.27
582.616	1503.73
583.038	1491.27
583.46	1481.14
583.882	1479.13
584.303	1485.39
584.725	1482.1
585.147	1486.52
585.568	1497.92
585.99	1512.04
586.411	1519.49
586.833	1536.03
587.254	1538.16
587.675	1553.27
588.096	1566.05
588.518	1561.34
588.939	1544.49
589.36	1542.66
589.781	1532.72
590.202	1504.64
590.623	1495.64
591.043	1494.23
591.464	1482.22
591.885	1479.57
592.305	1474.28
592.726	1461.37
593.147	1462.94
593.567	1456.87
593.987	1450.35
594.408	1445.36
594.828	1444.23
595.248	1438.31
595.669	1419.33
596.089	1413.58
596.509	1406.58
596.929	1391.94
597.349	1393.65
597.769	1384.45
598.189	1379.66
598.608	1381.01
599.028	1382.64
599.448	1383.24
599.867	1371.32
600.287	1367.57
600.706	1362.7
601.126	1354.77
601.545	1355.16
601.965	1353.8
602.384	1349
602.803	1352.81
603.222	1349.09
603.641	1343.65
604.061	1340.71
604.48	1337.56
604.898	1346.6
605.317	1352.47
605.736	1354.14
606.155	1352.29
606.574	1343.67
606.992	1350.14
607.411	1345.72
607.829	1337.75
608.248	1334.69
608.666	1333.51
609.085	1334.18
609.503	1326.93
609.921	1321.8
610.339	1324.62
610.758	1323.39
611.176	1320.14
611.594	1311.14
612.012	1308.29
612.43	1313.42
612.847	1320.86
613.265	1322.47
613.683	1327.78
614.101	1329.38
614.518	1325.45
614.936	1316.93
615.353	1304.48
615.771	1302.26
616.188	1303.55
616.606	1301.15
617.023	1294.28
617.44	1281.5
617.857	1274.44
618.274	1265.62
618.691	1260.25
619.108	1252.32
619.525	1247.31
619.942	1254.2
620.359	1257.78
620.776	1252.24
621.192	1248.14
621.609	1246.83
622.026	1253.1
622.442	1260.21
622.859	1263.78
623.275	1256.15
623.691	1261.87
624.108	1272.8
624.524	1287.45
624.94	1287.33
625.356	1298.67
625.772	1311.65
626.188	1322.84
626.604	1324.69
627.02	1319.3
627.436	1317.02
627.852	1325.85
628.268	1338.44
628.683	1330.03
629.099	1320.87
629.514	1315.44
629.93	1320.44
630.345	1326.03
630.761	1322.83
631.176	1327.05
631.591	1323.06
632.007	1317.46
632.422	1315.25
632.837	1303.37
633.252	1300.8
633.667	1291.26
634.082	1282.66
634.497	1269.21
634.911	1250.09
635.326	1246.78
635.741	1230.64
636.155	1221.25
636.57	1224.11
636.984	1224.51
637.399	1227.82
637.813	1228.89
638.228	1229.84
638.642	1236.47
639.056	1226.83
639.47	1228.96
639.884	1222.02
640.298	1216.83
640.712	1218.03
641.126	1206.62
641.54	1198.69
641.954	1193.87
642.368	1182.55
642.781	1176.01
643.195	1158.82
643.609	1161.28
644.022	1156.36
644.436	1153.81
644.849	1143.16
645.262	1131.31
645.676	1134.16
646.089	1130.06
646.502	1116.27
646.915	1111.27
647.328	1093.66
647.741	1092.59
648.154	1079.51
648.567	1077.03
648.98	1062.93
649.393	1063.59
649.805	1059.93
650.218	1052.77
650.631	1036.75
651.043	1031.25
651.456	1025.24
651.868	1026.69
652.28	1044.79
652.693	1058.97
653.105	1065.08
653.517	1076.52
653.929	1076.86
654.341	1083.69
654.753	1071.55
655.165	1078.89
655.577	1076.01
655.989	1072.65
656.401	1065.44
656.813	1028.5
657.224	1009.2
657.636	981.48
658.047	963.59
658.459	944.45
658.87	935.34
659.282	923.37
659.693	902.69
660.104	889.07
660.515	875.56
660.926	874.57
661.338	872
661.749	865.11
662.159	854.67
662.57	850.18
662.981	844.8
663.392	836.61
663.803	841.08
664.213	838.3
664.624	832.95
665.035	836.98
665.445	821.32
665.855	813.77
666.266	805.81
666.676	802.81
667.086	793.9
667.497	793.73
667.907	788.08
668.317	778.83
668.727	776.54
669.137	777.24
669.547	773.35
669.956	777.02
670.366	778.41
670.776	780.21
671.186	785.78
671.595	788.37
672.005	791.1
672.414	789.84
672.824	787.51
673.233	789.9
673.642	791.96
674.052	795.22
674.461	797.02
674.87	801.18
675.279	798.03
675.688	798.2
676.097	799.27
676.506	795.08
676.915	809.29
677.323	811.28
677.732	809.05
678.141	807.81
678.549	795.38
678.958	793.47
679.366	791.91
679.775	794.99
680.183	804.67
680.592	809.47
681	816.45
681.408	808.5
681.816	816.46
682.224	825.29
682.632	834.63
683.04	864.5
683.448	888.64
683.856	919.6
684.264	955.85
684.671	987.32
685.079	1024.98
685.487	1065.99
685.894	1126.19
686.302	1174.54
686.709	1214.37
687.116	1261.21
687.524	1297.55
687.931	1327.65
688.338	1353.38
688.745	1372.38
689.152	1396.53
689.559	1433.27
689.966	1468.04
690.373	1480.3
690.78	1510.27
691.187	1561.34
691.593	1596.66
692	1626.64
692.407	1676.46
692.813	1738.49
693.22	1785.36
693.626	1834.49
694.032	1870.51
694.439	1931.57
694.845	1976.7
695.251	2037.07
695.657	2090.86
696.063	2174.11
