Data from C_2_HIR_IL_4N_Splice17_12-11-48-108.txt Node
Date: Sat Mar 14 12:11:48 EDT 2020
User: sa697716
Spectrometer: FLMS03696
Trigger mode: 0
Integration Time (sec): 3.180400E-1
Scans to average: 20
Electric dark correction enabled: true
Nonlinearity correction enabled: true
Boxcar width: 5
XAxis mode: Wavelengths
Number of Pixels in Spectrum: 2048
>>>>>Begin Spectral Data<<<<<
187.83	-256414.02
188.298	1992.99
188.766	1047.25
189.233	943.65
189.701	1325.49
190.169	1876.92
190.636	726.43
191.104	665.64
191.571	163.81
192.039	24.22
192.506	41.39
192.974	483.03
193.441	-616.61
193.908	-123.84
194.375	19.81
194.842	41.14
195.31	144.6
195.777	147.14
196.244	366.73
196.711	422.16
197.177	542.59
197.644	750.5
198.111	1271.25
198.578	1778.3
199.045	1415.03
199.511	2298.36
199.978	2712.15
200.445	2311.79
200.911	2598.27
201.378	2901.02
201.844	2649.8
202.31	4508.15
202.777	4722.75
203.243	2639.89
203.709	2513.03
204.176	2998.1
204.642	2471.87
205.108	2292.98
205.574	1871.72
206.04	1685.59
206.506	1583.08
206.972	1496.9
207.438	1445.98
207.903	1641.56
208.369	1438.08
208.835	1445.12
209.301	1500.19
209.766	1528.37
210.232	1526.2
210.697	1879.68
211.163	2299.55
211.628	3431.88
212.094	2881.18
212.559	3548.6
213.024	2227.36
213.49	2721.01
213.955	2651.76
214.42	2604.08
214.885	2431.45
215.35	2330.4
215.815	2244.36
216.28	2404.3
216.745	1948.87
217.21	2109.06
217.675	1929.77
218.14	2155.75
218.604	2390.93
219.069	2722.34
219.534	2861.66
219.998	3311
220.463	4002.75
220.927	4909.74
221.392	4604.99
221.856	4679.56
222.32	5880.8
222.785	7237.46
223.249	9108.52
223.713	10148.19
224.177	10127.98
224.642	12947
225.106	15913.57
225.57	17398.64
226.034	12971.54
226.497	19747.16
226.961	17833.76
227.425	20778
227.889	23073.52
228.353	23034.47
228.816	47558.16
229.28	45590
229.744	38493.99
230.207	23443.7
230.671	23035
231.134	38061.42
231.597	43904.17
232.061	43828.87
232.524	42680.01
232.987	29387.73
233.45	26461.85
233.914	23729.55
234.377	24262.56
234.84	22230.77
235.303	26205.86
235.766	29199.14
236.229	30244.45
236.691	19047.68
237.154	21425.84
237.617	16116.08
238.08	16506.42
238.542	19307.49
239.005	13797.63
239.468	13702.21
239.93	12915.58
240.393	11748.1
240.855	10338.28
241.317	10564.4
241.78	12858.97
242.242	13286.94
242.704	14375.99
243.166	12517.3
243.629	11382.03
244.091	13118.07
244.553	14390.45
245.015	15431.32
245.477	19935.86
245.939	29209.69
246.4	30975.71
246.862	30093.85
247.324	28387.63
247.786	31736.2
248.247	41623.05
248.709	42944.06
249.17	32155.49
249.632	30288.25
250.093	35213.02
250.555	30389.31
251.016	18532
251.477	17594.02
251.939	18947.28
252.4	19842.94
252.861	23580.91
253.322	21905.46
253.783	26048.33
254.244	33747.96
254.705	26562.22
255.166	23564.43
255.627	23227.43
256.088	32758.2
256.549	34777.68
257.009	29998.27
257.47	36451.56
257.931	29680.59
258.391	22237.12
258.852	22896.45
259.312	24012.74
259.773	29631.58
260.233	25036.29
260.694	21089.54
261.154	23886.81
261.614	19157.76
262.074	17119.7
262.534	17766.97
262.994	16724.67
263.455	22250.16
263.915	18756.42
264.374	17650.11
264.834	19299.15
265.294	21366.58
265.754	22119.4
266.214	20917.96
266.673	19576.23
267.133	24666.13
267.593	24428.17
268.052	29880.94
268.512	25971.99
268.971	31293.3
269.431	34274.9
269.89	30599.91
270.349	45833.23
270.809	51068.56
271.268	45895.99
271.727	102809.22
272.186	66562.9
272.645	49871.91
273.104	35907.3
273.563	51957.6
274.022	40788.37
274.481	34669.64
274.94	26716.3
275.399	19840.12
275.857	23066.86
276.316	31121.19
276.775	27670.17
277.233	27223.46
277.692	25498.09
278.15	28832.38
278.609	29660.19
279.067	27424.4
279.525	25442.23
279.984	32812.29
280.442	39392.63
280.9	38816.53
281.358	25547.34
281.816	23781.66
282.274	23273.94
282.732	24012.44
283.19	24112.25
283.648	20819.33
284.106	22153.31
284.564	22513.35
285.021	20881.29
285.479	15550.01
285.937	14144.91
286.394	12410.01
286.852	12788.8
287.309	13430.2
287.767	12986.41
288.224	12357.5
288.682	13527.28
289.139	14876.28
289.596	13615.45
290.053	14146.28
290.511	17854.88
290.968	21631.98
291.425	29343.88
291.882	24381.91
292.339	21197.42
292.796	21008.56
293.252	19769.86
293.709	15709.78
294.166	14041.36
294.623	15507.72
295.079	14843.08
295.536	14897.44
295.992	13494.62
296.449	13319.22
296.905	13843.83
297.362	13272.99
297.818	13947.91
298.274	14482.25
298.731	14740.14
299.187	14608.3
299.643	15675.26
300.099	18960.88
300.555	20768.45
301.011	17368.63
301.467	16761.8
301.923	19599.39
302.379	19153.96
302.835	18775.31
303.291	18757.4
303.746	21330.58
304.202	26905.85
304.658	27019.25
305.113	18180.93
305.569	17843.46
306.024	19008.18
306.479	18072.98
306.935	15230.54
307.39	16647.57
307.845	15432.64
308.301	15538.34
308.756	15133.79
309.211	14587.72
309.666	14936.78
310.121	18543.55
310.576	18797.31
311.031	18657.91
311.486	21370.92
311.94	21336.41
312.395	28502.77
312.85	53354.33
313.305	262325.72
313.759	1360872.09
314.214	98618.01
314.668	78252.58
315.123	65906.15
315.577	23634.52
316.032	21050.53
316.486	26404.6
316.94	20844.13
317.394	14509.08
317.849	11281.82
318.303	10675.91
318.757	10059.44
319.211	11120.54
319.665	9724.72
320.119	9835.21
320.572	14098.06
321.026	13167.34
321.48	10950.84
321.934	11939.81
322.387	11957.75
322.841	12923.82
323.295	11615.18
323.748	13384.67
324.202	13598.78
324.655	16310.93
325.108	22786.19
325.562	16107.31
326.015	19114.65
326.468	14459.75
326.921	16209.19
327.374	15100.22
327.827	15736.24
328.28	17826.31
328.733	11935.46
329.186	10472.49
329.639	10013.07
330.092	8448.67
330.545	8047.67
330.997	8132.37
331.45	8901.58
331.903	10420.03
332.355	17930.5
332.808	17430
333.26	14378.36
333.713	15630.23
334.165	15740.36
334.617	20976.18
335.069	16937.95
335.522	30677.54
335.974	34034.58
336.426	31082.98
336.878	21545.63
337.33	10945.52
337.782	10701.73
338.234	13389.35
338.686	16006.24
339.137	18981.44
339.589	17876.76
340.041	14047.05
340.493	12055.73
340.944	12310.57
341.396	13253.12
341.847	11136.57
342.299	13144.02
342.75	16065.53
343.201	14038.03
343.653	16172.48
344.104	19837.88
344.555	15619.22
345.006	24219.81
345.457	18520.56
345.908	14721.65
346.359	13834.27
346.81	11253.71
347.261	11859
347.712	11644.55
348.163	12483.14
348.613	12617.6
349.064	11795.95
349.515	10311.05
349.965	10573.91
350.416	12715.9
350.866	13926.4
351.317	15737.33
351.767	26046.95
352.217	32830.31
352.668	27218.63
353.118	24967.73
353.568	24035.47
354.018	19017.32
354.468	20035.83
354.918	14335.81
355.368	12573.46
355.818	17796.73
356.268	51160.51
356.718	214327.94
357.168	53442.18
357.617	26786.73
358.067	29736.07
358.517	27874.56
358.966	32643
359.416	36697.99
359.865	39781.94
360.315	47359
360.764	22078.04
361.213	12394.9
361.663	11714.56
362.112	14434.19
362.561	23326.5
363.01	17578.87
363.459	14797.24
363.908	16002.37
364.357	13612.7
364.806	22895.38
365.255	15696.49
365.703	14351.09
366.152	14334.48
366.601	11646.25
367.05	9457.69
367.498	8584.49
367.947	8982.79
368.395	9331.45
368.844	8263.03
369.292	9904.17
369.74	6856.79
370.189	10486.98
370.637	12298.35
371.085	10599.18
371.533	12908.45
371.981	12406.48
372.429	11834.71
372.877	12277.42
373.325	10250.33
373.773	10406.43
374.221	9256.9
374.669	11461.3
375.116	9920.77
375.564	9993.18
376.012	11165.37
376.459	9156.54
376.907	10936.64
377.354	13181.98
377.801	12323.04
378.249	14178.76
378.696	18098.33
379.143	21951.47
379.591	23372.22
380.038	39517.99
380.485	28513.92
380.932	30702.28
381.379	28137.22
381.826	20749.72
382.273	14750.24
382.72	12849.36
383.166	12525.03
383.613	8117.27
384.06	7278.78
384.506	8416
384.953	6153.41
385.4	6184.79
385.846	5420.34
386.292	5270.55
386.739	5129.62
387.185	5056.79
387.631	5049.83
388.078	4893.46
388.524	5239.22
388.97	4831.79
389.416	4028
389.862	4278.41
390.308	4051.64
390.754	4102.32
391.2	4440.74
391.645	4537.05
392.091	4360.88
392.537	4208.98
392.983	4203.13
393.428	4137.56
393.874	4445.74
394.319	4466.94
394.765	4244.62
395.21	4349.73
395.655	4086.57
396.101	3828.64
396.546	3457.61
396.991	3468
397.436	3219.97
397.881	3110.93
398.326	2937.97
398.771	2773.47
399.216	2419.13
399.661	2180.6
400.106	2182.42
400.551	2234.7
400.995	2005.11
401.44	1983.3
401.885	1866.46
402.329	1889.75
402.774	1812.16
403.218	1763.23
403.663	1697.86
404.107	1746.7
404.551	1760
404.995	1606.14
405.44	1545.57
405.884	1567.72
406.328	1517.25
406.772	1510.55
407.216	1375.59
407.66	1326.25
408.104	1253.23
408.547	1175.47
408.991	1137.55
409.435	1092.04
409.879	1080.96
410.322	1066.49
410.766	1035.7
411.209	989.32
411.653	953.31
412.096	937.06
412.54	939.7
412.983	934.92
413.426	939.13
413.869	938.63
414.312	924.13
414.756	892.01
415.199	852.42
415.642	826.44
416.085	830.73
416.527	823.84
416.97	837.19
417.413	795.49
417.856	785.85
418.298	778.04
418.741	771.08
419.184	768.27
419.626	796.09
420.069	794.8
420.511	799.18
420.953	779.54
421.396	772.45
421.838	752.03
422.28	769.1
422.722	775.62
423.164	785.01
423.606	774.82
424.048	772.46
424.49	738.15
424.932	735.19
425.374	725.88
425.816	736.41
426.258	750.11
426.699	755.53
427.141	744.83
427.582	755.28
428.024	751.56
428.465	743.8
428.907	722.8
429.348	711.45
429.789	714.83
430.231	699.88
430.672	710.12
431.113	693.25
431.554	683.31
431.995	665.42
432.436	643.87
432.877	632.51
433.318	623.9
433.759	624.65
434.2	626.41
434.64	617.72
435.081	621.95
435.522	589.47
435.962	569.95
436.403	559.65
436.843	569.13
437.284	554.97
437.724	538.09
438.164	539.74
438.604	529
439.045	510.25
439.485	490.71
439.925	477.64
440.365	465.82
440.805	458.41
441.245	452.33
441.685	436.81
442.125	434.01
442.564	436.93
443.004	427.2
443.444	425.69
443.883	426.66
444.323	423.47
444.762	423.84
445.202	430.12
445.641	440.98
446.081	440.2
446.52	443.74
446.959	440.96
447.398	431.95
447.837	427.74
448.276	422.42
448.716	428.06
449.154	432.21
449.593	422.64
450.032	422.03
450.471	411.08
450.91	410.95
451.349	411.36
451.787	408.26
452.226	413.83
452.664	412.9
453.103	413.19
453.541	410.43
453.98	410.05
454.418	413.78
454.856	408.43
455.295	409.67
455.733	412.78
456.171	413.85
456.609	417.1
457.047	416.98
457.485	424.89
457.923	426.26
458.361	420.48
458.798	422.49
459.236	421.74
459.674	423.11
460.111	425.71
460.549	422.36
460.987	420.57
461.424	416.89
461.862	415.72
462.299	408.58
462.736	408.3
463.173	410.29
463.611	407.68
464.048	406.38
464.485	410.88
464.922	407.16
465.359	403.67
465.796	403.48
466.233	402.55
466.67	399.5
467.106	400.1
467.543	395.79
467.98	391.4
468.416	379.87
468.853	377.89
469.29	366.06
469.726	361.06
470.162	352.35
470.599	344.2
471.035	340.58
471.471	332.45
471.907	329.13
472.344	326.81
472.78	326.26
473.216	329.7
473.652	324.63
474.088	323.9
474.523	322.41
474.959	324.89
475.395	322.08
475.831	319.77
476.266	320.89
476.702	319.14
477.138	315.75
477.573	314.97
478.008	312.6
478.444	314.45
478.879	317.17
479.314	319.18
479.75	318.94
480.185	318.94
480.62	321.16
481.055	322.85
481.49	325.93
481.925	330.14
482.36	337.27
482.795	347.01
483.229	356.09
483.664	363.17
484.099	364.38
484.534	370.89
484.968	376.39
485.403	377.79
485.837	376.95
486.271	377.59
486.706	377.76
487.14	373.44
487.574	368.71
488.009	365.75
488.443	363.48
488.877	368.65
489.311	370.44
489.745	376.04
490.179	381.55
490.613	391.22
491.046	394.94
491.48	399.62
491.914	400.9
492.348	405.77
492.781	410.27
493.215	413.89
493.648	416.23
494.082	421.64
494.515	424.08
494.948	431.28
495.382	436.41
495.815	442.37
496.248	449.55
496.681	461.64
497.114	471.45
497.547	481.58
497.98	494.93
498.413	503.93
498.846	515.26
499.279	525.79
499.711	532.73
500.144	539
500.577	551.45
501.009	563.86
501.442	576.11
501.874	583.51
502.306	590.76
502.739	601.98
503.171	618.42
503.603	626.3
504.036	638.18
504.468	648.59
504.9	663.79
505.332	675.36
505.764	685.15
506.196	697.14
506.627	714.84
507.059	732.75
507.491	745.44
507.923	750.59
508.354	769.87
508.786	786.11
509.217	807.65
509.649	826.6
510.08	849.43
510.512	871.03
510.943	890.75
511.374	907.37
511.805	930.49
512.237	954.12
512.668	987.7
513.099	1017.83
513.53	1047.81
513.961	1072.83
514.391	1107.22
514.822	1142.89
515.253	1181.53
515.684	1210.62
516.114	1243.8
516.545	1269.59
516.975	1299.36
517.406	1322.31
517.836	1329.56
518.267	1341.66
518.697	1363.32
519.127	1372.62
519.558	1384.09
519.988	1391.21
520.418	1405.08
520.848	1425.6
521.278	1436.78
521.708	1456.72
522.138	1472.52
522.567	1505.43
522.997	1532.72
523.427	1551.31
523.857	1570.29
524.286	1582.34
524.716	1600.3
525.145	1620.27
525.575	1632.79
526.004	1649.72
526.433	1646.24
526.863	1648.18
527.292	1641.09
527.721	1647.82
528.15	1654.51
528.579	1656.13
529.008	1667.86
529.437	1690.36
529.866	1704.3
530.295	1722.24
530.724	1735.42
531.152	1762.82
531.581	1777.87
532.01	1795.81
532.438	1804.19
532.867	1820.05
533.295	1839.27
533.723	1847.56
534.152	1846.65
534.58	1847.72
535.008	1832.97
535.436	1836.06
535.865	1844.74
536.293	1859.42
536.721	1875.67
537.149	1902.69
537.576	1905.46
538.004	1918.82
538.432	1926.84
538.86	1925.95
539.287	1934.09
539.715	1947.43
540.143	1950.52
540.57	1947.73
540.998	1944.73
541.425	1921.92
541.852	1900.37
542.28	1898.29
542.707	1881.31
543.134	1866.6
543.561	1863.17
543.988	1855.3
544.415	1855.29
544.842	1849.42
545.269	1840.89
545.696	1843.06
546.123	1856.26
546.549	1846.19
546.976	1833.28
547.403	1832.94
547.829	1834.66
548.256	1835.38
548.682	1832.02
549.108	1824.19
549.535	1823.13
549.961	1824.31
550.387	1810.79
550.813	1804.15
551.24	1809.56
551.666	1810.17
552.092	1800.57
552.518	1794.16
552.943	1787.34
553.369	1793.1
553.795	1797.96
554.221	1799.33
554.646	1796.69
555.072	1806.27
555.498	1810.88
555.923	1819.94
556.349	1834.92
556.774	1843.94
557.199	1845.26
557.625	1851.78
558.05	1846.53
558.475	1856.55
558.9	1854.86
559.325	1846.48
559.75	1841
560.175	1834.38
560.6	1827.36
561.025	1824.28
561.449	1823.87
561.874	1828.5
562.299	1831.62
562.723	1838.9
563.148	1828.42
563.572	1831.55
563.997	1840.82
564.421	1844.83
564.846	1844.06
565.27	1847.46
565.694	1845.13
566.118	1857.2
566.542	1863.21
566.966	1857.01
567.39	1851.19
567.814	1840.74
568.238	1839.91
568.662	1844.31
569.086	1845.7
569.509	1852.88
569.933	1836.51
570.357	1828.27
570.78	1805.06
571.204	1791.78
571.627	1779.71
572.05	1777.11
572.474	1774.68
572.897	1761.27
573.32	1752.36
573.743	1741.4
574.166	1722.04
574.589	1721.71
575.012	1713.02
575.435	1712.34
575.858	1702.27
576.281	1689.8
576.704	1673.24
577.126	1660.92
577.549	1648.23
577.972	1638.19
578.394	1627.25
578.817	1618.35
579.239	1597.82
579.661	1583.83
580.084	1565.31
580.506	1549.61
580.928	1544.86
581.35	1533.19
581.772	1527.31
582.194	1513.12
582.616	1499.03
583.038	1483.83
583.46	1472.74
583.882	1467.89
584.303	1470.14
584.725	1465.42
585.147	1466.67
585.568	1476.1
585.99	1486.19
586.411	1491.32
586.833	1505.17
587.254	1506.05
587.675	1518.01
588.096	1529.69
588.518	1525.07
588.939	1508.23
589.36	1504.71
589.781	1494.94
590.202	1465.66
590.623	1455.88
591.043	1452.73
591.464	1439.27
591.885	1434.74
592.305	1429.26
592.726	1416.12
593.147	1416.62
593.567	1411.08
593.987	1403.8
594.408	1398.54
594.828	1397.25
595.248	1391.28
595.669	1373.89
596.089	1367.12
596.509	1359.94
596.929	1346.37
597.349	1346.91
597.769	1335.77
598.189	1329.27
598.608	1329.93
599.028	1331.6
599.448	1330.44
599.867	1318.15
600.287	1312.88
600.706	1308.14
601.126	1298.55
601.545	1296.85
601.965	1294.07
602.384	1288.9
602.803	1290.81
603.222	1286.1
603.641	1277.98
604.061	1274.39
604.48	1269.52
604.898	1276.55
605.317	1280.59
605.736	1281.78
606.155	1278.33
606.574	1268.3
606.992	1272.65
607.411	1267.57
607.829	1258.82
608.248	1254.77
608.666	1251.07
609.085	1250.25
609.503	1240.46
609.921	1233.05
610.339	1233.13
610.758	1231.15
611.176	1226.49
611.594	1216.34
612.012	1211.02
612.43	1212.48
612.847	1217.46
613.265	1216.76
613.683	1218.76
614.101	1219.16
614.518	1213.34
614.936	1203.18
615.353	1188.24
615.771	1183.68
616.188	1183.01
616.606	1179.21
617.023	1170.99
617.44	1155.92
617.857	1147.94
618.274	1137.7
618.691	1129.84
619.108	1120.86
619.525	1113.8
619.942	1118.18
620.359	1119.35
620.776	1113.31
621.192	1108.76
621.609	1106.76
622.026	1112.84
622.442	1118.27
622.859	1121.11
623.275	1114.61
623.691	1118.44
624.108	1128.3
624.524	1140.64
624.94	1140.72
625.356	1149.09
625.772	1159.88
626.188	1169.52
626.604	1170.1
627.02	1166.49
627.436	1165.35
627.852	1170.76
628.268	1183.11
628.683	1174.49
629.099	1167.38
629.514	1162.98
629.93	1166.61
630.345	1169.12
630.761	1164.09
631.176	1166.15
631.591	1159.06
632.007	1152.15
632.422	1149.7
632.837	1137.36
633.252	1133.57
633.667	1122.63
634.082	1112.26
634.497	1097.85
634.911	1079.46
635.326	1074.41
635.741	1056.77
636.155	1045.22
636.57	1043
636.984	1039.58
637.399	1037.38
637.813	1033.38
638.228	1028.56
638.642	1027.55
639.056	1014.5
639.47	1011.34
639.884	999.44
640.298	989.44
640.712	984
641.126	968.26
641.54	956.28
641.954	947.17
642.368	932.4
642.781	921.06
643.195	901.29
643.609	897.32
644.022	886.85
644.436	879.07
644.849	865.44
645.262	851.49
645.676	849.93
646.089	842.28
646.502	825.66
646.915	817.93
647.328	801.8
647.741	797.22
648.154	783.24
648.567	778.01
648.98	765.07
649.393	762.02
649.805	756.42
650.218	747.3
650.631	732.6
651.043	725.83
651.456	719.04
651.868	715.86
652.28	725.3
652.693	733.24
653.105	735.36
653.517	740.58
653.929	739.87
654.341	741.42
654.753	730.12
655.165	732.37
655.577	729.61
655.989	723.9
656.401	715.46
656.813	688.3
657.224	671.3
657.636	647.65
658.047	632.41
658.459	614.67
658.87	603.91
659.282	592.45
659.693	574.99
660.104	560.6
660.515	547.52
660.926	542.18
661.338	535.72
661.749	527.66
662.159	518.35
662.57	510.09
662.981	502.99
663.392	495.4
663.803	493.52
664.213	486.88
664.624	480.39
665.035	477.55
665.445	466.06
665.855	459.33
666.266	451.74
666.676	446.88
667.086	438.86
667.497	436.83
667.907	430.85
668.317	423.3
668.727	422.13
669.137	419.34
669.547	416.91
669.956	416.79
670.366	415.88
670.776	416.17
671.186	418.14
671.595	420.06
672.005	420.59
672.414	420.18
672.824	420.13
673.233	420.9
673.642	423.18
674.052	425.52
674.461	427.89
674.87	430.77
675.279	430.54
675.688	430.62
676.097	432.36
676.506	432.53
676.915	441.95
677.323	444.1
677.732	444.56
678.141	446.38
678.549	442.35
678.958	443.48
679.366	445.94
679.775	449.6
680.183	459.65
680.592	465.93
681	471.78
681.408	470.77
681.816	478.94
682.224	488.24
682.632	499.89
683.04	523.61
683.448	543.75
683.856	569.21
684.264	599.9
684.671	627.33
685.079	662.78
685.487	702.28
685.894	755.53
686.302	803.22
686.709	845.61
687.116	894.88
687.524	938.53
687.931	981.28
688.338	1020.55
688.745	1055.04
689.152	1095.9
689.559	1144.71
689.966	1193.67
690.373	1225.41
690.78	1273.89
691.187	1340.99
691.593	1394.92
692	1445.35
692.407	1512.61
692.813	1591.04
693.22	1657.03
693.626	1723.81
694.032	1779.44
694.439	1858.13
694.845	1922.2
695.251	2001.46
695.657	2070.29
696.063	2171.46
696.469	2246.54
696.875	2316.61
697.281	2360.03
697.687	2410.64
698.093	2454.1
698.498	2531.67
698.904	2591.89
699.31	2680.97
699.715	2743.73
700.12	2836.57
700.526	2856.54
700.931	2927.8
