Data from C_2_DIV_WI_4N_Splice17_12-18-37-707.txt Node
Date: Sat Mar 14 12:18:37 EDT 2020
User: sa697716
Spectrometer: FLMS03696
Trigger mode: 0
Integration Time (sec): 3.180400E-1
Scans to average: 20
Electric dark correction enabled: true
Nonlinearity correction enabled: true
Boxcar width: 5
XAxis mode: Wavelengths
Number of Pixels in Spectrum: 2048
>>>>>Begin Spectral Data<<<<<
187.83	-289906.52
188.298	2109.1
188.766	1118.95
189.233	1039.16
189.701	1398.23
190.169	1911.16
190.636	726.69
191.104	652.47
191.571	117.68
192.039	-33.8
192.506	8.91
192.974	629.48
193.441	-835.97
193.908	-238.14
194.375	-95.71
194.842	-57.11
195.31	-40.25
195.777	113
196.244	534.24
196.711	1018.35
197.177	1393.54
197.644	2110.65
198.111	3693.86
198.578	5181.6
199.045	4113.41
199.511	6753.43
199.978	7929.99
200.445	6621.55
200.911	7316.29
201.378	8199.17
201.844	7197.44
202.31	12108.49
202.777	12382.01
203.243	6731.52
203.709	6330.58
204.176	7465.92
204.642	6093.82
205.108	5608.76
205.574	4566.58
206.04	4179.04
206.506	3877.38
206.972	3684.97
207.438	3553.86
207.903	4034.6
208.369	3480.3
208.835	3413.23
209.301	3537.87
209.766	3604.54
210.232	3516.8
210.697	4289.47
211.163	5226.04
211.628	7808.54
212.094	6393.59
212.559	7608.3
213.024	4643.12
213.49	5590.32
213.955	5390.06
214.42	5238.25
214.885	4769.68
215.35	4518.25
215.815	4213.44
216.28	4349.82
216.745	3431.05
217.21	3546.57
217.675	3113.15
218.14	3277.33
218.604	3376.7
219.069	3522.67
219.534	3354.22
219.998	3557
220.463	3907.92
220.927	4368.71
221.392	3768.32
221.856	3516.01
222.32	4067.87
222.785	4657.22
223.249	5473.07
223.713	5749.92
224.177	5475.99
224.642	6645.44
225.106	7824.91
225.57	8180.26
226.034	5876.15
226.497	8616.5
226.961	7530.35
227.425	8539.26
227.889	9151.98
228.353	8819.8
228.816	17647.9
229.28	16336.34
229.744	13393.24
230.207	8000.22
230.671	7664.32
231.134	12209.69
231.597	13798.38
232.061	13490.13
232.524	12742.09
232.987	8607.77
233.45	7665.68
233.914	6756.73
234.377	6744.93
234.84	6098.37
235.303	7000.53
235.766	7723.4
236.229	7903.63
236.691	4875.78
237.154	5393.46
237.617	4070.06
238.08	4124.72
238.542	4771.1
239.005	3414.9
239.468	3405.46
239.93	3199.4
240.393	2922.99
240.855	2555.43
241.317	2592.44
241.78	3139.94
242.242	3228.74
242.704	3504.34
243.166	3041.76
243.629	2788.95
244.091	3179.62
244.553	3450.77
245.015	3686.23
245.477	4701.56
245.939	6847.54
246.4	7255.22
246.862	6999.41
247.324	6578.54
247.786	7201.99
248.247	9352.96
248.709	9455.19
249.17	7040.86
249.632	6678.85
250.093	7753.47
250.555	6678.03
251.016	4101.85
251.477	3882.97
251.939	4189.53
252.4	4371.78
252.861	5192.99
253.322	4880.64
253.783	5758.67
254.244	7464.14
254.705	5822.8
255.166	5153.28
255.627	5043.37
256.088	7114.51
256.549	7516.3
257.009	6451.37
257.47	7764.13
257.931	6288.93
258.391	4663.5
258.852	4807.4
259.312	5003.61
259.773	6124.92
260.233	5166.01
260.694	4370.91
261.154	4863.48
261.614	3919.24
262.074	3459.49
262.534	3587.55
262.994	3370.47
263.455	4395.55
263.915	3675.57
264.374	3405.47
264.834	3661.19
265.294	3973.21
265.754	4059.62
266.214	3793.42
266.673	3493.82
267.133	4346.28
267.593	4262.3
268.052	5144.77
268.512	4441.74
268.971	5357.08
269.431	5836.97
269.89	5207.88
270.349	7775.41
270.809	8655.74
271.268	7785.26
271.727	17400.1
272.186	11282.82
272.645	8419.77
273.104	6005.83
273.563	8735.09
274.022	6792.03
274.481	5866.2
274.94	4554.97
275.399	3383.07
275.857	3916.1
276.316	5282.02
276.775	4703.58
277.233	4687.8
277.692	4462.18
278.15	5144.67
278.609	5416.5
279.067	5070.11
279.525	4770.89
279.984	6180.17
280.442	7569.46
280.9	7683.08
281.358	5155.25
281.816	4880.71
282.274	4826.47
282.732	5010.54
283.19	5085.37
283.648	4415.83
284.106	4753.87
284.564	4868.13
285.021	4616.06
285.479	3475.17
285.937	3156.42
286.394	2812.9
286.852	2925.13
287.309	3107.9
287.767	3080.2
288.224	2977.91
288.682	3278.65
289.139	3639.24
289.596	3333.88
290.053	3453.5
290.511	4324.69
290.968	5243.97
291.425	7003.85
291.882	5844.29
292.339	5091.03
292.796	4977.78
293.252	4609.44
293.709	3662.36
294.166	3255.43
294.623	3582.06
295.079	3399.29
295.536	3425.55
295.992	3109.43
296.449	3084.99
296.905	3207.71
297.362	3070.24
297.818	3194.72
298.274	3355.11
298.731	3404.05
299.187	3370.82
299.643	3618.75
300.099	4423.25
300.555	4874.83
301.011	4077.89
301.467	4018.66
301.923	4678.36
302.379	4600.82
302.835	4577.05
303.291	4594.45
303.746	5246.94
304.202	6659.68
304.658	6739.88
305.113	4558.51
305.569	4494.27
306.024	4810.4
306.479	4532.5
306.935	3884.86
307.39	4262.78
307.845	3975.86
308.301	4052.02
308.756	3995.39
309.211	3899.25
309.666	4036.05
310.121	5093.81
310.576	5217.65
311.031	5222.36
311.486	6023.86
311.94	6018.97
312.395	8128.12
312.85	15412.91
313.305	75936.49
313.759	400889.26
314.214	29386.15
314.668	23600.05
315.123	20006.07
315.577	7291.81
316.032	6602.11
316.486	8353.26
316.94	6681.91
317.394	4665.91
317.849	3625.87
318.303	3423.92
318.757	3209.06
319.211	3543.86
319.665	3073.52
320.119	3105.31
320.572	4395.8
321.026	4084.07
321.48	3385.09
321.934	3649.66
322.387	3657.6
322.841	3965.43
323.295	3625
323.748	4126.28
324.202	4200.34
324.655	5089.71
325.108	7193.24
325.562	5098.28
326.015	6065.47
326.468	4606.02
326.921	5197.93
327.374	4887.17
327.827	5138.07
328.28	5813.07
328.733	3967.72
329.186	3517.14
329.639	3380.34
330.092	2856.13
330.545	2766.47
330.997	2823.76
331.45	3150.93
331.903	3745.54
332.355	6453.4
332.808	6296.52
333.26	5257.23
333.713	5779.18
334.165	5837.26
334.617	7792.06
335.069	6258.69
335.522	11303.8
335.974	12653.65
336.426	11545.91
336.878	7993.18
337.33	4086.69
337.782	4007.97
338.234	5058.48
338.686	6030.57
339.137	7200.66
339.589	6827.09
340.041	5433.42
340.493	4685.1
340.944	4801.22
341.396	5191.61
341.847	4393.25
342.299	5222.48
342.75	6429.39
343.201	5547.85
343.653	6342.03
344.104	7720.78
344.555	6050.87
345.006	9280.12
345.457	7140.07
345.908	5613.02
346.359	5264.75
346.81	4261.72
347.261	4451.06
347.712	4318.44
348.163	4633.44
348.613	4766.95
349.064	4479.56
349.515	3932.3
349.965	4049.81
350.416	4864.96
350.866	5332.81
351.317	5998.29
351.767	10005.99
352.217	12723.25
352.668	10674.13
353.118	9798.51
353.568	9357.72
354.018	7450.63
354.468	7924.93
354.918	5755.2
355.368	5042.93
355.818	7197.26
356.268	20804.39
356.718	87761.44
357.168	21958.24
357.617	11029.23
358.067	12322.75
358.517	11699.7
358.966	13856.26
359.416	15657.77
359.865	16972.49
360.315	20339.47
360.764	9577.44
361.213	5407.14
361.663	5111.38
362.112	6332.24
362.561	10276.05
363.01	7776.09
363.459	6541.31
363.908	7070.28
364.357	6040.74
364.806	10153.39
365.255	7034.53
365.703	6501.95
366.152	6572.49
366.601	5381.98
367.05	4414.7
367.498	4057.36
367.947	4282.41
368.395	4481.66
368.844	3998.18
369.292	4793.38
369.74	3363.02
370.189	5133.35
370.637	6005.69
371.085	5192.35
371.533	6319.42
371.981	6059.81
372.429	5778.44
372.877	6027.61
373.325	5057.64
373.773	5140.25
374.221	4595.7
374.669	5706.95
375.116	4954.78
375.564	5009.4
376.012	5607.34
376.459	4640.21
376.907	5596.71
377.354	6810.49
377.801	6373.41
378.249	7375.41
378.696	9486.81
379.143	11598.91
379.591	12417.47
380.038	21262.41
380.485	15549.97
380.932	16941.75
381.379	15748.15
381.826	11709.06
382.273	8399.38
382.72	7411.11
383.166	7274.9
383.613	4772.33
384.06	4339.06
384.506	5083.61
384.953	3770.72
385.4	3834.82
385.846	3407.34
386.292	3383.34
386.739	3404.2
387.185	3463.16
387.631	3597.65
388.078	3663.87
388.524	4087.63
388.97	3931.36
389.416	3405.81
389.862	3732.11
390.308	3648.01
390.754	3858.84
391.2	4409.02
391.645	4804.74
392.091	4959.18
392.537	5151.2
392.983	5483.78
393.428	5697.46
393.874	6471.55
394.319	7027.81
394.765	7384.51
395.21	8557.83
395.655	9081.62
396.101	9581.85
396.546	9706.9
396.991	11020.51
397.436	11474.19
397.881	12474.68
398.326	13396.87
398.771	14253.38
399.216	13982.02
399.661	13990.65
400.106	15301.43
400.551	17098.78
400.995	16663.19
401.44	17789.34
401.885	17892.02
402.329	19291.77
402.774	19620.11
403.218	20009.32
403.663	20443.95
404.107	22203.71
404.551	23671.88
404.995	23080.38
405.44	23706.95
405.884	25585.59
406.328	26228.09
406.772	27525.81
407.216	26340.02
407.66	26874.45
408.104	27170.51
408.547	26882.42
408.991	27369.83
409.435	27601.52
409.879	28259.6
410.322	28896.07
410.766	28887.9
411.209	28476.21
411.653	28462.32
412.096	28935.99
412.54	30036.87
412.983	30769.63
413.426	31686.88
413.869	32609.36
414.312	32795.33
414.756	32511.4
415.199	31855.44
415.642	31667.1
416.085	32404.72
416.527	32851.25
416.97	34054.01
417.413	32791.58
417.856	32984.78
418.298	33097.51
418.741	33206.34
419.184	33462.95
419.626	35221.59
420.069	35481.43
420.511	35962.87
420.953	35513.26
421.396	35574.99
421.838	35130.44
422.28	36347.69
422.722	36909.89
423.164	38094.58
423.606	38065.63
424.048	38742.29
424.49	37295.84
424.932	37712.55
425.374	37773.45
425.816	38827.23
426.258	39557.76
426.699	39610.12
427.141	38283.35
427.582	38302.93
428.024	37719.52
428.465	37632.26
428.907	37103.64
429.348	37366.25
429.789	37911.45
430.231	37512.26
430.672	38488.93
431.113	38290.22
431.554	38879.11
431.995	39600.8
432.436	39629.88
432.877	40081.88
433.318	40263.6
433.759	40894.2
434.2	41459.35
434.64	41598.15
435.081	42292.64
435.522	40726.09
435.962	40006.03
436.403	39749.51
436.843	40995.86
437.284	40805.34
437.724	40274.17
438.164	40994.32
438.604	40467.41
439.045	39202.69
439.485	37881.99
439.925	37625.39
440.365	37200.98
440.805	37133.03
441.245	36913.91
441.685	35756.47
442.125	35715.42
442.564	36075.23
443.004	35256.46
443.444	35278.6
443.883	35458.47
444.323	35553.71
444.762	36009.57
445.202	36706.81
445.641	37391.65
446.081	37533.14
446.52	37935.79
446.959	37696.12
447.398	36942.84
447.837	36777.97
448.276	36383.85
448.716	36878.04
449.154	37300.15
449.593	36216
450.032	35945.84
450.471	35322.83
450.91	35235.84
451.349	34923
451.787	34654.16
452.226	34972
452.664	34752.37
453.103	34555.54
453.541	34310.61
453.98	33802.99
454.418	33819.72
454.856	32956.63
455.295	32674.42
455.733	32570.56
456.171	32528.66
456.609	32241.72
457.047	31913.96
457.485	32039.89
457.923	31834.35
458.361	31267.08
458.798	31342.42
459.236	31200.85
459.674	31537.1
460.111	31659.32
460.549	31424.89
460.987	31462.63
461.424	31473.32
461.862	31458.4
462.299	31093.46
462.736	31091.86
463.173	31320.64
463.611	30904.98
464.048	30906.11
464.485	31234.03
464.922	31126.92
465.359	31186.94
465.796	30411.84
466.233	30371.43
466.67	30163.63
467.106	30219.41
467.543	30206.43
467.98	30014.8
468.416	29596.84
468.853	29607.26
469.29	28895.97
469.726	28715.83
470.162	28045.55
470.599	28159.09
471.035	27996.45
471.471	27402.89
471.907	27372.44
472.344	27200.2
472.78	27138.21
473.216	27382.85
473.652	26882.81
474.088	26679.83
474.523	26317.97
474.959	26348.95
475.395	25875.81
475.831	25419.13
476.266	25295.87
476.702	24950.33
477.138	24347.36
477.573	23973.17
478.008	23527.55
478.444	23226.75
478.879	23004.49
479.314	22766.88
479.75	22394.38
480.185	22184.6
480.62	22046.62
481.055	21832.47
481.49	21605.28
481.925	21557.99
482.36	21472.88
482.795	21739.74
483.229	22031.85
483.664	22149.51
484.099	21896.38
484.534	21858.59
484.968	21730.39
485.403	21489.23
485.837	21205.97
486.271	20895.73
486.706	20644.69
487.14	20259.81
487.574	19699.96
488.009	19303.56
488.443	18946.74
488.877	18901.17
489.311	18789.4
489.745	18803.59
490.179	18778.71
490.613	18851.74
491.046	18841.18
491.48	18819.12
491.914	18660.54
492.348	18640.06
492.781	18591.06
493.215	18501.7
493.648	18444.12
494.082	18451.84
494.515	18330.7
494.948	18377.09
495.382	18420
495.815	18383.6
496.248	18370.66
496.681	18558.7
497.114	18712.94
497.547	18793.91
497.98	18910.44
498.413	18832.97
498.846	18870.94
499.279	18898.28
499.711	18833.14
500.144	18696.6
500.577	18724.84
501.009	18792.64
501.442	18782.05
501.874	18566.99
502.306	18434.05
502.739	18330.22
503.171	18490.02
503.603	18346.21
504.036	18326.94
504.468	18219.9
504.9	18230.2
505.332	18148.34
505.764	17990.05
506.196	17904.2
506.627	17954.84
507.059	17958.24
507.491	17947.25
507.923	17611.48
508.354	17622.18
508.786	17555.3
509.217	17602.89
509.649	17599.18
510.08	17669.99
510.512	17676.1
510.943	17673.81
511.374	17606.01
511.805	17665.77
512.237	17720.2
512.668	17999.88
513.099	18179.25
513.53	18325.83
513.961	18352.61
514.391	18535.27
514.822	18684.22
515.253	18899.91
515.684	18942.98
516.114	19039.95
516.545	18997.28
516.975	19016.26
517.406	18913.3
517.836	18621.19
518.267	18381.02
518.697	18285.5
519.127	18031.92
519.558	17839.34
519.988	17600.74
520.418	17452.83
520.848	17386.49
521.278	17233.7
521.708	16701.51
522.138	16621.11
522.567	16738.79
522.997	16793.89
523.427	16757.88
523.857	16725.62
524.286	16646.12
524.716	16614.98
525.145	16614.73
525.575	16556.1
526.004	16548.59
526.433	16751.51
526.863	16611.83
527.292	16360.27
527.721	16281.33
528.15	16224.48
528.579	16119.55
529.008	16122.99
529.437	16247.96
529.866	16289.22
530.295	16361.29
530.724	16372.09
531.152	16528.2
531.581	16559.62
532.01	16648.4
532.438	16652.09
532.867	16718.06
533.295	16821.02
533.723	16810.71
534.152	16727.87
534.58	16664.39
535.008	16469.61
535.436	16436.36
535.865	16467.76
536.293	16567.94
536.721	16678.02
537.149	16868.28
537.576	16862.77
538.004	16963.93
538.432	17024
538.86	16995.59
539.287	17060.09
539.715	17178.01
540.143	17225.24
540.57	17208.68
540.998	17200.09
541.425	16988.26
541.852	16840.5
542.28	16855.2
542.707	16747.11
543.134	16649.96
543.561	16640.03
543.988	16603.37
544.415	16644.05
544.842	16633.8
545.269	16596.33
545.696	16636.64
546.123	16817.8
546.549	16754.28
546.976	16663.97
547.403	16683.97
547.829	16742.74
548.256	16808.13
548.682	16806.09
549.108	16763.69
549.535	16797.7
549.961	16852.64
550.387	16765.12
550.813	16731.22
551.24	16823.35
551.666	16868.03
552.092	16806.67
552.518	16781.62
552.943	16742.55
553.369	16857.06
553.795	16948.21
554.221	16975.12
554.646	16974.02
555.072	17073.08
555.498	17152.48
555.923	17262.92
556.349	17422.64
556.774	17527.56
557.199	17552.31
557.625	17652.89
558.05	17601.11
558.475	17714.49
558.9	17716.94
559.325	17644.74
559.75	17613.81
560.175	17569.52
560.6	17529
561.025	17519.04
561.449	17540.61
561.874	17600.34
562.299	17624.76
562.723	17705.75
563.148	17599.7
563.572	17636.22
563.997	17732.11
564.421	17780.72
564.846	17775.44
565.27	17782.01
565.694	17748.95
566.118	17824.1
566.542	17862.68
566.966	17775.96
567.39	17689.41
567.814	17558
568.238	17539.28
568.662	17576.43
569.086	17590.32
569.509	17675.77
569.933	17537.41
570.357	17507.41
570.78	17357.47
571.204	17279.3
571.627	17256.1
572.05	17337.46
572.474	17434.15
572.897	17438.57
573.32	17488.3
573.743	17548.63
574.166	17494.96
574.589	17663.71
575.012	17739.35
575.435	17907.94
575.858	17991.53
576.281	18055.76
576.704	18071.44
577.126	18132.02
577.549	18181.24
577.972	18265.13
578.394	18316.58
578.817	18382.3
579.239	18348.36
579.661	18359.75
580.084	18312.91
580.506	18332.11
580.928	18456.56
581.35	18494.2
581.772	18596.3
582.194	18592.44
582.616	18583.02
583.038	18579.31
583.46	18629.89
583.882	18728.51
584.303	18937.78
584.725	19058.69
585.147	19142.56
585.568	19389.87
585.99	19641.76
586.411	19836.97
586.833	20131.27
587.254	20256.6
587.675	20544.56
588.096	20818.89
588.518	20852.77
588.939	20720.92
589.36	20775.89
589.781	20814.6
590.202	20456.49
590.623	20425.34
591.043	20461.7
591.464	20339.6
591.885	20324.67
592.305	20282.84
592.726	20113.27
593.147	20121.53
593.567	20041.35
593.987	19913.53
594.408	19811.9
594.828	19804.64
595.248	19648.03
595.669	19307.35
596.089	19134.39
596.509	18978.03
596.929	18689.65
597.349	18597.12
597.769	18368.39
598.189	18172.56
598.608	18092.35
599.028	18008.12
599.448	17912.77
599.867	17670.84
600.287	17558.83
600.706	17416.33
601.126	17206.15
601.545	17121.11
601.965	17059.63
602.384	16960.9
602.803	16976.62
603.222	16886.97
603.641	16804.26
604.061	16751.01
604.48	16724.84
604.898	16854.55
605.317	16970.21
605.736	17055.93
606.155	17078.94
606.574	17031.74
606.992	17176.98
607.411	17192.31
607.829	17201.44
608.248	17268.23
608.666	17351.37
609.085	17443.61
609.503	17428.51
609.921	17449.96
610.339	17589.9
610.758	17709.26
611.176	17768.96
611.594	17759.85
612.012	17837.49
612.43	17976.63
612.847	18177.86
613.265	18283.69
613.683	18467.59
614.101	18612.3
614.518	18696.19
614.936	18673.69
615.353	18573.86
615.771	18633.27
616.188	18746.43
616.606	18803.39
617.023	18817.22
617.44	18709.93
617.857	18734.51
618.274	18712.27
618.691	18702.71
619.108	18655.49
619.525	18655.73
619.942	18827.33
620.359	18939.38
620.776	18938.15
621.192	18928.6
621.609	18952.84
622.026	19098.04
622.442	19240.51
622.859	19343.74
623.275	19292.57
623.691	19416.21
624.108	19634.1
624.524	19909.51
624.94	19956
625.356	20147.97
625.772	20410.08
626.188	20644.96
626.604	20712.79
627.02	20685.77
627.436	20679.68
627.852	20808.55
628.268	21023.57
628.683	20933.8
629.099	20846.89
629.514	20831.15
629.93	20945.15
630.345	21075.72
630.761	21077.49
631.176	21203.65
631.591	21143.5
632.007	21123.59
632.422	21207.06
632.837	21130.26
633.252	21164.78
633.667	21102.86
634.082	21054.05
634.497	20954.74
634.911	20722.08
635.326	20790.68
635.741	20641.09
636.155	20652.68
636.57	20814.98
636.984	20972.41
637.399	21146.07
637.813	21343.35
638.228	21505.91
638.642	21796.93
639.056	21830.11
639.47	22079.3
639.884	22147.53
640.298	22264.28
640.712	22461.66
641.126	22470.32
641.54	22558.87
641.954	22751.84
642.368	22742.19
642.781	22772.5
643.195	22658.12
643.609	22894.69
644.022	23005.83
644.436	23145.3
644.849	23127.15
645.262	23103
645.676	23361.71
646.089	23434.1
646.502	23247.52
646.915	23316.42
647.328	23176.2
647.741	23289.9
648.154	23168.18
648.567	23181.54
648.98	23015.7
649.393	23164.97
649.805	23222.52
650.218	23194.55
650.631	22939.23
651.043	22942.4
651.456	22907.33
651.868	23031.43
652.28	23517.6
652.693	23868.38
653.105	24045.19
653.517	24231.92
653.929	24187.26
654.341	24309.95
654.753	24033.25
655.165	24279.61
655.577	24326.05
655.989	24368.28
656.401	24363.95
656.813	23646.85
657.224	23413.54
657.636	23070.31
658.047	22949.29
658.459	22811.11
658.87	22941.71
659.282	22966.37
659.693	22667.03
660.104	22523.03
660.515	22408.54
660.926	22588.79
661.338	22781.87
661.749	22857.76
662.159	22792.01
662.57	22936.44
662.981	23027.17
663.392	23007.49
663.803	23305.15
664.213	23465.53
664.624	23559.73
665.035	23849.27
665.445	23635.97
665.855	23556.25
666.266	23431.79
666.676	23517.39
667.086	23371.14
667.497	23435.28
667.907	23345.73
668.317	23155.9
668.727	22996.85
669.137	23094.38
669.547	23049.02
669.956	23180.74
670.366	23271.55
670.776	23340.75
671.186	23482
671.595	23562.72
672.005	23689.94
672.414	23620.65
672.824	23517.34
673.233	23754.6
673.642	23770.97
674.052	23788.73
674.461	23748.82
674.87	23848.62
675.279	23674.56
675.688	23691.76
676.097	23623.28
676.506	23437.96
676.915	23817.07
677.323	23827.93
677.732	23677.29
678.141	23578.77
678.549	23197.83
678.958	23103.25
679.366	22984.52
679.775	23063.25
680.183	23115.82
680.592	23154.8
681	23140.59
681.408	22735.48
681.816	22742.49
682.224	22767.15
682.632	22709.25
