Data from C_2_DEC_ON_6N_Splice17_12-15-54-451.txt Node
Date: Sat Mar 14 12:15:54 EDT 2020
User: sa697716
Spectrometer: FLMS03696
Trigger mode: 0
Integration Time (sec): 3.180400E-1
Scans to average: 20
Electric dark correction enabled: true
Nonlinearity correction enabled: true
Boxcar width: 5
XAxis mode: Wavelengths
Number of Pixels in Spectrum: 2048
>>>>>Begin Spectral Data<<<<<
187.83	-326474.53
188.298	2397.12
188.766	1311.83
189.233	1164.16
189.701	1598.23
190.169	2161.09
190.636	833.05
191.104	682.16
191.571	121.68
192.039	-76.04
192.506	-19.08
192.974	455.13
193.441	-667.4
193.908	-112.92
194.375	2.47
194.842	43.55
195.31	89.68
195.777	168.6
196.244	354.91
196.711	426.35
197.177	542.35
197.644	794.91
198.111	1414.51
198.578	1973.95
199.045	1600.95
199.511	2570.91
199.978	2999.6
200.445	2533.67
200.911	2806.75
201.378	3169.71
201.844	2896.62
202.31	4936.74
202.777	5112.92
203.243	2802.74
203.709	2655.85
204.176	3139.28
204.642	2608.69
205.108	2457.74
205.574	2021.02
206.04	1848.62
206.506	1729.36
206.972	1625.86
207.438	1580.01
207.903	1808.93
208.369	1583.84
208.835	1602.7
209.301	1677.82
209.766	1715.87
210.232	1688.54
210.697	2107.92
211.163	2600
211.628	3926.79
212.094	3306.48
212.559	4088.85
213.024	2558.15
213.49	3152.33
213.955	3106.49
214.42	3088.34
214.885	2895.57
215.35	2785.65
215.815	2666.78
216.28	2846.35
216.745	2329.34
217.21	2529.77
217.675	2342.49
218.14	2662.51
218.604	3002.89
219.069	3469.63
219.534	3674.58
219.998	4335.78
220.463	5335.24
220.927	6698.67
221.392	6382.37
221.856	6532.32
222.32	8326.31
222.785	10357.58
223.249	13135.52
223.713	14747.2
224.177	14784.82
224.642	19058
225.106	23510.55
225.57	25801.23
226.034	19193.5
226.497	29239.53
226.961	26384.99
227.425	30752.7
227.889	34214.21
228.353	34256.72
228.816	70833.25
229.28	67872.58
229.744	57336.94
230.207	34861.51
230.671	34317.06
231.134	56818.08
231.597	65543.01
232.061	65737.27
232.524	64142.17
232.987	44216.57
233.45	39831.86
233.914	35738.19
234.377	36645.12
234.84	33544.75
235.303	39619.87
235.766	44235.55
236.229	45764.24
236.691	28849.61
237.154	32427.88
237.617	24445.18
238.08	25036.21
238.542	29317.02
239.005	20995.94
239.468	20842.92
239.93	19648.47
240.393	17858.89
240.855	15675.82
241.317	16074.01
241.78	19585.04
242.242	20243.18
242.704	21822.19
243.166	19020.12
243.629	17282.88
244.091	19930.66
244.553	21879.22
245.015	23535.79
245.477	30489.25
245.939	44762.62
246.4	47482.02
246.862	46187.03
247.324	43612.91
247.786	48916.62
248.247	64167.18
248.709	66361.09
249.17	49667.63
249.632	46766.65
250.093	54298.28
250.555	46885.13
251.016	28627.31
251.477	27181.78
251.939	29348.61
252.4	30838.57
252.861	36725.13
253.322	34158.59
253.783	40677.13
254.244	52738.36
254.705	41651.29
255.166	37039.85
255.627	36498.66
256.088	51444.97
256.549	54638.26
257.009	47049.54
257.47	56987.58
257.931	46349.06
258.391	34726.76
258.852	35741.34
259.312	37441.74
259.773	46242.56
260.233	39053.68
260.694	32939.54
261.154	37356.86
261.614	29989.51
262.074	26812.11
262.534	27876.88
262.994	26286.58
263.455	35034.16
263.915	29550.31
264.374	27878.65
264.834	30449.84
265.294	33769
265.754	34968.59
266.214	33129.21
266.673	31045.83
267.133	39241.18
267.593	38929.65
268.052	47632.72
268.512	41451.6
268.971	49914.14
269.431	54720.21
269.89	48987.81
270.349	73457.11
270.809	81925.89
271.268	73622.2
271.727	165264.82
272.186	107020.33
272.645	80242.17
273.104	57917.87
273.563	83886.43
274.022	66029.67
274.481	56131.35
274.94	43242.12
275.399	32117.91
275.857	37408.26
276.316	50596.29
276.775	44977.76
277.233	44251.29
277.692	41429.31
278.15	46853.82
278.609	48141
279.067	44552.54
279.525	41379.51
279.984	53459.72
280.442	64179.51
280.9	63203.43
281.358	41560.74
281.816	38721.28
282.274	37903.2
282.732	39167.94
283.19	39322.88
283.648	33922.99
284.106	36097.78
284.564	36690.74
285.021	33966.21
285.479	25297.66
285.937	23013.46
286.394	20171.6
286.852	20754.32
287.309	21804.9
287.767	21023.82
288.224	19982.68
288.682	21942.98
289.139	24082.66
289.596	22029.73
290.053	22917.93
290.511	28975.09
290.968	35133.5
291.425	47697.76
291.882	39697.17
292.339	34530.41
292.796	34324.15
293.252	32391.13
293.709	25718.55
294.166	23095.77
294.623	25549.85
295.079	24525.4
295.536	24634.61
295.992	22374.48
296.449	22144.92
296.905	23029.03
297.362	22109.68
297.818	23288.95
298.274	24172.29
298.731	24660.08
299.187	24401.13
299.643	26224.51
300.099	31722.67
300.555	34828.95
301.011	29147.6
301.467	28080.87
301.923	32938.74
302.379	32211.84
302.835	31632.16
303.291	31650.37
303.746	36058.21
304.202	45583.21
304.658	45822.46
305.113	30867.93
305.569	30247.43
306.024	32275.76
306.479	30806.87
306.935	25946.62
307.39	28333.94
307.845	26187.88
308.301	26400.12
308.756	25735.77
309.211	24798.61
309.666	25414.03
310.121	31549.99
310.576	32100.75
311.031	31868.92
311.486	36531.88
311.94	36571.72
312.395	48912.02
312.85	92041.67
313.305	452422.66
313.759	2341390.21
314.214	169838.9
314.668	134775.37
315.123	113360.02
315.577	40599.81
316.032	36062.04
316.486	45204.96
316.94	35662.02
317.394	24860.62
317.849	19343.88
318.303	18355.51
318.757	17360.68
319.211	19223.47
319.665	16832.79
320.119	17042.24
320.572	24518.82
321.026	22937
321.48	19105.41
321.934	20870.36
322.387	20934.51
322.841	22625.17
323.295	20313.08
323.748	23406.29
324.202	23731.29
324.655	28505.34
325.108	39846.73
325.562	28154.87
326.015	33544.59
326.468	25361.49
326.921	28394.67
327.374	26472.24
327.827	27531.35
328.28	31211.78
328.733	20912.06
329.186	18418.14
329.639	17555.62
330.092	14814.06
330.545	14099.63
330.997	14197.84
331.45	15527.74
331.903	18175.04
332.355	31336.92
332.808	30468.56
333.26	25137.67
333.713	27315.88
334.165	27506.03
334.617	36771.16
335.069	29739.95
335.522	53760.68
335.974	59617.67
336.426	54460.89
336.878	37751.01
337.33	19124.04
337.782	18697.1
338.234	23401.83
338.686	28008.88
339.137	33191.9
339.589	31249.45
340.041	24489.57
340.493	21064.67
340.944	21554.39
341.396	23213.69
341.847	19496.99
342.299	23000.1
342.75	28072.31
343.201	24565.75
343.653	28221.12
344.104	34722.15
344.555	27317.27
345.006	42567.47
345.457	32626.04
345.908	25978.7
346.359	24471.96
346.81	19966.15
347.261	21098.21
347.712	20791.5
348.163	22264.45
348.613	22565.87
349.064	21102.79
349.515	18516.75
349.965	19000.87
350.416	22905.47
350.866	25156.3
351.317	28472.93
351.767	47199.87
352.217	59651.27
352.668	49578.28
353.118	45534.29
353.568	43937.83
354.018	34712.49
354.468	36608.48
354.918	26265.76
355.368	22991.57
355.818	32470.65
356.268	93493.98
356.718	390632.71
357.168	97203.26
357.617	48743.02
358.067	54287.7
358.517	50910.03
358.966	59715.42
359.416	67011.01
359.865	72491.71
360.315	86328.94
360.764	40298.14
361.213	22558.39
361.663	21406.99
362.112	26452.04
362.561	42800.95
363.01	32290.31
363.459	27208.57
363.908	29474.39
364.357	25022.74
364.806	42261.42
365.255	29092.11
365.703	26666.3
366.152	26732.62
366.601	21707.87
367.05	17616.98
367.498	15998.72
367.947	16692.27
368.395	17360.81
368.844	15370.34
369.292	18540.72
369.74	12819.23
370.189	19631.21
370.637	23017.92
371.085	19873.86
371.533	24221.12
371.981	23328.93
372.429	22239.08
372.877	23199.36
373.325	19418.44
373.773	19805.11
374.221	17652.64
374.669	21887.7
375.116	18936.99
375.564	19102.72
376.012	21351.88
376.459	17582.84
376.907	21015.87
377.354	25381.46
377.801	23669.97
378.249	27193.4
378.696	34722.02
379.143	41978.08
379.591	44740.93
380.038	75633.08
380.485	54671.07
380.932	59009.56
381.379	53898.72
381.826	39696.02
382.273	28266.29
382.72	24727.8
383.166	24063.71
383.613	15618.01
384.06	14097.4
384.506	16329.42
384.953	11982.85
385.4	12071.28
385.846	10559.05
386.292	10318.76
386.739	10095.91
387.185	9983.03
387.631	9973.15
388.078	9680.39
388.524	10346.5
388.97	9552.16
389.416	7951.44
389.862	8448.22
390.308	7991.86
390.754	8125.99
391.2	8795.53
391.645	8995.05
392.091	8572.51
392.537	8290.14
392.983	8309.29
393.428	8165.87
393.874	8746.81
394.319	8773.34
394.765	8313.08
395.21	8546.8
395.655	8009.03
396.101	7513.05
396.546	6785.71
396.991	6867.2
397.436	6373.23
397.881	6153.62
398.326	5835.54
398.771	5515.6
399.216	4833.37
399.661	4357.79
400.106	4339.96
400.551	4446.96
400.995	3988.85
401.44	3952.24
401.885	3714.94
402.329	3754.87
402.774	3606.54
403.218	3486.62
403.663	3364.24
404.107	3458.86
404.551	3486.42
404.995	3200.81
405.44	3089.23
405.884	3140.09
406.328	3039.13
406.772	3026.75
407.216	2757.76
407.66	2666.32
408.104	2536.81
408.547	2378.13
408.991	2297.8
409.435	2210.45
409.879	2180.02
410.322	2151.16
410.766	2075.05
411.209	1972.37
411.653	1897.13
412.096	1860.85
412.54	1863.56
412.983	1851
413.426	1854.02
413.869	1855.28
414.312	1821.81
414.756	1756.25
415.199	1673.65
415.642	1624.75
416.085	1626.48
416.527	1613.49
416.97	1636.07
417.413	1548.75
417.856	1533.88
418.298	1519.26
418.741	1511.55
419.184	1509.82
419.626	1574.63
420.069	1576.9
420.511	1586.8
420.953	1551.96
421.396	1538.74
421.838	1501.22
422.28	1535.33
422.722	1541.52
423.164	1562.85
423.606	1533.4
424.048	1529.67
424.49	1455.35
424.932	1446.64
425.374	1425.73
425.816	1451.89
426.258	1481.06
426.699	1497.35
427.141	1477.1
427.582	1499.95
428.024	1494.01
428.465	1487.8
428.907	1451.08
429.348	1429.7
429.789	1427.06
430.231	1398.28
430.672	1416.6
431.113	1381.67
431.554	1360.2
431.995	1325.07
432.436	1277.09
432.877	1245.84
433.318	1221.96
433.759	1217.19
434.2	1216.8
434.64	1204.61
435.081	1207.95
435.522	1143.13
435.962	1101.25
436.403	1077.86
436.843	1093.67
437.284	1070.34
437.724	1041.75
438.164	1045.35
438.604	1021.01
439.045	981.4
439.485	940.41
439.925	918.5
440.365	895.58
440.805	881.53
441.245	870.88
441.685	838.48
442.125	832.09
442.564	837.79
443.004	816.81
443.444	815.34
443.883	817.49
444.323	811.55
444.762	814.22
445.202	825.53
445.641	842.17
446.081	835.98
446.52	841.17
446.959	832.55
447.398	811.78
447.837	802.57
448.276	786.44
448.716	792.62
449.154	798.38
449.593	777.66
450.032	774.27
450.471	758.53
450.91	758.28
451.349	756.43
451.787	752.92
452.226	763.62
452.664	763.67
453.103	765.13
453.541	764.44
453.98	763.07
454.418	767.92
454.856	755.49
455.295	753.66
455.733	759.62
456.171	763.96
456.609	766.03
457.047	766.09
457.485	778.51
457.923	780.3
458.361	769.67
458.798	773.11
459.236	770.78
459.674	776.25
460.111	782.01
460.549	773.62
460.987	771.78
461.424	769.02
461.862	766.28
462.299	753.15
462.736	753.73
463.173	756.09
463.611	747.6
464.048	746.89
464.485	752.27
464.922	744.32
465.359	740.75
465.796	728.54
466.233	722.01
466.67	713.74
467.106	712.77
467.543	704.06
467.98	695.01
468.416	677.13
468.853	672.1
469.29	652.24
469.726	645.71
470.162	629.35
470.599	622.1
471.035	617.18
471.471	603.81
471.907	598.66
472.344	594.49
472.78	595.89
473.216	603.76
473.652	596.43
474.088	594.92
474.523	592.02
474.959	596.59
475.395	591.87
475.831	588.26
476.266	590.06
476.702	587.96
477.138	581.21
477.573	578.76
478.008	575.31
478.444	576.24
478.879	580.32
479.314	581.56
479.75	581.53
480.185	584.1
480.62	588.43
481.055	591
481.49	595.9
481.925	604.49
482.36	614.32
482.795	631.38
483.229	648.81
483.664	663.48
484.099	667.04
484.534	677.48
484.968	683.2
485.403	685.91
485.837	685.83
486.271	684.46
486.706	685.53
487.14	678.83
487.574	668.43
488.009	663.51
488.443	657.4
488.877	664.4
489.311	666.6
489.745	674.53
490.179	680.45
490.613	693.23
491.046	699.59
491.48	704.67
491.914	706.07
492.348	712.18
492.781	716.63
493.215	718.69
493.648	719.85
494.082	725.38
494.515	725.91
494.948	734.59
495.382	739.61
495.815	744.36
496.248	750.44
496.681	763.75
497.114	775.72
497.547	786.8
497.98	801.48
498.413	808.49
498.846	818.71
499.279	829.1
499.711	833.06
500.144	835.46
500.577	846.8
501.009	858.96
501.442	869.59
501.874	871.67
502.306	873.69
502.739	881.18
503.171	897.63
503.603	901.92
504.036	911.25
504.468	918.64
504.9	931.4
505.332	939.02
505.764	944.23
506.196	950.92
506.627	965.5
507.059	979.88
507.491	989.53
507.923	986.77
508.354	1002.52
508.786	1013.25
509.217	1031.2
509.649	1047.05
510.08	1066.21
510.512	1083.04
510.943	1099.09
511.374	1110.36
511.805	1129.74
512.237	1149.01
512.668	1181.49
513.099	1209.13
513.53	1237.7
513.961	1258.6
514.391	1288.77
514.822	1321.05
515.253	1356.33
515.684	1380.83
516.114	1410.26
516.545	1430.37
516.975	1456.24
517.406	1473.65
517.836	1474.18
518.267	1478.25
518.697	1494.91
519.127	1498.32
519.558	1505.28
519.988	1507.89
520.418	1517.96
520.848	1533.78
521.278	1541.5
521.708	1555.37
522.138	1566.66
522.567	1596.66
522.997	1621.09
523.427	1635.16
523.857	1651.86
524.286	1660.42
524.716	1672.96
525.145	1689.69
525.575	1699.67
526.004	1712.6
526.433	1706.16
526.863	1704.3
527.292	1693.14
527.721	1698.45
528.15	1702.7
528.579	1701.04
529.008	1711.43
529.437	1734.27
529.866	1746.35
530.295	1762.06
530.724	1774.67
531.152	1800.97
531.581	1815.2
532.01	1831.54
532.438	1838.52
532.867	1851.59
533.295	1870.3
533.723	1874.96
534.152	1872.23
534.58	1872
535.008	1855.94
535.436	1856.32
535.865	1862.65
536.293	1877.01
536.721	1893.07
537.149	1919.49
537.576	1923.02
538.004	1936.08
538.432	1944.05
538.86	1942.19
539.287	1949.76
539.715	1963.73
540.143	1967.32
540.57	1963.4
540.998	1959.19
541.425	1935.48
541.852	1912.97
542.28	1911.31
542.707	1893.81
543.134	1879.19
543.561	1874.96
543.988	1867.09
544.415	1866.31
544.842	1860.33
545.269	1853.33
545.696	1855.26
546.123	1868.3
546.549	1857.08
546.976	1843.43
547.403	1841.84
547.829	1843.36
548.256	1843.71
548.682	1838.68
549.108	1830
549.535	1828.64
549.961	1829.92
550.387	1815.44
550.813	1809.32
551.24	1814.15
551.666	1813.23
552.092	1804.26
552.518	1796.9
552.943	1791.07
553.369	1797.46
553.795	1803.29
554.221	1804.66
554.646	1800.43
555.072	1810.47
555.498	1815.08
555.923	1825.95
556.349	1842.36
556.774	1849.79
557.199	1851
557.625	1857.19
558.05	1852.51
558.475	1862.78
558.9	1860.05
559.325	1853.07
559.75	1847.06
560.175	1839.58
560.6	1831.15
561.025	1828.11
561.449	1828.85
561.874	1834.21
562.299	1837.73
562.723	1844.85
563.148	1834.96
563.572	1841.45
563.997	1851.11
564.421	1856.82
564.846	1856.83
565.27	1860.22
565.694	1859.17
566.118	1870.85
566.542	1878.82
566.966	1872.57
567.39	1868.09
567.814	1855.66
568.238	1853.78
568.662	1858.91
569.086	1861.32
569.509	1870.48
569.933	1855.88
570.357	1847.43
570.78	1826.44
571.204	1813.26
571.627	1803.5
572.05	1801.01
572.474	1802.29
572.897	1788.85
573.32	1782.2
573.743	1773.59
574.166	1754.01
574.589	1755.82
575.012	1749.31
575.435	1749.24
575.858	1740.86
576.281	1729.01
576.704	1713.96
577.126	1701.03
577.549	1691.82
577.972	1680.81
578.394	1669.87
578.817	1663.38
579.239	1643.72
579.661	1629.49
580.084	1612.43
580.506	1598.51
580.928	1594.1
581.35	1582.2
581.772	1578.22
582.194	1564.4
582.616	1552.07
583.038	1537.39
583.46	1525.82
583.882	1521.98
584.303	1526.36
584.725	1522.55
585.147	1524.6
585.568	1536.42
585.99	1549.52
586.411	1555.53
586.833	1570.11
587.254	1570.83
587.675	1584.7
588.096	1597.82
588.518	1592.93
588.939	1576
589.36	1573.92
589.781	1564.1
590.202	1534.56
590.623	1524.23
591.043	1522.17
591.464	1508.68
591.885	1505.32
592.305	1498.14
592.726	1485.61
593.147	1487.43
593.567	1483.44
593.987	1475.67
594.408	1469.8
594.828	1467.89
595.248	1463.57
595.669	1444.27
596.089	1437.48
596.509	1430.32
596.929	1417.85
597.349	1417.51
597.769	1406.68
598.189	1398.99
598.608	1400.26
599.028	1401.23
599.448	1400.84
599.867	1387.33
600.287	1383.43
600.706	1378.9
601.126	1370.68
601.545	1369.85
601.965	1368.68
602.384	1362.98
602.803	1366.31
603.222	1361.17
603.641	1355
604.061	1351.33
604.48	1347.59
604.898	1356.18
605.317	1361.02
605.736	1362.05
606.155	1358.78
606.574	1349.96
606.992	1355.97
607.411	1350.91
607.829	1343.64
608.248	1341.49
608.666	1339.5
609.085	1339.61
609.503	1332.28
609.921	1326.67
610.339	1328.68
610.758	1328.66
611.176	1324.94
611.594	1316.87
612.012	1314.32
612.43	1317.95
612.847	1324.78
613.265	1327.13
613.683	1331.83
614.101	1333.11
614.518	1330.43
614.936	1322.62
615.353	1309.02
615.771	1306.63
616.188	1306.95
616.606	1303.78
617.023	1297.92
617.44	1283.36
617.857	1277.59
618.274	1269.98
618.691	1263.85
619.108	1255.03
619.525	1248.06
619.942	1255.31
620.359	1258.3
620.776	1253.62
621.192	1249.77
621.609	1247.62
622.026	1255.79
622.442	1260.54
622.859	1263.48
623.275	1256.58
623.691	1262
624.108	1275.06
624.524	1289.66
624.94	1289.12
625.356	1298.93
625.772	1312.31
626.188	1324.91
626.604	1326.54
627.02	1323.5
627.436	1321.27
627.852	1328.34
628.268	1341.32
628.683	1331.73
629.099	1323.4
629.514	1318.61
629.93	1322.57
630.345	1326.69
630.761	1321.97
631.176	1324.48
631.591	1318.33
632.007	1312.33
632.422	1309.33
632.837	1296.18
633.252	1292.16
633.667	1279.75
634.082	1269.76
634.497	1256.13
634.911	1235.82
635.326	1231.29
635.741	1212.57
636.155	1201.1
636.57	1201.03
636.984	1199.74
637.399	1200.31
637.813	1198.68
638.228	1196.83
638.642	1200.28
639.056	1188.86
639.47	1187.98
639.884	1178.07
640.298	1170.79
640.712	1168.4
641.126	1154.78
641.54	1144.22
641.954	1138.1
642.368	1126.02
642.781	1117.33
643.195	1099.62
643.609	1099.5
644.022	1093.04
644.436	1088.64
644.849	1077.12
645.262	1066.23
645.676	1067.35
646.089	1064
646.502	1049.56
646.915	1044.1
647.328	1027.77
647.741	1025.03
648.154	1013.06
648.567	1010.74
648.98	997.47
649.393	998.23
649.805	994.85
650.218	987.33
650.631	972.1
651.043	966.19
651.456	960.66
651.868	961.1
652.28	979.27
652.693	992.29
653.105	999
653.517	1010.12
653.929	1010.97
654.341	1016.57
654.753	1006.33
655.165	1014.3
655.577	1013.64
655.989	1009.83
656.401	1003.85
656.813	969.87
657.224	951.52
657.636	925.41
658.047	909.13
658.459	891.46
658.87	884.47
659.282	875.14
659.693	855.25
660.104	842.03
660.515	830.4
660.926	829.01
661.338	826.99
661.749	821.97
662.159	813.67
662.57	810.88
662.981	807.24
663.392	800.17
663.803	805.1
664.213	803.7
664.624	800.02
665.035	805.36
665.445	795.18
665.855	789.12
666.266	781.73
666.676	780.33
667.086	771.07
667.497	772.03
667.907	767.68
668.317	759.28
668.727	757.25
669.137	759.65
669.547	758.34
669.956	761.23
670.366	763.82
670.776	767.69
671.186	773.67
671.595	778.83
672.005	783.94
672.414	784.26
672.824	783.6
673.233	789.55
673.642	792.61
674.052	797.15
674.461	800.37
674.87	806.25
675.279	803.98
675.688	806.24
676.097	808.3
676.506	806.66
676.915	821.76
677.323	826.33
677.732	825.4
678.141	826.47
678.549	817.02
678.958	816.73
679.366	816.93
679.775	822.93
680.183	835.35
680.592	843.05
681	847.87
681.408	841.59
681.816	849.81
682.224	859.48
682.632	870.99
683.04	902.36
683.448	927.88
683.856	960.5
684.264	997.58
684.671	1029.15
685.079	1070.42
685.487	1116.86
685.894	1180.4
686.302	1232.39
686.709	1272.92
687.116	1319.81
687.524	1355.68
687.931	1388.2
688.338	1412.75
688.745	1433.02
689.152	1456.87
689.559	1491.8
689.966	1527.1
690.373	1541.06
690.78	1571.84
691.187	1627.44
691.593	1666.74
692	1701.65
692.407	1757.43
692.813	1828.3
693.22	1883.18
693.626	1941.25
694.032	1986.22
694.439	2056.33
694.845	2108.36
695.251	2179.07
695.657	2241.03
696.063	2336.48
696.469	2405.7
696.875	2468.89
