Data from C_2_DEC_VA_2N_Splice17_12-08-36-171.txt Node
Date: Sat Mar 14 12:08:36 EDT 2020
User: sa697716
Spectrometer: FLMS03696
Trigger mode: 0
Integration Time (sec): 3.180400E-1
Scans to average: 20
Electric dark correction enabled: true
Nonlinearity correction enabled: true
Boxcar width: 5
XAxis mode: Wavelengths
Number of Pixels in Spectrum: 2048
>>>>>Begin Spectral Data<<<<<
187.83	-320657.52
188.298	2342.25
188.766	1219.69
189.233	1105.63
189.701	1618.12
190.169	2182.9
190.636	817.43
191.104	655.9
191.571	114.88
192.039	-50.02
192.506	-125.67
192.974	340.74
193.441	-576.84
193.908	34.09
194.375	-54.95
194.842	18.35
195.31	129.99
195.777	141.76
196.244	360.33
196.711	460.39
197.177	580.43
197.644	836.05
198.111	1481.74
198.578	2109.71
199.045	1678.1
199.511	2801.05
199.978	3282.26
200.445	2766.62
200.911	3102.32
201.378	3488.43
201.844	3146.56
202.31	5421.74
202.777	5668.02
203.243	3112.91
203.709	2983.14
204.176	3565.7
204.642	2956.69
205.108	2757.89
205.574	2244.66
206.04	2043.53
206.506	1906.44
206.972	1820.39
207.438	1747.91
207.903	2003.3
208.369	1754.71
208.835	1734.45
209.301	1802.33
209.766	1821.06
210.232	1791.44
210.697	2215.36
211.163	2717.43
211.628	4071.59
212.094	3389
212.559	4138.61
213.024	2548.5
213.49	3119.82
213.955	3021.05
214.42	2940.76
214.885	2746.83
215.35	2641.56
215.815	2521.6
216.28	2664.66
216.745	2167.82
217.21	2319.22
217.675	2097.14
218.14	2313.49
218.604	2529.67
219.069	2842.5
219.534	2933.51
219.998	3340.95
220.463	3968.8
220.927	4802.12
221.392	4470.92
221.856	4477.15
222.32	5591.42
222.785	6857.11
223.249	8578.09
223.713	9515.66
224.177	9476.79
224.642	12074.95
225.106	14848.17
225.57	16210.6
226.034	12090.34
226.497	18336.58
226.961	16525.23
227.425	19176.63
227.889	21212.11
228.353	21148.01
228.816	43597.19
229.28	41588.41
229.744	35050.46
230.207	21333.92
230.671	20965.67
231.134	34500.96
231.597	39795.71
232.061	39701.43
232.524	38714.94
232.987	26700.84
233.45	24037.98
233.914	21552.84
234.377	22096.88
234.84	20223.04
235.303	23797.64
235.766	26572.62
236.229	27441.73
236.691	17288.15
237.154	19455.24
237.617	14644.54
238.08	14994.36
238.542	17563.78
239.005	12569.84
239.468	12478.48
239.93	11757.68
240.393	10687.51
240.855	9388.96
241.317	9618.81
241.78	11683.58
242.242	12073.88
242.704	13057.01
243.166	11357.54
243.629	10323.33
244.091	11894.5
244.553	13027.36
245.015	14023.65
245.477	18118.21
245.939	26491.7
246.4	28109.94
246.862	27311.9
247.324	25738.89
247.786	28688.13
248.247	37643.96
248.709	38803.72
249.17	28985.95
249.632	27340.76
250.093	31663.25
250.555	27353.72
251.016	16689.99
251.477	15852.31
251.939	17098.13
252.4	17902.88
252.861	21306.29
253.322	19792.58
253.783	23520.27
254.244	30471.93
254.705	23956.28
255.166	21270.07
255.627	20915.86
256.088	29479.28
256.549	31232.31
257.009	26852.51
257.47	32584.05
257.931	26523.59
258.391	19844.14
258.852	20428.85
259.312	21391.66
259.773	26392.41
260.233	22280.74
260.694	18747.49
261.154	21204.24
261.614	17003.19
262.074	15181.34
262.534	15725.47
262.994	14789.6
263.455	19662.01
263.915	16522.1
264.374	15532.73
264.834	16922.28
265.294	18722.78
265.754	19348.07
266.214	18285.96
266.673	17103.01
267.133	21543.12
267.593	21331.78
268.052	26021.12
268.512	22591.36
268.971	27226.74
269.431	29836.64
269.89	26659.58
270.349	39920.89
270.809	44524.46
271.268	40000.64
271.727	89499.84
272.186	57897.09
272.645	43387.46
273.104	31251.57
273.563	45210.35
274.022	35507.16
274.481	30156.66
274.94	23237.28
275.399	17220.78
275.857	20019.77
276.316	27031.27
276.775	24050.35
277.233	23712.53
277.692	22209.22
278.15	25170.54
278.609	25887.95
279.067	23958.87
279.525	22245.2
279.984	28715.97
280.442	34532.51
280.9	34079.2
281.358	22442.13
281.816	20927.05
282.274	20465.09
282.732	21153.26
283.19	21259.71
283.648	18358.82
284.106	19570.45
284.564	19939
285.021	18526.64
285.479	13820.04
285.937	12580.15
286.394	11054.84
286.852	11369.82
287.309	11956.61
287.767	11573.01
288.224	11020.38
288.682	12073.77
289.139	13241.82
289.596	12109.59
290.053	12583.47
290.511	15879.69
290.968	19211.78
291.425	26032.1
291.882	21711.35
292.339	18878.88
292.796	18685.44
293.252	17546.62
293.709	13968.84
294.166	12519.65
294.623	13829.17
295.079	13252.78
295.536	13312.98
295.992	12080.55
296.449	11952.52
296.905	12407.63
297.362	11931.81
297.818	12545.6
298.274	13044.58
298.731	13281.56
299.187	13155.79
299.643	14130.9
300.099	17102.39
300.555	18753.08
301.011	15705.58
301.467	15164.22
301.923	17743.17
302.379	17287.87
302.835	16996.72
303.291	17023.34
303.746	19394.84
304.202	24488.78
304.658	24583.28
305.113	16562.65
305.569	16241.52
306.024	17296.24
306.479	16447.23
306.935	13882.72
307.39	15177.93
307.845	14032.41
308.301	14138.65
308.756	13783.22
309.211	13304.17
309.666	13656.92
310.121	16947.1
310.576	17216.56
311.031	17099.66
311.486	19589.91
311.94	19596.23
312.395	26259.77
312.85	49382.79
313.305	242943.59
313.759	1259911.28
314.214	91315.92
314.668	72519.55
315.123	61154.6
315.577	21975.21
316.032	19534.59
316.486	24512.27
316.94	19345.01
317.394	13470.05
317.849	10484.84
318.303	9897.71
318.757	9332.57
319.211	10308.02
319.665	9010.46
320.119	9104.17
320.572	13030.75
321.026	12192.73
321.48	10136.61
321.934	11059.63
322.387	11061.46
322.841	11939.8
323.295	10768.82
323.748	12376.91
324.202	12594.35
324.655	15123.94
325.108	21179.21
325.562	14982.35
326.015	17852.59
326.468	13498.65
326.921	15074.78
327.374	14084.29
327.827	14675.22
328.28	16583.89
328.733	11137.77
329.186	9779.29
329.639	9313.21
330.092	7824.35
330.545	7459.25
330.997	7519.07
331.45	8217.77
331.903	9669.13
332.355	16619.34
332.808	16147.13
333.26	13349.43
333.713	14517.85
334.165	14621.83
334.617	19541.76
335.069	15793.51
335.522	28517.76
335.974	31609.83
336.426	28948.47
336.878	19983.34
337.33	10168.86
337.782	9920.59
338.234	12432.91
338.686	14863.87
339.137	17655.38
339.589	16610.18
340.041	13069.67
340.493	11262.52
340.944	11505.07
341.396	12404.55
341.847	10445.99
342.299	12310.37
342.75	15058.56
343.201	13086.03
343.653	15033.16
344.104	18395.58
344.555	14487.96
345.006	22413.86
345.457	17136.24
345.908	13640.95
346.359	12773.48
346.81	10402.82
347.261	10953.91
347.712	10749.34
348.163	11554.27
348.613	11693.95
349.064	10925.26
349.515	9564.82
349.965	9841.84
350.416	11824.65
350.866	12956.31
351.317	14689.09
351.767	24341.98
352.217	30633.9
352.668	25473.41
353.118	23356.98
353.568	22507.76
354.018	17855.6
354.468	18828.04
354.918	13528.87
355.368	11863.52
355.818	16776.36
356.268	48254.05
356.718	201875.32
357.168	50476.54
357.617	25316.83
358.067	28141.7
358.517	26409.6
358.966	30955.57
359.416	34757.55
359.865	37456.28
360.315	44557.79
360.764	20776.27
361.213	11689.19
361.663	11073.04
362.112	13665.99
362.561	22084.6
363.01	16638.09
363.459	13991.14
363.908	15096.69
364.357	12843.37
364.806	21692.39
365.255	14903.65
365.703	13692.96
366.152	13675.19
366.601	11090.58
367.05	9007.9
367.498	8220.56
367.947	8596.96
368.395	8958.05
368.844	7949.73
369.292	9579.98
369.74	6646.53
370.189	10220.84
370.637	11987.19
371.085	10357.21
371.533	12633.77
371.981	12188.05
372.429	11643.42
372.877	12185.33
373.325	10205.22
373.773	10429.58
374.221	9297
374.669	11564
375.116	10014.8
375.564	10099.19
376.012	11319.92
376.459	9358.92
376.907	11209.53
377.354	13552.86
377.801	12655.07
378.249	14614.94
378.696	18699.3
379.143	22722.52
379.591	24209.86
380.038	41089.78
380.485	29804.54
380.932	32298.85
381.379	29647.83
381.826	21976.54
382.273	15672.03
382.72	13787.79
383.166	13500.3
383.613	8823.74
384.06	7993.17
384.506	9299.93
384.953	6867.62
385.4	6943.69
385.846	6122.64
386.292	5998.49
386.739	5893.03
387.185	5862.22
387.631	5883.61
388.078	5739.76
388.524	6183.95
388.97	5752.89
389.416	4830.08
389.862	5173.08
390.308	4949.8
390.754	5061.01
391.2	5531.57
391.645	5714.46
392.091	5522.26
392.537	5394.43
392.983	5449.29
393.428	5409.05
393.874	5847.01
394.319	5936.86
394.765	5692.39
395.21	5900.86
395.655	5583.53
396.101	5279.65
396.546	4795.66
396.991	4879.62
397.436	4565.42
397.881	4452.37
398.326	4256.91
398.771	4060.97
399.216	3582.6
399.661	3246.48
400.106	3267.29
400.551	3372.76
400.995	3052.9
401.44	3044.88
401.885	2878.24
402.329	2923.97
402.774	2821.38
403.218	2740.79
403.663	2659.93
404.107	2748.94
404.551	2789.75
404.995	2566.82
405.44	2485.89
405.884	2536.05
406.328	2471.3
406.772	2476.19
407.216	2273.67
407.66	2212.84
408.104	2116.05
408.547	1991.84
408.991	1934.27
409.435	1867.43
409.879	1853.17
410.322	1838.04
410.766	1786.07
411.209	1702.18
411.653	1642.49
412.096	1614.01
412.54	1621.11
412.983	1614.43
413.426	1623.32
413.869	1630.65
414.312	1607.65
414.756	1554.82
415.199	1489.56
415.642	1448.51
416.085	1456.53
416.527	1450.81
416.97	1480.33
417.413	1407.13
417.856	1400.43
418.298	1391.2
418.741	1383.87
419.184	1382.4
419.626	1442.09
420.069	1445.55
420.511	1457.89
420.953	1429.21
421.396	1420.17
421.838	1383.66
422.28	1417.82
422.722	1424.19
423.164	1442.97
423.606	1420.1
424.048	1419.73
424.49	1352.79
424.932	1346.7
425.374	1326.59
425.816	1350.32
426.258	1374.5
426.699	1389.64
427.141	1367.99
427.582	1389.78
428.024	1383.41
428.465	1375.92
428.907	1342.89
429.348	1324.84
429.789	1321.42
430.231	1291.61
430.672	1305.91
431.113	1273.91
431.554	1252.77
431.995	1221.88
432.436	1172.21
432.877	1144.74
433.318	1123.39
433.759	1117.63
434.2	1116.82
434.64	1106.56
435.081	1111.08
435.522	1054.54
435.962	1018.07
436.403	999.42
436.843	1015.31
437.284	999.72
437.724	976.43
438.164	982.32
438.604	963.84
439.045	930.52
439.485	894.3
439.925	880.29
440.365	863.9
440.805	855.3
441.245	848.05
441.685	820.19
442.125	819.8
442.564	829.63
443.004	817.11
443.444	821.71
443.883	830
444.323	831.56
444.762	839.78
445.202	858.63
445.641	881.19
446.081	885.15
446.52	900.82
446.959	898.57
447.398	885.36
447.837	881.33
448.276	871.53
448.716	888.25
449.154	903
449.593	889.26
450.032	893.4
450.471	885.05
450.91	893.79
451.349	897.2
451.787	900.17
452.226	919.78
452.664	926.41
453.103	931.93
453.541	933.93
453.98	936.27
454.418	947.11
454.856	934.93
455.295	936.73
455.733	945.64
456.171	953.77
456.609	956.01
457.047	958.4
457.485	973.16
457.923	977.07
458.361	966.53
458.798	972.03
459.236	969.6
459.674	977.95
460.111	983.45
460.549	974.86
460.987	971.98
461.424	971.22
461.862	966.87
462.299	952.28
462.736	953.15
463.173	955.71
463.611	943.04
464.048	941.63
464.485	948.08
464.922	939.02
465.359	933.75
465.796	917.85
466.233	910.94
466.67	900.25
467.106	897.28
467.543	887.65
467.98	876.43
468.416	856.94
468.853	849.38
469.29	825.6
469.726	816.99
470.162	796.51
470.599	791.35
471.035	784.91
471.471	767.3
471.907	764.71
472.344	761.09
472.78	763.04
473.216	772.86
473.652	765.58
474.088	764.51
474.523	763.68
474.959	772.73
475.395	766.29
475.831	762.26
476.266	768.68
476.702	768.36
477.138	760.8
477.573	759.51
478.008	757.59
478.444	760.79
478.879	767.52
479.314	770.52
479.75	769.35
480.185	773.56
480.62	782.23
481.055	787.13
481.49	793.67
481.925	807.44
482.36	823.5
482.795	848.9
483.229	874.43
483.664	895.42
484.099	903.14
484.534	921.32
484.968	933.11
485.403	938.03
485.837	941.18
486.271	944.36
486.706	949.24
487.14	942.7
487.574	931.66
488.009	928.03
488.443	924.63
488.877	937.79
489.311	945.06
489.745	961.44
490.179	975.81
490.613	996.99
491.046	1010.24
491.48	1023.04
491.914	1030.02
492.348	1043.92
492.781	1056.67
493.215	1066.27
493.648	1075.59
494.082	1090.81
494.515	1098.26
494.948	1116.36
495.382	1133.02
495.815	1147.63
496.248	1163.34
496.681	1192.9
497.114	1220.38
497.547	1244.02
497.98	1273.09
498.413	1290.35
498.846	1313.16
499.279	1336.82
499.711	1353.72
500.144	1365.76
500.577	1390.63
501.009	1417.45
501.442	1440.6
501.874	1447.57
502.306	1458.94
502.739	1475.26
503.171	1507.67
503.603	1520.37
504.036	1541.06
504.468	1556.28
504.9	1580.73
505.332	1597.91
505.764	1608.96
506.196	1625
506.627	1654.12
507.059	1680.38
507.491	1702.46
507.923	1700.24
508.354	1728
508.786	1747.77
509.217	1778.04
509.649	1803.53
510.08	1835.49
510.512	1862.94
510.943	1887.08
511.374	1904.78
511.805	1936.85
512.237	1965.9
512.668	2019.68
513.099	2063.27
513.53	2104.69
513.961	2134.01
514.391	2182.82
514.822	2231.46
515.253	2286.11
515.684	2321.62
516.114	2363.34
516.545	2389.72
516.975	2424.4
517.406	2443.24
517.836	2436.49
518.267	2436.37
518.697	2455.53
519.127	2452.32
519.558	2454.6
519.988	2448.97
520.418	2455.87
520.848	2474.46
521.278	2477.33
521.708	2467.52
522.138	2476.55
522.567	2515.97
522.997	2547.18
523.427	2562.16
523.857	2577.48
524.286	2582.35
524.716	2595.87
525.145	2614.28
525.575	2620.9
526.004	2634.5
526.433	2638.61
526.863	2629.58
527.292	2603.51
527.721	2601.59
528.15	2602.95
528.579	2595.88
529.008	2605.52
529.437	2634.23
529.866	2648.46
530.295	2668.04
530.724	2679.89
531.152	2714.53
531.581	2729.78
532.01	2752.12
532.438	2762.79
532.867	2779.48
533.295	2804.03
533.723	2809.25
534.152	2802.22
534.58	2798.92
535.008	2771.4
535.436	2770.56
535.865	2780.32
536.293	2802.21
536.721	2824.68
537.149	2859.8
537.576	2863.09
538.004	2879.7
538.432	2890.62
538.86	2886.14
539.287	2895.99
539.715	2916.12
540.143	2921.23
540.57	2914.89
540.998	2908.41
541.425	2870.23
541.852	2837.64
542.28	2834.05
542.707	2809.76
543.134	2786.63
543.561	2779.19
543.988	2766.55
544.415	2763.94
544.842	2753.73
545.269	2740.22
545.696	2740.9
546.123	2759.71
546.549	2740.94
546.976	2719.41
547.403	2716.48
547.829	2719.22
548.256	2722.16
548.682	2714.05
549.108	2701.47
549.535	2699.34
549.961	2702.17
550.387	2680.96
550.813	2670.99
551.24	2679.6
551.666	2682.33
552.092	2666.93
552.518	2656.7
552.943	2645.99
553.369	2657.85
553.795	2666.73
554.221	2669.66
554.646	2665.5
555.072	2680.28
555.498	2690.6
555.923	2706.02
556.349	2729.28
556.774	2745.62
557.199	2750.17
557.625	2761.88
558.05	2755.82
558.475	2773.91
558.9	2774.33
559.325	2764.53
559.75	2760.22
560.175	2752.72
560.6	2747.76
561.025	2747.24
561.449	2751.26
561.874	2762.96
562.299	2773.57
562.723	2788.61
563.148	2778.87
563.572	2791.71
563.997	2814.09
564.421	2829.65
564.846	2837.75
565.27	2850.48
565.694	2853.58
566.118	2879.11
566.542	2898.76
566.966	2897.11
567.39	2898.45
567.814	2889.8
568.238	2895.16
568.662	2911.27
569.086	2922.93
569.509	2944.02
569.933	2926.98
570.357	2923.9
570.78	2899.65
571.204	2884.81
571.627	2876.15
572.05	2881.35
572.474	2888.12
572.897	2876.52
573.32	2870.73
573.743	2863.58
574.166	2839.83
574.589	2848.85
575.012	2844.28
575.435	2849.61
575.858	2843.49
576.281	2831.42
576.704	2811.03
577.126	2796.41
577.549	2784.56
577.972	2773.8
578.394	2760.64
578.817	2750.79
579.239	2722.52
579.661	2703.86
580.084	2679.09
580.506	2660.08
580.928	2658.31
581.35	2643.53
581.772	2641.19
582.194	2621.96
582.616	2606.02
583.038	2585.53
583.46	2575.33
583.882	2573.96
584.303	2584.76
584.725	2581.41
585.147	2583.6
585.568	2603.19
585.99	2627.77
586.411	2640.48
586.833	2669.12
587.254	2673.33
587.675	2701.48
588.096	2725.24
588.518	2718.21
588.939	2691.12
589.36	2691.1
589.781	2681.27
590.202	2632.79
590.623	2619.42
591.043	2620.01
591.464	2598.77
591.885	2593.96
592.305	2585.25
592.726	2562.69
593.147	2568.67
593.567	2562.28
593.987	2551.97
594.408	2545.26
594.828	2547.49
595.248	2538.27
595.669	2505.67
596.089	2496.74
596.509	2486.56
596.929	2464.87
597.349	2467.9
597.769	2452.66
598.189	2443.94
598.608	2447.8
599.028	2453.45
599.448	2455.18
599.867	2435.05
600.287	2430.25
600.706	2423.65
601.126	2409.63
601.545	2409.6
601.965	2409.42
602.384	2400.65
602.803	2408.74
603.222	2401.59
603.641	2392.24
604.061	2386.71
604.48	2383.1
604.898	2399.67
605.317	2412.03
605.736	2418.83
606.155	2416.59
606.574	2404.12
606.992	2416.82
607.411	2410.02
607.829	2399.66
608.248	2396.09
608.666	2396.79
609.085	2400.19
609.503	2389.12
609.921	2381.36
610.339	2388.39
610.758	2390.46
611.176	2385.43
611.594	2372.9
612.012	2370.33
612.43	2378.73
612.847	2395.13
613.265	2399.62
613.683	2410.08
614.101	2416.45
614.518	2412.67
614.936	2398.87
615.353	2376.76
615.771	2373.86
616.188	2377.18
616.606	2374.5
617.023	2365.13
617.44	2342.07
617.857	2334.39
618.274	2321.57
618.691	2312.36
619.108	2298.85
619.525	2289.35
619.942	2303.7
620.359	2311.34
620.776	2304.7
621.192	2299.55
621.609	2299.1
622.026	2312.6
622.442	2323.67
622.859	2332.6
623.275	2321.93
623.691	2333.37
624.108	2356.21
624.524	2383.78
624.94	2385.15
625.356	2405.22
625.772	2430.74
626.188	2452.87
626.604	2457.32
627.02	2451.33
627.436	2447.11
627.852	2459.21
628.268	2482.21
628.683	2465.74
629.099	2449.94
629.514	2441.8
629.93	2449.03
630.345	2458.3
630.761	2452.26
631.176	2459.05
631.591	2447.08
632.007	2435.17
632.422	2433.97
632.837	2413.24
633.252	2409.47
633.667	2391.49
634.082	2376
634.497	2352.55
634.911	2315.14
635.326	2309.98
635.741	2279.74
636.155	2263.27
636.57	2267.43
636.984	2266.89
637.399	2270.17
637.813	2271.56
638.228	2271.09
638.642	2279.72
639.056	2262.47
639.47	2265.22
639.884	2248.5
640.298	2236.14
640.712	2233.44
641.126	2210.72
641.54	2194.35
641.954	2187.8
642.368	2164.29
642.781	2145.29
643.195	2113.54
643.609	2113.9
644.022	2102.36
644.436	2095.76
644.849	2073.53
645.262	2052.05
645.676	2056.31
646.089	2046.16
646.502	2015.27
646.915	2005.3
647.328	1974.83
647.741	1967.35
648.154	1941.39
648.567	1931.83
648.98	1904.06
649.393	1903.23
649.805	1894.58
650.218	1876.96
650.631	1846.24
651.043	1832.66
651.456	1818.43
651.868	1819.59
652.28	1852.48
652.693	1877.37
653.105	1890.68
653.517	1908.23
653.929	1908.69
654.341	1916.61
654.753	1895.11
655.165	1905.51
655.577	1899.74
655.989	1890.43
656.401	1875.52
656.813	1804.78
657.224	1765.39
657.636	1710.58
658.047	1673.76
658.459	1634.25
658.87	1616.62
659.282	1589.38
659.693	1547.26
660.104	1515
660.515	1486.07
660.926	1475.56
661.338	1464.62
661.749	1446.64
662.159	1422.99
662.57	1408.1
662.981	1391.37
663.392	1368.18
663.803	1366.3
664.213	1354.08
664.624	1338.66
665.035	1332.74
665.445	1301.07
665.855	1279.34
666.266	1256.76
666.676	1243.23
667.086	1219.75
667.497	1209.06
667.907	1191.03
668.317	1166.87
668.727	1150.2
669.137	1143.08
669.547	1132.74
669.956	1129
670.366	1123.38
670.776	1116.67
671.186	1115.11
671.595	1113.36
672.005	1112.91
672.414	1105.35
672.824	1098.56
673.233	1101.95
673.642	1100.36
674.052	1099.48
674.461	1098.57
674.87	1102.99
675.279	1098.87
675.688	1099.18
676.097	1098.11
676.506	1092.62
676.915	1113.4
677.323	1116.4
677.732	1115.72
678.141	1118.87
678.549	1106.95
678.958	1108.13
679.366	1111.91
679.775	1124.8
680.183	1145.75
680.592	1164.56
681	1182.37
681.408	1183.45
681.816	1208.83
682.224	1235.68
682.632	1264.1
683.04	1327.86
683.448	1386.82
683.856	1454.93
684.264	1531.91
684.671	1609.64
685.079	1699.14
685.487	1797.09
685.894	1927.43
686.302	2041.21
686.709	2135.67
687.116	2244.86
687.524	2332.3
687.931	2407.26
688.338	2473.31
688.745	2526.79
689.152	2582.53
689.559	2656.84
689.966	2724.66
690.373	2749.65
690.78	2805.07
691.187	2902.2
691.593	2964.46
692	3015.19
692.407	3096.98
692.813	3197.21
693.22	3270.6
693.626	3344.76
694.032	3389.23
694.439	3478.42
694.845	3537.01
