Data from C_2_DEC_CT_2N_Splice17_12-29-06-970.txt Node
Date: Sat Mar 14 12:29:06 EDT 2020
User: sa697716
Spectrometer: FLMS03696
Trigger mode: 0
Integration Time (sec): 3.180400E-1
Scans to average: 20
Electric dark correction enabled: true
Nonlinearity correction enabled: true
Boxcar width: 5
XAxis mode: Wavelengths
Number of Pixels in Spectrum: 2048
>>>>>Begin Spectral Data<<<<<
187.83	-268481.29
188.298	1949.43
188.766	1065.64
189.233	964.68
189.701	1340.04
190.169	1792.4
190.636	656.26
191.104	593.44
191.571	68.17
192.039	-111.64
192.506	-55.36
192.974	541
193.441	-1113.19
193.908	-330.89
194.375	-103.93
194.842	1.2
195.31	-3.37
195.777	130.46
196.244	372.95
196.711	383.75
197.177	483.51
197.644	695.91
198.111	1228.24
198.578	1744.43
199.045	1360.5
199.511	2221.26
199.978	2564.33
200.445	2207.88
200.911	2422.19
201.378	2659.69
201.844	2433.22
202.31	4144.48
202.777	4328.66
203.243	2406.56
203.709	2301.17
204.176	2776.19
204.642	2293.43
205.108	2128.06
205.574	1718.75
206.04	1558.51
206.506	1465.96
206.972	1389.29
207.438	1346.48
207.903	1533.83
208.369	1355.14
208.835	1356.43
209.301	1417.04
209.766	1450.31
210.232	1429.17
210.697	1782.15
211.163	2212.4
211.628	3369.24
212.094	2839.89
212.559	3521.41
213.024	2215.78
213.49	2711.09
213.955	2637.89
214.42	2584.67
214.885	2430.41
215.35	2347.81
215.815	2286.65
216.28	2454.43
216.745	2010.92
217.21	2203.96
217.675	2051.89
218.14	2348.49
218.604	2663.56
219.069	3107.28
219.534	3329.72
219.998	3942.56
220.463	4877.83
220.927	6100.91
221.392	5823.66
221.856	5981.33
222.32	7615.61
222.785	9479.75
223.249	12025.47
223.713	13551.28
224.177	13631.95
224.642	17604.02
225.106	21809.19
225.57	23970.33
226.034	17927.51
226.497	27378.8
226.961	24815.98
227.425	29029.32
227.889	32384.78
228.353	32509.8
228.816	67391.48
229.28	64765.27
229.744	54766.4
230.207	33328.43
230.671	32840.45
231.134	54432.45
231.597	62891.08
232.061	63109.02
232.524	61651.62
232.987	42506.69
233.45	38379.79
233.914	34466.38
234.377	35395.05
234.84	32446.78
235.303	38337.03
235.766	42863.7
236.229	44335.08
236.691	27997.3
237.154	31498.96
237.617	23735.3
238.08	24367.45
238.542	28527.58
239.005	20411.03
239.468	20259.5
239.93	19097.58
240.393	17359.76
240.855	15246.25
241.317	15642.88
241.78	19049.08
242.242	19695.22
242.704	21267.42
243.166	18513.42
243.629	16819.22
244.091	19394.54
244.553	21270.11
245.015	22903.07
245.477	29649.66
245.939	43527.57
246.4	46243.56
246.862	44972.94
247.324	42438.45
247.786	47561.49
248.247	62409.75
248.709	64497.56
249.17	48273.67
249.632	45552.23
250.093	52810.6
250.555	45675.94
251.016	27875.06
251.477	26439.64
251.939	28548.13
252.4	29973.22
252.861	35679.84
253.322	33219.15
253.783	39581.04
254.244	51384.82
254.705	40549.65
255.166	36105.89
255.627	35601.3
256.088	50242.71
256.549	53453.64
257.009	46092.12
257.47	55945.89
257.931	45627.19
258.391	34249.77
258.852	35333.48
259.312	37115.38
259.773	45934.42
260.233	38864.3
260.694	32813.33
261.154	37293.01
261.614	29953.06
262.074	26834.35
262.534	27952.42
262.994	26371.94
263.455	35212.74
263.915	29731.69
264.374	28040.4
264.834	30647.92
265.294	34055.7
265.754	35341.48
266.214	33532.64
266.673	31505.32
267.133	39835.44
267.593	39571.18
268.052	48539.8
268.512	42301.42
268.971	51085.51
269.431	56110.43
269.89	50322.74
270.349	75592.64
270.809	84467.44
271.268	76011.92
271.727	170728.67
272.186	110710.32
272.645	83198.5
273.104	60098.3
273.563	87061.1
274.022	68620.58
274.481	58482.16
274.94	45138.08
275.399	33581.7
275.857	39130.82
276.316	53015.15
276.775	47268.03
277.233	46620.22
277.692	43660.05
278.15	49455.92
278.609	50919.46
279.067	47136.48
279.525	43819.34
279.984	56662.58
280.442	68086.44
280.9	67130.62
281.358	44196.43
281.816	41174.81
282.274	40359.25
282.732	41773.95
283.19	42027.56
283.648	36316.76
284.106	38750.62
284.564	39440.73
285.021	36560.81
285.479	27287.44
285.937	24860.91
286.394	21815.28
286.852	22489.97
287.309	23669
287.767	22868.64
288.224	21728.89
288.682	23873.05
289.139	26216.68
289.596	23995.02
290.053	24988.46
290.511	31622.79
290.968	38388.23
291.425	52190.14
291.882	43423.98
292.339	37794.15
292.796	37553.19
293.252	35437.99
293.709	28126.54
294.166	25225.13
294.623	27932.05
295.079	26817.27
295.536	26921.81
295.992	24470.79
296.449	24212.73
296.905	25194.02
297.362	24186.27
297.818	25471.04
298.274	26446.88
298.731	26997.91
299.187	26721.11
299.643	28708.04
300.099	34764.14
300.555	38147.05
301.011	31883.81
301.467	30721.69
301.923	35999.61
302.379	35152.16
302.835	34538.11
303.291	34600.72
303.746	39420.62
304.202	49860.86
304.658	50087.38
305.113	33706.49
305.569	33037.29
306.024	35248.43
306.479	33629.74
306.935	28354.77
307.39	30990.37
307.845	28621.03
308.301	28785.5
308.756	28073.07
309.211	27053.99
309.666	27709.64
310.121	34361.16
310.576	34914.45
311.031	34667.67
311.486	39725.83
311.94	39732.19
312.395	53180.99
312.85	100069.81
313.305	492811.38
313.759	2548563.35
314.214	184911.67
314.668	146688.8
315.123	123522.09
315.577	44310.07
316.032	39439.96
316.486	49430.84
316.94	38996.34
317.394	27158.08
317.849	21132.24
318.303	20030.97
318.757	18926.23
319.211	20942.91
319.665	18351.21
320.119	18592.99
320.572	26714.74
321.026	24997.19
321.48	20835.15
321.934	22748.98
322.387	22833.5
322.841	24656.52
323.295	22137.41
323.748	25532.09
324.202	25892.06
324.655	31127.61
325.108	43474.98
325.562	30724.41
326.015	36527.32
326.468	27609.34
326.921	30891.59
327.374	28805.45
327.827	30004.24
328.28	34015.78
328.733	22806.48
329.186	20085.76
329.639	19149.51
330.092	16145.93
330.545	15381.36
330.997	15497.6
331.45	16928.12
331.903	19833.4
332.355	34155.69
332.808	33208.58
333.26	27381.94
333.713	29710.95
334.165	29947.96
334.617	39921.33
335.069	32321.5
335.522	58435.53
335.974	64755.21
336.426	59191.3
336.878	41042.98
337.33	20800.07
337.782	20317.01
338.234	25460.67
338.686	30468.86
339.137	36087.99
339.589	34067.22
340.041	26689.98
340.493	22972.61
340.944	23547.99
341.396	25386.7
341.847	21348.23
342.299	25195.82
342.75	30773.75
343.201	26913.42
343.653	30996.36
344.104	38152.38
344.555	30051.74
345.006	46826.59
345.457	35822.08
345.908	28495.53
346.359	26819.82
346.81	21872.49
347.261	23093.06
347.712	22747.67
348.163	24428.03
348.613	24718.88
349.064	23079.23
349.515	20213.04
349.965	20750.94
350.416	25060.62
350.866	27530.18
351.317	31184.9
351.767	51651.93
352.217	65280.77
352.668	54192.21
353.118	49645.81
353.568	47956.97
354.018	37896.03
354.468	39956.38
354.918	28630.6
355.368	25001.13
355.818	35349.65
356.268	101736.02
356.718	425881.72
357.168	105970.08
357.617	53273.2
358.067	59272.31
358.517	55536.62
358.966	65188.64
359.416	73162.39
359.865	79126.46
360.315	94236.47
360.764	43975.31
361.213	24609.15
361.663	23324.92
362.112	28793
362.561	46455.34
363.01	35084.65
363.459	29549.74
363.908	32009.89
364.357	27153.7
364.806	45882.35
365.255	31571.75
365.703	28887.13
366.152	28939.85
366.601	23481.16
367.05	19062.5
367.498	17328.04
367.947	18091.39
368.395	18812.46
368.844	16637.25
369.292	20079.64
369.74	13900.06
370.189	21318.74
370.637	24989.47
371.085	21578.84
371.533	26267.89
371.981	25344.43
372.429	24135.13
372.877	25175.25
373.325	21050.42
373.773	21433.62
374.221	19088.87
374.669	23678.43
375.116	20445.09
375.564	20605.6
376.012	23036.98
376.459	18984.84
376.907	22700.01
377.354	27441.55
377.801	25505.26
378.249	29299
378.696	37462.82
379.143	45334.09
379.591	48233.06
380.038	81473.94
380.485	58797.59
380.932	63418.39
381.379	57915.01
381.826	42536.94
382.273	30249.92
382.72	26501.08
383.166	25799.31
383.613	16731.58
384.06	15062.82
384.506	17425.97
384.953	12793.83
385.4	12874.22
385.846	11265.36
386.292	10983.66
386.739	10739.99
387.185	10613.83
387.631	10586.61
388.078	10261.98
388.524	10953.36
388.97	10100.75
389.416	8402.96
389.862	8937.56
390.308	8465.22
390.754	8593.32
391.2	9320.78
391.645	9538.82
392.091	9106.55
392.537	8794.5
392.983	8802.52
393.428	8654.78
393.874	9284.79
394.319	9318.67
394.765	8817.21
395.21	9075.29
395.655	8504.6
396.101	7967.79
396.546	7193.38
396.991	7262.95
397.436	6758.33
397.881	6538.49
398.326	6198.8
398.771	5869.22
399.216	5137.88
399.661	4637.91
400.106	4620.49
400.551	4730.44
400.995	4244.54
401.44	4200.29
401.885	3957.28
402.329	4004.9
402.774	3844.82
403.218	3725.43
403.663	3588.26
404.107	3693.34
404.551	3718.2
404.995	3414.75
405.44	3300.77
405.884	3354.64
406.328	3248.29
406.772	3238.77
407.216	2950.41
407.66	2854.24
408.104	2714.09
408.547	2547.91
408.991	2467.2
409.435	2378.92
409.879	2346.55
410.322	2317.62
410.766	2238.58
411.209	2132.91
411.653	2046.29
412.096	2004.3
412.54	2007.08
412.983	1995.1
413.426	1999.99
413.869	2001.62
414.312	1963.83
414.756	1893.02
415.199	1805.5
415.642	1755.52
416.085	1756.68
416.527	1748.48
416.97	1778.66
417.413	1688.18
417.856	1671.99
418.298	1657.65
418.741	1648.94
419.184	1646.01
419.626	1718.69
420.069	1723.38
420.511	1736.3
420.953	1699.65
421.396	1686.04
421.838	1646.55
422.28	1686.2
422.722	1694.57
423.164	1717.79
423.606	1687.74
424.048	1685.16
424.49	1599.28
424.932	1588.27
425.374	1563.64
425.816	1592.6
426.258	1618.69
426.699	1633.12
427.141	1607.35
427.582	1633.76
428.024	1626.39
428.465	1614.7
428.907	1577.38
429.348	1554.88
429.789	1551.88
430.231	1516.33
430.672	1532.95
431.113	1495.48
431.554	1471.67
431.995	1432.05
432.436	1376.75
432.877	1341.79
433.318	1316.77
433.759	1308.46
434.2	1307.54
434.64	1291.47
435.081	1294.15
435.522	1224.47
435.962	1178.53
436.403	1151.12
436.843	1165.55
437.284	1139.22
437.724	1107.49
438.164	1108.16
438.604	1081.12
439.045	1040.61
439.485	996.81
439.925	972.6
440.365	948.42
440.805	935.48
441.245	920.71
441.685	885.44
442.125	878.21
442.564	883.25
443.004	860.95
443.444	858.7
443.883	858.09
444.323	852.02
444.762	854.24
445.202	862.35
445.641	875.46
446.081	870.12
446.52	876.72
446.959	866.83
447.398	843.18
447.837	832.01
448.276	814.6
448.716	819.25
449.154	823.79
449.593	804.46
450.032	801.56
450.471	786.82
450.91	786.15
451.349	784.86
451.787	780.27
452.226	792.49
452.664	793.5
453.103	795.62
453.541	796.06
453.98	795.81
454.418	799.92
454.856	786.58
455.295	784.69
455.733	791.07
456.171	794.92
456.609	797.22
457.047	797.97
457.485	809.48
457.923	810.12
458.361	798.17
458.798	799.95
459.236	797.56
459.674	803.86
460.111	807.69
460.549	799.02
460.987	794.42
461.424	790.6
461.862	784.86
462.299	772.1
462.736	770.99
463.173	773.05
463.611	765.33
464.048	763.2
464.485	767.56
464.922	759.95
465.359	757.07
465.796	747.01
466.233	740.58
466.67	734.44
467.106	734.18
467.543	726.49
467.98	716.96
468.416	697.44
468.853	692.11
469.29	672.44
469.726	665.32
470.162	646.93
470.599	639.55
471.035	633.71
471.471	616.97
471.907	611.78
472.344	608.32
472.78	610.41
473.216	617.9
473.652	610.24
474.088	608.56
474.523	605.94
474.959	611.28
475.395	604.58
475.831	600.96
476.266	605.2
476.702	602.37
477.138	595.98
477.573	593.64
478.008	591.66
478.444	594.81
478.879	600.59
479.314	603.05
479.75	602.29
480.185	604.96
480.62	609.98
481.055	613.02
481.49	618.16
481.925	627.39
482.36	638.64
482.795	656.12
483.229	673.69
483.664	687.33
484.099	690.33
484.534	701.14
484.968	708.9
485.403	711.97
485.837	711.68
486.271	711.3
486.706	711.14
487.14	703.08
487.574	691.66
488.009	685.14
488.443	679.18
488.877	686.25
489.311	688.94
489.745	696.08
490.179	702.13
490.613	713.82
491.046	719.11
491.48	724.64
491.914	725.48
492.348	731.29
492.781	735.04
493.215	736.6
493.648	736.89
494.082	741.92
494.515	742.43
494.948	750.06
495.382	755.97
495.815	760.01
496.248	765.86
496.681	778.77
497.114	789.82
497.547	800.45
497.98	813.56
498.413	819.75
498.846	829.02
499.279	837.29
499.711	841.2
500.144	841.41
500.577	850.6
501.009	860.3
501.442	869.66
501.874	869.85
502.306	870.47
502.739	877.46
503.171	891.2
503.603	892.96
504.036	901.13
504.468	905.11
504.9	915.58
505.332	922.18
505.764	924.44
506.196	929.1
506.627	941.6
507.059	952.79
507.491	959.74
507.923	955.58
508.354	969.29
508.786	977.54
509.217	993
509.649	1005.37
510.08	1021.1
510.512	1035.51
510.943	1047.97
511.374	1056.91
511.805	1074.96
512.237	1090.52
512.668	1119.78
513.099	1142.98
513.53	1166.8
513.961	1184.7
514.391	1212.43
514.822	1242.39
515.253	1273.97
515.684	1294.85
516.114	1319.47
516.545	1336.03
516.975	1357.02
517.406	1370.92
517.836	1370.04
518.267	1372.78
518.697	1386.04
519.127	1387.26
519.558	1389.59
519.988	1389.16
520.418	1396.43
520.848	1409.85
521.278	1414.71
521.708	1432.91
522.138	1441.63
522.567	1468.15
522.997	1490.07
523.427	1500.85
523.857	1513.88
524.286	1521.32
524.716	1532.77
525.145	1547.85
525.575	1555.43
526.004	1566.79
526.433	1554.2
526.863	1552.28
527.292	1541.16
527.721	1543.5
528.15	1547.74
528.579	1546.65
529.008	1555.28
529.437	1574.86
529.866	1585.86
530.295	1599.62
530.724	1610.57
531.152	1632.91
531.581	1644.75
532.01	1660.2
532.438	1667.5
532.867	1679.52
533.295	1695.59
533.723	1699.88
534.152	1697.33
534.58	1696.43
535.008	1682.06
535.436	1682.4
535.865	1689.2
536.293	1702.4
536.721	1716
537.149	1739.53
537.576	1741.46
538.004	1752.07
538.432	1758.71
538.86	1757.76
539.287	1763.41
539.715	1776.09
540.143	1778.49
540.57	1774.71
540.998	1770.91
541.425	1749.8
541.852	1729.33
542.28	1727.73
542.707	1713.38
543.134	1700.81
543.561	1696.14
543.988	1689.99
544.415	1689.04
544.842	1683.44
545.269	1677.29
545.696	1678.95
546.123	1690.16
546.549	1680.05
546.976	1668.9
547.403	1668.21
547.829	1669.31
548.256	1670.99
548.682	1667.56
549.108	1660.93
549.535	1660.42
549.961	1661.77
550.387	1648.04
550.813	1642.51
551.24	1649.32
551.666	1649.03
552.092	1639.3
552.518	1633.3
552.943	1627.83
553.369	1633.97
553.795	1638.69
554.221	1639.11
554.646	1636.3
555.072	1647.71
555.498	1652.73
555.923	1661.14
556.349	1675.62
556.774	1683.39
557.199	1685.16
557.625	1690.98
558.05	1685.88
558.475	1695.93
558.9	1696.6
559.325	1690.48
559.75	1685.85
560.175	1681.28
560.6	1675.37
561.025	1674.87
561.449	1677.35
561.874	1684.21
562.299	1689.19
562.723	1697.02
563.148	1689.09
563.572	1693.84
563.997	1704.13
564.421	1710.46
564.846	1711.49
565.27	1716.69
565.694	1714.71
566.118	1727.51
566.542	1736.05
566.966	1731.2
567.39	1729.55
567.814	1720.72
568.238	1721.59
568.662	1728.66
569.086	1731.42
569.509	1740.57
569.933	1728.12
570.357	1725.05
570.78	1707.07
571.204	1696.55
571.627	1690.05
572.05	1689.53
572.474	1692.04
572.897	1683.1
573.32	1677.39
573.743	1671.1
574.166	1654.74
574.589	1656.14
575.012	1648.49
575.435	1649.48
575.858	1642.58
576.281	1632.63
576.704	1618.65
577.126	1607.3
577.549	1597.75
577.972	1589.19
578.394	1580.34
578.817	1575.6
579.239	1558.06
579.661	1548.06
580.084	1533.12
580.506	1521.22
580.928	1519.13
581.35	1509.41
581.772	1507.25
582.194	1495.01
582.616	1482.71
583.038	1469.69
583.46	1459.72
583.882	1458.26
584.303	1462.75
584.725	1460.41
585.147	1464.26
585.568	1474.61
585.99	1488.52
586.411	1496.2
586.833	1511.79
587.254	1515.04
587.675	1529.37
588.096	1542.94
588.518	1538.55
588.939	1523.85
589.36	1522.53
589.781	1511.92
590.202	1484.38
590.623	1475.56
591.043	1472.33
591.464	1460.07
591.885	1457.22
592.305	1452.28
592.726	1440.7
593.147	1441.67
593.567	1436.24
593.987	1429.19
594.408	1424.16
594.828	1423.08
595.248	1417.71
595.669	1400.54
596.089	1394.02
596.509	1388.25
596.929	1375.74
597.349	1375.46
597.769	1367.05
598.189	1361.15
598.608	1362.78
599.028	1365.12
599.448	1365.57
599.867	1353
600.287	1349.03
600.706	1346.04
601.126	1337.11
601.545	1336.47
601.965	1336.07
602.384	1331.16
602.803	1335.1
603.222	1331.52
603.641	1325.09
604.061	1322.21
604.48	1319.03
604.898	1328.31
605.317	1333.51
605.736	1336.48
606.155	1333.89
606.574	1325.75
606.992	1332.37
607.411	1328.34
607.829	1320.22
608.248	1318.73
608.666	1317.11
609.085	1317.01
609.503	1308.82
609.921	1303.74
610.339	1306.32
610.758	1306.74
611.176	1303.95
611.594	1295.57
612.012	1292.49
612.43	1297.7
612.847	1304.91
613.265	1306.66
613.683	1313.74
614.101	1316.84
614.518	1313.79
614.936	1304.85
615.353	1292.6
615.771	1288.96
616.188	1289.69
616.606	1287.88
617.023	1281.75
617.44	1269.04
617.857	1263.42
618.274	1255.67
618.691	1250.38
619.108	1241.77
619.525	1236.28
619.942	1241.55
620.359	1246.18
620.776	1242.11
621.192	1237.95
621.609	1235.68
622.026	1241.85
622.442	1248.61
622.859	1251.44
623.275	1245.16
623.691	1251.3
624.108	1264.95
624.524	1281.48
624.94	1282.08
625.356	1292.26
625.772	1306.3
626.188	1318.5
626.604	1320.38
627.02	1316.58
627.436	1316.18
627.852	1323.12
628.268	1336.25
628.683	1326.24
629.099	1317.64
629.514	1311.38
629.93	1315.4
630.345	1320.33
630.761	1316.94
631.176	1321.44
631.591	1315.63
632.007	1308.91
632.422	1306.98
632.837	1295.98
633.252	1293.9
633.667	1283.96
634.082	1277.14
634.497	1265.42
634.911	1246.07
635.326	1242.61
635.741	1226.17
636.155	1217.78
636.57	1220.96
636.984	1221.12
637.399	1223.69
637.813	1224.32
638.228	1224.25
638.642	1228.16
639.056	1219.14
639.47	1222.05
639.884	1215.98
640.298	1211.01
640.712	1211
641.126	1198.89
641.54	1192.53
641.954	1188.76
642.368	1177.56
642.781	1171.64
643.195	1156.13
643.609	1158.52
644.022	1153.07
644.436	1149.49
644.849	1138.32
645.262	1128.1
645.676	1131.31
646.089	1127.24
646.502	1112.93
646.915	1108.23
647.328	1091.19
647.741	1089.78
648.154	1076.19
648.567	1072.55
648.98	1060.34
649.393	1060.82
649.805	1056.44
650.218	1049.38
650.631	1033.3
651.043	1026.26
651.456	1020.6
651.868	1021.43
652.28	1038.87
652.693	1053.29
653.105	1061.33
653.517	1071.29
653.929	1072.81
654.341	1078.97
654.753	1066.7
655.165	1074.63
655.577	1073.01
655.989	1069.57
656.401	1062.98
656.813	1026.56
657.224	1006.36
657.636	977.81
658.047	960.64
658.459	941.24
658.87	933.35
659.282	920.95
659.693	899.67
660.104	885.36
660.515	872.75
660.926	871.68
661.338	869.29
661.749	864.05
662.159	855.66
662.57	850.93
662.981	846.53
663.392	838.43
663.803	844.33
664.213	842.38
664.624	838.87
665.035	841.15
665.445	826.52
665.855	819.1
666.266	810.8
666.676	807.84
667.086	799.47
667.497	799.3
667.907	793.74
668.317	783.73
668.727	780.23
669.137	780.38
669.547	778.32
669.956	780.35
670.366	782.52
670.776	783.55
671.186	786.93
671.595	789.43
672.005	792.69
672.414	790.83
672.824	789.59
673.233	794.14
673.642	796.27
674.052	797.41
674.461	799.97
674.87	804.64
675.279	802.12
675.688	803.92
676.097	804.12
676.506	800.63
676.915	815.12
677.323	816.42
677.732	813.54
678.141	811.37
678.549	799.84
678.958	797.45
679.366	794.25
679.775	797.21
680.183	805.59
680.592	810.87
681	814.69
681.408	807.13
681.816	813.95
682.224	822.28
682.632	831.68
683.04	861.74
683.448	885.58
683.856	917.2
684.264	952.93
684.671	984.49
685.079	1023.72
685.487	1066.94
685.894	1128.53
686.302	1177.28
686.709	1215.17
687.116	1260.86
687.524	1298.06
687.931	1328.94
688.338	1352.56
688.745	1371.22
689.152	1393.83
689.559	1426.59
689.966	1459.01
690.373	1467.56
690.78	1497.63
691.187	1547.35
691.593	1583.27
692	1610.28
692.407	1656.5
692.813	1717.96
693.22	1762.93
693.626	1811.65
694.032	1847.22
694.439	1908.64
694.845	1953.84
695.251	2012.91
695.657	2066.74
