Data from C_2_HIR_IL_4N_Splice17_12-12-20-757.txt Node
Date: Sat Mar 14 12:12:20 EDT 2020
User: sa697716
Spectrometer: FLMS03696
Trigger mode: 0
Integration Time (sec): 3.180400E-1
Scans to average: 20
Electric dark correction enabled: true
Nonlinearity correction enabled: true
Boxcar width: 5
XAxis mode: Wavelengths
Number of Pixels in Spectrum: 2048
>>>>>Begin Spectral Data<<<<<
187.83	-260249.36
188.298	1903.22
188.766	1066.51
189.233	948.51
189.701	1326.37
190.169	1915.11
190.636	728.82
191.104	516.92
191.571	59.53
192.039	-76.14
192.506	-118.88
192.974	250.45
193.441	-503.16
193.908	-6.09
194.375	22.73
194.842	42.57
195.31	217.91
195.777	194.65
196.244	353.97
196.711	411.81
197.177	517.77
197.644	731.02
198.111	1281.22
198.578	1807.45
199.045	1460.15
199.511	2396.66
199.978	2808.38
200.445	2375.24
200.911	2647.12
201.378	2941.45
201.844	2693.61
202.31	4611.38
202.777	4777.2
203.243	2638.29
203.709	2507.2
204.176	2984.39
204.642	2447.44
205.108	2292.69
205.574	1864.52
206.04	1674.8
206.506	1563.57
206.972	1455.54
207.438	1405.52
207.903	1609.11
208.369	1410.15
208.835	1427.01
209.301	1502.44
209.766	1536.15
210.232	1511.26
210.697	1863.77
211.163	2316.42
211.628	3500.23
212.094	2969.41
212.559	3673.22
213.024	2264.42
213.49	2768.45
213.955	2686.77
214.42	2595.5
214.885	2421.61
215.35	2328.39
215.815	2246.6
216.28	2388.87
216.745	1947.71
217.21	2096.08
217.675	1896.86
218.14	2137.7
218.604	2367.18
219.069	2678.82
219.534	2795.89
219.998	3208.45
220.463	3855.37
220.927	4702.96
221.392	4400.4
221.856	4457.24
222.32	5585.34
222.785	6892.78
223.249	8637.91
223.713	9621.06
224.177	9591.84
224.642	12259.77
225.106	15128.62
225.57	16546.28
226.034	12288.06
226.497	18686.63
226.961	16860.26
227.425	19652.6
227.889	21775.39
228.353	21804.28
228.816	44999.96
229.28	43101.21
229.744	36370.38
230.207	22085.15
230.671	21723.74
231.134	35981.81
231.597	41597.75
232.061	41582.95
232.524	40486.91
232.987	27938.47
233.45	25124.97
233.914	22560.17
234.377	23113.77
234.84	21208.72
235.303	25041.73
235.766	27959.81
236.229	28957.58
236.691	18222.21
237.154	20475.31
237.617	15459.6
238.08	15847.47
238.542	18599.24
239.005	13323.91
239.468	13243.66
239.93	12479
240.393	11369.01
240.855	9992.57
241.317	10215.05
241.78	12442.19
242.242	12888.72
242.704	13911.66
243.166	12113.17
243.629	11002.17
244.091	12675.15
244.553	13899.28
245.015	14951.16
245.477	19310.38
245.939	28282.85
246.4	30085.76
246.862	29223.86
247.324	27557.56
247.786	30846.32
248.247	40445.65
248.709	41764.88
249.17	31230.79
249.632	29442
250.093	34200.5
250.555	29545.47
251.016	18049.22
251.477	17115.02
251.939	18477.03
252.4	19364.88
252.861	23008.17
253.322	21409.6
253.783	25448.12
254.244	33012.99
254.705	25997.26
255.166	23070.9
255.627	22724.07
256.088	32008.26
256.549	33989.53
257.009	29257.11
257.47	35523.99
257.931	28954.4
258.391	21680.76
258.852	22355.64
259.312	23454.84
259.773	28974.76
260.233	24458.67
260.694	20610.01
261.154	23382.4
261.614	18759.55
262.074	16793.61
262.534	17413.12
262.994	16379.71
263.455	21786.44
263.915	18315.56
264.374	17198.89
264.834	18737.76
265.294	20745.37
265.754	21469.21
266.214	20259.5
266.673	18954.28
267.133	23851.51
267.593	23618.91
268.052	28870.53
268.512	25068.32
268.971	30214.69
269.431	33085.63
269.89	29617.45
270.349	44388.57
270.809	49404.05
271.268	44416.11
271.727	99411.66
272.186	64309.37
272.645	48225.95
273.104	34708.03
273.563	50158.76
274.022	39373.44
274.481	33486.21
274.94	25795.67
275.399	19127.31
275.857	22233.15
276.316	30019.64
276.775	26687.76
277.233	26252.7
277.692	24578.46
278.15	27809.92
278.609	28644.38
279.067	26485.73
279.525	24579.8
279.984	31662.8
280.442	38004.62
280.9	37482.91
281.358	24651.93
281.816	22970.51
282.274	22485.89
282.732	23199.25
283.19	23306.96
283.648	20087.81
284.106	21389.39
284.564	21741.17
285.021	20157.72
285.479	15016.84
285.937	13644.94
286.394	11980.43
286.852	12322.4
287.309	12945.91
287.767	12499.11
288.224	11877.8
288.682	13029.92
289.139	14310.18
289.596	13098.84
290.053	13594.66
290.511	17144.02
290.968	20809.51
291.425	28209.64
291.882	23470.54
292.339	20418.45
292.796	20246.69
293.252	19068.24
293.709	15149.04
294.166	13558.78
294.623	14959.63
295.079	14356.07
295.536	14429.75
295.992	13068
296.449	12913.86
296.905	13409.77
297.362	12861.88
297.818	13514.28
298.274	14012.89
298.731	14280.24
299.187	14132.52
299.643	15168.69
300.099	18344.62
300.555	20119.73
301.011	16819.06
301.467	16238.27
301.923	18995.52
302.379	18551.5
302.835	18220.6
303.291	18220.46
303.746	20711.92
304.202	26169.31
304.658	26278.45
305.113	17677.51
305.569	17327.13
306.024	18478.29
306.479	17577.44
306.935	14837.47
307.39	16184.22
307.845	14979.16
308.301	15143.26
308.756	14757.41
309.211	14217.04
309.666	14565.53
310.121	18128.65
310.576	18417.16
311.031	18296.98
311.486	20972.66
311.94	20980.9
312.395	28121.83
312.85	52788
313.305	258292.57
313.759	1341602.9
314.214	97410.43
314.668	77462.57
315.123	65054.43
315.577	23308.88
316.032	20709.24
316.486	25910.4
316.94	20474.22
317.394	14242.15
317.849	11074.93
318.303	10490.74
318.757	9902.52
319.211	10934.15
319.665	9552.8
320.119	9661.36
320.572	13864.24
321.026	12953.34
321.48	10774.79
321.934	11727.93
322.387	11745.55
322.841	12698.63
323.295	11440.72
323.748	13137.55
324.202	13330.73
324.655	16041.08
325.108	22474.3
325.562	15888.19
326.015	18902.63
326.468	14333.95
326.921	16023.69
327.374	14961.85
327.827	15612.61
328.28	17677.05
328.733	11847.96
329.186	10441.76
329.639	9928.52
330.092	8363.47
330.545	7960.91
330.997	8040.83
331.45	8803.88
331.903	10333.29
332.355	17790.55
332.808	17227.37
333.26	14208.85
333.713	15460.03
334.165	15556.96
334.617	20811.52
335.069	16770.89
335.522	30326.99
335.974	33516.36
336.426	30536.34
336.878	21142.87
337.33	10732.02
337.782	10518.13
338.234	13192.41
338.686	15729.57
339.137	18663.6
339.589	17546.26
340.041	13795.16
340.493	11868.57
340.944	12192.81
341.396	13127.55
341.847	11063.19
342.299	13072.75
342.75	15891.26
343.201	13862.45
343.653	15966.26
344.104	19581.61
344.555	15424.37
345.006	23988.43
345.457	18346.86
345.908	14510.32
346.359	13646.81
346.81	11088.74
347.261	11646.89
347.712	11463.69
348.163	12285.85
348.613	12494.67
349.064	11679.28
349.515	10220.94
349.965	10488.22
350.416	12646.34
350.866	13906.14
351.317	15731.45
351.767	26044.31
352.217	32854.81
352.668	27312.77
353.118	25083.52
353.568	24068.55
354.018	18997.2
354.468	20052.11
354.918	14340.37
355.368	12549.05
355.818	17719.81
356.268	50981.47
356.718	213601.24
357.168	53279.56
357.617	26765.41
358.067	29706.19
358.517	27882.94
358.966	32735.44
359.416	36703.34
359.865	39721.15
360.315	47155.86
360.764	22006.25
361.213	12321.2
361.663	11618.1
362.112	14301.17
362.561	23028.7
363.01	17353.25
363.459	14574.01
363.908	15781.74
364.357	13384.35
364.806	22581.69
365.255	15530.57
365.703	14238.39
366.152	14269.74
366.601	11610.08
367.05	9449.22
367.498	8606.72
367.947	8987.38
368.395	9342.93
368.844	8259.51
369.292	9948.33
369.74	6869.24
370.189	10517.28
370.637	12310.2
371.085	10608.29
371.533	12910.2
371.981	12395.93
372.429	11802.08
372.877	12279.93
373.325	10288.69
373.773	10485.21
374.221	9329.75
374.669	11580.5
375.116	10003.28
375.564	10086.64
376.012	11243.28
376.459	9275.86
376.907	11073.78
377.354	13348.42
377.801	12481.6
378.249	14325.06
378.696	18221.05
379.143	22022.73
379.591	23410.92
380.038	39523.94
380.485	28522.17
380.932	30725.31
381.379	27999.69
381.826	20662.98
382.273	14722.84
382.72	12816.76
383.166	12452.24
383.613	8096.47
384.06	7295.02
384.506	8426.53
384.953	6179.05
385.4	6210.54
385.846	5444.38
386.292	5301.78
386.739	5170.22
387.185	5088.67
387.631	5071.75
388.078	4923.72
388.524	5249.69
388.97	4849.25
389.416	4041.88
389.862	4296.13
390.308	4071.37
390.754	4122.1
391.2	4458.85
391.645	4561.17
392.091	4375.71
392.537	4235.41
392.983	4225.04
393.428	4162.79
393.874	4452.71
394.319	4466.41
394.765	4237.14
395.21	4344.01
395.655	4084.03
396.101	3824.72
396.546	3446.51
396.991	3464.84
397.436	3212.72
397.881	3113.53
398.326	2940.5
398.771	2788.66
399.216	2442.91
399.661	2201.41
400.106	2194.72
400.551	2245.13
400.995	2015.43
401.44	1993.12
401.885	1872.52
402.329	1893.24
402.774	1813.52
403.218	1762.18
403.663	1693.19
404.107	1739.62
404.551	1752.07
404.995	1605.55
405.44	1542.94
405.884	1565.5
406.328	1515.32
406.772	1512.7
407.216	1381.36
407.66	1335.85
408.104	1262.73
408.547	1184.17
408.991	1145.87
409.435	1103.32
409.879	1090.32
410.322	1077.76
410.766	1043.95
411.209	994.25
411.653	953.94
412.096	934.16
412.54	934.91
412.983	932.73
413.426	937.25
413.869	938.09
414.312	923.05
414.756	888.13
415.199	849.17
415.642	827.56
416.085	831.6
416.527	825.15
416.97	838.23
417.413	796.68
417.856	786.06
418.298	778.6
418.741	771.38
419.184	767.14
419.626	799.61
420.069	798.54
420.511	803.86
420.953	785.41
421.396	781.27
421.838	761.24
422.28	779.55
422.722	786.93
423.164	795.91
423.606	783.58
424.048	781.74
424.49	742.26
424.932	738.09
425.374	724.05
425.816	735.78
426.258	748.09
426.699	755.2
427.141	743.02
427.582	751.81
428.024	747.11
428.465	740.58
428.907	723.33
429.348	714.45
429.789	716.97
430.231	704.3
430.672	713.91
431.113	697.13
431.554	688.94
431.995	671.3
432.436	649.8
432.877	636.97
433.318	629.95
433.759	627.12
434.2	628.15
434.64	620.09
435.081	623.28
435.522	590.86
435.962	570.46
436.403	558.89
436.843	566.8
437.284	553.12
437.724	539.13
438.164	540.53
438.604	529.46
439.045	512.24
439.485	494.77
439.925	482.69
440.365	471.56
440.805	465.64
441.245	461.83
441.685	445.12
442.125	442.83
442.564	444.19
443.004	433.49
443.444	432.75
443.883	433.98
444.323	428.16
444.762	428.49
445.202	434.48
445.641	444.44
446.081	438.95
446.52	443.59
446.959	440.16
447.398	432.79
447.837	429.31
448.276	421.91
448.716	426.21
449.154	430.97
449.593	422.88
450.032	422.66
450.471	414.11
450.91	416.87
451.349	417.82
451.787	415.79
452.226	421.69
452.664	422.18
453.103	424.24
453.541	422.45
453.98	423.5
454.418	425.69
454.856	419.46
455.295	419.26
455.733	421.99
456.171	422.84
456.609	425.38
457.047	425.27
457.485	431.38
457.923	433.1
458.361	427.66
458.798	429.04
459.236	428.8
459.674	431.23
460.111	434.12
460.549	430
460.987	428.99
461.424	427.07
461.862	425
462.299	418.69
462.736	418.65
463.173	420.5
463.611	417.47
464.048	415.86
464.485	420.24
464.922	414.99
465.359	412.98
465.796	411.47
466.233	409.21
466.67	405.52
467.106	405.97
467.543	400.8
467.98	395.27
468.416	383.27
468.853	380.87
469.29	367.98
469.726	363.82
470.162	355.14
470.599	347.13
471.035	342.51
471.471	334.86
471.907	331.03
472.344	328.95
472.78	329.76
473.216	333.78
473.652	329.45
474.088	328.68
474.523	328.45
474.959	330.75
475.395	327.02
475.831	324.9
476.266	325.2
476.702	323.92
477.138	319.76
477.573	319.09
478.008	317.43
478.444	319.46
478.879	323.62
479.314	324.9
479.75	324.35
480.185	326.25
480.62	328.97
481.055	331.2
481.49	334.34
481.925	339.73
482.36	346.73
482.795	356.6
483.229	365.4
483.664	372.21
484.099	373.34
484.534	379.12
484.968	383.95
485.403	385.33
485.837	385.02
486.271	384.12
486.706	384.75
487.14	380.22
487.574	375.09
488.009	371.98
488.443	369.94
488.877	375.06
489.311	377.34
489.745	382.11
490.179	386.9
490.613	396.56
491.046	401.02
491.48	406.12
491.914	408.04
492.348	412.58
492.781	418.03
493.215	421.19
493.648	424.11
494.082	430.19
494.515	433.11
494.948	441.27
495.382	445.9
495.815	452.48
496.248	459.01
496.681	469.9
497.114	480.87
497.547	490.71
497.98	503.89
498.413	512.01
498.846	522.27
499.279	532.8
499.711	539.55
500.144	545.82
500.577	557.85
501.009	569.53
501.442	582.49
501.874	588.45
502.306	594.9
502.739	605.48
503.171	621.49
503.603	630.14
504.036	641.55
504.468	651.97
504.9	666.38
505.332	676.68
505.764	685.98
506.196	696.68
506.627	713.51
507.059	730.34
507.491	742.97
507.923	747.95
508.354	766.1
508.786	781.33
509.217	801.96
509.649	820.11
510.08	842.33
510.512	862.86
510.943	881.64
511.374	898.36
511.805	921.08
512.237	943.91
512.668	977.37
513.099	1005.83
513.53	1035.54
513.961	1058.79
514.391	1092.63
514.822	1127.77
515.253	1165.32
515.684	1193.78
516.114	1224.03
516.545	1248.37
516.975	1277.06
517.406	1297.39
517.836	1304.29
518.267	1314.78
518.697	1335.27
519.127	1343.41
519.558	1354.25
519.988	1361.04
520.418	1374.13
520.848	1394.03
521.278	1404.86
521.708	1423.75
522.138	1438.17
522.567	1470.79
522.997	1497.62
523.427	1515.85
523.857	1532.86
524.286	1544.53
524.716	1561.09
525.145	1580.81
525.575	1593.36
526.004	1609.7
526.433	1605.43
526.863	1607.57
527.292	1599.57
527.721	1605.46
528.15	1611.83
528.579	1614.46
529.008	1625.34
529.437	1647.89
529.866	1661.81
530.295	1678.86
530.724	1690.96
531.152	1718.14
531.581	1733.62
532.01	1751.1
532.438	1760.19
532.867	1773.95
533.295	1791.59
533.723	1798.19
534.152	1796.72
534.58	1796.96
535.008	1782.13
535.436	1784.45
535.865	1791.84
536.293	1806.03
536.721	1822.48
537.149	1847.11
537.576	1850.02
538.004	1863.57
538.432	1872.33
538.86	1870.63
539.287	1878.29
539.715	1893.01
540.143	1896.6
540.57	1894.28
540.998	1891.05
541.425	1867.94
541.852	1847.48
542.28	1846.7
542.707	1831.9
543.134	1817.91
543.561	1814.21
543.988	1806.4
544.415	1805.49
544.842	1799.56
545.269	1791.08
545.696	1792
546.123	1803.5
546.549	1794.13
546.976	1782.08
547.403	1780.28
547.829	1781.3
548.256	1782.63
548.682	1779.11
549.108	1771.58
549.535	1771.23
549.961	1772.94
550.387	1760.2
550.813	1755.52
551.24	1760.93
551.666	1760.61
552.092	1751.79
552.518	1745.03
552.943	1739.04
553.369	1746.23
553.795	1751.38
554.221	1751.84
554.646	1748.36
555.072	1758.35
555.498	1762.52
555.923	1771.31
556.349	1786.04
556.774	1793.47
557.199	1794.35
557.625	1799.56
558.05	1792.24
558.475	1802.43
558.9	1801.53
559.325	1794.04
559.75	1787.85
560.175	1780.95
560.6	1773.63
561.025	1771.17
561.449	1770.69
561.874	1775.73
562.299	1780.26
562.723	1787.95
563.148	1776.6
563.572	1779.9
563.997	1789.73
564.421	1794
564.846	1793.42
565.27	1796.62
565.694	1793.75
566.118	1805.73
566.542	1813.82
566.966	1806.88
567.39	1800.19
567.814	1789.59
568.238	1786.95
568.662	1791.44
569.086	1792.87
569.509	1800.32
569.933	1784.37
570.357	1776.47
570.78	1753.95
571.204	1739.47
571.627	1727.97
572.05	1726.53
572.474	1724.8
572.897	1712.89
573.32	1703.34
573.743	1692.43
574.166	1673.65
574.589	1672.9
575.012	1665.03
575.435	1664.01
575.858	1653.98
576.281	1642.76
576.704	1626.29
577.126	1613.63
577.549	1602.94
577.972	1591.99
578.394	1581.53
578.817	1572.42
579.239	1553.8
579.661	1539.53
580.084	1523.03
580.506	1509.76
580.928	1504.61
581.35	1493.16
581.772	1487.81
582.194	1473.43
582.616	1460.29
583.038	1445.7
583.46	1435.41
583.882	1430.91
584.303	1433.66
584.725	1429.51
585.147	1430.43
585.568	1440.03
585.99	1450.91
586.411	1456.78
586.833	1469.25
587.254	1470.5
587.675	1483.83
588.096	1495.76
588.518	1491.21
588.939	1475.67
589.36	1473.23
589.781	1462.5
590.202	1435
590.623	1425.1
591.043	1422.63
591.464	1411.11
591.885	1407.57
592.305	1400.4
592.726	1386.67
593.147	1387.23
593.567	1380.66
593.987	1373.75
594.408	1367.72
594.828	1364.27
595.248	1359.69
595.669	1342.03
596.089	1334.38
596.509	1327.45
596.929	1314.02
597.349	1314.08
597.769	1303.62
598.189	1297.4
598.608	1296.76
599.028	1299.38
599.448	1299.58
599.867	1285.88
600.287	1280.29
600.706	1276.6
601.126	1267.61
601.545	1267.29
601.965	1264.57
602.384	1259.91
602.803	1261.99
603.222	1256.97
603.641	1250.24
604.061	1247.03
604.48	1243.59
604.898	1250.3
605.317	1252.7
605.736	1253.17
606.155	1249.14
606.574	1241.29
606.992	1244.32
607.411	1239.25
607.829	1231.12
608.248	1226.52
608.666	1222.59
609.085	1221.53
609.503	1212.43
609.921	1206.26
610.339	1206.71
610.758	1204.89
611.176	1198.49
611.594	1188.65
612.012	1184.29
612.43	1186.64
612.847	1191.47
613.265	1191.61
613.683	1193.66
614.101	1194.95
614.518	1191.03
614.936	1180.71
615.353	1166.64
615.771	1162.99
616.188	1162.82
616.606	1157.91
617.023	1149.45
617.44	1134.84
617.857	1126.51
618.274	1117.79
618.691	1111.25
619.108	1101.81
619.525	1095.66
619.942	1100.3
620.359	1102.09
620.776	1096.75
621.192	1092.06
621.609	1089.09
622.026	1094.53
622.442	1099.15
622.859	1101.33
623.275	1094.51
623.691	1097.73
624.108	1108.11
624.524	1120.23
624.94	1119.12
625.356	1127.36
625.772	1139.74
626.188	1149.86
626.604	1150.84
627.02	1147.31
627.436	1145.91
627.852	1151.38
628.268	1161.97
628.683	1152.67
629.099	1144.4
629.514	1139.34
629.93	1141.01
630.345	1143
630.761	1139.28
631.176	1140.99
631.591	1134.96
632.007	1127.59
632.422	1124.53
632.837	1113.77
633.252	1110.47
633.667	1100.72
634.082	1092.17
634.497	1079.72
634.911	1061.59
635.326	1056.69
635.741	1040.67
636.155	1029.27
636.57	1027.93
636.984	1025.59
637.399	1024.48
637.813	1020.65
638.228	1016.32
638.642	1016.51
639.056	1005.41
639.47	1001.83
639.884	991.17
640.298	981.74
640.712	976.14
641.126	961.65
641.54	948.85
641.954	938.63
642.368	925.09
642.781	913.62
643.195	895.17
643.609	891.04
644.022	881.6
644.436	872.78
644.849	858.54
645.262	846.25
645.676	843.47
646.089	835.76
646.502	821.23
646.915	812.94
647.328	797.47
647.741	791.81
648.154	778.06
648.567	774.31
648.98	762.11
649.393	758.89
649.805	752.84
650.218	744.58
650.631	731.71
651.043	725.74
651.456	720.23
651.868	718.16
652.28	729.07
652.693	736.95
653.105	738.71
653.517	743.41
653.929	742.79
654.341	745.87
654.753	735.94
655.165	737.39
655.577	733.1
655.989	727.19
656.401	719.04
656.813	690.59
657.224	674.35
657.636	651.04
658.047	636.61
658.459	620.06
658.87	609.77
659.282	598.31
659.693	581.41
660.104	567.31
660.515	554.56
660.926	548.79
661.338	543.3
661.749	534.37
662.159	524.91
662.57	516.74
662.981	510.45
663.392	501.55
663.803	499.05
664.213	493.45
664.624	487.52
665.035	484.96
665.445	474.9
665.855	467.68
666.266	461.53
666.676	457.38
667.086	449.41
667.497	445.75
667.907	440.33
668.317	433.17
668.727	430.55
669.137	429.03
669.547	426.9
669.956	425.83
670.366	425.62
670.776	424.64
671.186	426.24
671.595	428.78
672.005	430.86
672.414	430.4
672.824	430.43
673.233	431.39
673.642	432.94
674.052	435.07
674.461	437.73
674.87	440.38
675.279	440.2
675.688	440.54
676.097	442.23
676.506	441.28
676.915	450.54
677.323	453.83
677.732	454.6
678.141	456.54
678.549	451.13
678.958	451.32
679.366	452.86
679.775	456.49
680.183	467.17
680.592	473.3
681	480.05
681.408	479.55
681.816	487.6
682.224	496.15
682.632	507.14
683.04	531.52
683.448	552.96
683.856	579.94
684.264	610.32
684.671	638.39
685.079	672.98
685.487	710.8
685.894	763.67
686.302	809.71
686.709	851.69
687.116	898.84
687.524	942.5
687.931	982.46
688.338	1018.71
688.745	1052.79
689.152	1090.22
689.559	1136.33
689.966	1184.52
690.373	1214.3
690.78	1258.93
691.187	1322.95
691.593	1375.16
692	1421.6
692.407	1486.36
692.813	1562.86
693.22	1624.65
693.626	1689.41
694.032	1742.66
694.439	1817.84
694.845	1877.81
695.251	1952.1
695.657	2019.13
696.063	2115.87
696.469	2188.06
696.875	2256.1
697.281	2294.99
697.687	2345.79
698.093	2386.97
698.498	2462.1
698.904	2520.54
699.31	2607.18
699.715	2669.69
700.12	2760.6
