Data from C_2_DEC_ON_6N_Splice17_12-15-39-611.txt Node
Date: Sat Mar 14 12:15:39 EDT 2020
User: sa697716
Spectrometer: FLMS03696
Trigger mode: 0
Integration Time (sec): 3.180400E-1
Scans to average: 20
Electric dark correction enabled: true
Nonlinearity correction enabled: true
Boxcar width: 5
XAxis mode: Wavelengths
Number of Pixels in Spectrum: 2048
>>>>>Begin Spectral Data<<<<<
187.83	-319018.41
188.298	2333.77
188.766	1238.96
189.233	1123.93
189.701	1556.53
190.169	2180.75
190.636	836.76
191.104	739.27
191.571	166.03
192.039	-15.12
192.506	28.88
192.974	469.13
193.441	-643.06
193.908	-63.78
194.375	28.09
194.842	88.69
195.31	211.37
195.777	199.33
196.244	1046.6
196.711	2760.07
197.177	3899.01
197.644	6139.34
198.111	10663.16
198.578	15022.02
199.045	12055.12
199.511	19831.98
199.978	23419.11
200.445	19400.43
200.911	21566.25
201.378	24398.06
201.844	21338.56
202.31	36132.56
202.777	36957.99
203.243	20262.61
203.709	19090.47
204.176	22468.21
204.642	18290.1
205.108	16849.06
205.574	13830.54
206.04	12736.86
206.506	11820.12
206.972	11272.14
207.438	10811.68
207.903	12286.12
208.369	10560.41
208.835	10334.7
209.301	10699.37
209.766	10962.45
210.232	10720.46
210.697	13149.1
211.163	16061.24
211.628	24143.88
212.094	19741.2
212.559	23362.42
213.024	14241.78
213.49	17063.83
213.955	16526.68
214.42	16146.71
214.885	14703.01
215.35	13844.63
215.815	12642.19
216.28	13012.23
216.745	10276.54
217.21	10567.44
217.675	9367.65
218.14	9867.65
218.604	10310.45
219.069	10822.17
219.534	10308.58
219.998	11063.43
220.463	12338.03
220.927	14173.93
221.392	12326.62
221.856	11564.63
222.32	13703.34
222.785	15860.77
223.249	18845.23
223.713	19972.41
224.177	19058.37
224.642	23486.1
225.106	27816.58
225.57	29309.93
226.034	21032.02
226.497	31094.35
226.961	27219.88
227.425	30769.87
227.889	33204.45
228.353	32320.43
228.816	64994.98
229.28	60713.31
229.744	50060.7
230.207	29767.33
230.671	28697.67
231.134	46531.31
231.597	52634.08
232.061	51711.86
232.524	49595.85
232.987	33679.52
233.45	29926.18
233.914	26553.35
234.377	26853.42
234.84	24283.65
235.303	28331.96
235.766	31297.52
236.229	32082.68
236.691	20038.2
237.154	22389.7
237.617	16743.33
238.08	17060.86
238.542	19873.27
239.005	14144.78
239.468	13994.36
239.93	13162.39
240.393	11931.62
240.855	10435.54
241.317	10653.18
241.78	12888.04
242.242	13256.15
242.704	14278.89
243.166	12366.01
243.629	11180.95
244.091	12803.52
244.553	13949.33
245.015	14932.25
245.477	19210.48
245.939	28045.92
246.4	29594.16
246.862	28680.58
247.324	26941.76
247.786	30024.36
248.247	39274.2
248.709	40383.08
249.17	30136.45
249.632	28397.58
250.093	32849.44
250.555	28300.38
251.016	17235.5
251.477	16320.1
251.939	17577.77
252.4	18420.91
252.861	21877.64
253.322	20359.6
253.783	24254.98
254.244	31501.42
254.705	24795.55
255.166	22023.18
255.627	21683.54
256.088	30566.47
256.549	32462.34
257.009	27950.63
257.47	33865.29
257.931	27496.23
258.391	20474.11
258.852	20968.6
259.312	21816.21
259.773	26767.27
260.233	22486.04
260.694	18847.29
261.154	21216.35
261.614	16939.04
262.074	15008.03
262.534	15466.96
262.994	14463.49
263.455	19116.02
263.915	15984.16
264.374	14920.52
264.834	16144.64
265.294	17725.01
265.754	18188.85
266.214	17053.54
266.673	15802.07
267.133	19786.87
267.593	19471.36
268.052	23643.03
268.512	20442.94
268.971	24549.84
269.431	26825.67
269.89	23953.66
270.349	35749.64
270.809	39818.9
271.268	35764.93
271.727	80232.4
272.186	51951.25
272.645	38935.08
273.104	28074.38
273.563	40686.92
274.022	31995.03
274.481	27290.25
274.94	21087.97
275.399	15758.64
275.857	18400.88
276.316	24964.98
276.775	22317.3
277.233	22117.15
277.692	20860.97
278.15	23735.56
278.609	24595.47
279.067	22924.84
279.525	21443.68
279.984	27875.05
280.442	33698.16
280.9	33507.36
281.358	22233.48
281.816	20902.99
282.274	20626.83
282.732	21509.64
283.19	21851.62
283.648	19035.92
284.106	20464.69
284.564	21059.09
285.021	19733.31
285.479	14839.46
285.937	13611.28
286.394	12061.37
286.852	12520.34
287.309	13267.35
287.767	12890.69
288.224	12327.58
288.682	13571.36
289.139	14930.76
289.596	13663.71
290.053	14188.47
290.511	17907.44
290.968	21660.51
291.425	29236.72
291.882	24194.9
292.339	20936.61
292.796	20635.9
293.252	19316.29
293.709	15281.94
294.166	13644.1
294.623	15010.18
295.079	14352.85
295.536	14390.42
295.992	13027.82
296.449	12885.67
296.905	13386.19
297.362	12816.11
297.818	13450.81
298.274	13957.05
298.731	14218.03
299.187	14088.62
299.643	15123.91
300.099	18347.15
300.555	20139.84
301.011	16904.45
301.467	16346.16
301.923	19166.9
302.379	18825.05
302.835	18631.13
303.291	18763.57
303.746	21502.62
304.202	27276.17
304.658	27581.04
305.113	18656.48
305.569	18406.59
306.024	19742.08
306.479	18925.02
306.935	16118.48
307.39	17758.21
307.845	16527.33
308.301	16758.6
308.756	16452.84
309.211	16003.1
309.666	16529.22
310.121	20699.42
310.576	21181.05
311.031	21221.05
311.486	24552.97
311.94	24723.18
312.395	33348.02
312.85	63194.19
313.305	313715.76
313.759	1639154.71
314.214	119664.16
314.668	95608.97
315.123	81020.06
315.577	29233.1
316.032	26086.4
316.486	32726.72
316.94	25879.62
317.394	18033.18
317.849	14034.71
318.303	13268.4
318.757	12467.8
319.211	13747.36
319.665	11994.53
320.119	12072.47
320.572	17255.02
321.026	16053.55
321.48	13345.97
321.934	14528.7
322.387	14557.14
322.841	15695.83
323.295	14121.26
323.748	16309.32
324.202	16587.28
324.655	19984.88
325.108	27997.01
325.562	19833.14
326.015	23709.41
326.468	17979.15
326.921	20204.12
327.374	18911.19
327.827	19789.68
328.28	22498.08
328.733	15135.04
329.186	13393.4
329.639	12810.32
330.092	10898.65
330.545	10478.45
330.997	10649.93
331.45	11724.38
331.903	13812.53
332.355	23941.1
332.808	23455.59
333.26	19498.07
333.713	21358.97
334.165	21665.97
334.617	29167.58
335.069	23684.22
335.522	43028.55
335.974	47882.63
336.426	44082.52
336.878	30820.1
337.33	15717.97
337.782	15449.53
338.234	19439.14
338.686	23313.1
339.137	27752.66
339.589	26224.11
340.041	20645.14
340.493	17782.31
340.944	18227.19
341.396	19626.27
341.847	16484.66
342.299	19417.27
342.75	23629.8
343.201	20618.09
343.653	23635.82
344.104	28919.57
344.555	22665.64
345.006	35094.49
345.457	26738.95
345.908	21165.02
346.359	19882.73
346.81	16147.46
347.261	16980.21
347.712	16713.92
348.163	17914.66
348.613	18170.07
349.064	16986.09
349.515	14876.62
349.965	15312.91
350.416	18527.94
350.866	20447.49
351.317	23181.69
351.767	38488.18
352.217	48866.69
352.668	40679.46
353.118	37414.87
353.568	36244.11
354.018	28809.9
354.468	30657.67
354.918	22060.81
355.368	19408.71
355.818	27533.24
356.268	79569.18
356.718	335108.21
357.168	83835.88
357.617	42355.46
358.067	47409.41
358.517	44613.68
358.966	52639.39
359.416	59267.17
359.865	64406.06
360.315	77039.96
360.764	36151.68
361.213	20321.69
361.663	19357.49
362.112	24014.41
362.561	38962.77
363.01	29553.03
363.459	25028.11
363.908	27134.72
364.357	23094.91
364.806	39193.85
365.255	27066.86
365.703	24872.25
366.152	25083.3
366.601	20430.4
367.05	16648.44
367.498	15188.08
367.947	15940.42
368.395	16671.6
368.844	14839.12
369.292	18014.75
369.74	12523.65
370.189	19273.77
370.637	22743.42
371.085	19711.17
371.533	24055.47
371.981	23267.28
372.429	22259.14
372.877	23268.39
373.325	19537.77
373.773	20020.35
374.221	17937.36
374.669	22298.4
375.116	19353.97
375.564	19573.62
376.012	22004.91
376.459	18255.08
376.907	21965.85
377.354	26733.74
377.801	25071
378.249	29009.27
378.696	37413.24
379.143	45587.13
379.591	49139.26
380.038	84064.6
380.485	61497.63
380.932	67435.69
381.379	62815.02
381.826	47248.01
382.273	34545.12
382.72	31245.67
383.166	31595.22
383.613	21328.3
384.06	20203.19
384.506	24647.29
384.953	19238.82
385.4	20781.76
385.846	19748.32
386.292	21225.72
386.739	23121.38
387.185	25562.58
387.631	28694.95
388.078	31178.93
388.524	37182.51
388.97	37741.54
389.416	34000.04
389.862	38455.99
390.308	38617.67
390.754	41701.53
391.2	48465.58
391.645	52960.71
392.091	53479.95
392.537	54373.15
392.983	57007.63
393.428	57701.92
393.874	64179.74
394.319	67171.94
394.765	67139.63
395.21	73000.58
395.655	71929.46
396.101	70070.14
396.546	65580.25
396.991	68924.28
397.436	66342.46
397.881	66636.58
398.326	66115.86
398.771	64948.11
399.216	59221.34
399.661	55294.25
400.106	56656.6
400.551	59419.32
400.995	54490.4
401.44	54860.52
401.885	52247.27
402.329	53324.59
402.774	51494.25
403.218	49905.88
403.663	48563.49
404.107	50296.3
404.551	51025.54
404.995	47294.59
405.44	46102.88
405.884	47283.57
406.328	46222.31
406.772	46467.2
407.216	42762.01
407.66	41897.56
408.104	40502.98
408.547	38285.78
408.991	37347.88
409.435	36188.98
409.879	35777.51
410.322	35486.81
410.766	34382.73
411.209	32886.13
411.653	31866.88
412.096	31416.54
412.54	31718.49
412.983	31760.8
413.426	32013.78
413.869	32282.2
414.312	31948.19
414.756	31202.63
415.199	30128.92
415.642	29563.04
416.085	29911.29
416.527	29997.17
416.97	30794.85
417.413	29338.9
417.856	29119.44
418.298	28843.22
418.741	28651.78
419.184	28582.53
419.626	29811.81
420.069	29715.16
420.511	29860.62
420.953	29134.26
421.396	28883.29
421.838	28230.9
422.28	28933.53
422.722	29242.79
423.164	30025.82
423.606	29846.06
424.048	30124
424.49	28759.89
424.932	28893.47
425.374	28736.48
425.816	29500.47
426.258	30116.1
426.699	30303.54
427.141	29562.65
427.582	29864.68
428.024	29579.91
428.465	29413.68
428.907	28733.08
429.348	28538.75
429.789	28579.19
430.231	27997.28
430.672	28367.96
431.113	27849.09
431.554	27708.28
431.995	27576.5
432.436	26867.05
432.877	26574.42
433.318	26268.6
433.759	26421.98
434.2	26623.73
434.64	26585.88
435.081	26882.69
435.522	25786.74
435.962	25128.65
436.403	24896.43
436.843	25571.94
437.284	25369.04
437.724	25002.96
438.164	25402.08
438.604	25020.9
439.045	24109.98
439.485	23112.2
439.925	22753.52
440.365	22273.55
440.805	22071.76
441.245	21706.8
441.685	20901.51
442.125	20758.27
442.564	20871.47
443.004	20308.59
443.444	20240.98
443.883	20260.3
444.323	20230.69
444.762	20406.99
445.202	20706.99
445.641	20997.89
446.081	21030.07
446.52	21095.78
446.959	20841.68
447.398	20281.95
447.837	20024.64
448.276	19649.46
448.716	19798.97
449.154	19962.77
449.593	19348.55
450.032	19153.87
450.471	18757.62
450.91	18632.98
451.349	18416.19
451.787	18228.56
452.226	18336.88
452.664	18178.59
453.103	18030.42
453.541	17824.19
453.98	17458.93
454.418	17333.11
454.856	16783.9
455.295	16558.24
455.733	16420.18
456.171	16331.82
456.609	16126.1
457.047	15875.23
457.485	15882.07
457.923	15731.69
458.361	15418.38
458.798	15423.94
459.236	15323.11
459.674	15462.05
460.111	15474.4
460.549	15343.24
460.987	15340.37
461.424	15311.83
461.862	15304.21
462.299	15109.08
462.736	15084.71
463.173	15188.51
463.611	14984.2
464.048	14987.99
464.485	15134.73
464.922	15068.01
465.359	15069.77
465.796	14665.61
466.233	14632.95
466.67	14512.75
467.106	14519.13
467.543	14494.93
467.98	14374.8
468.416	14140.41
468.853	14108.16
469.29	13739.92
469.726	13631.71
470.162	13293.35
470.599	13328.11
471.035	13224.28
471.471	12922.14
471.907	12886.52
472.344	12787.41
472.78	12747.08
473.216	12851.01
473.652	12610.21
474.088	12508.13
474.523	12331.52
474.959	12340
475.395	12116.99
475.831	11902.74
476.266	11848.95
476.702	11690.92
477.138	11411.65
477.573	11241.06
478.008	11041.16
478.444	10911.65
478.879	10817.56
479.314	10717.4
479.75	10553.55
480.185	10466.09
480.62	10410.98
481.055	10317.94
481.49	10218.47
481.925	10203.78
482.36	10168.46
482.795	10290.72
483.229	10421.77
483.664	10472.54
484.099	10349.88
484.534	10333.33
484.968	10273.59
485.403	10163.4
485.837	10031.69
486.271	9891.01
486.706	9781
487.14	9608.02
487.574	9358.46
488.009	9185.08
488.443	9028.59
488.877	9017.17
489.311	8969.68
489.745	8983.21
490.179	8974.91
490.613	9018.08
491.046	9018.25
491.48	9011.26
491.914	8940.27
492.348	8934.42
492.781	8913.91
493.215	8876.23
493.648	8854.17
494.082	8865.54
494.515	8811.4
494.948	8838.53
495.382	8859
495.815	8843.08
496.248	8837.49
496.681	8927.02
497.114	9001.23
497.547	9040.19
497.98	9095.09
498.413	9057.14
498.846	9072.02
499.279	9084.76
499.711	9054.83
500.144	8992.75
500.577	9007.67
501.009	9041.35
501.442	9040.11
501.874	8940.71
502.306	8882.4
502.739	8841.92
503.171	8925.96
503.603	8866.73
504.036	8865.59
504.468	8820.73
504.9	8830.75
505.332	8798.49
505.764	8730.74
506.196	8697.22
506.627	8730.09
507.059	8738.58
507.491	8737.67
507.923	8583.68
508.354	8597.24
508.786	8573.59
509.217	8605.31
509.649	8612.58
510.08	8654.83
510.512	8665.21
510.943	8667.42
511.374	8638.85
511.805	8675.25
512.237	8707.84
512.668	8848.16
513.099	8936.23
513.53	9006.8
513.961	9017.21
514.391	9104.66
514.822	9179.42
515.253	9286.54
515.684	9314.99
516.114	9370.03
516.545	9358.45
516.975	9380.39
517.406	9345.34
517.836	9219.2
518.267	9123.84
518.697	9103.89
519.127	9004.72
519.558	8933.09
519.988	8836.47
520.418	8785.27
520.848	8774.02
521.278	8717.26
521.708	8485.59
522.138	8460.61
522.567	8535.85
522.997	8574.82
523.427	8564.37
523.857	8555.29
524.286	8521.71
524.716	8514.99
525.145	8525.35
525.575	8505.97
526.004	8512.6
526.433	8607.77
526.863	8545.77
527.292	8428.58
527.721	8402
528.15	8388.2
528.579	8348.86
529.008	8361.8
529.437	8435.34
529.866	8461.78
530.295	8501.13
530.724	8509.74
531.152	8593.82
531.581	8613.45
532.01	8661.55
532.438	8666.83
532.867	8702.63
533.295	8758.26
533.723	8756.7
534.152	8717.61
534.58	8688.71
535.008	8592.35
535.436	8578.23
535.865	8596.4
536.293	8649.22
536.721	8705.25
537.149	8800.46
537.576	8789.95
538.004	8836.87
538.432	8865.12
538.86	8847.88
539.287	8878.97
539.715	8937.62
540.143	8959.63
540.57	8947.68
540.998	8941.55
541.425	8832.71
541.852	8755.42
542.28	8767.39
542.707	8711.67
543.134	8660.82
543.561	8657.03
543.988	8637.78
544.415	8656.88
544.842	8649.52
545.269	8629.4
545.696	8649.76
546.123	8738.97
546.549	8704.13
546.976	8654.47
547.403	8664.02
547.829	8692.48
548.256	8724.1
548.682	8721.87
549.108	8697.94
549.535	8712.05
549.961	8738.17
550.387	8690.13
550.813	8670.66
551.24	8716.89
551.666	8737.77
552.092	8705.43
552.518	8689.87
552.943	8666.14
553.369	8719.93
553.795	8761.37
554.221	8772.09
554.646	8766.36
555.072	8812.09
555.498	8846.76
555.923	8895.74
556.349	8970.23
556.774	9015.02
557.199	9020.83
557.625	9064.76
558.05	9033.85
558.475	9089.78
558.9	9087.54
559.325	9048.56
559.75	9029.76
560.175	9006.7
560.6	8984.21
561.025	8979.77
561.449	8991.16
561.874	9021.36
562.299	9032.36
562.723	9070.13
563.148	9013.55
563.572	9031.13
563.997	9078.64
564.421	9104.07
564.846	9098.36
565.27	9101.93
565.694	9083.44
566.118	9121.93
566.542	9140.55
566.966	9096.61
567.39	9055.19
567.814	8988.45
568.238	8977.92
568.662	8998.34
569.086	9005.22
569.509	9050.85
569.933	8981.92
570.357	8967.57
570.78	8891.07
571.204	8852.33
571.627	8840.37
572.05	8878.17
572.474	8924.47
572.897	8920.46
573.32	8936.97
573.743	8958.77
574.166	8921.72
574.589	8994.94
575.012	9019.79
575.435	9089.96
575.858	9119.03
576.281	9136.79
576.704	9130.59
577.126	9148.95
577.549	9163.85
577.972	9194.75
578.394	9208.16
578.817	9231.79
579.239	9203.68
579.661	9200.43
580.084	9169.1
580.506	9167.24
580.928	9218.56
581.35	9225.9
581.772	9264.62
582.194	9248.05
582.616	9229.3
583.038	9211.03
583.46	9218.62
583.882	9252.34
584.303	9338.27
584.725	9379.56
585.147	9404.68
585.568	9504.85
585.99	9605.72
586.411	9674.45
586.833	9793.51
587.254	9831.22
587.675	9952.63
588.096	10065.13
588.518	10063.28
588.939	9982.73
589.36	9993.97
589.781	9996.19
590.202	9817.11
590.623	9795.99
591.043	9810.24
591.464	9748.91
591.885	9737.17
592.305	9710.48
592.726	9625.41
593.147	9624.17
593.567	9581.69
593.987	9517.58
594.408	9467.75
594.828	9460.89
595.248	9386.82
595.669	9226.82
596.089	9146.7
596.509	9075.85
596.929	8942.65
597.349	8902.78
597.769	8798.03
598.189	8709.02
598.608	8673.14
599.028	8635.44
599.448	8592.77
599.867	8479.98
600.287	8428.72
600.706	8364.47
601.126	8268.25
601.545	8231.35
601.965	8203.64
602.384	8157.01
602.803	8164.72
603.222	8122.82
603.641	8082.59
604.061	8056.12
604.48	8039.66
604.898	8097.8
605.317	8146.79
605.736	8179.78
606.155	8181.56
606.574	8150.44
606.992	8210.48
607.411	8209.49
607.829	8202.42
608.248	8223.18
608.666	8252.34
609.085	8285.81
609.503	8267.91
609.921	8266.87
610.339	8321.51
610.758	8367.25
611.176	8384.57
611.594	8369.68
612.012	8394.76
612.43	8451.4
612.847	8535.41
613.265	8573.36
613.683	8648.14
614.101	8705.44
614.518	8734.76
614.936	8716.38
615.353	8662.37
615.771	8682.69
616.188	8729.03
616.606	8749.08
617.023	8747.8
617.44	8693.64
617.857	8699.98
618.274	8685.25
618.691	8675.94
619.108	8647.78
619.525	8641.13
619.942	8714.08
620.359	8759.16
620.776	8751.11
621.192	8740.27
621.609	8744.93
622.026	8803.66
622.442	8861.81
622.859	8902.6
623.275	8872.59
623.691	8925.42
624.108	9019.98
624.524	9140.37
624.94	9156.24
625.356	9239.2
625.772	9352.93
626.188	9455.89
626.604	9483.47
627.02	9468.87
627.436	9461.67
627.852	9516.76
628.268	9611.47
628.683	9566.44
629.099	9522.96
629.514	9513.64
629.93	9563.22
630.345	9619.11
630.761	9617.11
631.176	9670.99
631.591	9640.81
632.007	9629.22
632.422	9663.44
632.837	9623.79
633.252	9635.55
633.667	9604.46
634.082	9576.78
634.497	9526.43
634.911	9417.55
635.326	9443.32
635.741	9370.83
636.155	9370.06
636.57	9437.88
636.984	9502.5
637.399	9575.7
637.813	9659.24
638.228	9725.67
638.642	9851.58
639.056	9859.3
639.47	9966.2
639.884	9991.84
640.298	10037.54
640.712	10122.28
641.126	10122.58
641.54	10159.09
641.954	10241.44
642.368	10236.11
642.781	10251.67
643.195	10201.17
643.609	10313.05
644.022	10369.79
644.436	10441.52
644.849	10448.19
645.262	10447.45
645.676	10579.9
646.089	10630.84
646.502	10566.41
646.915	10614.41
647.328	10564.23
647.741	10624.88
648.154	10578.09
648.567	10593.77
648.98	10524.92
649.393	10594.9
649.805	10626.84
650.218	10613.01
650.631	10491.87
651.043	10489.1
651.456	10472.65
651.868	10533.85
652.28	10772.92
652.693	10961.25
653.105	11079
653.517	11211.49
653.929	11232.05
654.341	11320.19
654.753	11215.29
655.165	11348.19
655.577	11384.88
655.989	11415.33
656.401	11416.54
656.813	11075.31
657.224	10945.84
657.636	10754.68
658.047	10659.59
658.459	10560.61
658.87	10593.08
659.282	10586.7
659.693	10441.35
660.104	10368.89
660.515	10312.32
660.926	10397.09
661.338	10486.56
661.749	10524.06
662.159	10496.14
662.57	10564.64
662.981	10614.63
663.392	10614.02
663.803	10760.09
664.213	10840.35
664.624	10892.94
665.035	11033.32
665.445	10939.75
665.855	10911.42
666.266	10862.3
666.676	10910.54
667.086	10852.57
667.497	10889.59
667.907	10860.41
668.317	10785.54
668.727	10727.95
669.137	10784.47
669.547	10782.01
669.956	10855.23
670.366	10911.87
670.776	10959.56
671.186	11040.47
671.595	11094.71
672.005	11171.88
672.414	11153.01
672.824	11115.37
673.233	11235.26
673.642	11256.35
674.052	11278.11
674.461	11278.16
674.87	11341.83
675.279	11275.56
675.688	11300.01
676.097	11283.61
676.506	11211.8
676.915	11412.65
677.323	11438.19
677.732	11391.83
678.141	11367.42
678.549	11205.3
678.958	11182.53
679.366	11149.07
679.775	11210.02
680.183	11262.23
680.592	11305.43
681	11327.44
