Data from C_2_HIR_WI_4N_Splice17_12-33-16-293.txt Node
Date: Sat Mar 14 12:33:16 EDT 2020
User: sa697716
Spectrometer: FLMS03696
Trigger mode: 0
Integration Time (sec): 3.180400E-1
Scans to average: 20
Electric dark correction enabled: true
Nonlinearity correction enabled: true
Boxcar width: 5
XAxis mode: Wavelengths
Number of Pixels in Spectrum: 2048
>>>>>Begin Spectral Data<<<<<
187.83	-407030.91
188.298	3003.49
188.766	1594.99
189.233	1453.2
189.701	2047.69
190.169	2785.14
190.636	1063.07
191.104	845.66
191.571	143.7
192.039	-14.76
192.506	-13.25
192.974	540.35
193.441	-831.26
193.908	-100.36
194.375	-0.65
194.842	117.78
195.31	199.88
195.777	190.53
196.244	531.7
196.711	903.09
197.177	1235.05
197.644	1866.79
198.111	3266.48
198.578	4585.44
199.045	3665.37
199.511	6031.84
199.978	7033.02
200.445	5905.52
200.911	6554.47
201.378	7376.14
201.844	6556.44
202.31	11097.26
202.777	11457.17
203.243	6295.8
203.709	5967.49
204.176	7063.23
204.642	5757.63
205.108	5363.93
205.574	4360.89
206.04	4004.82
206.506	3732.81
206.972	3537.48
207.438	3399.77
207.903	3845.51
208.369	3325.78
208.835	3272.02
209.301	3394.42
209.766	3475.93
210.232	3401.17
210.697	4210.13
211.163	5150.8
211.628	7699.78
212.094	6342.64
212.559	7636.92
213.024	4682.86
213.49	5640.8
213.955	5471.24
214.42	5336.62
214.885	4900.57
215.35	4651
215.815	4355.5
216.28	4565.91
216.745	3673.51
217.21	3875
217.675	3475.95
218.14	3761.99
218.604	4059.62
219.069	4442.32
219.534	4463.62
219.998	4997.32
220.463	5833.4
220.927	6949.35
221.392	6322.95
221.856	6220.25
222.32	7650.13
222.785	9252.16
223.249	11452.14
223.713	12604.01
224.177	12439.29
224.642	15787.06
225.106	19227.32
225.57	20815.73
226.034	15334.97
226.497	23105.66
226.961	20705.5
227.425	23958.19
227.889	26375.44
228.353	26207.15
228.816	53679.89
229.28	51010.18
229.744	42694.35
230.207	25797.01
230.671	25254.29
231.134	41521.38
231.597	47762.01
232.061	47520.09
232.524	46124.73
232.987	31705.04
233.45	28479.24
233.914	25463.16
234.377	26013.03
234.84	23761.2
235.303	27974.56
235.766	31159.52
236.229	32162.24
236.691	20207.07
237.154	22680.69
237.617	17071.14
238.08	17435.01
238.542	20364.88
239.005	14582.75
239.468	14461.15
239.93	13615.56
240.393	12369.03
240.855	10848.41
241.317	11091.68
241.78	13471.49
242.242	13901.61
242.704	14986.29
243.166	13030.8
243.629	11830.2
244.091	13565.24
244.553	14835.82
245.015	15925.23
245.477	20561.88
245.939	30116.23
246.4	31951.72
246.862	31031.34
247.324	29246.37
247.786	32633.01
248.247	42728
248.709	44018.14
249.17	32927.12
249.632	31065.79
250.093	36010.02
250.555	31065.82
251.016	18935.91
251.477	17922.88
251.939	19349.88
252.4	20281.36
252.861	24132.75
253.322	22460.24
253.783	26724.05
254.244	34670.71
254.705	27284.6
255.166	24244.46
255.627	23869.23
256.088	33635.59
256.549	35757.07
257.009	30755.58
257.47	37335.44
257.931	30369.88
258.391	22725.73
258.852	23391.84
259.312	24458.46
259.773	30172.15
260.233	25466.85
260.694	21461.17
261.154	24283.68
261.614	19480.33
262.074	17401.54
262.534	18037.84
262.994	16973.36
263.455	22550.65
263.915	18967.25
264.374	17847.02
264.834	19463.48
265.294	21536.54
265.754	22277.67
266.214	21061.15
266.673	19696.04
267.133	24798.03
267.593	24548.78
268.052	30006.35
268.512	26095.19
268.971	31466.55
269.431	34468.68
269.89	30846.07
270.349	46177.33
270.809	51416.59
271.268	46183.01
271.727	103513.19
272.186	67024
272.645	50275.49
273.104	36214.47
273.563	52355.67
274.022	41139.02
274.481	35018.24
274.94	26971.43
275.399	20055.25
275.857	23363
276.316	31614.45
276.775	28106.1
277.233	27710.82
277.692	25978.31
278.15	29424.89
278.609	30333.7
279.067	28093.78
279.525	26126.67
279.984	33775.77
280.442	40608.26
280.9	40058.85
281.358	26399.22
281.816	24670.75
282.274	24156.53
282.732	24952.76
283.19	25126.41
283.648	21730.06
284.106	23178.88
284.564	23610.15
285.021	21917.47
285.479	16342.64
285.937	14877.38
286.394	13069.45
286.852	13463.38
287.309	14181.48
287.767	13726.97
288.224	13050.43
288.682	14299.72
289.139	15682.7
289.596	14336.21
290.053	14901.09
290.511	18792.7
290.968	22767.72
291.425	30826.03
291.882	25608.69
292.339	22247.1
292.796	22028.47
293.252	20734.03
293.709	16471.71
294.166	14754.53
294.623	16275.97
295.079	15581.39
295.536	15654.22
295.992	14206.35
296.449	14048.16
296.905	14605.59
297.362	14003.12
297.818	14711.18
298.274	15276.98
298.731	15535.2
299.187	15369.58
299.643	16505.47
300.099	19976.78
300.555	21881
301.011	18272.76
301.467	17629.72
301.923	20612.2
302.379	20144.41
302.835	19792.64
303.291	19779.12
303.746	22572.87
304.202	28536.47
304.658	28665.54
305.113	19293.68
305.569	18965.9
306.024	20244.86
306.479	19261.57
306.935	16256.65
307.39	17732.32
307.845	16396.17
308.301	16534.95
308.756	16091.4
309.211	15511.29
309.666	15903.4
310.121	19766.35
310.576	20060.79
311.031	19925.67
311.486	22832.9
311.94	22824.18
312.395	30578.26
312.85	57519.27
313.305	282799.77
313.759	1467492.87
314.214	106403.59
314.668	84539.18
315.123	71237.2
315.577	25570.37
316.032	22775.32
316.486	28573.24
316.94	22573.63
317.394	15720.85
317.849	12212.41
318.303	11545.53
318.757	10890.83
319.211	12053.6
319.665	10520.63
320.119	10628.14
320.572	15196.45
321.026	14159.02
321.48	11771.17
321.934	12819.31
322.387	12837.72
322.841	13872.98
323.295	12497.61
323.748	14375.61
324.202	14569.87
324.655	17526.13
325.108	24529.41
325.562	17337.58
326.015	20632.13
326.468	15589.78
326.921	17424.81
327.374	16248.77
327.827	16926.98
328.28	19169.94
328.733	12866.36
329.186	11324.41
329.639	10789.74
330.092	9085.92
330.545	8676.95
330.997	8753.58
331.45	9604.65
331.903	11281.89
332.355	19403.93
332.808	18874.87
333.26	15563.56
333.713	16943.35
334.165	17094.69
334.617	22887.94
335.069	18486.2
335.522	33398.09
335.974	37074.74
336.426	33831.79
336.878	23450.14
337.33	11944.18
337.782	11686.24
338.234	14670.66
338.686	17510.85
339.137	20748.63
339.589	19517.97
340.041	15331.09
340.493	13173.76
340.944	13475.03
341.396	14527.68
341.847	12223.73
342.299	14415.72
342.75	17575.27
343.201	15339.29
343.653	17647.88
344.104	21616.67
344.555	16982.11
345.006	26331.96
345.457	20218.83
345.908	16052.3
346.359	15083.63
346.81	12253.53
347.261	12888.36
347.712	12679.91
348.163	13553.25
348.613	13717.18
349.064	12820.36
349.515	11248.08
349.965	11540.77
350.416	13870.66
350.866	15236.84
351.317	17204.32
351.767	28510.77
352.217	35984.95
352.668	29872.62
353.118	27449.92
353.568	26460.18
354.018	20952.28
354.468	22097.9
354.918	15894.97
355.368	13916.47
355.818	19641.4
356.268	56630.56
356.718	237181.43
357.168	59226.31
357.617	29747.23
358.067	33171.17
358.517	31155.62
358.966	36597.29
359.416	41100.45
359.865	44422.71
360.315	52878.66
360.764	24759.57
361.213	13878.74
361.663	13170.12
362.112	16258.19
362.561	26320.62
363.01	19807.83
363.459	16647.41
363.908	17996.72
364.357	15288.44
364.806	25808.34
365.255	17776.83
365.703	16291.55
366.152	16340
366.601	13264.04
367.05	10777.75
367.498	9817.74
367.947	10285.83
368.395	10728.16
368.844	9535.66
369.292	11472.02
369.74	7958.68
370.189	12186.08
370.637	14298.53
371.085	12329.38
371.533	15013.18
371.981	14466.81
372.429	13759.99
372.877	14343.58
373.325	12031.83
373.773	12252.11
374.221	10938.54
374.669	13541.47
375.116	11716.5
375.564	11792.42
376.012	13193.38
376.459	10902.16
376.907	13057.79
377.354	15801.67
377.801	14735.06
378.249	16936.21
378.696	21628.46
379.143	26251.26
379.591	28029.59
380.038	47503.15
380.485	34480.59
380.932	37386.88
381.379	34361.4
381.826	25405.26
382.273	18135.4
382.72	15924.72
383.166	15588.55
383.613	10154.12
384.06	9204.52
384.506	10725.86
384.953	7914.81
385.4	8026.33
385.846	7092.16
386.292	6975.68
386.739	6909.75
387.185	6943.7
387.631	7056.97
388.078	6977.53
388.524	7629.88
388.97	7187.42
389.416	6096.39
389.862	6591.8
390.308	6341.5
390.754	6554.82
391.2	7272.07
391.645	7663.21
392.091	7591.68
392.537	7604.82
392.983	7864.44
393.428	7958.74
393.874	8819.6
394.319	9274.17
394.765	9368.12
395.21	10404.54
395.655	10628.98
396.101	10875.61
396.546	10727.17
396.991	11876.85
397.436	12124.45
397.881	12935.41
398.326	13631.25
398.771	14250.91
399.216	13787.88
399.661	13639.78
400.106	14772.32
400.551	16357.97
400.995	15788.17
401.44	16681.13
401.885	16601.72
402.329	17674.48
402.774	17732.9
403.218	17807.03
403.663	17890.52
404.107	19075.24
404.551	19875.36
404.995	18880.31
405.44	18818.97
405.884	19689.36
406.328	19591.82
406.772	20015.12
407.216	18659.48
407.66	18504.93
408.104	18101.92
408.547	17311.11
408.991	17070.14
409.435	16702.56
409.879	16654.18
410.322	16632.6
410.766	16235.23
411.209	15637.52
411.653	15256.92
412.096	15151.41
412.54	15396.23
412.983	15492.74
413.426	15691.31
413.869	15890.18
414.312	15772.18
414.756	15449.09
415.199	14954.69
415.642	14707.17
416.085	14903.14
416.527	14969.5
416.97	15389.29
417.413	14691.12
417.856	14624.03
418.298	14527.13
418.741	14456.38
419.184	14458.01
419.626	15101.64
420.069	15091.78
420.511	15194.06
420.953	14870.73
421.396	14782.75
421.838	14478.69
422.28	14872.59
422.722	15044.33
423.164	15457.54
423.606	15378.39
424.048	15545.96
424.49	14874.37
424.932	14966.46
425.374	14907.01
425.816	15301.71
426.258	15601.72
426.699	15675.28
427.141	15253.19
427.582	15359.65
428.024	15179.24
428.465	15106.01
428.907	14802.2
429.348	14767.45
429.789	14849.17
430.231	14599.08
430.672	14854.46
431.113	14645.68
431.554	14670.43
431.995	14705.51
432.436	14455.71
432.877	14406.07
433.318	14322.48
433.759	14451.4
434.2	14589.29
434.64	14592.3
435.081	14783.21
435.522	14201.69
435.962	13881.43
436.403	13765.33
436.843	14160.16
437.284	14065.84
437.724	13872.52
438.164	14104.51
438.604	13906.9
439.045	13433.16
439.485	12914.65
439.925	12755.49
440.365	12534.69
440.805	12459.12
441.245	12308.86
441.685	11882.71
442.125	11831.23
442.564	11924.6
443.004	11629.09
443.444	11613.94
443.883	11646.65
444.323	11654.1
444.762	11777.07
445.202	11972.7
445.641	12166.8
446.081	12195.77
446.52	12268.28
446.959	12145.76
447.398	11849.27
447.837	11730.23
448.276	11540.27
448.716	11652.25
449.154	11763.15
449.593	11412.02
450.032	11312.67
450.471	11092.2
450.91	11035.86
451.349	10923.16
451.787	10824.19
452.226	10902.72
452.664	10819.63
453.103	10747.26
453.541	10641.49
453.98	10444.95
454.418	10396.23
454.856	10090.57
455.295	9973.65
455.733	9910.46
456.171	9871.69
456.609	9763.49
457.047	9630.89
457.485	9650.84
457.923	9571.11
458.361	9388.97
458.798	9401.18
459.236	9346.92
459.674	9434.4
460.111	9451.1
460.549	9376.59
460.987	9379.81
461.424	9367.68
461.862	9363.74
462.299	9247.12
462.736	9235.63
463.173	9300.44
463.611	9176.59
464.048	9178.62
464.485	9270.43
464.922	9229.06
465.359	9230.28
465.796	8988.5
466.233	8969.06
466.67	8895.91
467.106	8901.55
467.543	8885.27
467.98	8809.95
468.416	8662.64
468.853	8639.83
469.29	8410.7
469.726	8342.06
470.162	8131.92
470.599	8143.98
471.035	8075.69
471.471	7886.65
471.907	7857.35
472.344	7791.93
472.78	7762.94
473.216	7823.14
473.652	7673.1
474.088	7607.42
474.523	7495.4
474.959	7495.4
475.395	7354.77
475.831	7218.75
476.266	7179.79
476.702	7079.49
477.138	6905.64
477.573	6798.35
478.008	6671.76
478.444	6586.81
478.879	6526.31
479.314	6462.28
479.75	6359.5
480.185	6304.37
480.62	6270.08
481.055	6213.29
481.49	6154.08
481.925	6145.28
482.36	6127.3
482.795	6206.93
483.229	6294.55
483.664	6332.92
484.099	6264.28
484.534	6257.76
484.968	6224.88
485.403	6159.75
485.837	6082.25
486.271	5997.16
486.706	5929.84
487.14	5822.09
487.574	5666.22
488.009	5557.26
488.443	5457.89
488.877	5450.6
489.311	5423.19
489.745	5432.15
490.179	5430.65
490.613	5458.43
491.046	5460.48
491.48	5458.85
491.914	5417.41
492.348	5416.44
492.781	5407.29
493.215	5386.59
493.648	5373.69
494.082	5381.79
494.515	5352.7
494.948	5371.41
495.382	5387.2
495.815	5382.27
496.248	5384.29
496.681	5445.06
497.114	5496.13
497.547	5526
497.98	5567.47
498.413	5552.7
498.846	5570.75
499.279	5584.95
499.711	5572.94
500.144	5542.1
500.577	5558.71
501.009	5587.08
501.442	5594.55
501.874	5541.05
502.306	5510.46
502.739	5493.23
503.171	5551.15
503.603	5519.67
504.036	5526.89
504.468	5507.33
504.9	5521.85
505.332	5510.47
505.764	5475.87
506.196	5462.77
506.627	5492.53
507.059	5509.06
507.491	5516.52
507.923	5429.11
508.354	5448.61
508.786	5443.49
509.217	5475.11
509.649	5490.1
510.08	5527.11
510.512	5546.38
510.943	5560.43
511.374	5554.73
511.805	5590.45
512.237	5623.99
512.668	5729.11
513.099	5801.69
513.53	5863.79
513.961	5887.35
514.391	5962.11
514.822	6028.79
515.253	6116.32
515.684	6150.09
516.114	6201.62
516.545	6209.66
516.975	6239.26
517.406	6229.77
517.836	6157.58
518.267	6104.2
518.697	6100.3
519.127	6043.6
519.558	6005.29
519.988	5949.34
520.418	5924.34
520.848	5928.42
521.278	5901.14
521.708	5773.02
522.138	5766.2
522.567	5828.26
522.997	5866.64
523.427	5871.83
523.857	5877.23
524.286	5865.43
524.716	5871.9
525.145	5890.21
525.575	5885.07
526.004	5896.11
526.433	5952.73
526.863	5917.12
527.292	5842.86
527.721	5830.27
528.15	5823.9
528.579	5801.42
529.008	5815.36
529.437	5870.39
529.866	5894.85
530.295	5929.26
530.724	5942.59
531.152	6007.38
531.581	6026.37
532.01	6065.56
532.438	6074.1
532.867	6105.47
533.295	6148.38
533.723	6149.61
534.152	6126.05
534.58	6108.07
535.008	6041.87
535.436	6034.44
535.865	6049.74
536.293	6090.8
536.721	6132.62
537.149	6203.12
537.576	6200.05
538.004	6235.54
538.432	6258.07
538.86	6247.91
539.287	6271.5
539.715	6314.61
540.143	6330.57
540.57	6322.08
540.998	6316.1
541.425	6240.04
541.852	6184.48
542.28	6188.85
542.707	6147.87
543.134	6111.17
543.561	6106.75
543.988	6091.51
544.415	6102.58
544.842	6094.49
545.269	6078.74
545.696	6091.9
546.123	6153.11
546.549	6126.78
546.976	6092.16
547.403	6098.63
547.829	6116.45
548.256	6137.18
548.682	6135.07
549.108	6118.06
549.535	6128.89
549.961	6146.93
550.387	6111.12
550.813	6096.75
551.24	6127.81
551.666	6141.26
552.092	6116.02
552.518	6104.03
552.943	6086.47
553.369	6122.4
553.795	6150.05
554.221	6155.6
554.646	6150.46
555.072	6185.88
555.498	6209.13
555.923	6243.48
556.349	6295.79
556.774	6328.07
557.199	6332.88
557.625	6364.69
558.05	6344.14
558.475	6382.95
558.9	6381.95
559.325	6353.47
559.75	6338.26
560.175	6320.16
560.6	6304.07
561.025	6299.6
561.449	6307.47
561.874	6328.51
562.299	6336.89
562.723	6362.36
563.148	6323.07
563.572	6334.66
563.997	6369.01
564.421	6385.96
564.846	6383.21
565.27	6386.25
565.694	6372.19
566.118	6398.96
566.542	6413.44
566.966	6383.13
567.39	6354.97
567.814	6308.37
568.238	6300.76
568.662	6314.15
569.086	6320.19
569.509	6350.25
569.933	6299.81
570.357	6287.86
570.78	6230.53
571.204	6199.25
571.627	6183.89
572.05	6204.32
572.474	6231.16
572.897	6221.64
573.32	6227.34
573.743	6234.37
574.166	6203.13
574.589	6247.2
575.012	6258.44
575.435	6300.43
575.858	6312.42
576.281	6318.5
576.704	6308.07
577.126	6312.46
577.549	6317.01
577.972	6330.66
578.394	6332.71
578.817	6342.48
579.239	6315.55
579.661	6306.03
580.084	6279.62
580.506	6272.49
580.928	6301.49
581.35	6300.92
581.772	6322.78
582.194	6307.27
582.616	6290.95
583.038	6275.55
583.46	6276.67
583.882	6297.37
584.303	6353.79
584.725	6378.43
585.147	6397.17
585.568	6466.98
585.99	6537.64
586.411	6588.4
586.833	6672.56
587.254	6700.72
587.675	6783.39
588.096	6860.56
588.518	6861.02
588.939	6808.08
589.36	6816.58
589.781	6815.33
590.202	6692.87
590.623	6675.47
591.043	6682.17
591.464	6638.33
591.885	6629.45
592.305	6611.39
592.726	6553.3
593.147	6553.31
593.567	6524.1
593.987	6482.76
594.408	6449.63
594.828	6445.14
595.248	6397.16
595.669	6290.06
596.089	6236.36
596.509	6188.01
596.929	6100.2
597.349	6076.28
597.769	6007.55
598.189	5950.01
598.608	5927.89
599.028	5906.39
599.448	5880.05
599.867	5804.44
600.287	5770.82
600.706	5728.75
601.126	5665.77
601.545	5641.15
601.965	5623.8
602.384	5592.1
602.803	5598.34
603.222	5570.51
603.641	5542.1
604.061	5523.5
604.48	5512.84
604.898	5551.85
605.317	5584.96
605.736	5606.78
606.155	5608.34
606.574	5585.25
606.992	5624.91
607.411	5621.16
607.829	5613.83
608.248	5626.39
608.666	5644.03
609.085	5664.05
609.503	5650.95
609.921	5648.37
610.339	5682.84
610.758	5711.06
611.176	5719.02
611.594	5707.27
612.012	5722.58
612.43	5757.76
612.847	5811.9
613.265	5836.25
613.683	5884.93
614.101	5920.27
614.518	5936.77
614.936	5921.57
615.353	5882.2
615.771	5895.01
616.188	5922.75
616.606	5932.52
617.023	5930.36
617.44	5890.55
617.857	5891.21
618.274	5877.5
618.691	5868.42
619.108	5847.39
619.525	5840.53
619.942	5889.13
620.359	5918.26
620.776	5911.66
621.192	5904.23
621.609	5906.42
622.026	5946.76
622.442	5986.63
622.859	6014.46
623.275	5994.46
623.691	6030.17
624.108	6095.03
624.524	6176.39
624.94	6186.61
625.356	6243.98
625.772	6323.08
626.188	6392.68
626.604	6411.68
627.02	6401.06
627.436	6397.58
627.852	6436.76
628.268	6502.1
628.683	6472.54
629.099	6442.88
629.514	6436.1
629.93	6468.36
630.345	6504.32
630.761	6502.68
631.176	6537.78
631.591	6517.41
632.007	6508.63
632.422	6529.9
632.837	6501.07
633.252	6506.48
633.667	6481.83
634.082	6462.5
634.497	6426.54
634.911	6350.43
635.326	6364.34
635.741	6312.61
636.155	6307.72
636.57	6350.13
636.984	6389.11
637.399	6434.36
637.813	6485.42
638.228	6527.1
638.642	6605.08
639.056	6605.92
639.47	6672.47
639.884	6685.5
640.298	6711.05
640.712	6762.85
641.126	6756.19
641.54	6774.55
641.954	6822.63
642.368	6814.24
642.781	6819.11
643.195	6780.45
643.609	6849.67
644.022	6881.87
644.436	6924.32
644.849	6922.45
645.262	6917.51
645.676	7000.46
646.089	7030.68
646.502	6985.12
646.915	7012.45
647.328	6973.4
647.741	7009.99
648.154	6973.56
648.567	6981.56
648.98	6931.88
649.393	6974.83
649.805	6991.12
650.218	6978.29
650.631	6895.42
651.043	6890.25
651.456	6876.17
651.868	6915.28
652.28	7070.03
652.693	7196.79
653.105	7277.48
653.517	7369.99
653.929	7389.08
654.341	7451.97
654.753	7384.43
655.165	7471.29
655.577	7493.87
655.989	7513.68
656.401	7509.02
656.813	7280.83
657.224	7186.03
657.636	7048.71
658.047	6973.98
658.459	6896.93
658.87	6905.94
659.282	6891.6
659.693	6788.98
660.104	6734.81
660.515	6689.47
660.926	6740.97
661.338	6792.34
661.749	6811.97
662.159	6788.78
662.57	6827.35
662.981	6853.6
663.392	6848.92
663.803	6940.5
664.213	6989.07
664.624	7018.88
665.035	7106.77
665.445	7041.71
665.855	7022.32
666.266	6988.29
666.676	7017.19
667.086	6978.73
667.497	7002.94
667.907	6984.09
668.317	6935.4
668.727	6899.7
669.137	6935.73
669.547	6934.48
669.956	6981.91
670.366	7018.01
670.776	7048.76
671.186	7102.2
671.595	7138.41
672.005	7188.59
672.414	7178.77
672.824	7156.3
673.233	7232.68
673.642	7248.92
674.052	7266.38
674.461	7271.17
674.87	7314.57
675.279	7277.03
675.688	7294.87
676.097	7288.66
676.506	7245.41
676.915	7377.2
677.323	7397.87
677.732	7371.74
678.141	7360.66
678.549	7258.44
678.958	7246.07
679.366	7229.84
679.775	7274.12
680.183	7315.85
680.592	7349.02
681	7371.42
681.408	7270.02
681.816	7299.81
682.224	7338.31
682.632	7351.31
683.04	7546.26
683.448	7684.52
683.856	7847.17
684.264	8028.51
684.671	8195.63
685.079	8393.47
685.487	8601.44
685.894	8931.87
686.302	9146.42
686.709	9248.18
687.116	9395.55
687.524	9438.15
