Data from C_2_DEC_CT_2N_Splice17_12-29-45-550.txt Node
Date: Sat Mar 14 12:29:45 EDT 2020
User: sa697716
Spectrometer: FLMS03696
Trigger mode: 0
Integration Time (sec): 3.180400E-1
Scans to average: 20
Electric dark correction enabled: true
Nonlinearity correction enabled: true
Boxcar width: 5
XAxis mode: Wavelengths
Number of Pixels in Spectrum: 2048
>>>>>Begin Spectral Data<<<<<
187.83	-303700.24
188.298	2254.04
188.766	1263.2
189.233	1049.07
189.701	1452.31
190.169	1958.25
190.636	724.29
191.104	580.87
191.571	66.32
192.039	-85.69
192.506	-70.41
192.974	346.95
193.441	-447.48
193.908	39.31
194.375	-69.86
194.842	-14.5
195.31	34.75
195.777	169.54
196.244	405.18
196.711	455.11
197.177	572.27
197.644	786.49
198.111	1301.14
198.578	1808.92
199.045	1457.38
199.511	2376.04
199.978	2743.17
200.445	2297.62
200.911	2509.13
201.378	2741.18
201.844	2507.45
202.31	4253.22
202.777	4465.79
203.243	2480.27
203.709	2344.72
204.176	2791.1
204.642	2313.44
205.108	2171.1
205.574	1774.74
206.04	1610.83
206.506	1531.96
206.972	1427.23
207.438	1371.82
207.903	1552.09
208.369	1371.92
208.835	1372
209.301	1445.44
209.766	1478.31
210.232	1467.27
210.697	1830.14
211.163	2279.58
211.628	3433.63
212.094	2897.99
212.559	3591.18
213.024	2242.01
213.49	2753.7
213.955	2718.63
214.42	2629.91
214.885	2477.82
215.35	2376.21
215.815	2319.62
216.28	2458.79
216.745	2011.07
217.21	2201.82
217.675	2042.68
218.14	2329.05
218.604	2633.72
219.069	3038.34
219.534	3246.9
219.998	3804.76
220.463	4682.88
220.927	5836.37
221.392	5567.55
221.856	5686.58
222.32	7228.78
222.785	8999.01
223.249	11395.87
223.713	12803.86
224.177	12907.3
224.642	16680.04
225.106	20670.45
225.57	22701.92
226.034	16951.92
226.497	25898.65
226.961	23452.68
227.425	27414.47
227.889	30516.35
228.353	30651.46
228.816	63499.1
229.28	60874.3
229.744	51504.16
230.207	31383.73
230.671	30945.91
231.134	51279.15
231.597	59258.88
232.061	59495.06
232.524	58113.44
232.987	40080.05
233.45	36138.55
233.914	32443.22
234.377	33294.07
234.84	30474.71
235.303	35955.28
235.766	40191.58
236.229	41570.71
236.691	26211.5
237.154	29454.29
237.617	22184.03
238.08	22762.54
238.542	26653.35
239.005	19076.5
239.468	18966.78
239.93	17900.85
240.393	16274.72
240.855	14283.34
241.317	14648.36
241.78	17837.62
242.242	18462.51
242.704	19953.57
243.166	17382.74
243.629	15783.5
244.091	18206.46
244.553	19957.52
245.015	21470.2
245.477	27824.38
245.939	40878.93
246.4	43442.13
246.862	42247.81
247.324	39872.71
247.786	44680.36
248.247	58675.43
248.709	60711.83
249.17	45462.85
249.632	42906.19
250.093	49782.13
250.555	43019.86
251.016	26250.63
251.477	24917.4
251.939	26931.37
252.4	28302.1
252.861	33683.27
253.322	31352.21
253.783	37358.53
254.244	48483.64
254.705	38263.36
255.166	34042.98
255.627	33569.38
256.088	47402.45
256.549	50420.28
257.009	43496.92
257.47	52837.65
257.931	43103.85
258.391	32366.28
258.852	33423.8
259.312	35110.14
259.773	43430.54
260.233	36803.64
260.694	31118.59
261.154	35372.21
261.614	28432.57
262.074	25458.03
262.534	26493.56
262.994	25009.04
263.455	33367.02
263.915	28171.64
264.374	26604.91
264.834	29112.98
265.294	32332.61
265.754	33535.52
266.214	31806.74
266.673	29880.47
267.133	37800.02
267.593	37614.92
268.052	46137.77
268.512	40218.14
268.971	48539.38
269.431	53320.51
269.89	47827.02
270.349	71809.84
270.809	80265.54
271.268	72295.8
271.727	162333.43
272.186	105431.31
272.645	79242.31
273.104	57266.84
273.563	83033.96
274.022	65471.86
274.481	55829.92
274.94	43107.3
275.399	32113.71
275.857	37453.16
276.316	50763.71
276.775	45266.71
277.233	44619.81
277.692	41756.1
278.15	47257.53
278.609	48671.48
279.067	45076.05
279.525	41886.44
279.984	54145.4
280.442	65103.65
280.9	64217.69
281.358	42267.7
281.816	39438.28
282.274	38658.66
282.732	40021.91
283.19	40287.48
283.648	34813.8
284.106	37139.9
284.564	37809.32
285.021	35087.58
285.479	26157.44
285.937	23797.16
286.394	20882.82
286.852	21491.2
287.309	22598.94
287.767	21848.81
288.224	20798.77
288.682	22856.24
289.139	25096.2
289.596	22987.02
290.053	23910.76
290.511	30251.68
290.968	36811.13
291.425	50101.22
291.882	41756.82
292.339	36380.37
292.796	36175.4
293.252	34128.85
293.709	27128.96
294.166	24351.33
294.623	26944.27
295.079	25905.07
295.536	26031.47
295.992	23611.36
296.449	23341.87
296.905	24283.9
297.362	23281.23
297.818	24484.74
298.274	25423.47
298.731	25949.37
299.187	25702.72
299.643	27621.53
300.099	33421.63
300.555	36689.05
301.011	30707.19
301.467	29624.14
301.923	34718.19
302.379	33967.06
302.835	33392.88
303.291	33430.12
303.746	38055.83
304.202	48104.02
304.658	48339.17
305.113	32522.19
305.569	31892.73
306.024	34020.77
306.479	32406.44
306.935	27317.66
307.39	29846.14
307.845	27587.04
308.301	27787.87
308.756	27080.26
309.211	26099.46
309.666	26740.12
310.121	33211.23
310.576	33733.32
311.031	33510.84
311.486	38420.42
311.94	38456.13
312.395	51505.61
312.85	96796.05
313.305	476298.31
313.759	2463422.95
314.214	178621.04
314.668	141627.25
315.123	119063.4
315.577	42708.37
316.032	38035.24
316.486	47694.62
316.94	37622.31
317.394	26202.31
317.849	20395.8
318.303	19334.56
318.757	18279.49
319.211	20278.94
319.665	17792.35
320.119	18056.11
320.572	25943.49
321.026	24233.04
321.48	20188.62
321.934	22063.49
322.387	22132.46
322.841	23902.38
323.295	21465.48
323.748	24776.26
324.202	25095.7
324.655	30096.13
325.108	42003.08
325.562	29665.1
326.015	35261.75
326.468	26672.53
326.921	29822.59
327.374	27804.53
327.827	28960.16
328.28	32846.43
328.733	22005.82
329.186	19371.38
329.639	18505.17
330.092	15611.97
330.545	14875.12
330.997	15011.28
331.45	16387.48
331.903	19194.06
332.355	33106.8
332.808	32216.57
333.26	26577.85
333.713	28873.22
334.165	29091.13
334.617	38818.5
335.069	31422.28
335.522	56845.54
335.974	62984.98
336.426	57675.19
336.878	40003.05
337.33	20261.87
337.782	19803.85
338.234	24798.99
338.686	29708.17
339.137	35212.51
339.589	33223.01
340.041	26079.88
340.493	22428.55
340.944	22982.51
341.396	24748.81
341.847	20821.33
342.299	24555.13
342.75	29967.17
343.201	26234.38
343.653	30205.39
344.104	37164.52
344.555	29209.79
345.006	45478.98
345.457	34836.79
345.908	27742.81
346.359	26123.03
346.81	21301.8
347.261	22494.68
347.712	22191.32
348.163	23801.41
348.613	24064.4
349.064	22506.01
349.515	19741.55
349.965	20246.32
350.416	24405.81
350.866	26753.52
351.317	30315.05
351.767	50187.69
352.217	63419.56
352.668	52695
353.118	48305.5
353.568	46622.74
354.018	36820.3
354.468	38808.28
354.918	27860.64
355.368	24387.84
355.818	34504.32
356.268	99269.3
356.718	415365.72
357.168	103429.81
357.617	51844.75
358.067	57750.59
358.517	54115.57
358.966	63536.96
359.416	71243.86
359.865	76989.2
360.315	91647.52
360.764	42760.81
361.213	23928.39
361.663	22731.41
362.112	28067.77
362.561	45358.1
363.01	34171.11
363.459	28787.25
363.908	31134.26
364.357	26439.35
364.806	44682.11
365.255	30740.88
365.703	28162.53
366.152	28242.44
366.601	22889.23
367.05	18575.77
367.498	16854.79
367.947	17627.89
368.395	18318.57
368.844	16216.32
369.292	19565.46
369.74	13494.39
370.189	20685.18
370.637	24244.61
371.085	20861.62
371.533	25378.12
371.981	24473.08
372.429	23319.83
372.877	24266.29
373.325	20309.58
373.773	20711.98
374.221	18433.03
374.669	22872.88
375.116	19759.25
375.564	19892.13
376.012	22284.25
376.459	18371.63
376.907	21952.19
377.354	26562.41
377.801	24738.85
378.249	28404.33
378.696	36256.45
379.143	43871.19
379.591	46766.19
380.038	79030.41
380.485	57093.96
380.932	61628.17
381.379	56279.33
381.826	41361.02
382.273	29390.76
382.72	25697.48
383.166	25037.52
383.613	16240.31
384.06	14644.98
384.506	16915.66
384.953	12420.36
385.4	12505.16
385.846	10928.2
386.292	10650.77
386.739	10409.2
387.185	10274.74
387.631	10267.37
388.078	9936.98
388.524	10620.85
388.97	9793.6
389.416	8166.18
389.862	8669.48
390.308	8202.98
390.754	8328.79
391.2	9033.95
391.645	9242.73
392.091	8834.17
392.537	8544.5
392.983	8568.93
393.428	8413.24
393.874	9015.58
394.319	9039.22
394.765	8579.7
395.21	8831.84
395.655	8286.2
396.101	7755.53
396.546	7005.8
396.991	7077.33
397.436	6573.21
397.881	6354.38
398.326	6031
398.771	5713.13
399.216	5008.56
399.661	4510.85
400.106	4492.24
400.551	4609.37
400.995	4140.3
401.44	4096.18
401.885	3858.17
402.329	3904.49
402.774	3748.91
403.218	3627.62
403.663	3496.79
404.107	3594.63
404.551	3619.91
404.995	3323.85
405.44	3199.37
405.884	3255.97
406.328	3156.42
406.772	3150.81
407.216	2870.61
407.66	2776.08
408.104	2642.29
408.547	2477.29
408.991	2398.85
409.435	2314.86
409.879	2286.28
410.322	2260
410.766	2182.23
411.209	2076.9
411.653	1993.98
412.096	1956.19
412.54	1960.8
412.983	1951.09
413.426	1957.51
413.869	1962.72
414.312	1926.34
414.756	1858.07
415.199	1773.8
415.642	1722.91
416.085	1729.64
416.527	1718.76
416.97	1746.05
417.413	1660.56
417.856	1645.8
418.298	1632.7
418.741	1621.06
419.184	1620.68
419.626	1692.79
420.069	1699.13
420.511	1712.87
420.953	1674.66
421.396	1660.84
421.838	1618.87
422.28	1655.92
422.722	1661.55
423.164	1683.57
423.606	1655.53
424.048	1650.83
424.49	1567.59
424.932	1557.23
425.374	1534.74
425.816	1561.63
426.258	1592.41
426.699	1610.97
427.141	1583.8
427.582	1611.51
428.024	1605.71
428.465	1597.13
428.907	1556.76
429.348	1536.24
429.789	1531.94
430.231	1497.52
430.672	1517.78
431.113	1477.21
431.554	1455.87
431.995	1419.13
432.436	1364.31
432.877	1329.32
433.318	1304.65
433.759	1299.97
434.2	1296.62
434.64	1284.55
435.081	1287.6
435.522	1216.72
435.962	1174.96
436.403	1146.94
436.843	1161.24
437.284	1135.62
437.724	1103.65
438.164	1103.93
438.604	1079.52
439.045	1037.17
439.485	993.46
439.925	971.39
440.365	946.65
440.805	930.53
441.245	917.43
441.685	882.4
442.125	873.52
442.564	880.24
443.004	859.37
443.444	853.12
443.883	853.05
444.323	842.48
444.762	841.79
445.202	851.98
445.641	865.9
446.081	858.54
446.52	863.99
446.959	855.12
447.398	831.93
447.837	820.98
448.276	806.64
448.716	813.18
449.154	821.79
449.593	802.61
450.032	797.41
450.471	780.92
450.91	780.72
451.349	779.08
451.787	776.89
452.226	787.67
452.664	787.44
453.103	789.5
453.541	788.35
453.98	785.03
454.418	789.43
454.856	778.48
455.295	779.23
455.733	786.31
456.171	789.63
456.609	789.81
457.047	790.45
457.485	801.15
457.923	801.92
458.361	792.02
458.798	796.14
459.236	793.4
459.674	797.83
460.111	799.69
460.549	790.99
460.987	788.62
461.424	785.45
461.862	780.72
462.299	768.32
462.736	767.64
463.173	769.52
463.611	760.34
464.048	759.36
464.485	766.61
464.922	759.64
465.359	755.9
465.796	745.81
466.233	739.82
466.67	734.3
467.106	733.08
467.543	726.15
467.98	717.08
468.416	697.83
468.853	692.31
469.29	670.31
469.726	663.16
470.162	646.06
470.599	638.4
471.035	632.51
471.471	615.74
471.907	611.35
472.344	606.5
472.78	607.54
473.216	615.56
473.652	608.14
474.088	607.26
474.523	605.6
474.959	611.42
475.395	604.33
475.831	600.29
476.266	603.85
476.702	602.61
477.138	596.11
477.573	593.86
478.008	591.62
478.444	594.34
478.879	599.24
479.314	602.09
479.75	601.75
480.185	605.3
480.62	611.22
481.055	614.42
481.49	618.54
481.925	627.67
482.36	638.83
482.795	657.17
483.229	674.42
483.664	688.96
484.099	691.98
484.534	702.5
484.968	709.5
485.403	711.72
485.837	711.49
486.271	710.81
486.706	711.67
487.14	703.9
487.574	692.15
488.009	686.54
488.443	680.9
488.877	687.24
489.311	689.08
489.745	697.02
490.179	703.4
490.613	715.45
491.046	720.68
491.48	724.98
491.914	725.12
492.348	730.25
492.781	734.52
493.215	734.54
493.648	735.25
494.082	740.83
494.515	740.84
494.948	748.27
495.382	752.45
495.815	757.12
496.248	762.73
496.681	776.58
497.114	788.28
497.547	797.95
497.98	812.44
498.413	818.65
498.846	827.22
499.279	835.56
499.711	839.31
500.144	842.19
500.577	852.12
501.009	863.75
501.442	872.78
501.874	873
502.306	873.77
502.739	880.35
503.171	894.31
503.603	897.4
504.036	905.82
504.468	910.24
504.9	919.7
505.332	925.11
505.764	927.84
506.196	933.5
506.627	947.57
507.059	959.65
507.491	965.66
507.923	962.02
508.354	975.32
508.786	984.03
509.217	1001.09
509.649	1014.29
510.08	1032.32
510.512	1047.08
510.943	1059.09
511.374	1068.73
511.805	1086.65
512.237	1104.4
512.668	1134.26
513.099	1159.11
513.53	1183.92
513.961	1201.41
514.391	1230.62
514.822	1260.61
515.253	1292
515.684	1314.23
516.114	1339.73
516.545	1357.51
516.975	1379.68
517.406	1393.18
517.836	1392.14
518.267	1395.13
518.697	1408.66
519.127	1408.57
519.558	1411.3
519.988	1411.48
520.418	1419.06
520.848	1431.44
521.278	1436.12
521.708	1453.86
522.138	1463.07
522.567	1489.34
522.997	1510.35
523.427	1521.5
523.857	1536.74
524.286	1544.32
524.716	1556.81
525.145	1571.49
525.575	1579.58
526.004	1590.64
526.433	1577.11
526.863	1575.65
527.292	1564.15
527.721	1567.89
528.15	1571.76
528.579	1568.97
529.008	1577.12
529.437	1596.15
529.866	1607.06
530.295	1621.28
530.724	1631.62
531.152	1656.45
531.581	1668.37
532.01	1683.6
532.438	1689.61
532.867	1702.14
533.295	1718.9
533.723	1723.12
534.152	1719.56
534.58	1719.04
535.008	1705.27
535.436	1707.1
535.865	1713.56
536.293	1726.13
536.721	1740.85
537.149	1764.04
537.576	1767.81
538.004	1778.43
538.432	1785.32
538.86	1784.88
539.287	1791.65
539.715	1802.09
540.143	1804.42
540.57	1799.16
540.998	1794.97
541.425	1773.21
541.852	1753.7
542.28	1751.24
542.707	1736.89
543.134	1723.95
543.561	1719.47
543.988	1711.85
544.415	1711.15
544.842	1706.71
545.269	1700.2
545.696	1702.36
546.123	1714.5
546.549	1704.05
546.976	1690.29
547.403	1689.22
547.829	1690.96
548.256	1692.98
548.682	1690.43
549.108	1683.71
549.535	1682.47
549.961	1684.62
550.387	1672.84
550.813	1667.09
551.24	1672.61
551.666	1673.25
552.092	1664.69
552.518	1658.04
552.943	1652.32
553.369	1657.92
553.795	1663.9
554.221	1664.98
554.646	1662.61
555.072	1672.69
555.498	1676.58
555.923	1685.58
556.349	1701.36
556.774	1709.27
557.199	1712.13
557.625	1717.76
558.05	1713.28
558.475	1723.09
558.9	1722.3
559.325	1716.06
559.75	1710.97
560.175	1706.52
560.6	1701.54
561.025	1699.99
561.449	1701.86
561.874	1706.96
562.299	1712.2
562.723	1719.78
563.148	1711.85
563.572	1716.09
563.997	1726.12
564.421	1731.73
564.846	1733.3
565.27	1739.38
565.694	1737.97
566.118	1751.07
566.542	1760.44
566.966	1755.71
567.39	1753.6
567.814	1745.33
568.238	1747.57
568.662	1754.21
569.086	1759.71
569.509	1768.36
569.933	1754.47
570.357	1750.16
570.78	1731.99
571.204	1720.27
571.627	1711.72
572.05	1710.84
572.474	1711.96
572.897	1701
573.32	1695.2
573.743	1686.49
574.166	1670.46
574.589	1672.48
575.012	1667.31
575.435	1665.93
575.858	1659.08
576.281	1650.02
576.704	1636.08
577.126	1626.12
577.549	1616.72
577.972	1607.58
578.394	1598.54
578.817	1593.72
579.239	1575.87
579.661	1563.44
580.084	1551.19
580.506	1540.54
580.928	1537.63
581.35	1527.99
581.772	1523.44
582.194	1511.74
582.616	1500.68
583.038	1487.3
583.46	1477.17
583.882	1475.17
584.303	1479.71
584.725	1474.96
585.147	1477.75
585.568	1489.51
585.99	1503.53
586.411	1512.12
586.833	1527.7
587.254	1530.8
587.675	1545.92
588.096	1559.81
588.518	1556.03
588.939	1541.05
589.36	1540.22
589.781	1529.64
590.202	1501.57
590.623	1493.37
591.043	1490.52
591.464	1479.17
591.885	1475.2
592.305	1469.67
592.726	1455.79
593.147	1458.22
593.567	1453.53
593.987	1447.61
594.408	1442.89
594.828	1441.65
595.248	1435.2
595.669	1417.03
596.089	1409.32
596.509	1403.5
596.929	1391.14
597.349	1392.3
597.769	1382.23
598.189	1376.11
598.608	1376.68
599.028	1378.56
599.448	1379.59
599.867	1367.52
600.287	1363.78
600.706	1359.65
601.126	1349.87
601.545	1349.73
601.965	1348.12
602.384	1342.64
602.803	1345.71
603.222	1341.62
603.641	1336.79
604.061	1333.72
604.48	1330.98
604.898	1339.97
605.317	1346.13
605.736	1349.98
606.155	1347.27
606.574	1339.52
606.992	1346.28
607.411	1341.92
607.829	1334.84
608.248	1331.32
608.666	1328.74
609.085	1329.02
609.503	1321.33
609.921	1315.91
610.339	1318.54
610.758	1318.27
611.176	1315.91
611.594	1307.68
612.012	1305.13
612.43	1309.54
612.847	1317.41
613.265	1319.33
613.683	1323.58
614.101	1325.92
614.518	1323.29
614.936	1313.73
615.353	1301.26
615.771	1297.93
616.188	1298.52
616.606	1295.88
617.023	1289.42
617.44	1276.14
617.857	1270.35
618.274	1263.05
618.691	1257.46
619.108	1249.14
619.525	1243.94
619.942	1250.76
620.359	1254.43
620.776	1250.04
621.192	1246.42
621.609	1244.3
622.026	1250.33
622.442	1256.18
622.859	1260.02
623.275	1253.43
623.691	1258.96
624.108	1271.17
624.524	1285.16
624.94	1285.55
625.356	1295.35
625.772	1309.05
626.188	1322.62
626.604	1325.57
627.02	1322.41
627.436	1320.52
627.852	1328.19
628.268	1340.03
628.683	1331.21
629.099	1322.68
629.514	1318.26
629.93	1323.03
630.345	1327.61
630.761	1322.91
631.176	1327.44
631.591	1322.24
632.007	1316.82
632.422	1314.22
632.837	1302.28
633.252	1299.97
633.667	1290.36
634.082	1280.53
634.497	1267.99
634.911	1249.46
635.326	1247.06
635.741	1229.51
636.155	1220.24
636.57	1222.32
636.984	1223.43
637.399	1227.84
637.813	1228.07
638.228	1228.93
638.642	1234.76
639.056	1225.85
639.47	1228.08
639.884	1220.41
640.298	1214.99
640.712	1215.09
641.126	1203.93
641.54	1195.86
641.954	1191.63
642.368	1180.92
642.781	1173.58
643.195	1158.42
643.609	1161.82
644.022	1157.33
644.436	1153.46
644.849	1142.56
645.262	1130.45
645.676	1132.43
646.089	1129
646.502	1114.36
646.915	1109.85
647.328	1093
647.741	1090.68
648.154	1076.19
648.567	1072.72
648.98	1060.57
649.393	1062.77
649.805	1060.79
650.218	1053.97
650.631	1037.31
651.043	1030.45
651.456	1025.56
651.868	1025.84
652.28	1043.73
652.693	1057.87
653.105	1064.52
653.517	1075.12
653.929	1074.84
654.341	1080.34
654.753	1069.57
655.165	1077.86
655.577	1076.57
655.989	1072.17
656.401	1065.76
656.813	1029.85
657.224	1009.95
657.636	981.59
658.047	963.2
658.459	942.81
658.87	934.41
659.282	921.78
659.693	900.69
660.104	886.06
660.515	871.85
660.926	870.92
661.338	867.93
661.749	861.72
662.159	852.09
662.57	847.57
662.981	844.31
663.392	836.94
663.803	841.66
664.213	838.81
664.624	834.83
665.035	837.88
665.445	823.89
665.855	815.61
666.266	808.01
666.676	806.32
667.086	797.24
667.497	796.48
667.907	790.45
668.317	780.95
668.727	777.91
669.137	778.49
669.547	774.84
669.956	776.93
670.366	779.58
670.776	780.59
671.186	784.61
671.595	787.9
672.005	791.12
672.414	789.99
672.824	786.82
673.233	790.24
673.642	792.4
674.052	796.22
674.461	797.84
674.87	801.69
675.279	798.5
675.688	797.28
676.097	797.35
676.506	791.46
676.915	805.14
677.323	807.17
677.732	805.06
678.141	804.18
678.549	793.04
678.958	790.98
679.366	788.95
679.775	792.54
680.183	803.36
680.592	809.35
681	816.09
681.408	808.69
681.816	817.24
682.224	825.48
682.632	835.3
683.04	864.87
683.448	889.99
683.856	920.82
684.264	956.52
684.671	988.94
685.079	1027.97
685.487	1070.92
685.894	1132.11
686.302	1181.29
686.709	1222.33
687.116	1267.71
687.524	1305.04
687.931	1334.87
688.338	1360.37
688.745	1379.97
689.152	1403.64
689.559	1437.02
689.966	1470.77
690.373	1480.65
690.78	1510.09
691.187	1560.5
691.593	1596.74
692	1625.13
692.407	1674.53
692.813	1737.07
693.22	1784.4
693.626	1832.36
694.032	1869.89
694.439	1931.21
694.845	1976.48
695.251	2035.86
695.657	2088.9
696.063	2172.6
