Data from C_2_DEC_OH_4N_Splice17_12-04-55-557.txt Node
Date: Sat Mar 14 12:04:55 EDT 2020
User: sa697716
Spectrometer: FLMS03696
Trigger mode: 0
Integration Time (sec): 3.180400E-1
Scans to average: 20
Electric dark correction enabled: true
Nonlinearity correction enabled: true
Boxcar width: 5
XAxis mode: Wavelengths
Number of Pixels in Spectrum: 2048
>>>>>Begin Spectral Data<<<<<
187.83	-221633.56
188.298	1555.72
188.766	876.36
189.233	750.07
189.701	1092.84
190.169	1570.61
190.636	597.26
191.104	470.63
191.571	33.37
192.039	-102.18
192.506	-181.22
192.974	231.75
193.441	-530.77
193.908	-73.98
194.375	-59.46
194.842	-64.67
195.31	-45.88
195.777	128.6
196.244	301.78
196.711	347.3
197.177	437.95
197.644	617.25
198.111	1057.56
198.578	1471.19
199.045	1184.31
199.511	1950.04
199.978	2303.54
200.445	1954.92
200.911	2146.45
201.378	2388.76
201.844	2170.11
202.31	3671.74
202.777	3853.98
203.243	2128.36
203.709	2047.7
204.176	2456.64
204.642	2050.99
205.108	1910.49
205.574	1582.78
206.04	1429.83
206.506	1333.55
206.972	1246.7
207.438	1211.87
207.903	1352.36
208.369	1194.67
208.835	1194.98
209.301	1243.98
209.766	1260.35
210.232	1249.95
210.697	1535.72
211.163	1894.45
211.628	2869.26
212.094	2428.86
212.559	2979.43
213.024	1879.43
213.49	2299.32
213.955	2217.75
214.42	2141.77
214.885	1994.23
215.35	1907.77
215.815	1840.81
216.28	1947.31
216.745	1566.1
217.21	1676.02
217.675	1510.89
218.14	1667.58
218.604	1825.69
219.069	2070.37
219.534	2165.52
219.998	2474.98
220.463	2977.68
220.927	3599.31
221.392	3361.05
221.856	3395.62
222.32	4238.46
222.785	5224.34
223.249	6559.5
223.713	7295.88
224.177	7282.37
224.642	9277.22
225.106	11402.79
225.57	12382.34
226.034	9223.99
226.497	13996.35
226.961	12631.99
227.425	14701.8
227.889	16277.09
228.353	16210.4
228.816	33389.1
229.28	31973.96
229.744	26986.49
230.207	16390.68
230.671	16156.96
231.134	26649.55
231.597	30800.08
232.061	30766.87
232.524	30021.22
232.987	20687.6
233.45	18638.86
233.914	16737.26
234.377	17094.41
234.84	15633.45
235.303	18429.17
235.766	20579.74
236.229	21244.49
236.691	13357
237.154	15004.67
237.617	11292.83
238.08	11576.93
238.542	13559.13
239.005	9715.95
239.468	9648.2
239.93	9112.56
240.393	8283.96
240.855	7257.13
241.317	7428.95
241.78	9028.71
242.242	9346.12
242.704	10138.63
243.166	8816.5
243.629	8043.06
244.091	9268.97
244.553	10157.02
245.015	10941.4
245.477	14161.49
245.939	20812.27
246.4	22153.83
246.862	21579.8
247.324	20366.29
247.786	22717.01
248.247	29803.92
248.709	30695.2
249.17	22986.91
249.632	21749.85
250.093	25240.66
250.555	21822.04
251.016	13323.64
251.477	12660.48
251.939	13681.7
252.4	14355.71
252.861	17101.49
253.322	15958.64
253.783	18999.27
254.244	24641.97
254.705	19399.89
255.166	17245.65
255.627	16999.77
256.088	24014.15
256.549	25553.53
257.009	22030.79
257.47	26788.66
257.931	21822.05
258.391	16363.51
258.852	16903.65
259.312	17739.79
259.773	21956.67
260.233	18632.95
260.694	15756.83
261.154	17912.68
261.614	14402.75
262.074	12900.6
262.534	13424.32
262.994	12685.33
263.455	16925.1
263.915	14280.41
264.374	13465.43
264.834	14739.89
265.294	16317.65
265.754	16945.93
266.214	16080.12
266.673	15091.77
267.133	19066.28
267.593	18945.4
268.052	23242.65
268.512	20259.46
268.971	24534.54
269.431	26989.02
269.89	24226.83
270.349	36463.02
270.809	40706.47
271.268	36623.27
271.727	82276.66
272.186	53426.81
272.645	40162.61
273.104	28976.63
273.563	41992.27
274.022	33000.31
274.481	28121.74
274.94	21710.94
275.399	16145.71
275.857	18837.62
276.316	25523.59
276.775	22724.11
277.233	22426.73
277.692	21032.25
278.15	23859.64
278.609	24610.74
279.067	22824.34
279.525	21260.29
279.984	27470.86
280.442	33077.67
280.9	32684.47
281.358	21531.03
281.816	20130.65
282.274	19716.36
282.732	20377.38
283.19	20489.57
283.648	17688.23
284.106	18860.42
284.564	19193.77
285.021	17842.22
285.479	13295.45
285.937	12103.71
286.394	10634.36
286.852	10954.7
287.309	11532.01
287.767	11178.88
288.224	10667.98
288.682	11716.52
289.139	12886.48
289.596	11813.34
290.053	12261.73
290.511	15499.58
290.968	18800.8
291.425	25552.85
291.882	21325.66
292.339	18597.61
292.796	18482.61
293.252	17431.46
293.709	13897.31
294.166	12484.6
294.623	13803.17
295.079	13257.1
295.536	13351.6
295.992	12138.75
296.449	12016.22
296.905	12473.53
297.362	11989.52
297.818	12614.78
298.274	13098.51
298.731	13331.05
299.187	13199.03
299.643	14170.54
300.099	17178.88
300.555	18816.82
301.011	15729.95
301.467	15202.43
301.923	17813.72
302.379	17402.86
302.835	17076.03
303.291	17116.13
303.746	19515.97
304.202	24645.53
304.658	24777.54
305.113	16659.51
305.569	16354.68
306.024	17436.74
306.479	16593.57
306.935	14020.66
307.39	15318.69
307.845	14170.66
308.301	14260.16
308.756	13907.57
309.211	13413.36
309.666	13767.43
310.121	17159.04
310.576	17442.34
311.031	17333.96
311.486	19854.8
311.94	19808.22
312.395	26482.77
312.85	49800.31
313.305	244279.65
313.759	1264823.82
314.214	91841.56
314.668	72834.51
315.123	61133.67
315.577	21959.11
316.032	19551.36
316.486	24484.5
316.94	19370.62
317.394	13510.35
317.849	10517.85
318.303	9981.67
318.757	9438.94
319.211	10436.63
319.665	9132.53
320.119	9256.05
320.572	13258.76
321.026	12398.01
321.48	10335.23
321.934	11273.97
322.387	11324.24
322.841	12258.98
323.295	11059.26
323.748	12734.55
324.202	12941.15
324.655	15561.11
325.108	21780.31
325.562	15413.21
326.015	18345.78
326.468	13898.41
326.921	15572.14
327.374	14522.58
327.827	15126.91
328.28	17114.01
328.733	11492.44
329.186	10099.84
329.639	9660.49
330.092	8151.89
330.545	7772.38
330.997	7856.01
331.45	8598.95
331.903	10066.14
332.355	17296.24
332.808	16837.99
333.26	13893.98
333.713	15093.05
334.165	15249.09
334.617	20327.55
335.069	16395.24
335.522	29605.34
335.974	32762.82
336.426	29911.63
336.878	20749.22
337.33	10537.94
337.782	10273.17
338.234	12920.02
338.686	15437.08
339.137	18281.37
339.589	17203.56
340.041	13512.92
340.493	11640.31
340.944	11906.14
341.396	12842.56
341.847	10812.9
342.299	12784.02
342.75	15609.6
343.201	13598.12
343.653	15642.03
344.104	19219.55
344.555	15152.08
345.006	23610.49
345.457	18111.5
345.908	14422.31
346.359	13586.71
346.81	11062.18
347.261	11634.72
347.712	11471.45
348.163	12301.62
348.613	12500.27
349.064	11666.46
349.515	10230.17
349.965	10495.43
350.416	12626.86
350.866	13869.12
351.317	15679.99
351.767	25950.95
352.217	32840.32
352.668	27286.88
353.118	25000.27
353.568	24096.5
354.018	19096.52
354.468	20143.57
354.918	14457.13
355.368	12665.78
355.818	17906.25
356.268	51503.15
356.718	216482.61
357.168	53941.56
357.617	27081.81
358.067	30091.24
358.517	28155.31
358.966	33032.65
359.416	37075.64
359.865	40095.86
360.315	47788.45
360.764	22274.86
361.213	12493.71
361.663	11814.71
362.112	14579.29
362.561	23574.5
363.01	17825.18
363.459	15023.51
363.908	16233.35
364.357	13799.37
364.806	23275.34
365.255	15972.51
365.703	14689.17
366.152	14729.87
366.601	11947.16
367.05	9719.45
367.498	8828.35
367.947	9242.31
368.395	9593.13
368.844	8508.98
369.292	10253
369.74	7092.08
370.189	10865.08
370.637	12684.39
371.085	10923.55
371.533	13311.9
371.981	12810
372.429	12210.71
372.877	12664.77
373.325	10619.88
373.773	10819.29
374.221	9620.14
374.669	11924.92
375.116	10314.31
375.564	10414.92
376.012	11635.07
376.459	9596.25
376.907	11450.63
377.354	13828.96
377.801	12937.45
378.249	14879.27
378.696	18992.65
379.143	22971.47
379.591	24483.03
380.038	41367.77
380.485	29865.16
380.932	32231.06
381.379	29431.82
381.826	21689.44
382.273	15408.33
382.72	13454.91
383.166	13101.46
383.613	8491.79
384.06	7645.62
384.506	8858.17
384.953	6501.27
385.4	6551.62
385.846	5742.85
386.292	5594.5
386.739	5461.66
387.185	5406.09
387.631	5401.15
388.078	5247.78
388.524	5616.74
388.97	5198.84
389.416	4322.65
389.862	4594.93
390.308	4352.62
390.754	4429.16
391.2	4808.99
391.645	4932.23
392.091	4718.19
392.537	4566.3
392.983	4564.05
393.428	4497.21
393.874	4819.07
394.319	4864.71
394.765	4623.89
395.21	4753.22
395.655	4447.82
396.101	4163.19
396.546	3763.97
396.991	3803.74
397.436	3540.95
397.881	3425.23
398.326	3241.64
398.771	3072.54
399.216	2683.51
399.661	2415.73
400.106	2410.33
400.551	2475.48
400.995	2227.41
401.44	2204.87
401.885	2069.85
402.329	2093.33
402.774	2013.77
403.218	1961.69
403.663	1893.35
404.107	1948.6
404.551	1969.81
404.995	1809.93
405.44	1746.24
405.884	1773.95
406.328	1720.24
406.772	1717.74
407.216	1566.5
407.66	1515.22
408.104	1437.09
408.547	1347.17
408.991	1305.5
409.435	1259.35
409.879	1242.89
410.322	1227.02
410.766	1187.98
411.209	1132.4
411.653	1091.75
412.096	1074.13
412.54	1076.01
412.983	1069.25
413.426	1073.92
413.869	1072.4
414.312	1054.25
414.756	1017.76
415.199	972.6
415.642	947.81
416.085	950.09
416.527	943.64
416.97	957.79
417.413	909.09
417.856	900.15
418.298	890
418.741	886.56
419.184	884.11
419.626	921.55
420.069	921.56
420.511	926.24
420.953	907.14
421.396	898.51
421.838	875.62
422.28	896.1
422.722	902.38
423.164	917.67
423.606	902.98
424.048	900.85
424.49	856.94
424.932	853.23
425.374	840.83
425.816	856.04
426.258	871.2
426.699	880.14
427.141	868.6
427.582	881.81
428.024	875.56
428.465	869.87
428.907	845.69
429.348	835.73
429.789	835.84
430.231	820.6
430.672	830.72
431.113	810.64
431.554	799.27
431.995	778.52
432.436	751.3
432.877	734.17
433.318	722.77
433.759	718.55
434.2	719.44
434.64	711.55
435.081	710.45
435.522	673.68
435.962	648.63
436.403	635.22
436.843	643.42
437.284	627.19
437.724	609.58
438.164	608.96
438.604	598.03
439.045	573.34
439.485	550.71
439.925	538.59
440.365	523.3
440.805	517.33
441.245	508.67
441.685	489.42
442.125	485.28
442.564	486.99
443.004	474.28
443.444	472.62
443.883	472.51
444.323	467.35
444.762	466.47
445.202	471.74
445.641	480.15
446.081	476.04
446.52	478.85
446.959	472.95
447.398	462.51
447.837	457.53
448.276	448.25
448.716	452.62
449.154	455.24
449.593	445.6
450.032	442.93
450.471	431.52
450.91	432.07
451.349	432.02
451.787	430
452.226	434.11
452.664	432.62
453.103	432.67
453.541	429.28
453.98	429.49
454.418	431.84
454.856	425.88
455.295	425.98
455.733	428.14
456.171	429.77
456.609	431.87
457.047	432.5
457.485	440.41
457.923	441.73
458.361	436.15
458.798	436.11
459.236	435.52
459.674	438.47
460.111	441.57
460.549	437.28
460.987	434.76
461.424	432.14
461.862	430.68
462.299	423.58
462.736	423.96
463.173	426.77
463.611	424.48
464.048	423.87
464.485	427.6
464.922	423.12
465.359	421.91
465.796	421.36
466.233	418.8
466.67	417.06
467.106	417.81
467.543	414.26
467.98	408.61
468.416	397.86
468.853	393.45
469.29	381.42
469.726	377.71
470.162	367.76
470.599	360
471.035	356.93
471.471	347.36
471.907	344.01
472.344	341.18
472.78	342.77
473.216	346.48
473.652	343.31
474.088	342.69
474.523	342.21
474.959	345.7
475.395	342.35
475.831	339.88
476.266	341.02
476.702	339.13
477.138	335.78
477.573	334.14
478.008	333.16
478.444	334.99
478.879	338.19
479.314	339.44
479.75	338.96
480.185	339.97
480.62	342.88
481.055	345.17
481.49	348.93
481.925	354.01
482.36	361.14
482.795	370.51
483.229	378.94
483.664	387.16
484.099	388.33
484.534	394.93
484.968	399.53
485.403	400.82
485.837	400.49
486.271	400.05
486.706	400.41
487.14	395.35
487.574	389.42
488.009	386.47
488.443	383.28
488.877	387.2
489.311	388.87
489.745	393.71
490.179	398.07
490.613	406.32
491.046	409.14
491.48	412.26
491.914	414
492.348	417.51
492.781	421.32
493.215	422.56
493.648	424.29
494.082	428.34
494.515	429.66
494.948	436.37
495.382	440.22
495.815	444.59
496.248	449.46
496.681	457.73
497.114	465.81
497.547	473.62
497.98	484.1
498.413	490.67
498.846	499
499.279	506.24
499.711	510.1
500.144	513.38
500.577	522.67
501.009	531.74
501.442	541.68
501.874	545.78
502.306	548.85
502.739	556.71
503.171	568.3
503.603	572.73
504.036	581.94
504.468	587.93
504.9	598.15
505.332	605.33
505.764	611.41
506.196	618.75
506.627	631.51
507.059	644.48
507.491	652.8
507.923	654.85
508.354	668.72
508.786	679.09
509.217	695.24
509.649	708.59
510.08	724.81
510.512	740.14
510.943	754.11
511.374	765.75
511.805	783.22
512.237	800.3
512.668	826.07
513.099	847.94
513.53	871.06
513.961	888.77
514.391	914.81
514.822	942.94
515.253	971.99
515.684	993.82
516.114	1018.35
516.545	1037.26
516.975	1060.07
517.406	1076.17
517.836	1080.64
518.267	1087.28
518.697	1103.27
519.127	1109.16
519.558	1116.23
519.988	1120.95
520.418	1129.37
520.848	1144.52
521.278	1151.79
521.708	1173.87
522.138	1185.81
522.567	1210.25
522.997	1231.55
523.427	1245.39
523.857	1260.26
524.286	1269.54
524.716	1282.85
525.145	1299.2
525.575	1308.88
526.004	1320.92
526.433	1309.28
526.863	1309.88
527.292	1303.93
527.721	1309.61
528.15	1315.16
528.579	1315
529.008	1323.58
529.437	1341.67
529.866	1352.53
530.295	1366.36
530.724	1377.78
531.152	1399.24
531.581	1410.66
532.01	1425.52
532.438	1432.06
532.867	1443.23
533.295	1459.27
533.723	1465.82
534.152	1464.67
534.58	1465.49
535.008	1453.61
535.436	1456.56
535.865	1465.05
536.293	1478.62
536.721	1491.8
537.149	1513.25
537.576	1516.84
538.004	1527.45
538.432	1533.95
538.86	1534.05
539.287	1541.25
539.715	1553.49
540.143	1556.38
540.57	1553.69
540.998	1551.04
541.425	1533.97
541.852	1517.93
542.28	1517.28
542.707	1505.08
543.134	1494.35
543.561	1490.64
543.988	1485.28
544.415	1484.67
544.842	1479.82
545.269	1473.94
545.696	1476.13
546.123	1486.27
546.549	1477.27
546.976	1467.42
547.403	1468.46
547.829	1470.78
548.256	1473.55
548.682	1470.13
549.108	1463.93
549.535	1464.14
549.961	1465.85
550.387	1454.79
550.813	1449.57
551.24	1454.95
551.666	1455.21
552.092	1446.06
552.518	1439.8
552.943	1434.87
553.369	1440.34
553.795	1445.94
554.221	1445.88
554.646	1443.43
555.072	1452.03
555.498	1456.19
555.923	1462.81
556.349	1475.81
556.774	1483.13
557.199	1484.29
557.625	1489.25
558.05	1484.09
558.475	1491.27
558.9	1491.28
559.325	1483.8
559.75	1477.39
560.175	1472.91
560.6	1467.33
561.025	1463.75
561.449	1463.79
561.874	1469.02
562.299	1472.48
562.723	1478.5
563.148	1470.92
563.572	1473.56
563.997	1481.33
564.421	1485.79
564.846	1485.43
565.27	1488.76
565.694	1487.19
566.118	1496.99
566.542	1502.98
566.966	1497.29
567.39	1493.86
567.814	1485.49
568.238	1485.22
568.662	1490.02
569.086	1493.25
569.509	1499.65
569.933	1488.12
570.357	1482.96
570.78	1466.8
571.204	1456.6
571.627	1447.94
572.05	1446.44
572.474	1446.12
572.897	1435.94
573.32	1430.44
573.743	1421.84
574.166	1407.13
574.589	1407.5
575.012	1401.42
575.435	1399.46
575.858	1392.52
576.281	1383.9
576.704	1370.22
577.126	1359.74
577.549	1349.93
577.972	1341.12
578.394	1333.01
578.817	1326.87
579.239	1310.92
579.661	1299.41
580.084	1286.96
580.506	1274.95
580.928	1270.95
581.35	1262.73
581.772	1258.86
582.194	1248.93
582.616	1238.74
583.038	1225.92
583.46	1216.56
583.882	1213.24
584.303	1215.42
584.725	1211.33
585.147	1213.95
585.568	1222.02
585.99	1231.46
586.411	1236.98
586.833	1248.09
587.254	1248.73
587.675	1259.5
588.096	1269.6
588.518	1265.77
588.939	1253.34
589.36	1251.7
589.781	1241.04
590.202	1219.19
590.623	1211.8
591.043	1208.78
591.464	1198.06
591.885	1195.72
592.305	1191.98
592.726	1181.02
593.147	1181.7
593.567	1177.72
593.987	1171.17
594.408	1166.65
594.828	1163.7
595.248	1158.12
595.669	1143.12
596.089	1138.28
596.509	1132.82
596.929	1121.6
597.349	1122.06
597.769	1114.4
598.189	1109
598.608	1109.86
599.028	1111.97
599.448	1111.54
599.867	1102.62
600.287	1099.67
600.706	1096.06
601.126	1087.16
601.545	1086.94
601.965	1085.25
602.384	1079.75
602.803	1081.33
603.222	1077.29
603.641	1070.61
604.061	1068.05
604.48	1064.24
604.898	1070.47
605.317	1073.65
605.736	1074.35
606.155	1070.45
606.574	1062.44
606.992	1066.35
607.411	1062.4
607.829	1055.82
608.248	1053.45
608.666	1050.65
609.085	1049.26
609.503	1041.76
609.921	1036.34
610.339	1038.74
610.758	1037.7
611.176	1033.77
611.594	1026.91
612.012	1022.49
612.43	1024.73
612.847	1029.35
613.265	1029.37
613.683	1032.57
614.101	1033.41
614.518	1029.74
614.936	1020.93
615.353	1010.02
615.771	1007.39
616.188	1006.85
616.606	1004.72
617.023	998.05
617.44	987.91
617.857	982.26
618.274	975.44
618.691	970.36
619.108	963.41
619.525	958.67
619.942	963.08
620.359	964.81
620.776	961.05
621.192	957.88
621.609	956.58
622.026	960.87
622.442	965.15
622.859	967.57
623.275	960.99
623.691	964.18
624.108	972.35
624.524	982.77
624.94	983.89
625.356	991.13
625.772	1001.65
626.188	1010.96
626.604	1011.21
627.02	1008.15
627.436	1007.14
627.852	1013.85
628.268	1024.01
628.683	1017.7
629.099	1011.38
629.514	1007.2
629.93	1010.32
630.345	1013.18
630.761	1009.92
631.176	1013.91
631.591	1009.76
632.007	1004.13
632.422	1001.87
632.837	992.93
633.252	991.17
633.667	983.38
634.082	975.5
634.497	964.76
634.911	949.49
635.326	946.09
635.741	931.56
636.155	923.29
636.57	923.53
636.984	921.9
637.399	921.8
637.813	920.12
638.228	918.56
638.642	920.81
639.056	911.53
639.47	909.5
639.884	901.51
640.298	894.77
640.712	892.76
641.126	881.76
641.54	873.38
641.954	867.08
642.368	856.11
642.781	848.6
643.195	833.49
643.609	832.04
644.022	826.36
644.436	820
644.849	809.19
645.262	798.43
645.676	796.58
646.089	791.35
646.502	779.89
646.915	774.2
647.328	759.14
647.741	756.12
648.154	745.02
648.567	740.81
648.98	730.74
649.393	729.33
649.805	724.62
650.218	718.6
650.631	706.36
651.043	700.54
651.456	694.82
651.868	694.32
652.28	704.55
652.693	713.51
653.105	716.85
653.517	722.4
653.929	721.35
654.341	724.9
654.753	715.99
655.165	719.27
655.577	715.62
655.989	711.47
656.401	704.7
656.813	679.58
657.224	663.79
657.636	642.63
658.047	629.51
658.459	615.05
658.87	606.82
659.282	596.93
659.693	581.65
660.104	570.69
660.515	560.26
660.926	557.11
661.338	553.42
661.749	547.72
662.159	541.26
662.57	536.65
662.981	532.49
663.392	526.1
663.803	526.84
664.213	523.54
664.624	518.85
665.035	518.35
665.445	508.35
665.855	502.73
666.266	496.55
666.676	494.06
667.086	487.06
667.497	485.72
667.907	480.25
668.317	473.71
668.727	471.05
669.137	470.8
669.547	469.24
669.956	470
670.366	470.13
670.776	470.59
671.186	471.89
671.595	473.08
672.005	473.34
672.414	474.18
672.824	473.39
673.233	475.55
673.642	477.26
674.052	480.15
674.461	481.78
674.87	485.2
675.279	484.29
675.688	485.05
676.097	487.72
676.506	486.92
676.915	495.31
677.323	497.8
677.732	498.07
678.141	497.51
678.549	491.46
678.958	491.37
679.366	490.57
679.775	494.43
680.183	502.69
680.592	506.51
681	510.99
681.408	508.77
681.816	515.61
682.224	522.73
682.632	532.41
683.04	553.46
683.448	572.61
683.856	596.73
684.264	623.48
684.671	649.26
685.079	680.51
685.487	715.17
685.894	761.83
686.302	802.2
686.709	836.78
687.116	877.22
687.524	913.26
687.931	946.02
688.338	973.3
688.745	998.85
689.152	1027.13
689.559	1065.08
689.966	1103.83
690.373	1125.04
690.78	1161.73
691.187	1214.24
691.593	1253.92
692	1289.84
692.407	1339.92
692.813	1403.77
693.22	1453.83
693.626	1504.93
694.032	1546.87
694.439	1608.3
694.845	1657.75
695.251	1718.98
695.657	1774.34
696.063	1856.75
696.469	1916.45
696.875	1973.36
697.281	2005.52
697.687	2045.28
698.093	2078.1
698.498	2139.81
698.904	2188.35
699.31	2260.74
699.715	2310.91
700.12	2384.79
700.526	2400.23
700.931	2456.45
