Data from C_2_DIV_OH_2N_Splice17_12-22-52-962.txt Node
Date: Sat Mar 14 12:22:52 EDT 2020
User: sa697716
Spectrometer: FLMS03696
Trigger mode: 0
Integration Time (sec): 3.180400E-1
Scans to average: 20
Electric dark correction enabled: true
Nonlinearity correction enabled: true
Boxcar width: 5
XAxis mode: Wavelengths
Number of Pixels in Spectrum: 2048
>>>>>Begin Spectral Data<<<<<
187.83	-419252.31
188.298	2982.97
188.766	1553.46
189.233	1459.49
189.701	2064.68
190.169	2785.6
190.636	1097.39
191.104	872.69
191.571	165.18
192.039	-42.61
192.506	-38.45
192.974	469.02
193.441	-781.42
193.908	-241.5
194.375	-19.3
194.842	109.56
195.31	169.6
195.777	199.28
196.244	390.76
196.711	440.5
197.177	518.71
197.644	708.8
198.111	1242.6
198.578	1725.01
199.045	1388.84
199.511	2246.04
199.978	2598.57
200.445	2217.54
200.911	2470.34
201.378	2728.91
201.844	2481.85
202.31	4242.9
202.777	4469.87
203.243	2501.32
203.709	2397.08
204.176	2858.03
204.642	2363.21
205.108	2209.93
205.574	1798.97
206.04	1613.4
206.506	1517.11
206.972	1420.93
207.438	1371.49
207.903	1544.68
208.369	1332.71
208.835	1346.4
209.301	1397
209.766	1422.01
210.232	1404.13
210.697	1739.49
211.163	2145.84
211.628	3244.87
212.094	2750.95
212.559	3404.52
213.024	2129.08
213.49	2631.91
213.955	2546.95
214.42	2501.17
214.885	2360.63
215.35	2255.47
215.815	2190.56
216.28	2343.41
216.745	1920.2
217.21	2093.07
217.675	1925.8
218.14	2187.15
218.604	2457.1
219.069	2853.76
219.534	3030.04
219.998	3533.18
220.463	4326.79
220.927	5365.19
221.392	5102
221.856	5196.5
222.32	6570.78
222.785	8157.32
223.249	10336.48
223.713	11601.18
224.177	11599.84
224.642	14936.71
225.106	18492.42
225.57	20285.07
226.034	15138.27
226.497	23057.87
226.961	20904.48
227.425	24412.28
227.889	27177.46
228.353	27191
228.816	56185.95
229.28	53826.37
229.744	45469.88
230.207	27637.17
230.671	27201.53
231.134	45015.7
231.597	52033.45
232.061	52006.41
232.524	50731.71
232.987	34928.05
233.45	31505.79
233.914	28321.28
234.377	29088.24
234.84	26654.73
235.303	31463.49
235.766	35171.39
236.229	36388.95
236.691	22930.76
237.154	25825.64
237.617	19482.88
238.08	20005.61
238.542	23417.12
239.005	16771.26
239.468	16667.02
239.93	15731.93
240.393	14307.83
240.855	12571.14
241.317	12892.38
241.78	15719.31
242.242	16294.28
242.704	17598.49
243.166	15343.39
243.629	13962.33
244.091	16101.75
244.553	17659.84
245.015	19028.76
245.477	24680.44
245.939	36254.7
246.4	38530.84
246.862	37478.68
247.324	35314.15
247.786	39558.09
248.247	51917.22
248.709	53678.26
249.17	40210.97
249.632	37959.19
250.093	43983.85
250.555	38017.92
251.016	23226.34
251.477	22072.47
251.939	23877.48
252.4	25096.02
252.861	29894.64
253.322	27835.56
253.783	33178.68
254.244	43074.97
254.705	33990.74
255.166	30270.27
255.627	29821.29
256.088	42036.7
256.549	44650.3
257.009	38447.73
257.47	46673.3
257.931	38000.77
258.391	28491.27
258.852	29378.79
259.312	30795.04
259.773	38055.11
260.233	32143.02
260.694	27113.79
261.154	30750.51
261.614	24680.78
262.074	22076.24
262.534	22936.29
262.994	21652.12
263.455	28849.74
263.915	24316.03
264.374	22907.45
264.834	25021.01
265.294	27760.96
265.754	28766.49
266.214	27271.18
266.673	25600.99
267.133	32323.23
267.593	32098.66
268.052	39288.27
268.512	34187.47
268.971	41223.84
269.431	45259.11
269.89	40543.41
270.349	60829.94
270.809	67859.74
271.268	61027.25
271.727	136768.05
272.186	88621.97
272.645	66413.58
273.104	47897.17
273.563	69392.92
274.022	54590.55
274.481	46407.41
274.94	35742.86
275.399	26550.54
275.857	30927.38
276.316	41837.27
276.775	37232.48
277.233	36679.46
277.692	34354.57
278.15	38841.8
278.609	39904.31
279.067	36882.21
279.525	34265
279.984	44247.63
280.442	53155.88
280.9	52384.78
281.358	34454.81
281.816	32102.19
282.274	31410.54
282.732	32434.44
283.19	32599.11
283.648	28170.02
284.106	30043.74
284.564	30561.46
285.021	28329.48
285.479	21098.02
285.937	19186.37
286.394	16834.85
286.852	17314.75
287.309	18175.96
287.767	17581.56
288.224	16713.97
288.682	18333.89
289.139	20121.63
289.596	18404.94
290.053	19156.79
290.511	24182.11
290.968	29357.35
291.425	39857.74
291.882	33219.17
292.339	28943.09
292.796	28713.08
293.252	27057.67
293.709	21508.98
294.166	19282.51
294.623	21308.35
295.079	20428.73
295.536	20546.49
295.992	18647.38
296.449	18454.4
296.905	19173.74
297.362	18387.09
297.818	19348.18
298.274	20089.36
298.731	20464.89
299.187	20261.02
299.643	21754.35
300.099	26312.88
300.555	28826.21
301.011	24073.81
301.467	23190.3
301.923	27154.44
302.379	26536.7
302.835	26034.83
303.291	26069.74
303.746	29668.83
304.202	37493.95
304.658	37678.95
305.113	25355.67
305.569	24886.47
306.024	26535.56
306.479	25259.82
306.935	21299.53
307.39	23245.17
307.845	21480.06
308.301	21611.04
308.756	21053.6
309.211	20262.79
309.666	20740.08
310.121	25735.55
310.576	26114.28
311.031	25919.61
311.486	29696.52
311.94	29669.29
312.395	39694.02
312.85	74709.07
313.305	367281.16
313.759	1902969.57
314.214	137954.21
314.668	109308.8
315.123	91956.68
315.577	32934.92
316.032	29318.74
316.486	36717.29
316.94	28969.65
317.394	20182.12
317.849	15684.34
318.303	14856.8
318.757	14020.63
319.211	15499.96
319.665	13605.99
320.119	13789.25
320.572	19817.93
321.026	18544.41
321.48	15431.99
321.934	16868
322.387	16905.68
322.841	18275.76
323.295	16438.68
323.748	18966.38
324.202	19247.83
324.655	23110.91
325.108	32298.42
325.562	22825.18
326.015	27153.21
326.468	20562.91
326.921	23017.31
327.374	21487.88
327.827	22362.5
328.28	25346.75
328.733	16988.15
329.186	14974.24
329.639	14276.74
330.092	12045.18
330.545	11467.19
330.997	11561.77
331.45	12635.97
331.903	14765.91
332.355	25394.52
332.808	24677.77
333.26	20334.48
333.713	22073.27
334.165	22230.51
334.617	29673.14
335.069	23990.07
335.522	43354.34
335.974	47945.54
336.426	43844.81
336.878	30432.93
337.33	15450.45
337.782	15105.09
338.234	18929.58
338.686	22592.5
339.137	26764.89
339.589	25218.31
340.041	19752.66
340.493	17023.66
340.944	17450.28
341.396	18804.48
341.847	15810.08
342.299	18676.86
342.75	22819.97
343.201	19972.67
343.653	23032.35
344.104	28350.47
344.555	22343.92
345.006	34805.41
345.457	26667.49
345.908	21224.67
346.359	19978.39
346.81	16306.66
347.261	17191.74
347.712	16960.52
348.163	18192.46
348.613	18444.91
349.064	17209.2
349.515	15076.92
349.965	15463.31
350.416	18600.87
350.866	20434.18
351.317	23088.17
351.767	38222.85
352.217	48294.9
352.668	40021.12
353.118	36639.85
353.568	35314.91
354.018	27985.49
354.468	29500.23
354.918	21189.4
355.368	18556.28
355.818	26181.83
356.268	75421.23
356.718	315531.7
357.168	78580.61
357.617	39426.72
358.067	43892.23
358.517	41176.76
358.966	48215.27
359.416	54190.73
359.865	58636.92
360.315	69925.64
360.764	32764.39
361.213	18373.44
361.663	17439.8
362.112	21538.29
362.561	34913.31
363.01	26407.48
363.459	22240.38
363.908	24137.09
364.357	20513.17
364.806	34653.83
365.255	23864.09
365.703	21856.04
366.152	21924.16
366.601	17808.37
367.05	14468.83
367.498	13151.15
367.947	13753.83
368.395	14351.7
368.844	12742.14
369.292	15371.75
369.74	10650.7
370.189	16348.8
370.637	19186.65
371.085	16569.41
371.533	20188.2
371.981	19518.08
372.429	18659.66
372.877	19515.98
373.325	16366.89
373.773	16725.15
374.221	14943.5
374.669	18568.57
375.116	16110.49
375.564	16315.18
376.012	18299.9
376.459	15166.54
376.907	18221.54
377.354	22114.78
377.801	20689.77
378.249	23855.64
378.696	30644.47
379.143	37258.62
379.591	40036.09
380.038	68139.49
380.485	49589.79
380.932	54003.98
381.379	49710.09
381.826	36765.22
382.273	26373.21
382.72	23246.19
383.166	22849.13
383.613	14914.49
384.06	13589.35
384.506	15861.4
384.953	11750.79
385.4	11939.7
385.846	10555.99
386.292	10399.16
386.739	10286.32
387.185	10251.32
387.631	10363.27
388.078	10157.88
388.524	10995.15
388.97	10249.81
389.416	8626.17
389.862	9261.42
390.308	8855.25
390.754	9081.88
391.2	9949.03
391.645	10278.42
392.091	9905.17
392.537	9638.21
392.983	9721.33
393.428	9603.09
393.874	10385.25
394.319	10499.02
394.765	10025.43
395.21	10385.74
395.655	9800.61
396.101	9232.98
396.546	8378.57
396.991	8524.8
397.436	7969.53
397.881	7751.12
398.326	7393.37
398.771	7011.44
399.216	6157.61
399.661	5570.71
400.106	5561.77
400.551	5708.46
400.995	5136.67
401.44	5101.17
401.885	4803.82
402.329	4866.38
402.774	4679.1
403.218	4533.1
403.663	4380.13
404.107	4515.25
404.551	4557.46
404.995	4194.73
405.44	4054.64
405.884	4122.56
406.328	3997.37
406.772	3989.65
407.216	3635.62
407.66	3519.35
408.104	3350.92
408.547	3143.64
408.991	3042.18
409.435	2928.7
409.879	2885.49
410.322	2846.67
410.766	2750.05
411.209	2612.44
411.653	2508.52
412.096	2453.43
412.54	2452.92
412.983	2434.95
413.426	2434.81
413.869	2432.77
414.312	2385.22
414.756	2299.37
415.199	2193.15
415.642	2127.16
416.085	2128.65
416.527	2112.26
416.97	2146.66
417.413	2035.82
417.856	2016.38
418.298	1995.28
418.741	1981.72
419.184	1978.12
419.626	2063.76
420.069	2065.9
420.511	2074.67
420.953	2029.6
421.396	2009.44
421.838	1954.93
422.28	1997.2
422.722	2002.34
423.164	2032.95
423.606	1996.61
424.048	1991.64
424.49	1887.71
424.932	1874.89
425.374	1850.19
425.816	1881.98
426.258	1917.66
426.699	1942.32
427.141	1913.9
427.582	1947.08
428.024	1933.86
428.465	1925.11
428.907	1873.63
429.348	1850.4
429.789	1846.34
430.231	1802.2
430.672	1823.42
431.113	1780.1
431.554	1751.73
431.995	1706.03
432.436	1640.36
432.877	1602.36
433.318	1572.51
433.759	1567.03
434.2	1566.22
434.64	1550.37
435.081	1556.13
435.522	1475.48
435.962	1420.4
436.403	1387.86
436.843	1408.99
437.284	1379.02
437.724	1343.66
438.164	1347.84
438.604	1321.44
439.045	1269.14
439.485	1218.47
439.925	1194.5
440.365	1164.53
440.805	1151.54
441.245	1138.17
441.685	1097.59
442.125	1092.8
442.564	1100.4
443.004	1075.06
443.444	1074.07
443.883	1077.86
444.323	1072.44
444.762	1077.61
445.202	1094.5
445.641	1114.13
446.081	1110.34
446.52	1121.09
446.959	1109.82
447.398	1085.39
447.837	1074.54
448.276	1056.56
448.716	1067.61
449.154	1078.85
449.593	1054.24
450.032	1051.34
450.471	1034.99
450.91	1038.96
451.349	1036.43
451.787	1034.64
452.226	1051.8
452.664	1053.39
453.103	1054.54
453.541	1056.35
453.98	1054.09
454.418	1063.17
454.856	1048.93
455.295	1047.14
455.733	1054.97
456.171	1062.78
456.609	1064.53
457.047	1065.16
457.485	1080.25
457.923	1084.72
458.361	1070.15
458.798	1075.89
459.236	1073.69
459.674	1081.68
460.111	1088.95
460.549	1079.71
460.987	1077.5
461.424	1076.2
461.862	1072.28
462.299	1057.88
462.736	1056.41
463.173	1062.37
463.611	1048.51
464.048	1046.39
464.485	1054.66
464.922	1044.77
465.359	1039.73
465.796	1021.02
466.233	1012.12
466.67	1000.99
467.106	997.65
467.543	988.79
467.98	976.26
468.416	952.89
468.853	944.39
469.29	917.58
469.726	907.69
470.162	883.92
470.599	876.3
471.035	868.69
471.471	849.09
471.907	845.5
472.344	839.84
472.78	841.4
473.216	852.71
473.652	843.04
474.088	840.54
474.523	837.13
474.959	845.54
475.395	837.49
475.831	832.72
476.266	835.96
476.702	833.26
477.138	823.19
477.573	820.05
478.008	815.83
478.444	820.37
478.879	826.78
479.314	830.85
479.75	829.32
480.185	834.36
480.62	841.88
481.055	847.45
481.49	854.03
481.925	869.2
482.36	884
482.795	910.06
483.229	935.61
483.664	957.45
484.099	963.07
484.534	979.94
484.968	991.27
485.403	997.03
485.837	998.23
486.271	1000.19
486.706	1002.81
487.14	994.85
487.574	981.16
488.009	975.13
488.443	969.42
488.877	980.11
489.311	986.15
489.745	999.8
490.179	1011.41
490.613	1032.59
491.046	1042.88
491.48	1053.42
491.914	1057.39
492.348	1068.85
492.781	1078.31
493.215	1083.86
493.648	1089.59
494.082	1100.64
494.515	1104.54
494.948	1118.48
495.382	1129.15
495.815	1139.66
496.248	1151.8
496.681	1175.74
497.114	1197.52
497.547	1215.37
497.98	1237.46
498.413	1249.2
498.846	1266.69
499.279	1283.05
499.711	1293.13
500.144	1298.47
500.577	1316.32
501.009	1333.94
501.442	1349.54
501.874	1350.47
502.306	1353.92
502.739	1364.62
503.171	1389.61
503.603	1394.57
504.036	1407.75
504.468	1414.55
504.9	1430.95
505.332	1439.17
505.764	1443.2
506.196	1451.53
506.627	1472.28
507.059	1490.13
507.491	1502.29
507.923	1493.93
508.354	1512.43
508.786	1523.61
509.217	1546.52
509.649	1562.23
510.08	1585.07
510.512	1603.58
510.943	1618.54
511.374	1627.45
511.805	1649.71
512.237	1670.29
512.668	1709.63
513.099	1740.85
513.53	1770.71
513.961	1789.99
514.391	1826.32
514.822	1861.21
515.253	1901.49
515.684	1926.36
516.114	1955.01
516.545	1971.65
516.975	1994.86
517.406	2006.29
517.836	1995.35
518.267	1991.53
518.697	2002.08
519.127	1995.27
519.558	1992.54
519.988	1983.2
520.418	1983.81
520.848	1995.29
521.278	1994.53
521.708	1991.79
522.138	1996.02
522.567	2025.58
522.997	2046.77
523.427	2055.7
523.857	2066.19
524.286	2069.1
524.716	2078.87
525.145	2092.93
525.575	2095.85
526.004	2103.88
526.433	2096.34
526.863	2088.35
527.292	2066.92
527.721	2065.65
528.15	2064.7
528.579	2058
529.008	2063.22
529.437	2085.2
529.866	2095.55
530.295	2110.39
530.724	2119.94
531.152	2148.5
531.581	2160.58
532.01	2176.93
532.438	2183.24
532.867	2196.92
533.295	2215.15
533.723	2220.02
534.152	2215.22
534.58	2212.91
535.008	2193.46
535.436	2193.35
535.865	2200.31
536.293	2215.44
536.721	2234.1
537.149	2263.34
537.576	2264.65
538.004	2278.5
538.432	2286.83
538.86	2282.43
539.287	2289.1
539.715	2303.04
540.143	2306.32
540.57	2300.31
540.998	2296.19
541.425	2267.41
541.852	2240.79
542.28	2238.83
542.707	2218.11
543.134	2201.13
543.561	2194.28
543.988	2184.32
544.415	2183.14
544.842	2175.09
545.269	2164.9
545.696	2165.81
546.123	2179.6
546.549	2165.48
546.976	2149.59
547.403	2148.46
547.829	2149.69
548.256	2152.25
548.682	2147.29
549.108	2137.3
549.535	2136.6
549.961	2138.75
550.387	2122.29
550.813	2115.51
551.24	2123.07
551.666	2124.25
552.092	2113.44
552.518	2105.58
552.943	2097.76
553.369	2108.31
553.795	2116.83
554.221	2119.59
554.646	2117.37
555.072	2132.07
555.498	2140.28
555.923	2154.46
556.349	2173.58
556.774	2186.84
557.199	2192.19
557.625	2202.57
558.05	2196.88
558.475	2212.01
558.9	2213.34
559.325	2207.9
559.75	2202.77
560.175	2199.21
560.6	2194.63
561.025	2197.04
561.449	2202.28
561.874	2212.37
562.299	2223.52
562.723	2238.85
563.148	2231.25
563.572	2241.68
563.997	2259.87
564.421	2274.07
564.846	2280.62
565.27	2291.79
565.694	2296.48
566.118	2320.05
566.542	2338.02
566.966	2337.87
567.39	2339.73
567.814	2335.22
568.238	2344.53
568.662	2360.83
569.086	2373.56
569.509	2393.16
569.933	2383.1
570.357	2382.29
570.78	2363.33
571.204	2355.19
571.627	2350.64
572.05	2356.08
572.474	2363.91
572.897	2355.44
573.32	2350.91
573.743	2345.23
574.166	2326.62
574.589	2333.78
575.012	2331.07
575.435	2335.86
575.858	2330.36
576.281	2322.22
576.704	2308.87
577.126	2300.15
577.549	2290.73
577.972	2286.07
578.394	2277.82
578.817	2273.35
579.239	2253.43
579.661	2241.8
580.084	2226.03
580.506	2213.96
580.928	2213.78
581.35	2204.19
581.772	2202.25
582.194	2189.39
582.616	2176.34
583.038	2161.7
583.46	2153.16
583.882	2154.9
584.303	2165.15
584.725	2164.51
585.147	2168.32
585.568	2187.16
585.99	2208.72
586.411	2221.47
586.833	2246.98
587.254	2251.72
587.675	2275.71
588.096	2297.73
588.518	2292.25
588.939	2270.63
589.36	2269.29
589.781	2259.91
590.202	2220.76
590.623	2209.9
591.043	2210.14
591.464	2193.9
591.885	2190.77
592.305	2184.3
592.726	2166.57
593.147	2170.51
593.567	2164.97
593.987	2155.9
594.408	2151.29
594.828	2150.72
595.248	2143.22
595.669	2117.61
596.089	2110.57
596.509	2103.07
596.929	2085.74
597.349	2087.91
597.769	2074.62
598.189	2066.51
598.608	2069.08
599.028	2073.82
599.448	2076.1
599.867	2058.96
600.287	2055.9
600.706	2049.7
601.126	2037.21
601.545	2038.02
601.965	2038.92
602.384	2034.6
602.803	2041.69
603.222	2037.78
603.641	2030.59
604.061	2028.94
604.48	2027.26
604.898	2042.39
605.317	2054.59
605.736	2062.54
606.155	2062.02
606.574	2053.32
606.992	2066.64
607.411	2064.81
607.829	2058.65
608.248	2059.47
608.666	2062.08
609.085	2067.55
609.503	2061
609.921	2056.54
610.339	2065.21
610.758	2070.59
611.176	2070.27
611.594	2061.06
612.012	2062.44
612.43	2074.81
612.847	2092.02
613.265	2098.07
613.683	2111.16
614.101	2118.65
614.518	2120.15
614.936	2109.89
615.353	2092.27
615.771	2092.33
616.188	2098.62
616.606	2098.41
617.023	2091.3
617.44	2072.37
617.857	2067.04
618.274	2058.69
618.691	2052.76
619.108	2040.52
619.525	2036.2
619.942	2050.02
620.359	2057.5
620.776	2053.91
621.192	2050.41
621.609	2048.92
622.026	2063.35
622.442	2075
622.859	2083.68
623.275	2075.94
623.691	2088.67
624.108	2109.2
624.524	2135.79
624.94	2138.42
625.356	2156.26
625.772	2180.7
626.188	2204
626.604	2208.92
627.02	2204.74
627.436	2201.36
627.852	2212.63
628.268	2234.74
628.683	2221.69
629.099	2208.38
629.514	2202.28
629.93	2209.67
630.345	2216.78
630.761	2211.19
631.176	2216.65
631.591	2205.9
632.007	2196.45
632.422	2194.11
632.837	2174.72
633.252	2169.29
633.667	2153.67
634.082	2138.37
634.497	2116.7
634.911	2084.7
635.326	2080.06
635.741	2051.88
636.155	2038.04
636.57	2040.97
636.984	2043.13
637.399	2046.93
637.813	2049.48
638.228	2050.58
638.642	2059.76
639.056	2045.22
639.47	2048.81
639.884	2036.89
640.298	2029.1
640.712	2028.25
641.126	2009.98
641.54	1996.23
641.954	1990.69
642.368	1971.71
642.781	1956.75
643.195	1930.01
643.609	1932.41
644.022	1923.67
644.436	1917.94
644.849	1900.83
645.262	1883.98
645.676	1890.1
646.089	1884.35
646.502	1859.61
646.915	1853.15
647.328	1828.99
647.741	1826.55
648.154	1807.05
648.567	1802.37
648.98	1782.16
649.393	1784.52
649.805	1779.09
650.218	1767.85
650.631	1743.8
651.043	1737.02
651.456	1729.44
651.868	1734.21
652.28	1768.44
652.693	1796.54
653.105	1814.29
653.517	1836.55
653.929	1841.41
654.341	1856.81
654.753	1839.98
655.165	1857.31
655.577	1857.8
655.989	1856.78
656.401	1847.89
656.813	1787.84
657.224	1756.41
657.636	1710.75
658.047	1681.84
658.459	1650.84
658.87	1641.44
659.282	1626.41
659.693	1591.69
660.104	1569.36
660.515	1547.94
660.926	1548.67
661.338	1546.87
661.749	1538.64
662.159	1524.53
662.57	1520.48
662.981	1515.85
663.392	1504.01
663.803	1512.2
664.213	1509.04
664.624	1502.03
665.035	1508.68
665.445	1484.68
665.855	1470.39
666.266	1454.94
666.676	1450.01
667.086	1431.1
667.497	1427.89
667.907	1414.01
668.317	1394.48
668.727	1383.9
669.137	1383.58
669.547	1376.72
669.956	1379.73
670.366	1382.12
670.776	1383.4
671.186	1388.43
671.595	1392.76
672.005	1396.83
672.414	1394.1
672.824	1389.44
673.233	1397.95
673.642	1400.91
674.052	1404.28
674.461	1405.44
674.87	1411.52
675.279	1404.74
675.688	1407.2
676.097	1408.61
676.506	1403.42
676.915	1430.06
677.323	1435.58
677.732	1435.42
678.141	1436.73
678.549	1420.01
678.958	1422.26
679.366	1425.85
679.775	1440.38
680.183	1461.28
680.592	1478.44
681	1495.67
681.408	1489.61
681.816	1512.27
682.224	1536.87
682.632	1561.59
683.04	1627.12
683.448	1682.83
683.856	1748.98
684.264	1826.05
684.671	1901.1
685.079	1986.69
685.487	2077.01
685.894	2202.95
686.302	2305.17
686.709	2382.18
687.116	2473.89
687.524	2539.83
687.931	2591.25
688.338	2631.84
688.745	2658.59
689.152	2686.96
689.559	2734.68
689.966	2776.41
690.373	2772.92
690.78	2801.7
691.187	2870.32
691.593	2905.5
692	2928.33
