Data from C_2_DEC_CT_2N_Splice17_12-29-39-614.txt Node
Date: Sat Mar 14 12:29:39 EDT 2020
User: sa697716
Spectrometer: FLMS03696
Trigger mode: 0
Integration Time (sec): 3.180400E-1
Scans to average: 20
Electric dark correction enabled: true
Nonlinearity correction enabled: true
Boxcar width: 5
XAxis mode: Wavelengths
Number of Pixels in Spectrum: 2048
>>>>>Begin Spectral Data<<<<<
187.83	-272805.91
188.298	2015.29
188.766	1043.46
189.233	924.94
189.701	1338.83
190.169	1845.81
190.636	730.46
191.104	620.56
191.571	100.42
192.039	-62.16
192.506	-88.26
192.974	436.11
193.441	-692.63
193.908	-280.84
194.375	-112.84
194.842	-22.61
195.31	-11.04
195.777	158.96
196.244	399.36
196.711	427.09
197.177	531.12
197.644	713.4
198.111	1255.64
198.578	1733.33
199.045	1393.49
199.511	2265.87
199.978	2618.47
200.445	2257.61
200.911	2459.56
201.378	2717.65
201.844	2491.96
202.31	4242.99
202.777	4480.1
203.243	2463.44
203.709	2350.92
204.176	2785.33
204.642	2305.57
205.108	2166.33
205.574	1757.47
206.04	1598.72
206.506	1499.58
206.972	1414.61
207.438	1382.94
207.903	1558.01
208.369	1382.98
208.835	1373.33
209.301	1449.72
209.766	1493.65
210.232	1487.86
210.697	1847.07
211.163	2306.38
211.628	3488.84
212.094	2931.35
212.559	3601
213.024	2250.68
213.49	2759.55
213.955	2726.85
214.42	2672.04
214.885	2488.34
215.35	2401.84
215.815	2344
216.28	2487.74
216.745	2032.51
217.21	2219.86
217.675	2045.72
218.14	2334
218.604	2630.8
219.069	3045.93
219.534	3242.13
219.998	3824.46
220.463	4673.23
220.927	5808.27
221.392	5543.65
221.856	5660.3
222.32	7178.1
222.785	8952.2
223.249	11353.02
223.713	12776.54
224.177	12843.98
224.642	16596.77
225.106	20553.66
225.57	22606.86
226.034	16882.63
226.497	25788.76
226.961	23422.98
227.425	27408.59
227.889	30521.07
228.353	30660.29
228.816	63434.37
229.28	60891.9
229.744	51435.63
230.207	31316.67
230.671	30909.22
231.134	51237.65
231.597	59185.1
232.061	59300.9
232.524	57928.08
232.987	39945.67
233.45	36017.18
233.914	32426.38
234.377	33339.92
234.84	30593.6
235.303	36130.55
235.766	40373.09
236.229	41830.61
236.691	26405.54
237.154	29685.01
237.617	22371.88
238.08	22965.54
238.542	26899.78
239.005	19232.6
239.468	19084.84
239.93	17988.98
240.393	16341.41
240.855	14348.7
241.317	14689.57
241.78	17886.77
242.242	18522.69
242.704	20013.27
243.166	17422.9
243.629	15837.77
244.091	18259.77
244.553	20029.46
245.015	21547.49
245.477	27935.04
245.939	41003.81
246.4	43564.43
246.862	42368.29
247.324	40003
247.786	44824.11
248.247	58858.06
248.709	60828.25
249.17	45557.9
249.632	42913.62
250.093	49824.09
250.555	43058.31
251.016	26270.08
251.477	24938.01
251.939	26951.74
252.4	28282.7
252.861	33683.71
253.322	31363.03
253.783	37350.87
254.244	48476.66
254.705	38322.85
255.166	34115.2
255.627	33651.33
256.088	47541.41
256.549	50600.76
257.009	43589.03
257.47	52962.2
257.931	43140.05
258.391	32329.79
258.852	33380.54
259.312	35082.14
259.773	43391.87
260.233	36727
260.694	31028.27
261.154	35261.18
261.614	28362.29
262.074	25438.13
262.534	26466.15
262.994	25013.23
263.455	33464.76
263.915	28245.52
264.374	26644.26
264.834	29165.55
265.294	32390.54
265.754	33604.47
266.214	31861.77
266.673	29906.69
267.133	37824.53
267.593	37665.28
268.052	46179.74
268.512	40212.67
268.971	48584.17
269.431	53411.45
269.89	47922.9
270.349	72014.63
270.809	80455.49
271.268	72459.9
271.727	162811.92
272.186	105646.56
272.645	79352.77
273.104	57370.88
273.563	83195.4
274.022	65578.85
274.481	55861.09
274.94	43115.22
275.399	32120.21
275.857	37498.24
276.316	50818.59
276.775	45271.7
277.233	44622.17
277.692	41803.7
278.15	47348.53
278.609	48746.9
279.067	45150.77
279.525	41960.3
279.984	54217.5
280.442	65142.12
280.9	64201.46
281.358	42304.9
281.816	39494.74
282.274	38736.6
282.732	40055.43
283.19	40268.15
283.648	34792.68
284.106	37104.63
284.564	37794.84
285.021	35065.63
285.479	26152.38
285.937	23816.06
286.394	20900.56
286.852	21548.89
287.309	22639.86
287.767	21884.53
288.224	20847.37
288.682	22928.6
289.139	25183.86
289.596	23062.5
290.053	24021.96
290.511	30383.11
290.968	36918.21
291.425	50174.31
291.882	41790.1
292.339	36475.36
292.796	36256.12
293.252	34197.63
293.709	27175.36
294.166	24392.43
294.623	26981.41
295.079	25888.02
295.536	26019.39
295.992	23622.24
296.449	23368.69
296.905	24274.89
297.362	23276.24
297.818	24511.85
298.274	25424.37
298.731	25933.34
299.187	25687.17
299.643	27598.45
300.099	33446.08
300.555	36750.97
301.011	30773.5
301.467	29679.23
301.923	34820.96
302.379	34058.84
302.835	33510.15
303.291	33620.2
303.746	38264.76
304.202	48385.03
304.658	48625.6
305.113	32702.14
305.569	32027.17
306.024	34155.39
306.479	32573.8
306.935	27440.34
307.39	29964.42
307.845	27668.72
308.301	27831.89
308.756	27150.46
309.211	26123.33
309.666	26790.92
310.121	33262.69
310.576	33784.43
311.031	33535.41
311.486	38402.1
311.94	38393.46
312.395	51340.92
312.85	96552.67
313.305	474334.92
313.759	2456652.19
314.214	178324.4
314.668	141375.94
315.123	118959.7
315.577	42675.17
316.032	37952.1
316.486	47566.59
316.94	37600.14
317.394	26215.23
317.849	20373.27
318.303	19337.77
318.757	18267.07
319.211	20225.22
319.665	17707.3
320.119	17968.36
320.572	25802.47
321.026	24160.01
321.48	20144.72
321.934	21988.27
322.387	22052.65
322.841	23844.51
323.295	21435.52
323.748	24718.89
324.202	25083.5
324.655	30199.48
325.108	42177.08
325.562	29803.3
326.015	35425.66
326.468	26798.64
326.921	30014.35
327.374	28011.4
327.827	29154.85
328.28	33037.93
328.733	22153.17
329.186	19506.59
329.639	18558.8
330.092	15668.43
330.545	14939.23
330.997	15065.68
331.45	16455.4
331.903	19284.71
332.355	33216.64
332.808	32336.78
333.26	26679.96
333.713	28946.07
334.165	29164.57
334.617	39005.56
335.069	31541.67
335.522	57036.48
335.974	63211.1
336.426	57785.37
336.878	40036.03
337.33	20311.04
337.782	19841.07
338.234	24840.03
338.686	29765.99
339.137	35313.88
339.589	33276.78
340.041	26076.13
340.493	22421.08
340.944	23010.44
341.396	24806.61
341.847	20877.23
342.299	24616.77
342.75	30048.51
343.201	26329.4
343.653	30280.68
344.104	37249.52
344.555	29350.29
345.006	45708.45
345.457	35001.63
345.908	27815.43
346.359	26188.62
346.81	21344.17
347.261	22532.04
347.712	22196.62
348.163	23803.27
348.613	24117.98
349.064	22522.74
349.515	19719.82
349.965	20251.47
350.416	24423.43
350.866	26790.36
351.317	30316.58
351.767	50139.53
352.217	63379.58
352.668	52734.88
353.118	48352.51
353.568	46673.85
354.018	36870.76
354.468	38905.37
354.918	27866.29
355.368	24415.54
355.818	34532.58
356.268	99436.82
356.718	416375.04
357.168	103568.93
357.617	51936.89
358.067	57816.81
358.517	54161.97
358.966	63647.33
359.416	71432.49
359.865	77374.07
360.315	92067.4
360.764	43018.54
361.213	24106.02
361.663	22828.05
362.112	28215.32
362.561	45573.23
363.01	34342.28
363.459	28916.21
363.908	31240.71
364.357	26527.93
364.806	44773.1
365.255	30738.29
365.703	28163.78
366.152	28202.57
366.601	22898.37
367.05	18594.27
367.498	16877.46
367.947	17644.81
368.395	18358.39
368.844	16271.56
369.292	19634.37
369.74	13546.44
370.189	20790.68
370.637	24310.08
371.085	20976.17
371.533	25536.52
371.981	24583.7
372.429	23448.19
372.877	24400.37
373.325	20412.03
373.773	20790.69
374.221	18483.06
374.669	22912.34
375.116	19829.01
375.564	19983.18
376.012	22334
376.459	18392.72
376.907	21972.66
377.354	26549.37
377.801	24739.59
378.249	28362.4
378.696	36262.72
379.143	43885.67
379.591	46868.2
380.038	79081.43
380.485	57078.93
380.932	61497.24
381.379	56204.54
381.826	41351.46
382.273	29368.58
382.72	25672.21
383.166	25006.95
383.613	16195.05
384.06	14602.36
384.506	16863.48
384.953	12374.31
385.4	12469.08
385.846	10929.34
386.292	10667.2
386.739	10419.27
387.185	10290.41
387.631	10286.96
388.078	9975.89
388.524	10651.51
388.97	9825.79
389.416	8196.22
389.862	8707.26
390.308	8235.83
390.754	8356.92
391.2	9053.58
391.645	9271.71
392.091	8859.89
392.537	8552.26
392.983	8571.26
393.428	8424.47
393.874	9027.8
394.319	9050.77
394.765	8578.02
395.21	8830.17
395.655	8288.59
396.101	7767.95
396.546	7015.09
396.991	7091.48
397.436	6592.74
397.881	6372.97
398.326	6051.04
398.771	5724.07
399.216	5011.24
399.661	4516.41
400.106	4504.51
400.551	4605.45
400.995	4135.24
401.44	4095.78
401.885	3848.75
402.329	3893.29
402.774	3737.99
403.218	3619.67
403.663	3487.96
404.107	3589.45
404.551	3618.48
404.995	3321.12
405.44	3203.71
405.884	3258.65
406.328	3153.58
406.772	3149.74
407.216	2871.61
407.66	2782.23
408.104	2646.58
408.547	2481.39
408.991	2402.21
409.435	2316.95
409.879	2286.99
410.322	2262.32
410.766	2184.9
411.209	2080.4
411.653	2000.51
412.096	1961.18
412.54	1961.12
412.983	1949.96
413.426	1958.86
413.869	1959.85
414.312	1923.84
414.756	1854.58
415.199	1769.91
415.642	1719.6
416.085	1722.6
416.527	1710.85
416.97	1741.68
417.413	1656.19
417.856	1642.16
418.298	1627.06
418.741	1619.88
419.184	1618.63
419.626	1691.79
420.069	1695.72
420.511	1708
420.953	1675.19
421.396	1659.28
421.838	1616.64
422.28	1654.17
422.722	1662.93
423.164	1687.68
423.606	1658.51
424.048	1655.69
424.49	1570.99
424.932	1563.35
425.374	1541.06
425.816	1567.24
426.258	1599.58
426.699	1617.81
427.141	1590.92
427.582	1614.11
428.024	1606.33
428.465	1596.68
428.907	1557.06
429.348	1538.11
429.789	1533.4
430.231	1496.41
430.672	1513.09
431.113	1474.31
431.554	1451.34
431.995	1414.94
432.436	1361.25
432.877	1327.49
433.318	1301.76
433.759	1295.19
434.2	1292.32
434.64	1277.64
435.081	1281.08
435.522	1212.99
435.962	1167.24
436.403	1140.55
436.843	1154.28
437.284	1128.62
437.724	1099.59
438.164	1101.45
438.604	1076.16
439.045	1034.43
439.485	991.85
439.925	969.62
440.365	944.29
440.805	931.83
441.245	918.38
441.685	885.81
442.125	878.45
442.564	880.97
443.004	860.04
443.444	855.8
443.883	855.58
444.323	848.29
444.762	848.79
445.202	858.49
445.641	871.98
446.081	865.1
446.52	868.9
446.959	858.74
447.398	836.64
447.837	825.23
448.276	808.98
448.716	815.32
449.154	820.56
449.593	802.98
450.032	801.03
450.471	785.98
450.91	786.68
451.349	784.15
451.787	780.34
452.226	791.27
452.664	791.33
453.103	793.6
453.541	791.25
453.98	789.95
454.418	795.07
454.856	781.9
455.295	779.74
455.733	785.2
456.171	790.48
456.609	792
457.047	792.24
457.485	803.27
457.923	803.53
458.361	793.69
458.798	796.51
459.236	793.6
459.674	798.56
460.111	801.86
460.549	794.75
460.987	791.09
461.424	788.65
461.862	784.26
462.299	771.94
462.736	770.93
463.173	773.8
463.611	764.52
464.048	762.6
464.485	769.24
464.922	763.53
465.359	758.46
465.796	747.47
466.233	740.71
466.67	733.87
467.106	732.32
467.543	725.35
467.98	716.35
468.416	697.85
468.853	691.87
469.29	670.97
469.726	663.5
470.162	646.29
470.599	637.42
471.035	631.76
471.471	616.65
471.907	612.51
472.344	607.76
472.78	608.54
473.216	615.86
473.652	608.98
474.088	607.23
474.523	604.49
474.959	610.26
475.395	605.72
475.831	602.53
476.266	605.84
476.702	603.25
477.138	596.86
477.573	594.94
478.008	593.49
478.444	595.54
478.879	600.87
479.314	603.36
479.75	602.06
480.185	603.66
480.62	609.12
481.055	612.29
481.49	617.33
481.925	626.47
482.36	637.58
482.795	654.87
483.229	673.38
483.664	687.52
484.099	690.35
484.534	701.81
484.968	710.07
485.403	712.33
485.837	711.8
486.271	710.63
486.706	711.02
487.14	703.07
487.574	692.16
488.009	684.66
488.443	678.68
488.877	686.23
489.311	688.39
489.745	696.01
490.179	702.91
490.613	715.35
491.046	721.06
491.48	726.73
491.914	726.3
492.348	731.68
492.781	735.69
493.215	737.13
493.648	737.86
494.082	743.13
494.515	742.66
494.948	749.11
495.382	753.98
495.815	758.65
496.248	764.32
496.681	778.01
497.114	789.51
497.547	799.66
497.98	812.87
498.413	818.34
498.846	827.92
499.279	836.3
499.711	839.87
500.144	840.53
500.577	850.31
501.009	860.71
501.442	869.84
501.874	870.96
502.306	872.59
502.739	879.25
503.171	893.3
503.603	895.82
504.036	904.67
504.468	910.31
504.9	921.8
505.332	927.55
505.764	931.04
506.196	937.52
506.627	950.96
507.059	962.96
507.491	969.62
507.923	966.5
508.354	979.85
508.786	988.68
509.217	1004.29
509.649	1016.79
510.08	1033.84
510.512	1047.6
510.943	1061.15
511.374	1069.59
511.805	1087.79
512.237	1105.9
512.668	1135.32
513.099	1159.96
513.53	1185.57
513.961	1202.28
514.391	1230.89
514.822	1261.23
515.253	1293.93
515.684	1314.59
516.114	1339.63
516.545	1357.2
516.975	1377.92
517.406	1392.02
517.836	1389.57
518.267	1391.96
518.697	1407.14
519.127	1408.33
519.558	1412.28
519.988	1412.63
520.418	1418.9
520.848	1432.96
521.278	1437.89
521.708	1456.35
522.138	1465.18
522.567	1492.55
522.997	1513.96
523.427	1525.17
523.857	1539.28
524.286	1545.64
524.716	1557.78
525.145	1573.27
525.575	1579.79
526.004	1590.35
526.433	1577.64
526.863	1575.41
527.292	1563.33
527.721	1566.74
528.15	1570.46
528.579	1568
529.008	1575.89
529.437	1594.58
529.866	1605.53
530.295	1621.56
530.724	1632.2
531.152	1654.75
531.581	1667.02
532.01	1683.54
532.438	1689.48
532.867	1702.8
533.295	1719
533.723	1723.2
534.152	1720.09
534.58	1720.36
535.008	1704.52
535.436	1705.96
535.865	1713.79
536.293	1726.96
536.721	1739.92
537.149	1764.13
537.576	1766.46
538.004	1779.03
538.432	1786.51
538.86	1785.33
539.287	1790.79
539.715	1803.86
540.143	1806.66
540.57	1802.1
540.998	1798.59
541.425	1777.67
541.852	1757.47
542.28	1754.88
542.707	1737.89
543.134	1724.92
543.561	1720.85
543.988	1714.26
544.415	1713.53
544.842	1707.75
545.269	1701.59
545.696	1703.11
546.123	1714.76
546.549	1704.76
546.976	1692.91
547.403	1692.81
547.829	1694.37
548.256	1695.75
548.682	1691.63
549.108	1684.3
549.535	1683.81
549.961	1684.71
550.387	1671.17
550.813	1666.32
551.24	1672.55
551.666	1672.18
552.092	1662.97
552.518	1656.39
552.943	1651.12
553.369	1657.68
553.795	1662.49
554.221	1663.62
554.646	1660.79
555.072	1672.12
555.498	1676.03
555.923	1683.9
556.349	1699.55
556.774	1708.45
557.199	1711.04
557.625	1716.23
558.05	1711.46
558.475	1722.06
558.9	1722.1
559.325	1716.19
559.75	1710.88
560.175	1705.72
560.6	1700.96
561.025	1699.17
561.449	1701.22
561.874	1707.88
562.299	1714.19
562.723	1721.62
563.148	1712.88
563.572	1717.16
563.997	1727.14
564.421	1733.63
564.846	1735.45
565.27	1740.17
565.694	1739.54
566.118	1751.89
566.542	1760
566.966	1755.08
567.39	1752.43
567.814	1744.19
568.238	1745.53
568.662	1751.16
569.086	1754.94
569.509	1763.65
569.933	1750.4
570.357	1744.94
570.78	1725.72
571.204	1715.51
571.627	1706.68
572.05	1707.46
572.474	1709.04
572.897	1698.08
573.32	1693.9
573.743	1686.78
574.166	1671.95
574.589	1674.03
575.012	1668.19
575.435	1668.83
575.858	1659.58
576.281	1650.19
576.704	1635.58
577.126	1624.61
577.549	1615.26
577.972	1605.46
578.394	1596.3
578.817	1591.06
579.239	1573.18
579.661	1561.68
580.084	1548.15
580.506	1537.44
580.928	1534.98
581.35	1525.66
581.772	1523.65
582.194	1512.37
582.616	1502.07
583.038	1488.47
583.46	1478.58
583.882	1476.43
584.303	1481.36
584.725	1478.37
585.147	1482.51
585.568	1493.81
585.99	1506.87
586.411	1513.27
586.833	1529.1
587.254	1531.54
587.675	1547.12
588.096	1560.26
588.518	1557.14
588.939	1541.68
589.36	1542.07
589.781	1530.43
590.202	1503.02
590.623	1494.85
591.043	1492.73
591.464	1479.88
591.885	1476.88
592.305	1470.84
592.726	1456.77
593.147	1458.37
593.567	1454.04
593.987	1445.36
594.408	1441.64
594.828	1440.14
595.248	1434.25
595.669	1415.65
596.089	1408.33
596.509	1402.03
596.929	1389.54
597.349	1390.63
597.769	1380.16
598.189	1373.84
598.608	1375.45
599.028	1378.27
599.448	1379.21
599.867	1367.72
600.287	1364.24
600.706	1360.65
601.126	1351.58
601.545	1351.61
601.965	1350.58
602.384	1346.35
602.803	1350
603.222	1345.84
603.641	1339.35
604.061	1335.99
604.48	1332.63
604.898	1341.78
605.317	1347.24
605.736	1348.83
606.155	1346.36
606.574	1338.7
606.992	1344.66
607.411	1340.68
607.829	1333.4
608.248	1329.95
608.666	1328.1
609.085	1327.95
609.503	1320.18
609.921	1314.96
610.339	1318.48
610.758	1317.84
611.176	1313.89
611.594	1304.93
612.012	1302.12
612.43	1306.31
612.847	1314.71
613.265	1316.91
613.683	1322.03
614.101	1324.11
614.518	1322.01
614.936	1314.09
615.353	1301.4
615.771	1298.98
616.188	1299.95
616.606	1296.98
617.023	1290.57
617.44	1276.66
617.857	1271.16
618.274	1263.16
618.691	1257.54
619.108	1249.54
619.525	1243.18
619.942	1249.33
620.359	1251.63
620.776	1247.83
621.192	1244.75
621.609	1243.16
622.026	1250.72
622.442	1255.94
622.859	1259.68
623.275	1253.45
623.691	1258.66
624.108	1270.03
624.524	1285.28
624.94	1286.56
625.356	1296.55
625.772	1309.13
626.188	1320.75
626.604	1322.9
627.02	1318.8
627.436	1316.8
627.852	1324.06
628.268	1336.77
628.683	1328.01
629.099	1319.18
629.514	1313.86
629.93	1318.27
630.345	1324.01
630.761	1321.27
631.176	1324.22
631.591	1319.04
632.007	1313.73
632.422	1311.23
632.837	1298.18
633.252	1296.64
633.667	1286.51
634.082	1278.93
634.497	1266.68
634.911	1247.59
635.326	1244.36
635.741	1228.93
636.155	1219.51
636.57	1221.29
636.984	1222.98
637.399	1228.41
637.813	1229.42
638.228	1229.93
638.642	1234.81
639.056	1225.92
639.47	1227.66
639.884	1220.57
640.298	1215.15
640.712	1216.26
641.126	1205.15
641.54	1197.5
641.954	1191.52
642.368	1179.01
642.781	1173.04
643.195	1157.21
643.609	1158.67
644.022	1153.32
644.436	1150.7
644.849	1138.75
645.262	1127
645.676	1130.82
646.089	1126.86
646.502	1113.44
646.915	1109.6
647.328	1093.06
647.741	1092.23
648.154	1079.72
648.567	1077.24
648.98	1063.48
649.393	1065.22
649.805	1061.53
650.218	1052.63
650.631	1036.34
651.043	1029.42
651.456	1024.58
651.868	1024.75
652.28	1042.29
652.693	1056.59
653.105	1064.17
653.517	1073.72
653.929	1072.92
654.341	1080.27
654.753	1068.87
655.165	1075.55
655.577	1074.52
655.989	1069.26
656.401	1061.55
656.813	1024.56
657.224	1003.84
657.636	974.52
658.047	957.36
658.459	939.99
658.87	931.8
659.282	920.79
659.693	900.05
660.104	884.64
660.515	871.5
660.926	871.26
661.338	868.58
661.749	863.2
662.159	854.47
662.57	848.48
662.981	844.27
663.392	836.27
663.803	840.1
664.213	838.37
664.624	833.53
665.035	836.4
665.445	822.51
665.855	815.52
666.266	806.92
666.676	805.02
667.086	797.61
667.497	796.36
667.907	788.86
668.317	779.31
668.727	775.87
669.137	777.73
669.547	776.3
669.956	778.13
670.366	779.76
670.776	781.22
671.186	784.39
671.595	787.7
672.005	790.06
672.414	789.82
672.824	788.64
673.233	791.51
673.642	793.73
674.052	795.96
674.461	797.6
674.87	802
675.279	798.23
675.688	799.34
676.097	800.59
676.506	796.1
676.915	809.45
677.323	811.08
677.732	808.84
678.141	807.15
678.549	793.97
678.958	792.18
679.366	789.83
679.775	795.15
680.183	804.2
680.592	808.46
681	813.96
681.408	806.54
681.816	814.51
682.224	822.49
682.632	832.41
683.04	863.77
683.448	887.32
683.856	919.18
684.264	953.19
684.671	984.58
685.079	1024.22
685.487	1067.12
685.894	1127.94
686.302	1175.68
686.709	1215.27
687.116	1261.57
687.524	1296.81
687.931	1327.8
688.338	1351.4
688.745	1370.8
689.152	1394.24
689.559	1427.93
689.966	1462.04
690.373	1473.74
690.78	1502.01
691.187	1555.01
691.593	1590.21
692	1619.41
692.407	1670.05
692.813	1733.05
693.22	1781.27
693.626	1828.98
694.032	1865.47
694.439	1925
694.845	1970.43
695.251	2033.91
695.657	2085.3
696.063	2170.49
696.469	2229.82
