Data from C_2_DIV_PA_2N_Splice17_12-40-11-814.txt Node
Date: Sat Mar 14 12:40:11 EDT 2020
User: sa697716
Spectrometer: FLMS03696
Trigger mode: 0
Integration Time (sec): 3.180400E-1
Scans to average: 20
Electric dark correction enabled: true
Nonlinearity correction enabled: true
Boxcar width: 5
XAxis mode: Wavelengths
Number of Pixels in Spectrum: 2048
>>>>>Begin Spectral Data<<<<<
187.83	-314874.99
188.298	2524.26
188.766	1375.11
189.233	1252.09
189.701	1738.6
190.169	2503.63
190.636	1020.79
191.104	848.68
191.571	181.26
192.039	-28.27
192.506	24.34
192.974	769.99
193.441	-851.34
193.908	-61.73
194.375	17.24
194.842	66.8
195.31	234.23
195.777	275.16
196.244	459.66
196.711	445.48
197.177	501.08
197.644	665.73
198.111	1130.57
198.578	1562.05
199.045	1226.25
199.511	1989.86
199.978	2256.38
200.445	1935.06
200.911	2095.94
201.378	2333.44
201.844	2132.15
202.31	3628.21
202.777	3807.58
203.243	2098.76
203.709	1974.71
204.176	2342.86
204.642	1952.47
205.108	1856.69
205.574	1510.39
206.04	1352.57
206.506	1277.32
206.972	1195.65
207.438	1166.19
207.903	1318.93
208.369	1178.81
208.835	1188
209.301	1252.91
209.766	1263.59
210.232	1247.57
210.697	1553.06
211.163	1936.85
211.628	2910.17
212.094	2476.21
212.559	3083.93
213.024	1933.28
213.49	2371.49
213.955	2332.84
214.42	2265.3
214.885	2130.67
215.35	2057.03
215.815	2016.88
216.28	2164.91
216.745	1771.76
217.21	1933.02
217.675	1781.84
218.14	2025.09
218.604	2275.35
219.069	2638.55
219.534	2811.37
219.998	3285.91
220.463	4029.81
220.927	4973.95
221.392	4725.91
221.856	4840.81
222.32	6124.57
222.785	7622.64
223.249	9649.86
223.713	10824.6
224.177	10858.77
224.642	13984.81
225.106	17308.82
225.57	18979.34
226.034	14177.76
226.497	21655.73
226.961	19574.56
227.425	22893.46
227.889	25340.54
228.353	25383.76
228.816	52549
229.28	50342.57
229.744	42529.63
230.207	25902.87
230.671	25483.94
231.134	42156.36
231.597	48686.88
232.061	48778.04
232.524	47592
232.987	32895.77
233.45	29705.4
233.914	26732.14
234.377	27413.79
234.84	25169.2
235.303	29716.96
235.766	33280.9
236.229	34479.52
236.691	21747.66
237.154	24464.16
237.617	18470.23
238.08	18975.28
238.542	22243.62
239.005	15910.39
239.468	15836.27
239.93	14929.21
240.393	13588.75
240.855	11932.23
241.317	12224.62
241.78	14884.63
242.242	15418.68
242.704	16661.07
243.166	14507.93
243.629	13196.82
244.091	15219.61
244.553	16700.09
245.015	17981.89
245.477	23302.3
245.939	34244.2
246.4	36434.26
246.862	35493.15
247.324	33524.38
247.786	37541.71
248.247	49320.17
248.709	50924.38
249.17	38163.65
249.632	36088.49
250.093	41955.98
250.555	36240.04
251.016	22135.69
251.477	21023.24
251.939	22728.19
252.4	23868.67
252.861	28443.98
253.322	26496.36
253.783	31601.49
254.244	41023.77
254.705	32312.6
255.166	28739.71
255.627	28364.66
256.088	40072.73
256.549	42572.11
257.009	36641.51
257.47	44475.97
257.931	36220.39
258.391	27174.42
258.852	28034.13
259.312	29425.2
259.773	36372.53
260.233	30741.29
260.694	25937.99
261.154	29435.39
261.614	23658.05
262.074	21201.96
262.534	22049.85
262.994	20788.6
263.455	27698.47
263.915	23363.46
264.374	21999.11
264.834	24054
265.294	26665.21
265.754	27641.07
266.214	26177.06
266.673	24550.75
267.133	30991.42
267.593	30789.23
268.052	37727.5
268.512	32808.04
268.971	39552.8
269.431	43413.64
269.89	38848.34
270.349	58249.03
270.809	64943.23
271.268	58380.83
271.727	130860.28
272.186	84749.74
272.645	63517.27
273.104	45763.14
273.563	66248.87
274.022	52077.38
274.481	44307.24
274.94	34148.25
275.399	25398.69
275.857	29573.5
276.316	39988.27
276.775	35587.64
277.233	35044.2
277.692	32809.86
278.15	37127.8
278.609	38237.88
279.067	35403.77
279.525	32882.13
279.984	42465.68
280.442	51028.88
280.9	50353.72
281.358	33133.21
281.816	30887.77
282.274	30232.06
282.732	31217.35
283.19	31365.68
283.648	27048.2
284.106	28817.3
284.564	29308.1
285.021	27174.56
285.479	20241.09
285.937	18397.27
286.394	16150.03
286.852	16608.41
287.309	17463.54
287.767	16874.51
288.224	16051.83
288.682	17609.27
289.139	19335.34
289.596	17695.24
290.053	18393.72
290.511	23235.17
290.968	28186.15
291.425	38247.74
291.882	31877.31
292.339	27796.6
292.796	27604.28
293.252	26043.59
293.709	20707.82
294.166	18561.35
294.623	20536.85
295.079	19719.37
295.536	19807.64
295.992	17990.35
296.449	17787.11
296.905	18480.78
297.362	17716.88
297.818	18628.62
298.274	19334.44
298.731	19706.6
299.187	19493.28
299.643	20925.27
300.099	25329.65
300.555	27768.3
301.011	23199.41
301.467	22380.19
301.923	26199.61
302.379	25570.01
302.835	25138.39
303.291	25150.66
303.746	28619.11
304.202	36203.2
304.658	36356.57
305.113	24449.75
305.569	23988.79
306.024	25599.61
306.479	24364.47
306.935	20570.06
307.39	22464.42
307.845	20754.55
308.301	20920.65
308.756	20365.48
309.211	19586.57
309.666	20044.55
310.121	24859.8
310.576	25214.84
311.031	24968.65
311.486	28606.92
311.94	28571.41
312.395	38188.45
312.85	71732.02
313.305	352328.95
313.759	1828882.61
314.214	132557.74
314.668	105260.18
315.123	88448.06
315.577	31715.23
316.032	28240.06
316.486	35409.22
316.94	27953.75
317.394	19500.43
317.849	15159
318.303	14354.19
318.757	13539.73
319.211	15001.56
319.665	13126.2
320.119	13304.49
320.572	19114.42
321.026	17885.44
321.48	14879.51
321.934	16222.48
322.387	16237.68
322.841	17550.6
323.295	15800.89
323.748	18210.74
324.202	18470.38
324.655	22207.82
325.108	31091.06
325.562	21924.22
326.015	26050.52
326.468	19694.99
326.921	22006.72
327.374	20550.39
327.827	21458.39
328.28	24260.18
328.733	16271.19
329.186	14316.12
329.639	13651.5
330.092	11500.5
330.545	10981.57
330.997	11098.56
331.45	12154.81
331.903	14260.6
332.355	24517.07
332.808	23777.24
333.26	19623.29
333.713	21304.62
334.165	21463.7
334.617	28622.19
335.069	23100.35
335.522	41702.32
335.974	46108.47
336.426	42079.88
336.878	29150.57
337.33	14811.28
337.782	14451.78
338.234	18108.56
338.686	21641.23
339.137	25681.22
339.589	24203.66
340.041	18990.59
340.493	16359.91
340.944	16745.09
341.396	18018.54
341.847	15182.74
342.299	17915.96
342.75	21906.74
343.201	19173.61
343.653	22068.94
344.104	27113.88
344.555	21351.8
345.006	33252.27
345.457	25464.31
345.908	20256.68
346.359	19109.93
346.81	15551.79
347.261	16374.85
347.712	16098.99
348.163	17253.51
348.613	17486.79
349.064	16340.77
349.515	14307.59
349.965	14687.69
350.416	17706.59
350.866	19421.62
351.317	21938.47
351.767	36377.63
352.217	46021.66
352.668	38285.96
353.118	35117.79
353.568	33876.38
354.018	26819.89
354.468	28334.31
354.918	20350.1
355.368	17821.43
355.818	25220.19
356.268	72601.08
356.718	304194.31
357.168	75745.98
357.617	38014.16
358.067	42272.62
358.517	39602.17
358.966	46465.21
359.416	52060.5
359.865	56264.23
360.315	66903.33
360.764	31254.32
361.213	17523.8
361.663	16556.44
362.112	20448.65
362.561	33023.02
363.01	24896.97
363.459	20937.88
363.908	22626.66
364.357	19263.69
364.806	32548.19
365.255	22413
365.703	20532.86
366.152	20558.17
366.601	16692.33
367.05	13558.42
367.498	12323.73
367.947	12888.36
368.395	13422.82
368.844	11886.09
369.292	14291.17
369.74	9873.71
370.189	15101
370.637	17676.86
371.085	15266.17
371.533	18562.63
371.981	17864.37
372.429	17052.22
372.877	17725.18
373.325	14830.04
373.773	15079.83
374.221	13416.1
374.669	16611.13
375.116	14363.82
375.564	14487.6
376.012	16185.67
376.459	13355.58
376.907	15947.77
377.354	19238.43
377.801	17953.7
378.249	20648.49
378.696	26434.17
379.143	32008.6
379.591	34101.4
380.038	57686.3
380.485	41639.11
380.932	44944.91
381.379	41141.65
381.826	30323.53
382.273	21563.22
382.72	18829.52
383.166	18325.55
383.613	11860.51
384.06	10678.65
384.506	12379.21
384.953	9076.86
385.4	9145.62
385.846	7998.72
386.292	7777.5
386.739	7581.98
387.185	7479.22
387.631	7487.66
388.078	7263.11
388.524	7767.54
388.97	7170.28
389.416	5967.67
389.862	6340.16
390.308	5998.35
390.754	6083.54
391.2	6597.4
391.645	6753.42
392.091	6468.42
392.537	6228.9
392.983	6214.65
393.428	6108.32
393.874	6534.89
394.319	6539.61
394.765	6195.76
395.21	6345.52
395.655	5945.95
396.101	5563.48
396.546	5023.45
396.991	5054.14
397.436	4690.08
397.881	4542.08
398.326	4297.25
398.771	4069.17
399.216	3560.01
399.661	3202.73
400.106	3200.03
400.551	3279.34
400.995	2941.58
401.44	2904.94
401.885	2729.92
402.329	2767.65
402.774	2652.05
403.218	2577.73
403.663	2484.5
404.107	2558.06
404.551	2582.29
404.995	2368.02
405.44	2281.23
405.884	2322.11
406.328	2252.14
406.772	2253.22
407.216	2054.59
407.66	1989.61
408.104	1889.05
408.547	1774.43
408.991	1718.94
409.435	1658.54
409.879	1643.91
410.322	1629.73
410.766	1579.15
411.209	1509.31
411.653	1451.63
412.096	1427.78
412.54	1433.51
412.983	1430.47
413.426	1440.32
413.869	1445.21
414.312	1423.7
414.756	1373.05
415.199	1312.81
415.642	1280.53
416.085	1285.17
416.527	1281.97
416.97	1304.65
417.413	1242.54
417.856	1230.52
418.298	1221.08
418.741	1217.67
419.184	1219.69
419.626	1279.16
420.069	1286.86
420.511	1297.49
420.953	1273.99
421.396	1266.75
421.838	1238.77
422.28	1270.37
422.722	1284.49
423.164	1306.22
423.606	1289.68
424.048	1289.24
424.49	1226.62
424.932	1222.73
425.374	1206.8
425.816	1230.8
426.258	1254.33
426.699	1271.93
427.141	1258.17
427.582	1278.7
428.024	1276.4
428.465	1271.18
428.907	1245.17
429.348	1232.11
429.789	1231.41
430.231	1208.53
430.672	1227.1
431.113	1199.89
431.554	1183.95
431.995	1153.8
432.436	1113.02
432.877	1086.79
433.318	1066.86
433.759	1060.66
434.2	1059.25
434.64	1048.52
435.081	1051.69
435.522	995.14
435.962	960.35
436.403	938.24
436.843	949.7
437.284	927.47
437.724	903.13
438.164	904.86
438.604	884.52
439.045	851.75
439.485	817.73
439.925	798.2
440.365	777.4
440.805	766.84
441.245	755.06
441.685	727.03
442.125	721.67
442.564	725.81
443.004	706.57
443.444	703.81
443.883	702.94
444.323	693.72
444.762	694.03
445.202	701.6
445.641	712.46
446.081	708.56
446.52	712.34
446.959	702.5
447.398	683.99
447.837	676.64
448.276	660.93
448.716	664.1
449.154	667.85
449.593	651.8
450.032	649
450.471	634.02
450.91	631.8
451.349	629.85
451.787	625.91
452.226	633.32
452.664	631.99
453.103	632.36
453.541	630.31
453.98	631.07
454.418	634.16
454.856	623.9
455.295	621.9
455.733	626.3
456.171	629.8
456.609	631.51
457.047	631.25
457.485	640.48
457.923	642.34
458.361	634.44
458.798	634.96
459.236	632.71
459.674	636.31
460.111	638.19
460.549	632.67
460.987	630.42
461.424	627.33
461.862	624.51
462.299	614.68
462.736	613.89
463.173	615.38
463.611	611.53
464.048	610
464.485	614.97
464.922	612.09
465.359	609.73
465.796	604.37
466.233	600.69
466.67	595.52
467.106	594.4
467.543	588.97
467.98	581.91
468.416	564.45
468.853	559.99
469.29	543.23
469.726	536.49
470.162	521.61
470.599	511.45
471.035	506.17
471.471	492.75
471.907	489.49
472.344	485.59
472.78	487.06
473.216	493.46
473.652	487.33
474.088	485.8
474.523	483.47
474.959	487.34
475.395	482.14
475.831	479.51
476.266	482.31
476.702	479.82
477.138	474.23
477.573	472.09
478.008	469.83
478.444	472.32
478.879	477.01
479.314	479.6
479.75	479.51
480.185	481.88
480.62	485.45
481.055	487.59
481.49	492.05
481.925	498.78
482.36	508.24
482.795	522.16
483.229	535.26
483.664	545.54
484.099	546.7
484.534	553.89
484.968	558.82
485.403	559.92
485.837	558.38
486.271	556.03
486.706	556.14
487.14	547.66
487.574	537.52
488.009	530.99
488.443	525.52
488.877	530.31
489.311	530.87
489.745	535.33
490.179	539.13
490.613	548.29
491.046	550.5
491.48	552.32
491.914	551.03
492.348	553.03
492.781	554.74
493.215	553.37
493.648	550.7
494.082	552.85
494.515	550.7
494.948	554.01
495.382	554.12
495.815	555.13
496.248	556.73
496.681	563.06
497.114	568.15
497.547	572.41
497.98	579.16
498.413	580.95
498.846	583.6
499.279	585.73
499.711	584.24
500.144	581.8
500.577	585.01
501.009	588.87
501.442	592.65
501.874	590.05
502.306	586.07
502.739	588.23
503.171	594.11
503.603	592.77
504.036	594.51
504.468	594.38
504.9	597.41
505.332	597.67
505.764	595.95
506.196	595.6
506.627	600.08
507.059	605.13
507.491	604.3
507.923	598.68
508.354	603.3
508.786	606.09
509.217	612.65
509.649	617.55
510.08	624.65
510.512	630.84
510.943	635.44
511.374	637.91
511.805	645.33
512.237	652.67
512.668	666.83
513.099	678.43
513.53	691.03
513.961	699.63
514.391	714.02
514.822	730.69
515.253	748.11
515.684	759.71
516.114	774.15
516.545	784.74
516.975	796.77
517.406	804.58
517.836	803.51
518.267	805.39
518.697	814.16
519.127	815.37
519.558	817.1
519.988	817.07
520.418	822.03
520.848	830.33
521.278	833.78
521.708	868.31
522.138	876.2
522.567	893.57
522.997	907.07
523.427	915.79
523.857	925.31
524.286	930.8
524.716	940.07
525.145	951.25
525.575	958.12
526.004	965.83
526.433	937.64
526.863	936.78
527.292	932.61
527.721	936.8
528.15	940.05
528.579	941.08
529.008	948.3
529.437	960.87
529.866	968.8
530.295	979.18
530.724	988.62
531.152	1005.21
531.581	1014.99
532.01	1025.59
532.438	1030.11
532.867	1038.75
533.295	1050.54
533.723	1054.6
534.152	1054.35
534.58	1054.91
535.008	1046.94
535.436	1049.26
535.865	1054.07
536.293	1061.55
536.721	1071.03
537.149	1087.23
537.576	1090.84
538.004	1098.75
538.432	1103.55
538.86	1103.74
539.287	1108.34
539.715	1116.72
540.143	1117.91
540.57	1116.14
540.998	1115.33
541.425	1103.51
541.852	1091.63
542.28	1090.44
542.707	1080.97
543.134	1073.9
543.561	1072.04
543.988	1067.34
544.415	1066.86
544.842	1063.44
545.269	1059.94
545.696	1061.91
546.123	1068.96
546.549	1063.06
546.976	1055.06
547.403	1055.38
547.829	1056.43
548.256	1057.3
548.682	1056.78
549.108	1053.95
549.535	1054.01
549.961	1054.84
550.387	1046.69
550.813	1044.41
551.24	1047.63
551.666	1048.33
552.092	1042.67
552.518	1038.46
552.943	1035.9
553.369	1039.61
553.795	1041.53
554.221	1042.87
554.646	1041.37
555.072	1049.16
555.498	1050.67
555.923	1055.99
556.349	1065.04
556.774	1069.94
557.199	1070.79
557.625	1072.77
558.05	1069.93
558.475	1076.73
558.9	1074.66
559.325	1071.06
559.75	1066.95
560.175	1063.31
560.6	1060.42
561.025	1059.03
561.449	1060.15
561.874	1063.28
562.299	1067.77
562.723	1071.49
563.148	1065.31
563.572	1068.79
563.997	1073.54
564.421	1075.01
564.846	1075.67
565.27	1077.38
565.694	1075.51
566.118	1080.94
566.542	1085.55
566.966	1081.38
567.39	1078.97
567.814	1072.04
568.238	1072.53
568.662	1075.14
569.086	1077.87
569.509	1081.37
569.933	1073.06
570.357	1069.97
570.78	1058.12
571.204	1051.91
571.627	1044.94
572.05	1043.58
572.474	1045.03
572.897	1037.09
573.32	1033.21
573.743	1026.49
574.166	1016.83
574.589	1016.14
575.012	1011.44
575.435	1010.79
575.858	1004.8
576.281	997.95
576.704	988.55
577.126	981.05
577.549	973.85
577.972	967.9
578.394	962.61
578.817	960.67
579.239	949.23
579.661	941.36
580.084	934.55
580.506	926.25
580.928	925.14
581.35	919.45
581.772	916.83
582.194	909.05
582.616	901.67
583.038	893.4
583.46	885.42
583.882	885.1
584.303	886.98
584.725	883.7
585.147	889.5
585.568	896.66
585.99	905.09
586.411	910.33
586.833	920.77
587.254	922.89
587.675	931.4
588.096	939.9
588.518	936.81
588.939	927.8
589.36	927.18
589.781	917.4
590.202	902.2
590.623	895.73
591.043	893.09
591.464	885.75
591.885	884.49
592.305	881.41
592.726	873.31
593.147	874.32
593.567	872.9
593.987	868.22
594.408	864.71
594.828	861.65
595.248	858.68
595.669	849.22
596.089	845.39
596.509	840.85
596.929	833.69
597.349	834.68
597.769	828.57
598.189	824.19
598.608	824.85
599.028	826.72
599.448	826.5
599.867	819.37
600.287	815.7
600.706	813.31
601.126	808.04
601.545	808.05
601.965	807.07
602.384	805.43
602.803	806.91
603.222	804.69
603.641	801.24
604.061	799.81
604.48	798.47
604.898	803.91
605.317	806.77
605.736	807.68
606.155	806.51
606.574	801.58
606.992	803.81
607.411	801.2
607.829	796.39
608.248	794.56
608.666	793.34
609.085	792.78
609.503	788.37
609.921	785.75
610.339	788.05
610.758	786.94
611.176	783.51
611.594	779.37
612.012	777.34
612.43	779.73
612.847	784.01
613.265	785.84
613.683	789.08
614.101	790.26
614.518	788.02
614.936	782.41
615.353	774.42
615.771	774.3
616.188	775.48
616.606	775.67
617.023	772.91
617.44	764.82
617.857	760.81
618.274	756.19
618.691	753.53
619.108	748.42
619.525	745.4
619.942	751.01
620.359	752.79
620.776	750.49
621.192	748.89
621.609	747.91
622.026	753.17
622.442	757.37
622.859	759.54
623.275	755.57
623.691	760.29
624.108	767.93
624.524	777.29
624.94	777.47
625.356	783.06
625.772	789.3
626.188	796.48
626.604	797.58
627.02	795.19
627.436	794.31
627.852	799.65
628.268	806.41
628.683	800.31
629.099	794.15
629.514	790.68
629.93	793.08
630.345	796.84
630.761	794.5
631.176	796.4
631.591	794.71
632.007	791.08
632.422	788.33
632.837	781.88
633.252	782.52
633.667	777.19
634.082	773.38
634.497	767.54
634.911	758.39
635.326	757.01
635.741	747.89
636.155	741.57
636.57	745.97
636.984	749.07
637.399	753.4
637.813	753.61
638.228	755.04
638.642	760.98
639.056	756.48
639.47	758.59
639.884	757.35
640.298	756.76
640.712	760.9
641.126	755.19
641.54	751.66
641.954	749.68
642.368	746.59
642.781	746.08
643.195	737.57
643.609	740.99
644.022	740.07
644.436	739.05
644.849	733.88
645.262	727.2
645.676	730.58
646.089	729.92
646.502	723.04
646.915	722.27
647.328	713.22
647.741	713.33
648.154	707.49
648.567	709.53
648.98	704.19
649.393	706.51
649.805	706.7
650.218	703.64
650.631	695.02
651.043	692.29
651.456	688.34
651.868	689.79
652.28	703.14
652.693	712.27
653.105	715.61
653.517	722.78
653.929	723.47
654.341	728.39
654.753	721.92
655.165	727.02
655.577	726.02
655.989	723.87
656.401	719.68
656.813	697.02
657.224	684.93
657.636	666.33
658.047	656.67
658.459	645.07
658.87	640.48
659.282	632.06
659.693	621.25
660.104	614.11
660.515	607.39
660.926	608.95
661.338	609.4
661.749	607.95
662.159	605.83
662.57	603.54
662.981	603.9
663.392	600.93
663.803	608.85
664.213	608.87
664.624	609.28
665.035	614.07
665.445	606.33
665.855	603.47
666.266	599.6
666.676	599.79
667.086	595
667.497	597.07
667.907	595.53
668.317	589.79
668.727	590.64
669.137	591.63
669.547	591.96
669.956	593.71
670.366	596.04
670.776	598.8
671.186	601.33
671.595	605.69
672.005	608.04
672.414	606.58
672.824	605.09
673.233	606.77
673.642	608.47
674.052	610.84
674.461	613.55
674.87	616.47
675.279	614.19
675.688	614.68
676.097	614.81
676.506	611.57
676.915	622.02
677.323	622.97
677.732	620.6
678.141	618.8
678.549	607.51
678.958	604.35
679.366	602.25
679.775	603.59
680.183	610.84
680.592	613.35
681	616.18
681.408	607.48
681.816	610.59
682.224	614.02
682.632	618.73
683.04	637.72
683.448	651.55
683.856	669.52
684.264	690.69
684.671	707.24
685.079	728.27
685.487	749.76
685.894	784.84
686.302	809.89
686.709	828.16
687.116	850.35
687.524	866.1
687.931	877.47
688.338	882.64
688.745	884.19
689.152	888.94
689.559	902.39
689.966	916.18
690.373	915.41
690.78	927.21
691.187	950.86
691.593	966.77
692	979.43
692.407	1003.87
692.813	1039.14
693.22	1064.47
693.626	1090.97
694.032	1112.04
694.439	1147.2
694.845	1175.54
695.251	1212.98
695.657	1246.95
696.063	1298.48
696.469	1337.22
696.875	1374.17
697.281	1395.55
697.687	1421.8
698.093	1445.55
698.498	1489.64
698.904	1525.05
699.31	1578.21
699.715	1618.46
700.12	1675.17
700.526	1690.93
700.931	1738.08
701.337	1774.67
701.742	1799.13
702.147	1854.87
702.552	1880.04
702.957	1922.23
703.362	1942.37
