Data from C_2_DEC_VA_2N_Splice17_12-08-02-537.txt Node
Date: Sat Mar 14 12:08:02 EDT 2020
User: sa697716
Spectrometer: FLMS03696
Trigger mode: 0
Integration Time (sec): 3.180400E-1
Scans to average: 20
Electric dark correction enabled: true
Nonlinearity correction enabled: true
Boxcar width: 5
XAxis mode: Wavelengths
Number of Pixels in Spectrum: 2048
>>>>>Begin Spectral Data<<<<<
187.83	-339854.76
188.298	2578.01
188.766	1326.22
189.233	1150.12
189.701	1676.06
190.169	2246.97
190.636	845.68
191.104	725.73
191.571	143.72
192.039	-46.62
192.506	-66.18
192.974	422.74
193.441	-528.75
193.908	-244.31
194.375	-36.78
194.842	71.86
195.31	123.13
195.777	167.93
196.244	690.58
196.711	1504.68
197.177	2107.68
197.644	3281.42
198.111	5751.7
198.578	8175.56
199.045	6568.81
199.511	10737.28
199.978	12587.09
200.445	10436.99
200.911	11577.35
201.378	13057.37
201.844	11498.78
202.31	19399.67
202.777	19860.76
203.243	10838.43
203.709	10146.73
204.176	11950.9
204.642	9714.18
205.108	8960.9
205.574	7340.31
206.04	6742.91
206.506	6246.24
206.972	5921.36
207.438	5690.22
207.903	6437.38
208.369	5550.38
208.835	5442.73
209.301	5630.14
209.766	5758.68
210.232	5635.97
210.697	6917.28
211.163	8427.44
211.628	12664.53
212.094	10372.47
212.559	12312.21
213.024	7525.67
213.49	9020.01
213.955	8729.15
214.42	8522.15
214.885	7782.45
215.35	7340.46
215.815	6729.58
216.28	6931.26
216.745	5472.36
217.21	5636.93
217.675	4976.84
218.14	5217.31
218.604	5420.01
219.069	5671.53
219.534	5381.93
219.998	5744.35
220.463	6358.93
220.927	7218.67
221.392	6257.11
221.856	5845.5
222.32	6859.48
222.785	7894.42
223.249	9342.59
223.713	9849.31
224.177	9345.47
224.642	11433.43
225.106	13431.38
225.57	14091.85
226.034	10094.71
226.497	14813.18
226.961	12955.99
227.425	14637.3
227.889	15687.13
228.353	15192.01
228.816	30444.4
229.28	28279.95
229.744	23296.16
230.207	13877.08
230.671	13354.24
231.134	21535.91
231.597	24324.27
232.061	23749.05
232.524	22600.35
232.987	15304.54
233.45	13564.86
233.914	11990.27
234.377	12061.1
234.84	10864.38
235.303	12616.08
235.766	13886.86
236.229	14160.41
236.691	8820.73
237.154	9815.1
237.617	7367.35
238.08	7472.81
238.542	8709.21
239.005	6206.12
239.468	6174.22
239.93	5797.56
240.393	5253.97
240.855	4597.02
241.317	4684.39
241.78	5669.46
242.242	5847.12
242.704	6308.95
243.166	5496.39
243.629	4985.67
244.091	5713.09
244.553	6217.62
245.015	6677.11
245.477	8575.9
245.939	12497.62
246.4	13243.44
246.862	12795.72
247.324	12010.73
247.786	13325.2
248.247	17384.66
248.709	17770.06
249.17	13214.34
249.632	12448.91
250.093	14399.34
250.555	12454.85
251.016	7602.31
251.477	7202.27
251.939	7784.23
252.4	8150.43
252.861	9667.72
253.322	8992.71
253.783	10734.21
254.244	13916.9
254.705	10948.2
255.166	9703.11
255.627	9525.55
256.088	13478.8
256.549	14318.54
257.009	12294.12
257.47	14900.54
257.931	12087.28
258.391	9022.32
258.852	9234.59
259.312	9638.8
259.773	11794.1
260.233	9925.18
260.694	8301.47
261.154	9289.87
261.614	7433.1
262.074	6582.01
262.534	6783.32
262.994	6356.37
263.455	8367.86
263.915	6973.47
264.374	6487.77
264.834	7018.34
265.294	7676.78
265.754	7884.02
266.214	7395.21
266.673	6839.07
267.133	8546.27
267.593	8368.04
268.052	10146.37
268.512	8759.91
268.971	10560.86
269.431	11542.85
269.89	10290
270.349	15358.73
270.809	17081.96
271.268	15336.71
271.727	34340.02
272.186	22219.88
272.645	16680.3
273.104	11985.8
273.563	17361.19
274.022	13602.94
274.481	11623.19
274.94	8987.56
275.399	6694.84
275.857	7818.11
276.316	10619.02
276.775	9492.51
277.233	9435.43
277.692	8931.04
278.15	10239.55
278.609	10697.81
279.067	10009.47
279.525	9393.51
279.984	12241
280.442	14891.59
280.9	14875.61
281.358	9886.6
281.816	9296.16
282.274	9184.53
282.732	9575.36
283.19	9715.86
283.648	8425.17
284.106	9055.38
284.564	9320.89
285.021	8774.26
285.479	6615.59
285.937	6077.2
286.394	5421.13
286.852	5635.43
287.309	5978.82
287.767	5849.07
288.224	5610.39
288.682	6199.32
289.139	6843.16
289.596	6285.24
290.053	6528.78
290.511	8207.15
290.968	9927.33
291.425	13324.9
291.882	11074
292.339	9573.33
292.796	9402.09
293.252	8784.86
293.709	6965.09
294.166	6207.25
294.623	6805.16
295.079	6503.61
295.536	6550.22
295.992	5920.96
296.449	5857.42
296.905	6089.9
297.362	5852.77
297.818	6148.8
298.274	6385.25
298.731	6498.07
299.187	6438.6
299.643	6929.98
300.099	8387.39
300.555	9172.99
301.011	7699.73
301.467	7490.32
301.923	8751.88
302.379	8597.65
302.835	8489.95
303.291	8577.49
303.746	9823.44
304.202	12501.98
304.658	12641.18
305.113	8565.53
305.569	8473.79
306.024	9108.83
306.479	8699.78
306.935	7435.13
307.39	8173.74
307.845	7622.37
308.301	7734.71
308.756	7589.14
309.211	7370.65
309.666	7626.75
310.121	9570.87
310.576	9821
311.031	9846.97
311.486	11385.28
311.94	11434.77
312.395	15415.99
312.85	29220.01
313.305	144505.58
313.759	760082.38
314.214	55595.6
314.668	44336.1
315.123	37580.37
315.577	13543
316.032	12085.55
316.486	15157.58
316.94	12048.5
317.394	8424.36
317.849	6543.09
318.303	6169.59
318.757	5768.25
319.211	6353.37
319.665	5557.66
320.119	5600.75
320.572	7998.07
321.026	7461.99
321.48	6207.11
321.934	6736.8
322.387	6745.79
322.841	7310.61
323.295	6611.04
323.748	7606.96
324.202	7745.58
324.655	9325.53
325.108	13154.56
325.562	9328.35
326.015	11107.38
326.468	8454.68
326.921	9509.92
327.374	8914.63
327.827	9302.15
328.28	10589.82
328.733	7175.85
329.186	6346.07
329.639	6081.02
330.092	5140.64
330.545	4959.55
330.997	5048.59
331.45	5563.04
331.903	6594.32
332.355	11416.54
332.808	11225.15
333.26	9345.17
333.713	10246.96
334.165	10407.73
334.617	14009.39
335.069	11345.27
335.522	20548.85
335.974	22908.22
336.426	21039.52
336.878	14609.51
337.33	7473.16
337.782	7327.03
338.234	9239.66
338.686	11046.94
339.137	13142.49
339.589	12415.08
340.041	9806.18
340.493	8440.77
340.944	8673.69
341.396	9380.83
341.847	7900.89
342.299	9317.7
342.75	11382.39
343.201	9871.83
343.653	11327.5
344.104	13851.52
344.555	10855.14
345.006	16767.85
345.457	12872.11
345.908	10182.85
346.359	9525.77
346.81	7715.91
347.261	8085.1
347.712	7928.25
348.163	8501.22
348.613	8668.09
349.064	8089.42
349.515	7083.39
349.965	7317.81
350.416	8782.32
350.866	9661.76
351.317	10954.62
351.767	18257.85
352.217	23149.76
352.668	19322.41
353.118	17819.7
353.568	17153.47
354.018	13659.77
354.468	14531.31
354.918	10474.29
355.368	9226.33
355.818	13079.98
356.268	37732.55
356.718	158938.31
357.168	39945.61
357.617	20175.98
358.067	22541.55
358.517	21201.18
358.966	25042.98
359.416	28245.53
359.865	30626.57
360.315	36684.64
360.764	17183.13
361.213	9698.95
361.663	9186.87
362.112	11335.5
362.561	18361.48
363.01	13878.8
363.459	11755.74
363.908	12719.98
364.357	10837.28
364.806	18289.33
365.255	12582.46
365.703	11609.75
366.152	11693.05
366.601	9564.61
367.05	7841.82
367.498	7155.69
367.947	7522.92
368.395	7854.7
368.844	7011.89
369.292	8459.15
369.74	5903.59
370.189	9115.92
370.637	10776.03
371.085	9323.55
371.533	11361.32
371.981	10935.79
372.429	10464.89
372.877	10946
373.325	9192.67
373.773	9400.32
374.221	8418.91
374.669	10471.36
375.116	9073.3
375.564	9125.33
376.012	10219.94
376.459	8446.49
376.907	10154.89
377.354	12340.97
377.801	11573.69
378.249	13407.69
378.696	17240.01
379.143	21010.53
379.591	22511.02
380.038	38356.21
380.485	27987.96
380.932	30459.49
381.379	28222.41
381.826	21100.59
382.273	15168.35
382.72	13421.39
383.166	13243.97
383.613	8749.48
384.06	8018.75
384.506	9510.93
384.953	7158.52
385.4	7445.83
385.846	6804.4
386.292	6984.31
386.739	7238.89
387.185	7670.62
387.631	8288.31
388.078	8757.7
388.524	10173.93
388.97	10166.32
389.416	9047.1
389.862	10173.03
390.308	10187.73
390.754	11063.41
391.2	13110.58
391.645	14901.51
392.091	15835.49
392.537	16915.71
392.983	18476.34
393.428	19409.32
393.874	22396.25
394.319	24689.31
394.765	26407.14
395.21	31047.2
395.655	33202.7
396.101	35028.38
396.546	35259.22
396.991	39596.06
397.436	40600.08
397.881	43293.1
398.326	45506.08
398.771	47199.09
399.216	45117.03
399.661	43847.02
400.106	46454.5
400.551	50185.75
400.995	47254.07
401.44	48724.29
401.885	47405.37
402.329	49366.75
402.774	48576.74
403.218	47908.67
403.663	47385.55
404.107	49830.35
404.551	51333.48
404.995	48350.5
405.44	47895.91
405.884	49901.06
406.328	49496.02
406.772	50436.8
407.216	46974.74
407.66	46605.1
408.104	45647.97
408.547	43704.03
408.991	43140.4
409.435	42258.28
409.879	42157.14
410.322	42136.32
410.766	41134.11
411.209	39635.84
411.653	38701.8
412.096	38454.64
412.54	39086.17
412.983	39342
413.426	39849.01
413.869	40385.96
414.312	40110.49
414.756	39309.5
415.199	38081.51
415.642	37477.13
416.085	38003.51
416.527	38199.99
416.97	39291.33
417.413	37515.24
417.856	37343.99
418.298	37093.41
418.741	36915.56
419.184	36913.23
419.626	38574.6
420.069	38543.86
420.511	38801.24
420.953	37973.55
421.396	37741.61
421.838	36982.15
422.28	37984.37
422.722	38423.85
423.164	39497.28
423.606	39298.41
424.048	39744.29
424.49	38022.43
424.932	38255.94
425.374	38108.12
425.816	39115.62
426.258	39881.54
426.699	40044.88
427.141	38948.29
427.582	39223.87
428.024	38760.9
428.465	38569.37
428.907	37774.36
429.348	37662.94
429.789	37848.51
430.231	37183.46
430.672	37813.95
431.113	37268.18
431.554	37317.55
431.995	37404.7
432.436	36749.34
432.877	36615.07
433.318	36384.27
433.759	36703.48
434.2	37053.72
434.64	37062.38
435.081	37542.39
435.522	36048.67
435.962	35224.36
436.403	34927.44
436.843	35917.78
437.284	35665.92
437.724	35163.59
438.164	35746
438.604	35232.17
439.045	34008.78
439.485	32688.02
439.925	32282.02
440.365	31716.72
440.805	31512.12
441.245	31110.52
441.685	30024.51
442.125	29883.88
442.564	30096.88
443.004	29330.54
443.444	29277.27
443.883	29355.57
444.323	29360.32
444.762	29660.2
445.202	30146.98
445.641	30621.21
446.081	30699.93
446.52	30884.47
446.959	30579.96
447.398	29839.64
447.837	29558.13
448.276	29092.97
448.716	29384.46
449.154	29667.56
449.593	28777.27
450.032	28522.06
450.471	27971.54
450.91	27831.48
451.349	27539.13
451.787	27287.81
452.226	27488.23
452.664	27279.08
453.103	27096.16
453.541	26836.72
453.98	26348.98
454.418	26244.77
454.856	25482.46
455.295	25198.76
455.733	25044.64
456.171	24954.58
456.609	24682.38
457.047	24355.21
457.485	24402.22
457.923	24199.25
458.361	23736.27
458.798	23765.16
459.236	23630.18
459.674	23860.76
460.111	23908.01
460.549	23715.5
460.987	23729.89
461.424	23706.92
461.862	23697.31
462.299	23408.31
462.736	23388.07
463.173	23554.5
463.611	23239.76
464.048	23245.2
464.485	23479.55
464.922	23385.78
465.359	23409.7
465.796	22798.21
466.233	22760.76
466.67	22586.57
467.106	22611.25
467.543	22582.98
467.98	22416.74
468.416	22076.55
468.853	22052
469.29	21501.55
469.726	21351
470.162	20835.46
470.599	20908.1
471.035	20765.17
471.471	20313.98
471.907	20279.14
472.344	20142.87
472.78	20092.27
473.216	20271.67
473.652	19902.51
474.088	19754.02
474.523	19491.85
474.959	19522.11
475.395	19181.39
475.831	18851.25
476.266	18773.7
476.702	18531.54
477.138	18100.95
477.573	17843.83
478.008	17536.13
478.444	17338
478.879	17196.85
479.314	17040.41
479.75	16782.45
480.185	16645.4
480.62	16563.71
481.055	16418.71
481.49	16264.63
481.925	16242.43
482.36	16185.4
482.795	16381.81
483.229	16590.51
483.664	16672.22
484.099	16480.68
484.534	16456.34
484.968	16364.89
485.403	16191.18
485.837	15983.74
486.271	15758.7
486.706	15578.96
487.14	15302.13
487.574	14900
488.009	14624.54
488.443	14372.68
488.877	14353.32
489.311	14278.16
489.745	14296.94
490.179	14284.18
490.613	14349.53
491.046	14348.45
491.48	14339.79
491.914	14225.89
492.348	14217.9
492.781	14186.21
493.215	14126.13
493.648	14089.51
494.082	14104.51
494.515	14020.82
494.948	14064.12
495.382	14101.85
495.815	14081.25
496.248	14077.6
496.681	14227.97
497.114	14352.75
497.547	14422.14
497.98	14517.98
498.413	14464.42
498.846	14498.2
499.279	14526.66
499.711	14484.72
500.144	14389.7
500.577	14417.79
501.009	14477.35
501.442	14476.69
501.874	14319.66
502.306	14227.01
502.739	14159.37
503.171	14294.44
503.603	14196.6
504.036	14194.54
504.468	14122.78
504.9	14140.82
505.332	14089.26
505.764	13979.22
506.196	13927.37
506.627	13980.5
507.059	13995.15
507.491	13996.49
507.923	13748.48
508.354	13769.59
508.786	13728.32
509.217	13779.09
509.649	13789.38
510.08	13857.55
510.512	13874.78
510.943	13881.04
511.374	13836.75
511.805	13894.94
512.237	13947.99
512.668	14176.87
513.099	14326.51
513.53	14448.41
513.961	14472.97
514.391	14622.35
514.822	14746.63
515.253	14923.16
515.684	14967.64
516.114	15054.91
516.545	15033.37
516.975	15063.52
517.406	14997.84
517.836	14782.72
518.267	14611.8
518.697	14559.65
519.127	14379.72
519.558	14246.79
519.988	14075.27
520.418	13977.87
520.848	13943.78
521.278	13839.51
521.708	13437.79
522.138	13388.19
522.567	13497.6
522.997	13552.83
523.427	13532.35
523.857	13514.24
524.286	13457.22
524.716	13441.78
525.145	13450.99
525.575	13414.67
526.004	13417.29
526.433	13581.8
526.863	13476.73
527.292	13282.54
527.721	13230.77
528.15	13198.68
528.579	13126.44
529.008	13140.46
529.437	13250.11
529.866	13289.01
530.295	13351.31
530.724	13363.45
531.152	13495.31
531.581	13525.01
532.01	13599.81
532.438	13607.36
532.867	13663.43
533.295	13750.79
533.723	13746.42
534.152	13683.47
534.58	13636.43
535.008	13481.28
535.436	13458.98
535.865	13486.75
536.293	13571.9
536.721	13662.73
537.149	13816.59
537.576	13809.26
538.004	13888.97
538.432	13937.21
538.86	13914.24
539.287	13965.81
539.715	14062.21
540.143	14099.63
540.57	14086.07
540.998	14078.03
541.425	13907.87
541.852	13788.47
542.28	13804.64
542.707	13719.71
543.134	13643.45
543.561	13637.77
543.988	13609.38
544.415	13643.06
544.842	13635.82
545.269	13605.4
545.696	13639.36
546.123	13786.72
546.549	13735.49
546.976	13660.96
547.403	13677.48
547.829	13724.42
548.256	13776.73
548.682	13775.14
549.108	13739.7
549.535	13767.08
549.961	13811.99
550.387	13739.22
550.813	13711.13
551.24	13785.78
551.666	13821.6
552.092	13770.26
552.518	13748.63
552.943	13714.65
553.369	13806.03
553.795	13877.31
554.221	13897.2
554.646	13893.1
555.072	13971.57
555.498	14031.95
555.923	14116.95
556.349	14241.62
556.774	14321.49
557.199	14336.73
557.625	14414.77
558.05	14369.36
558.475	14459.41
558.9	14458.77
559.325	14397.03
559.75	14369.32
560.175	14332.14
560.6	14298.38
561.025	14290.79
561.449	14307.99
561.874	14356.45
562.299	14375.44
562.723	14438.42
563.148	14350.65
563.572	14378.32
563.997	14456.21
564.421	14495.27
564.846	14488.94
565.27	14493.35
565.694	14463.05
566.118	14523.99
566.542	14553.56
566.966	14481.45
567.39	14412.12
567.814	14304.61
568.238	14287.81
568.662	14317.93
569.086	14329.7
569.509	14400.75
569.933	14288.58
570.357	14265.08
570.78	14142.65
571.204	14078.73
571.627	14059.37
572.05	14123.17
572.474	14199.39
572.897	14200.19
573.32	14235.4
573.743	14277.56
574.166	14226.13
574.589	14355.81
575.012	14409.53
575.435	14537.4
575.858	14596.79
576.281	14640.66
576.704	14645
577.126	14686.35
577.549	14718.73
577.972	14777.71
578.394	14811.26
578.817	14859.2
579.239	14822.93
579.661	14824.81
580.084	14779.27
580.506	14787.94
580.928	14879.26
581.35	14901.33
581.772	14975.77
582.194	14962.52
582.616	14945.28
583.038	14930.86
583.46	14957.77
583.882	15026.04
584.303	15180.68
584.725	15264.25
585.147	15315.88
585.568	15496.94
585.99	15679.21
586.411	15812.88
586.833	16027.07
587.254	16107.41
587.675	16319.28
588.096	16520.61
588.518	16531.97
588.939	16413.58
589.36	16444.02
589.781	16462.39
590.202	16171.48
590.623	16141.49
591.043	16167.78
591.464	16068.41
591.885	16052.62
592.305	16013.49
592.726	15874.53
593.147	15877.61
593.567	15810.29
593.987	15707.46
594.408	15626.54
594.828	15618.15
595.248	15494.09
595.669	15225.18
596.089	15089.42
596.509	14968.16
596.929	14744.09
597.349	14672.63
597.769	14493.36
598.189	14340.33
598.608	14277.36
599.028	14211.48
599.448	14137.89
599.867	13947.78
600.287	13859.83
600.706	13749.06
601.126	13585.55
601.545	13519.67
601.965	13472.79
602.384	13393.97
602.803	13406.28
603.222	13335.12
603.641	13269.09
604.061	13225.31
604.48	13202.06
604.898	13301.06
605.317	13387.46
605.736	13448.43
606.155	13461.04
606.574	13417.78
606.992	13525.62
607.411	13530.94
607.829	13530.99
608.248	13574.93
608.666	13633.47
609.085	13697.44
609.503	13679
609.921	13688.08
610.339	13789.3
610.758	13874.68
611.176	13912.98
611.594	13900.04
612.012	13953.95
612.43	14055.32
612.847	14206.12
613.265	14280.04
613.683	14416.57
614.101	14521
614.518	14579.44
614.936	14556.73
615.353	14473.86
615.771	14514.48
616.188	14596.29
616.606	14635
617.023	14641.49
617.44	14554.26
617.857	14569.89
618.274	14548.5
618.691	14538.31
619.108	14498.1
619.525	14494.22
619.942	14622.75
620.359	14706.82
620.776	14701.18
621.192	14690.24
621.609	14704.63
622.026	14811.18
622.442	14916.33
622.859	14992.64
623.275	14948.8
623.691	15041.37
624.108	15206.52
624.524	15416.49
624.94	15447.99
625.356	15594.29
625.772	15792.52
626.188	15970.05
626.604	16020.8
627.02	15999.7
627.436	15993.47
627.852	16089.92
628.268	16254.86
628.683	16183.02
629.099	16112.48
629.514	16099.47
629.93	16186.81
630.345	16286.5
630.761	16288.54
631.176	16385.94
631.591	16340.15
632.007	16323.25
632.422	16388
632.837	16326.97
633.252	16351.13
633.667	16302.9
634.082	16264
634.497	16184.34
634.911	16003.93
635.326	16053.31
635.741	15935.24
636.155	15938.74
636.57	16059.88
636.984	16175.56
637.399	16302.91
637.813	16450.11
638.228	16569.08
638.642	16786.29
639.056	16803.59
639.47	16987.55
639.884	17034.88
640.298	17117.28
640.712	17262.73
641.126	17263.97
641.54	17328.18
641.954	17472.58
642.368	17462.33
642.781	17484.78
643.195	17397.62
643.609	17582.05
644.022	17673.08
644.436	17785.25
644.849	17779.35
645.262	17766.42
645.676	17976.35
646.089	18042.92
646.502	17913.13
646.915	17978.37
647.328	17878.67
647.741	17970.98
648.154	17881.64
648.567	17895.67
648.98	17769.85
649.393	17885.01
649.805	17933.45
650.218	17907.46
650.631	17709.09
651.043	17707.77
651.456	17680.16
651.868	17778.87
652.28	18166.51
652.693	18460.23
653.105	18628.08
653.517	18810.23
653.929	18811.54
654.341	18933.06
654.753	18736.38
655.165	18934.35
655.577	18977.3
655.989	19014.31
656.401	19010.7
656.813	18439.56
657.224	18233.06
657.636	17932.76
658.047	17799.13
658.459	17651.56
658.87	17718.39
659.282	17713.13
659.693	17468.33
660.104	17341.76
660.515	17237.68
660.926	17365.3
661.338	17502.29
661.749	17550.59
662.159	17489.73
662.57	17588.65
662.981	17650.55
663.392	17627.8
663.803	17848.71
664.213	17964.1
664.624	18028.08
665.035	18241.1
665.445	18068.18
665.855	17999.93
666.266	17898.99
666.676	17955.57
667.086	17839.68
667.497	17882.49
667.907	17812.88
668.317	17666.88
668.727	17545.71
669.137	17618.02
669.547	17587.09
669.956	17683.64
670.366	17751.47
670.776	17804.24
671.186	17914.91
671.595	17979.48
672.005	18081.56
672.414	18029.58
672.824	17952.67
673.233	18129.55
673.642	18144.85
674.052	18164.11
674.461	18146.2
674.87	18235.76
675.279	18114.99
675.688	18138.78
676.097	18097.34
676.506	17967.7
676.915	18275.49
677.323	18298.86
677.732	18209.18
678.141	18155.86
678.549	17883.98
678.958	17836.55
