Data from C_2_DEC_ON_6N_Splice17_12-16-07-769.txt Node
Date: Sat Mar 14 12:16:07 EDT 2020
User: sa697716
Spectrometer: FLMS03696
Trigger mode: 0
Integration Time (sec): 3.180400E-1
Scans to average: 20
Electric dark correction enabled: true
Nonlinearity correction enabled: true
Boxcar width: 5
XAxis mode: Wavelengths
Number of Pixels in Spectrum: 2048
>>>>>Begin Spectral Data<<<<<
187.83	-211603.64
188.298	1586.68
188.766	955.59
189.233	794.77
189.701	1149.61
190.169	1664.86
190.636	660.3
191.104	629.32
191.571	121.13
192.039	-32.63
192.506	-58.03
192.974	262.8
193.441	-461.7
193.908	40.39
194.375	-13.41
194.842	43.61
195.31	104.75
195.777	130.37
196.244	342.51
196.711	371.47
197.177	483.99
197.644	706.28
198.111	1173.01
198.578	1675.54
199.045	1337.63
199.511	2182.33
199.978	2549.58
200.445	2189.67
200.911	2428.92
201.378	2681.29
201.844	2430.55
202.31	4148.22
202.777	4288.45
203.243	2378.96
203.709	2226.73
204.176	2666.17
204.642	2216.73
205.108	2071.26
205.574	1685.2
206.04	1538.41
206.506	1444.57
206.972	1357.45
207.438	1304.74
207.903	1472
208.369	1297.65
208.835	1315.41
209.301	1374.99
209.766	1410.44
210.232	1398.88
210.697	1742.43
211.163	2162.21
211.628	3274.05
212.094	2744.41
212.559	3398.21
213.024	2133.5
213.49	2637.35
213.955	2578.92
214.42	2534.17
214.885	2355.24
215.35	2269.49
215.815	2195.51
216.28	2338.56
216.745	1909.44
217.21	2107.99
217.675	1937.32
218.14	2208.78
218.604	2502.65
219.069	2898.65
219.534	3108.82
219.998	3664.66
220.463	4523.85
220.927	5656.48
221.392	5412.09
221.856	5542.32
222.32	7051.89
222.785	8814.41
223.249	11184.39
223.713	12526.38
224.177	12580.9
224.642	16156.25
225.106	19976.07
225.57	21856.81
226.034	16301.93
226.497	24799.31
226.961	22470.03
227.425	26189.66
227.889	29081.75
228.353	29076.28
228.816	60252.83
229.28	57707.38
229.744	48814.38
230.207	29673.5
230.671	29216.77
231.134	48385.07
231.597	55823.24
232.061	55832.68
232.524	54442.95
232.987	37550.62
233.45	33812.62
233.914	30339.51
234.377	31146.33
234.84	28523.07
235.303	33665.12
235.766	37639.21
236.229	38864.15
236.691	24491.44
237.154	27533.2
237.617	20747.47
238.08	21248.94
238.542	24946.46
239.005	17823.3
239.468	17690.29
239.93	16668.65
240.393	15156.65
240.855	13292.33
241.317	13620.52
241.78	16591.96
242.242	17154.38
242.704	18515.31
243.166	16130.38
243.629	14625.24
244.091	16864.45
244.553	18495.96
245.015	19867.03
245.477	25705.77
245.939	37710.65
246.4	40050.61
246.862	38946.62
247.324	36773.14
247.786	41212.23
248.247	54009.02
248.709	55857.45
249.17	41803.24
249.632	39395.65
250.093	45745.95
250.555	39547.17
251.016	24138.32
251.477	22915
251.939	24729.46
252.4	25928.3
252.861	30856.98
253.322	28747.14
253.783	34192.9
254.244	44333.48
254.705	34935.88
255.166	31039.29
255.627	30538.75
256.088	43075.32
256.549	45699.11
257.009	39342.26
257.47	47731.14
257.931	38843.7
258.391	29083.01
258.852	29979.67
259.312	31451.1
259.773	38861.21
260.233	32876.31
260.694	27724.75
261.154	31415.12
261.614	25215.09
262.074	22566.61
262.534	23442.18
262.994	22087.43
263.455	29439.36
263.915	24820.2
264.374	23343.14
264.834	25497.65
265.294	28263.21
265.754	29301.2
266.214	27769.77
266.673	26034.44
267.133	32853.4
267.593	32611.01
268.052	39917.17
268.512	34727.37
268.971	41827.01
269.431	45916.66
269.89	41111.58
270.349	61630.97
270.809	68736.74
271.268	61768.72
271.727	138544.51
272.186	89773.65
272.645	67341.43
273.104	48538.04
273.563	70221.55
274.022	55262.3
274.481	46972.51
274.94	36180.32
275.399	26865.37
275.857	31267.55
276.316	42268.21
276.775	37604.88
277.233	37001.08
277.692	34620.51
278.15	39184.24
278.609	40296.26
279.067	37295.57
279.525	34673.51
279.984	44768.24
280.442	53806.06
280.9	52995.16
281.358	34841
281.816	32477.04
282.274	31797
282.732	32859.39
283.19	33008.13
283.648	28507.79
284.106	30346.05
284.564	30841.74
285.021	28598.45
285.479	21307.38
285.937	19387.29
286.394	17028.44
286.852	17536.49
287.309	18430.89
287.767	17798.99
288.224	16927.92
288.682	18572.56
289.139	20406.2
289.596	18705.52
290.053	19464.57
290.511	24598.41
290.968	29880.15
291.425	40589.19
291.882	33794.12
292.339	29457.12
292.796	29270.35
293.252	27620.65
293.709	21952.14
294.166	19692.82
294.623	21768.44
295.079	20926.87
295.536	21047.74
295.992	19115.05
296.449	18922.08
296.905	19684.11
297.362	18880.46
297.818	19893.47
298.274	20642.82
298.731	21056.15
299.187	20840.79
299.643	22378.99
300.099	27051.19
300.555	29683.57
301.011	24818.12
301.467	23888.01
301.923	27966.83
302.379	27332.84
302.835	26851.95
303.291	26929.05
303.746	30652.6
304.202	38740.25
304.658	38952.1
305.113	26223.83
305.569	25726.38
306.024	27452.34
306.479	26202.14
306.935	22091.25
307.39	24131.56
307.845	22268.97
308.301	22411.48
308.756	21877.86
309.211	21125.55
309.666	21641.52
310.121	26854.35
310.576	27282.45
311.031	27105.5
311.486	31101.29
311.94	31122.25
312.395	41719.72
312.85	78597.65
313.305	386630.13
313.759	2002425.44
314.214	145223.03
314.668	115275.54
315.123	97173.43
315.577	34873.76
316.032	31034.98
316.486	38908.79
316.94	30753.01
317.394	21402.19
317.849	16652.94
318.303	15776.38
318.757	14926.43
319.211	16509.15
319.665	14471.98
320.119	14657.7
320.572	21045.49
321.026	19685.86
321.48	16409.29
321.934	17901.67
322.387	17980.13
322.841	19423.27
323.295	17472.5
323.748	20140.13
324.202	20451.05
324.655	24564.83
325.108	34322.5
325.562	24251.47
326.015	28825.13
326.468	21797.41
326.921	24383.69
327.374	22737.24
327.827	23677.87
328.28	26819.02
328.733	17970.76
329.186	15808.66
329.639	15083.3
330.092	12728.67
330.545	12127.67
330.997	12235.29
331.45	13368.39
331.903	15672.7
332.355	26941.21
332.808	26178.48
333.26	21587.49
333.713	23426.05
334.165	23587.23
334.617	31467.26
335.069	25420.69
335.522	45934.81
335.974	50831.7
336.426	46432.52
336.878	32181.62
337.33	16359.4
337.782	15987.75
338.234	20016.3
338.686	23948.22
339.137	28377.37
339.589	26757.94
340.041	20980.03
340.493	18051.38
340.944	18468.21
341.396	19891.25
341.847	16722.44
342.299	19705.04
342.75	24089.51
343.201	21116.09
343.653	24331.55
344.104	29941.82
344.555	23587.42
345.006	36777.71
345.457	28161.95
345.908	22437.51
346.359	21155.53
346.81	17245.15
347.261	18218.32
347.712	17950.41
348.163	19245.8
348.613	19472.49
349.064	18213.47
349.515	15951.84
349.965	16354.1
350.416	19709.24
350.866	21638.66
351.317	24454.24
351.767	40602.98
352.217	51193.69
352.668	42392.22
353.118	38836.77
353.568	37490.91
354.018	29599.56
354.468	31272.02
354.918	22451.92
355.368	19665.86
355.818	27817.12
356.268	80125.73
356.718	334314.7
357.168	83437.14
357.617	42059.01
358.067	46848.3
358.517	43905.76
358.966	51601.05
359.416	57808.78
359.865	62481.34
360.315	74481.33
360.764	34733.87
361.213	19467.88
361.663	18480.32
362.112	22799.99
362.561	36757.88
363.01	27698.97
363.459	23319.5
363.908	25218.26
364.357	21418.05
364.806	36282.61
365.255	24924.64
365.703	22852.01
366.152	22897.62
366.601	18572.89
367.05	15076.6
367.498	13702.22
367.947	14352.01
368.395	14937.54
368.844	13232.92
369.292	15980.62
369.74	11017.68
370.189	16890.38
370.637	19783.87
371.085	17062.29
371.533	20779.57
371.981	20094.19
372.429	19166.15
372.877	19983.61
373.325	16715.03
373.773	17039.68
374.221	15157.76
374.669	18783.34
375.116	16215.93
375.564	16346.76
376.012	18275.26
376.459	15083.48
376.907	17966.23
377.354	21733.98
377.801	20221.53
378.249	23265.17
378.696	29711.85
379.143	36028.39
379.591	38466.61
380.038	65124.34
380.485	47115.91
380.932	50928.21
381.379	46546.38
381.826	34284.43
382.273	24368.78
382.72	21339.34
383.166	20815.32
383.613	13506.67
384.06	12170.73
384.506	14067.92
384.953	10333.93
385.4	10405.03
385.846	9105.34
386.292	8885.84
386.739	8684.5
387.185	8587.67
387.631	8582.81
388.078	8309.42
388.524	8893.24
388.97	8201.44
389.416	6834.86
389.862	7263.14
390.308	6880.5
390.754	6994.45
391.2	7588.43
391.645	7774.66
392.091	7431.01
392.537	7175.87
392.983	7193.24
393.428	7064.21
393.874	7582.93
394.319	7620.86
394.765	7229.76
395.21	7444.73
395.655	6987.9
396.101	6550.87
396.546	5910.59
396.991	5974.95
397.436	5558.54
397.881	5378.14
398.326	5102.53
398.771	4821.68
399.216	4221.65
399.661	3811.24
400.106	3803.01
400.551	3901.56
400.995	3508.98
401.44	3480.3
401.885	3272.1
402.329	3312.99
402.774	3183.5
403.218	3086.2
403.663	2985.57
404.107	3074.02
404.551	3098.78
404.995	2843.5
405.44	2740.88
405.884	2783.02
406.328	2704.77
406.772	2703.84
407.216	2470.19
407.66	2389.52
408.104	2276.6
408.547	2134.83
408.991	2070.16
409.435	1999.22
409.879	1977.87
410.322	1957.65
410.766	1891.44
411.209	1796.99
411.653	1726.94
412.096	1691.77
412.54	1696.87
412.983	1686.82
413.426	1691.95
413.869	1689.91
414.312	1658.15
414.756	1598.31
415.199	1525.42
415.642	1483.17
416.085	1488.63
416.527	1479
416.97	1505.41
417.413	1429.22
417.856	1416.23
418.298	1404.49
418.741	1400.6
419.184	1399
419.626	1460.36
420.069	1463.14
420.511	1474.27
420.953	1441.84
421.396	1432.67
421.838	1398.7
422.28	1432.4
422.722	1441.22
423.164	1461.26
423.606	1437.17
424.048	1436.98
424.49	1363.08
424.932	1356.71
425.374	1337.78
425.816	1363.42
426.258	1387.91
426.699	1404.51
427.141	1384.64
427.582	1404.7
428.024	1401.18
428.465	1392.39
428.907	1358.85
429.348	1343.5
429.789	1341.87
430.231	1313.64
430.672	1331.24
431.113	1299.77
431.554	1278.67
431.995	1243.88
432.436	1199.99
432.877	1172.42
433.318	1151.65
433.759	1144.82
434.2	1146.22
434.64	1132.75
435.081	1135.55
435.522	1073.75
435.962	1034.29
436.403	1010.7
436.843	1026.58
437.284	1005.85
437.724	978.82
438.164	982.94
438.604	963.82
439.045	925.88
439.485	886.43
439.925	867.71
440.365	847.18
440.805	836.56
441.245	825.67
441.685	794.36
442.125	787.43
442.564	791.11
443.004	772.03
443.444	768.69
443.883	770.83
444.323	767.49
444.762	770.03
445.202	781.5
445.641	795.11
446.081	789.45
446.52	796.77
446.959	788.61
447.398	768.9
447.837	760.47
448.276	746.75
448.716	754.04
449.154	760.96
449.593	743.43
450.032	740.98
450.471	727.43
450.91	730.61
451.349	728.78
451.787	728.55
452.226	741.65
452.664	741.77
453.103	745.04
453.541	744.73
453.98	743.89
454.418	749.73
454.856	738.67
455.295	739.77
455.733	745.17
456.171	751.33
456.609	751.47
457.047	751.66
457.485	763.29
457.923	765.47
458.361	755.4
458.798	758.68
459.236	758.27
459.674	764.28
460.111	767.5
460.549	760.55
460.987	757.66
461.424	755.68
461.862	752.13
462.299	740.75
462.736	738.91
463.173	742.42
463.611	735.14
464.048	731.89
464.485	736.89
464.922	729.71
465.359	725.53
465.796	714.98
466.233	710.28
466.67	703.25
467.106	702.01
467.543	695.35
467.98	686.04
468.416	667.71
468.853	662.09
469.29	642.19
469.726	635.53
470.162	618.73
470.599	610.69
471.035	604.57
471.471	589.71
471.907	585.87
472.344	581.77
472.78	583.24
473.216	589.71
473.652	582.71
474.088	581.68
474.523	579.45
474.959	585.22
475.395	580.96
475.831	577.56
476.266	581.68
476.702	580.71
477.138	573.73
477.573	570.47
478.008	568.69
478.444	571.96
478.879	577.38
479.314	580.22
479.75	580.08
480.185	582.75
480.62	587.96
481.055	591.07
481.49	595.66
481.925	605.84
482.36	617.74
482.795	635.75
483.229	653.5
483.664	667.76
484.099	671.46
484.534	683.07
484.968	690.82
485.403	693.66
485.837	694.36
486.271	694.57
486.706	695.48
487.14	688.42
487.574	679.08
488.009	672.89
488.443	668.16
488.877	675.77
489.311	678.44
489.745	686.75
490.179	694.29
490.613	707.5
491.046	713.76
491.48	720.48
491.914	723.3
492.348	729.36
492.781	735.04
493.215	737.73
493.648	740.07
494.082	747.51
494.515	749.31
494.948	758.38
495.382	764.84
495.815	771.15
496.248	778.3
496.681	792.99
497.114	805.79
497.547	818.42
497.98	833.39
498.413	841.73
498.846	853.49
499.279	864.54
499.711	871.53
500.144	875.15
500.577	886.79
501.009	900.03
501.442	910.68
501.874	913.6
502.306	917.29
502.739	925.98
503.171	942.69
503.603	946.38
504.036	956.7
504.468	961.95
504.9	974.04
505.332	981.86
505.764	986.93
506.196	994.37
506.627	1009.34
507.059	1022.29
507.491	1031.89
507.923	1028.53
508.354	1044.11
508.786	1055.18
509.217	1073.69
509.649	1089.31
510.08	1108.45
510.512	1124.13
510.943	1139.27
511.374	1149.54
511.805	1169.54
512.237	1186.82
512.668	1217.97
513.099	1242.97
513.53	1268.66
513.961	1286.75
514.391	1316.32
514.822	1347.13
515.253	1380.21
515.684	1402.37
516.114	1428.7
516.545	1446.77
516.975	1469.38
517.406	1483.69
517.836	1481.44
518.267	1482.26
518.697	1496.34
519.127	1495.75
519.558	1498.97
519.988	1497.81
520.418	1502.64
520.848	1515.22
521.278	1518.84
521.708	1531.24
522.138	1539.32
522.567	1566.34
522.997	1587
523.427	1598.15
523.857	1610.61
524.286	1615.38
524.716	1625.88
525.145	1641.66
525.575	1649.32
526.004	1658.67
526.433	1648.53
526.863	1645.7
527.292	1632.79
527.721	1635.01
528.15	1637.36
528.579	1635.41
529.008	1644.02
529.437	1663.7
529.866	1673.91
530.295	1687.05
530.724	1696.92
531.152	1721.78
531.581	1732.98
532.01	1747.45
532.438	1754.49
532.867	1766.96
533.295	1783.27
533.723	1786.06
534.152	1783.49
534.58	1782.21
535.008	1766.81
535.436	1768.17
535.865	1774.45
536.293	1788.82
536.721	1803.66
537.149	1827.18
537.576	1829.08
538.004	1840.45
538.432	1848.25
538.86	1845.32
539.287	1851.69
539.715	1864.22
540.143	1866.24
540.57	1861.41
540.998	1856.7
541.425	1834.13
541.852	1812.66
542.28	1810.99
542.707	1794.54
543.134	1780.64
543.561	1776.72
543.988	1768.63
544.415	1766.55
544.842	1760.61
545.269	1753.1
545.696	1753.59
546.123	1764.79
546.549	1754.33
546.976	1740.95
547.403	1739.23
547.829	1740.76
548.256	1741.6
548.682	1737.55
549.108	1730.8
549.535	1729.45
549.961	1730.56
550.387	1716.84
550.813	1712.44
551.24	1718.47
551.666	1719.03
552.092	1710.33
552.518	1703.74
552.943	1698.18
553.369	1705.79
553.795	1710.88
554.221	1712.36
554.646	1709.42
555.072	1720.5
555.498	1725.44
555.923	1734.07
556.349	1748.76
556.774	1757.3
557.199	1759.86
557.625	1766.3
558.05	1761.4
558.475	1772.17
558.9	1772.16
559.325	1765.28
559.75	1759.57
560.175	1753.68
560.6	1748.67
561.025	1746.93
561.449	1749.96
561.874	1755.69
562.299	1760.76
562.723	1768.03
563.148	1758.94
563.572	1764.05
563.997	1775.31
564.421	1782.97
564.846	1784.49
565.27	1790.02
565.694	1790.65
566.118	1802.78
566.542	1812.31
566.966	1808.56
567.39	1806.21
567.814	1799.25
568.238	1802.23
568.662	1810.06
569.086	1815.61
569.509	1826.05
569.933	1814.38
570.357	1809.59
570.78	1792.06
571.204	1782.46
571.627	1774.99
572.05	1776.89
572.474	1779.03
572.897	1768.01
573.32	1762.96
573.743	1755.11
574.166	1739.75
574.589	1742.6
575.012	1737.51
575.435	1737.77
575.858	1729.81
576.281	1719.84
576.704	1705.16
577.126	1695.23
577.549	1686.23
577.972	1677.05
578.394	1668.12
578.817	1661.75
579.239	1643
579.661	1630.02
580.084	1616.64
580.506	1605.23
580.928	1601.93
581.35	1592.6
581.772	1588.67
582.194	1575.74
582.616	1564.08
583.038	1550.37
583.46	1540.63
583.882	1537.24
584.303	1543.25
584.725	1539.79
585.147	1541.89
585.568	1555.24
585.99	1569.13
586.411	1576.94
586.833	1593.8
587.254	1597.23
587.675	1613.48
588.096	1626.94
588.518	1624.55
588.939	1607.64
589.36	1605.52
589.781	1595.94
590.202	1567.08
590.623	1558.36
591.043	1557.32
591.464	1544.63
591.885	1541.86
592.305	1535.45
592.726	1521.9
593.147	1523.93
593.567	1518.39
593.987	1511.17
594.408	1506.52
594.828	1504.34
595.248	1496.93
595.669	1477.87
596.089	1471.24
596.509	1463.39
596.929	1449.74
597.349	1451.19
597.769	1439.46
598.189	1434.61
598.608	1436.1
599.028	1438
599.448	1438.71
599.867	1426.75
600.287	1422.25
600.706	1418.81
601.126	1410.35
601.545	1410.36
601.965	1409.24
602.384	1406.4
602.803	1409.41
603.222	1405.26
603.641	1399.7
604.061	1396.63
604.48	1393.77
604.898	1403.24
605.317	1409.09
605.736	1412.01
606.155	1410.75
606.574	1403.52
606.992	1409.38
607.411	1406.66
607.829	1400.19
608.248	1397.72
608.666	1397.52
609.085	1399.21
609.503	1391.94
609.921	1386.28
610.339	1389.21
610.758	1390.45
611.176	1387.26
611.594	1379.73
612.012	1377.71
612.43	1382.52
612.847	1391.37
613.265	1393.64
613.683	1399.85
614.101	1402.69
614.518	1401.45
614.936	1393.45
615.353	1379.44
615.771	1377.45
616.188	1378.77
616.606	1375.39
617.023	1369.22
617.44	1356.42
617.857	1349.36
618.274	1341.29
618.691	1336.23
619.108	1327.19
619.525	1322.2
619.942	1330.35
620.359	1334.68
620.776	1330.45
621.192	1327.77
621.609	1326.13
622.026	1333.12
622.442	1341.15
622.859	1345.12
623.275	1338.55
623.691	1344.87
624.108	1358.15
624.524	1373.47
624.94	1372.94
625.356	1384.71
625.772	1399.26
626.188	1413.02
626.604	1416.26
627.02	1412.32
627.436	1410.45
627.852	1418.56
628.268	1432.36
628.683	1422.55
629.099	1413.88
629.514	1409.21
629.93	1413.1
630.345	1417.4
630.761	1413.54
631.176	1416.55
631.591	1410.5
632.007	1403.32
632.422	1400.21
632.837	1387.19
633.252	1384.78
633.667	1372.98
634.082	1363
634.497	1348.04
634.911	1326.13
635.326	1320.76
635.741	1301.7
636.155	1289.33
636.57	1289.77
636.984	1288.17
637.399	1289.72
637.813	1286.69
638.228	1284.17
638.642	1285.71
639.056	1274.54
639.47	1274.71
639.884	1265.24
640.298	1257.85
640.712	1256.23
641.126	1243.34
641.54	1233.58
641.954	1226.7
642.368	1213.99
642.781	1205.67
643.195	1188.61
643.609	1188.29
644.022	1181.91
644.436	1176.79
644.849	1164.69
645.262	1152.38
645.676	1153.44
646.089	1148.26
646.502	1132.57
646.915	1127.22
647.328	1110.35
647.741	1108.23
648.154	1094.69
648.567	1092.08
648.98	1079.09
649.393	1079.49
649.805	1076.41
650.218	1070.1
650.631	1054.87
651.043	1049.1
651.456	1043.18
651.868	1044.7
652.28	1064.97
652.693	1081.59
653.105	1088.49
653.517	1100.24
653.929	1101.41
654.341	1108.79
654.753	1096.82
655.165	1105.45
655.577	1104.94
655.989	1103.95
656.401	1097.34
656.813	1060.14
657.224	1040
657.636	1012.88
658.047	995.6
658.459	976.35
658.87	967.52
659.282	956.25
659.693	934.15
660.104	918.69
660.515	903.92
660.926	902.24
661.338	900
661.749	893.04
662.159	883.28
662.57	878.75
662.981	875.47
663.392	868.3
663.803	873.1
664.213	873.09
664.624	870.23
665.035	874.5
665.445	861.45
665.855	854.39
666.266	847.12
666.676	844.71
667.086	835.31
667.497	833.35
667.907	827.24
668.317	817.62
668.727	813.54
669.137	814.48
669.547	812.57
669.956	815.5
670.366	817.48
670.776	819.48
671.186	824.98
671.595	828.62
672.005	833.54
672.414	833.63
672.824	833.21
673.233	838.7
673.642	841.61
674.052	844.41
674.461	846.44
674.87	851.28
675.279	848.44
675.688	849.61
676.097	852.22
676.506	849.41
676.915	865.34
677.323	868.34
677.732	867.15
678.141	868.07
678.549	858.25
678.958	858.2
679.366	859.89
679.775	867.04
680.183	880.94
680.592	889.88
681	898.11
681.408	893.37
681.816	904.84
682.224	916.87
682.632	930.01
683.04	965.48
683.448	996.99
683.856	1033.47
684.264	1075.88
684.671	1114.1
685.079	1160.4
685.487	1210.93
685.894	1281.69
686.302	1337.87
686.709	1382.91
687.116	1436.34
687.524	1477.17
687.931	1509.63
688.338	1537.79
688.745	1558.58
689.152	1583.3
689.559	1618.63
689.966	1654.01
690.373	1663.62
690.78	1695.73
691.187	1751.08
691.593	1787.37
692	1816.84
692.407	1868.86
692.813	1933.48
693.22	1983.19
693.626	2033.13
694.032	2071.09
694.439	2135.07
694.845	2180.5
695.251	2242.48
695.657	2293.66
696.063	2379.2
