Data from C_2_DIV_PA_2N_Splice17_12-40-20-719.txt Node
Date: Sat Mar 14 12:40:20 EDT 2020
User: sa697716
Spectrometer: FLMS03696
Trigger mode: 0
Integration Time (sec): 3.180400E-1
Scans to average: 20
Electric dark correction enabled: true
Nonlinearity correction enabled: true
Boxcar width: 5
XAxis mode: Wavelengths
Number of Pixels in Spectrum: 2048
>>>>>Begin Spectral Data<<<<<
187.83	-416718.11
188.298	3075.33
188.766	1594.84
189.233	1405.9
189.701	1921.55
190.169	2677.33
190.636	1029.87
191.104	768.3
191.571	92.2
192.039	-85.94
192.506	-48.94
192.974	438.3
193.441	-502.37
193.908	-94.14
194.375	-31.7
194.842	-1.63
195.31	83.7
195.777	195.27
196.244	384.21
196.711	392.28
197.177	457.28
197.644	614.18
198.111	1082.1
198.578	1531.86
199.045	1234.13
199.511	2011.41
199.978	2325.13
200.445	1994.94
200.911	2205.93
201.378	2460.9
201.844	2268.97
202.31	3917.61
202.777	4123.3
203.243	2274.76
203.709	2150.99
204.176	2546.19
204.642	2091.43
205.108	1943.75
205.574	1576.61
206.04	1413.97
206.506	1326.35
206.972	1228.94
207.438	1191.58
207.903	1341.08
208.369	1182.91
208.835	1175.63
209.301	1254.89
209.766	1266.45
210.232	1261.85
210.697	1558.08
211.163	1915.69
211.628	2865.29
212.094	2430.01
212.559	3022.41
213.024	1902.35
213.49	2362.55
213.955	2321.48
214.42	2218.42
214.885	2085.44
215.35	2012.88
215.815	1992.17
216.28	2139.46
216.745	1744.76
217.21	1915.6
217.675	1755.6
218.14	1987.68
218.604	2223.88
219.069	2592.8
219.534	2807.65
219.998	3306.72
220.463	4056.57
220.927	5013.04
221.392	4765.91
221.856	4889.26
222.32	6178.47
222.785	7676.47
223.249	9747.54
223.713	10956.96
224.177	11017.46
224.642	14132.24
225.106	17441.35
225.57	19132.47
226.034	14310.52
226.497	21853.93
226.961	19765.46
227.425	23119.18
227.889	25715.56
228.353	25774.66
228.816	53330.9
229.28	51073.82
229.744	43177.13
230.207	26375.01
230.671	26027.5
231.134	43116.32
231.597	49878.52
232.061	49986.07
232.524	48848.63
232.987	33754.7
233.45	30490.71
233.914	27383.36
234.377	28110.4
234.84	25774.15
235.303	30385.02
235.766	33909.11
236.229	35071.01
236.691	22117.39
237.154	24888.82
237.617	18759
238.08	19214.12
238.542	22474.19
239.005	16082.57
239.468	15996.25
239.93	15111.27
240.393	13783.36
240.855	12136.15
241.317	12446.95
241.78	15147.49
242.242	15713.22
242.704	17008.57
243.166	14847.69
243.629	13542.93
244.091	15641.35
244.553	17169.99
245.015	18494.63
245.477	23939.36
245.939	35137.54
246.4	37342.12
246.862	36378.44
247.324	34326.53
247.786	38436.38
248.247	50489.61
248.709	52073.47
249.17	38994.79
249.632	36806.47
250.093	42743.31
250.555	36936.5
251.016	22572
251.477	21450.84
251.939	23196.19
252.4	24383.08
252.861	29063.18
253.322	27046.45
253.783	32236.08
254.244	41897.11
254.705	33049.42
255.166	29419.21
255.627	28996.13
256.088	40876.48
256.549	43457.84
257.009	37422.81
257.47	45361.66
257.931	36957.32
258.391	27728.74
258.852	28611.85
259.312	30012.56
259.773	37128.43
260.233	31394.3
260.694	26558.72
261.154	30180.2
261.614	24238.48
262.074	21681.07
262.534	22572.22
262.994	21289.32
263.455	28380.52
263.915	23956.76
264.374	22577.64
264.834	24671.9
265.294	27366.22
265.754	28312.31
266.214	26820.72
266.673	25161.03
267.133	31782.44
267.593	31541.84
268.052	38603.08
268.512	33596.97
268.971	40516.05
269.431	44464.3
269.89	39830.35
270.349	59759.29
270.809	66691.22
271.268	59980.36
271.727	134581.47
272.186	87241.97
272.645	65447.14
273.104	47199.77
273.563	68338.68
274.022	53748.93
274.481	45733.77
274.94	35196.8
275.399	26145.64
275.857	30446.37
276.316	41166.54
276.775	36618.91
277.233	36040.59
277.692	33739.78
278.15	38183.32
278.609	39331.35
279.067	36415.92
279.525	33844.45
279.984	43743.56
280.442	52578.52
280.9	51872.07
281.358	34124.5
281.816	31815.73
282.274	31170.43
282.732	32203.26
283.19	32354.9
283.648	27874.61
284.106	29689.3
284.564	30173.07
285.021	27979.82
285.479	20820.11
285.937	18913.04
286.394	16580.68
286.852	17051.5
287.309	17922.12
287.767	17345.91
288.224	16504.19
288.682	18124.85
289.139	19891.32
289.596	18196.71
290.053	18930.42
290.511	23912.89
290.968	29056.13
291.425	39468.49
291.882	32896.37
292.339	28654.19
292.796	28429.46
293.252	26782.68
293.709	21289.28
294.166	19086.86
294.623	21104.93
295.079	20237.59
295.536	20348.96
295.992	18469.3
296.449	18266.33
296.905	18975.07
297.362	18209.45
297.818	19141.06
298.274	19876.41
298.731	20255.34
299.187	20060.11
299.643	21538.84
300.099	26058.57
300.555	28577.04
301.011	23884.7
301.467	23076.69
301.923	27017.55
302.379	26383.04
302.835	25910.44
303.291	25967.29
303.746	29550.07
304.202	37286.15
304.658	37408.46
305.113	25185.01
305.569	24677.58
306.024	26301.23
306.479	24996.85
306.935	21072.16
307.39	23003.78
307.845	21228.05
308.301	21374.39
308.756	20826.73
309.211	20079.94
309.666	20591.87
310.121	25523.7
310.576	25905.79
311.031	25675.05
311.486	29388.21
311.94	29381.29
312.395	39305.98
312.85	73953.4
313.305	362783.56
313.759	1880534.4
314.214	136411.95
314.668	108104.5
315.123	90999.93
315.577	32653.7
316.032	29100.03
316.486	36513.08
316.94	28832.42
317.394	20091.59
317.849	15597.83
318.303	14785.79
318.757	13960.2
319.211	15434.77
319.665	13526.58
320.119	13703.1
320.572	19653.37
321.026	18349.29
321.48	15283.4
321.934	16654.88
322.387	16680.51
322.841	18068.56
323.295	16244.15
323.748	18718.17
324.202	18993.84
324.655	22821.64
325.108	31933.53
325.562	22555.42
326.015	26836.6
326.468	20298.63
326.921	22724.9
327.374	21200.2
327.827	22107.2
328.28	25048.11
328.733	16798.73
329.186	14795.51
329.639	14112.71
330.092	11903.84
330.545	11361.02
330.997	11470.96
331.45	12555.07
331.903	14717.55
332.355	25347.36
332.808	24589.54
333.26	20258
333.713	21991.26
334.165	22122.81
334.617	29540.72
335.069	23819.78
335.522	43075.34
335.974	47747.57
336.426	43536.99
336.878	30154.71
337.33	15279.1
337.782	14920.12
338.234	18717.7
338.686	22382.97
339.137	26500.25
339.589	24930.86
340.041	19593.42
340.493	16822.08
340.944	17187.73
341.396	18538.68
341.847	15617.97
342.299	18442.77
342.75	22561.31
343.201	19714.79
343.653	22691.5
344.104	27935.67
344.555	22041.69
345.006	34338.59
345.457	26339.52
345.908	20977.26
346.359	19755.03
346.81	16083.08
347.261	16955.46
347.712	16677.76
348.163	17901.21
348.613	18165.68
349.064	16996.33
349.515	14895.7
349.965	15269.11
350.416	18419.6
350.866	20222.52
351.317	22839.72
351.767	37845.35
352.217	47912.75
352.668	39814.54
353.118	36467.95
353.568	35127.13
354.018	27730.89
354.468	29250.41
354.918	20982.6
355.368	18356.41
355.818	25945.72
356.268	74674.42
356.718	312623.53
357.168	77825.17
357.617	39108.58
358.067	43556.68
358.517	40815.19
358.966	47932.47
359.416	53753.95
359.865	58106.19
360.315	69126.14
360.764	32314.1
361.213	18156.16
361.663	17196.5
362.112	21196.17
362.561	34198.58
363.01	25776.94
363.459	21705.48
363.908	23464.38
364.357	19951.21
364.806	33708.04
365.255	23193.14
365.703	21202.36
366.152	21236.25
366.601	17238.92
367.05	14027.08
367.498	12765.57
367.947	13326.94
368.395	13837.34
368.844	12271.5
369.292	14757.46
369.74	10176.98
370.189	15587.74
370.637	18268.65
371.085	15741.45
371.533	19176.03
371.981	18437.82
372.429	17577.96
372.877	18318.59
373.325	15355.46
373.773	15647.09
374.221	13955.69
374.669	17352.79
375.116	14996.29
375.564	15128.96
376.012	16939.41
376.459	13961.23
376.907	16704.37
377.354	20189.34
377.801	18858
378.249	21668.87
378.696	27663.9
379.143	33401.23
379.591	35578.91
380.038	60129.11
380.485	43464.35
380.932	46831.57
381.379	42875.01
381.826	31537.9
382.273	22378.52
382.72	19554.73
383.166	19035.49
383.613	12347.4
384.06	11146.08
384.506	12900.08
384.953	9462.75
385.4	9509.75
385.846	8312.31
386.292	8080.96
386.739	7900.49
387.185	7797.21
387.631	7771.25
388.078	7537.13
388.524	8038.5
388.97	7407.86
389.416	6158.92
389.862	6547.41
390.308	6188.97
390.754	6290.19
391.2	6811.5
391.645	6969.34
392.091	6663.28
392.537	6437.31
392.983	6431.2
393.428	6322.36
393.874	6762.35
394.319	6779.51
394.765	6406.73
395.21	6589.55
395.655	6172.62
396.101	5777.35
396.546	5202.43
396.991	5243.28
397.436	4872.36
397.881	4701.09
398.326	4447.28
398.771	4213.24
399.216	3687.73
399.661	3323.57
400.106	3312.4
400.551	3389.89
400.995	3042.75
401.44	3011.37
401.885	2833.35
402.329	2866.16
402.774	2759.25
403.218	2683.63
403.663	2591.64
404.107	2663.56
404.551	2692.92
404.995	2471.36
405.44	2382.2
405.884	2425.58
406.328	2353.93
406.772	2352.19
407.216	2148.38
407.66	2078.15
408.104	1975.14
408.547	1852.26
408.991	1801.62
409.435	1734.83
409.879	1720.05
410.322	1705.06
410.766	1651.47
411.209	1575.04
411.653	1517.66
412.096	1490.49
412.54	1495.81
412.983	1490.43
413.426	1499.95
413.869	1499.87
414.312	1480.17
414.756	1428.7
415.199	1367.92
415.642	1333.45
416.085	1338.13
416.527	1332.26
416.97	1357.54
417.413	1292.91
417.856	1284.05
418.298	1274.1
418.741	1272.53
419.184	1275.05
419.626	1333.18
420.069	1337.66
420.511	1350.23
420.953	1330.38
421.396	1323.14
421.838	1294.22
422.28	1328.4
422.722	1339.03
423.164	1364.11
423.606	1344.14
424.048	1345.32
424.49	1280.48
424.932	1275.96
425.374	1257.87
425.816	1279.76
426.258	1305.56
426.699	1322.88
427.141	1304.77
427.582	1326.86
428.024	1321.1
428.465	1316.04
428.907	1284.59
429.348	1270.37
429.789	1272.41
430.231	1246.86
430.672	1266.14
431.113	1237.73
431.554	1220.62
431.995	1191.85
432.436	1150.34
432.877	1125.72
433.318	1105.76
433.759	1102.33
434.2	1104.23
434.64	1093.56
435.081	1097.26
435.522	1037.34
435.962	1001.81
436.403	979.98
436.843	993.09
437.284	970.31
437.724	943.3
438.164	945.85
438.604	923.37
439.045	887.41
439.485	849.05
439.925	831
440.365	810
440.805	795.34
441.245	783.12
441.685	754.04
442.125	748.31
442.564	749.63
443.004	730.97
443.444	726.58
443.883	726.48
444.323	720.3
444.762	719.35
445.202	727.88
445.641	740.1
446.081	734.01
446.52	737.35
446.959	728.04
447.398	711.64
447.837	701.5
448.276	688.36
448.716	691.49
449.154	695.35
449.593	679.32
450.032	674.69
450.471	661.18
450.91	659.79
451.349	656.91
451.787	652.47
452.226	660.08
452.664	659.24
453.103	659.25
453.541	657.51
453.98	657
454.418	658.92
454.856	648.35
455.295	645.94
455.733	651.22
456.171	654.07
456.609	655.95
457.047	656.44
457.485	666.72
457.923	667.99
458.361	659.4
458.798	660.07
459.236	658.05
459.674	661.77
460.111	664.32
460.549	658.83
460.987	656.65
461.424	652.67
461.862	648.88
462.299	638.6
462.736	637.95
463.173	639.74
463.611	635.18
464.048	635.2
464.485	641.2
464.922	635.46
465.359	630.92
465.796	625.99
466.233	622.4
466.67	617.9
467.106	615.93
467.543	609.77
467.98	602.11
468.416	584.29
468.853	578.26
469.29	560.41
469.726	554.43
470.162	539.95
470.599	529.2
471.035	524.99
471.471	510.58
471.907	507.53
472.344	503.41
472.78	505.4
473.216	512.1
473.652	506.33
474.088	504.85
474.523	503.29
474.959	508.06
475.395	503.17
475.831	499.74
476.266	502.77
476.702	500.7
477.138	496.16
477.573	494.21
478.008	491.42
478.444	494.24
478.879	498.9
479.314	500.99
479.75	500.82
480.185	503.18
480.62	506.45
481.055	508.65
481.49	512.9
481.925	519.72
482.36	528.89
482.795	543.29
483.229	557.05
483.664	568.26
484.099	569.53
484.534	577.45
484.968	582.95
485.403	584.42
485.837	582.53
486.271	580.69
486.706	579.95
487.14	572.07
487.574	561.84
488.009	555.32
488.443	549.39
488.877	554.91
489.311	554.99
489.745	559.85
490.179	563.64
490.613	573.9
491.046	576.67
491.48	579.03
491.914	577.29
492.348	579.9
492.781	581.28
493.215	580.45
493.648	578.03
494.082	580.03
494.515	577.45
494.948	581.22
495.382	580.91
495.815	581.36
496.248	583.57
496.681	590.77
497.114	596.22
497.547	601.2
497.98	608.13
498.413	609.64
498.846	613.75
499.279	617.39
499.711	616.07
500.144	613.63
500.577	617.68
501.009	621.02
501.442	624.48
501.874	622.07
502.306	618.5
502.739	620.09
503.171	626.22
503.603	622.8
504.036	624.26
504.468	623.14
504.9	626.4
505.332	625.38
505.764	623.44
506.196	622.53
506.627	626.65
507.059	630.83
507.491	630.49
507.923	624.82
508.354	630.63
508.786	633.06
509.217	640.59
509.649	645.64
510.08	653.16
510.512	660.12
510.943	666.06
511.374	669.66
511.805	678.44
512.237	685.86
512.668	700.78
513.099	712.5
513.53	724.86
513.961	733.59
514.391	749.33
514.822	767.04
515.253	784.19
515.684	795.22
516.114	808.73
516.545	817.98
516.975	830.64
517.406	838.66
517.836	837.61
518.267	838.95
518.697	847.17
519.127	847.47
519.558	848.39
519.988	848.51
520.418	852.1
520.848	859.95
521.278	863.53
521.708	896.37
522.138	903.06
522.567	919.8
522.997	933.47
523.427	941.62
523.857	951.33
524.286	957.59
524.716	966.94
525.145	978.81
525.575	986.29
526.004	994.07
526.433	966.55
526.863	965.67
527.292	962.16
527.721	966.35
528.15	969.82
528.579	970.09
529.008	976.47
529.437	988.25
529.866	996.39
530.295	1006.2
530.724	1014.67
531.152	1031.17
531.581	1040.87
532.01	1050.55
532.438	1056.1
532.867	1064.89
533.295	1077.04
533.723	1081.4
534.152	1081.75
534.58	1082.57
535.008	1074.3
535.436	1077.09
535.865	1082.27
536.293	1090.69
536.721	1100.75
537.149	1116.37
537.576	1119.48
538.004	1127.47
538.432	1131.96
538.86	1131.68
539.287	1135.49
539.715	1143.71
540.143	1144.68
540.57	1142.72
540.998	1141.73
541.425	1129.59
541.852	1117.22
542.28	1116.25
542.707	1107.02
543.134	1099.71
543.561	1097.88
543.988	1094.26
544.415	1094.52
544.842	1091.47
545.269	1087.82
545.696	1089.26
546.123	1097.31
546.549	1091.44
546.976	1084.19
547.403	1084.09
547.829	1085.81
548.256	1087.13
548.682	1085.34
549.108	1082.28
549.535	1082.63
549.961	1083.85
550.387	1075.64
550.813	1072.86
551.24	1076.35
551.666	1077.02
552.092	1071.12
552.518	1066.82
552.943	1063.87
553.369	1067.57
553.795	1070.31
554.221	1070.91
554.646	1069.65
555.072	1077.35
555.498	1078.91
555.923	1084.97
556.349	1094.03
556.774	1099.03
557.199	1100.05
557.625	1103.17
558.05	1100.41
558.475	1105.47
558.9	1104.73
559.325	1100.32
559.75	1095.77
560.175	1092.56
560.6	1088.6
561.025	1087.66
561.449	1087.88
561.874	1091.08
562.299	1093.64
562.723	1097.94
563.148	1091.66
563.572	1093.99
563.997	1099.72
564.421	1102.78
564.846	1102.22
565.27	1105.44
565.694	1103.49
566.118	1110.97
566.542	1116.07
566.966	1112.56
567.39	1110.33
567.814	1104.43
568.238	1105.06
568.662	1107.83
569.086	1110.23
569.509	1115.19
569.933	1106.52
570.357	1102.25
570.78	1090.31
571.204	1083.4
571.627	1077.81
572.05	1077.12
572.474	1078.07
572.897	1070.65
573.32	1066.58
573.743	1060.43
574.166	1050.49
574.589	1049.87
575.012	1046.66
575.435	1046.22
575.858	1041.07
576.281	1033.79
576.704	1024.26
577.126	1017.74
577.549	1011.12
577.972	1004.97
578.394	999.05
578.817	995.9
579.239	984.56
579.661	977.21
580.084	968.93
580.506	960.84
580.928	958.7
581.35	953.2
581.772	950.28
582.194	942.73
582.616	935.8
583.038	927.49
583.46	920.79
583.882	920.05
584.303	921.7
584.725	918.62
585.147	923.86
585.568	932.5
585.99	940.3
586.411	945.24
586.833	955.18
587.254	957.24
587.675	966.81
588.096	974.95
588.518	972.93
588.939	964.48
589.36	964
589.781	954.03
590.202	938.23
590.623	932.9
591.043	931.78
591.464	924.65
591.885	922.98
592.305	919.81
592.726	912.01
593.147	913.03
593.567	909.92
593.987	905.51
594.408	901.66
594.828	898.56
595.248	895.76
595.669	885.09
596.089	880.59
596.509	876.39
596.929	868.09
597.349	868.76
597.769	862.25
598.189	858.41
598.608	860.39
599.028	863.38
599.448	863.54
599.867	856.11
600.287	852.77
600.706	850.94
601.126	845.54
601.545	845.92
601.965	845.2
602.384	842.03
602.803	843.93
603.222	840.79
603.641	836.57
604.061	835.31
604.48	832.65
604.898	839.14
605.317	842.55
605.736	844.61
606.155	844.4
606.574	839.24
606.992	843.05
607.411	841.2
607.829	836.86
608.248	835.37
608.666	834.29
609.085	834.74
609.503	828.62
609.921	825.88
610.339	827.08
610.758	825.54
611.176	823.56
611.594	819.08
612.012	816.93
612.43	819.65
612.847	823.89
613.265	825.57
613.683	829.87
614.101	832.35
614.518	829.59
614.936	824.73
615.353	817.28
615.771	816.67
616.188	817.28
616.606	816.14
617.023	812.85
617.44	805.01
617.857	800.59
618.274	794.81
618.691	792.09
619.108	787.27
619.525	783.77
619.942	788.33
620.359	790.16
620.776	787.27
621.192	786.36
621.609	785.78
622.026	790.75
622.442	795.96
622.859	798.65
623.275	794.24
623.691	798.23
624.108	805.87
624.524	815.19
624.94	815.62
625.356	823.43
625.772	831.16
626.188	838.02
626.604	838.89
627.02	835.53
627.436	835.01
627.852	840.75
628.268	849.36
628.683	843.59
629.099	838.76
629.514	835.89
629.93	837.88
630.345	841.29
630.761	839.07
631.176	842.13
631.591	840.71
632.007	837.91
632.422	836.24
632.837	828.79
633.252	829.04
633.667	823.01
634.082	818.44
634.497	811.92
634.911	801.22
635.326	800.76
635.741	790.9
636.155	784.75
636.57	788.25
636.984	791.25
637.399	796.1
637.813	798.15
638.228	801.16
638.642	805.84
639.056	801.34
639.47	803.72
639.884	800.97
640.298	800.82
640.712	803.69
641.126	797.01
641.54	794.09
641.954	792.16
642.368	787.39
642.781	785.7
643.195	777.72
643.609	781.93
644.022	781.46
644.436	781.11
644.849	775.65
645.262	770.33
645.676	775.47
646.089	773.6
646.502	767.4
646.915	766.13
647.328	756.18
647.741	757.53
648.154	750.85
648.567	752.33
648.98	746.68
649.393	749.38
649.805	749.54
650.218	745.34
650.631	736.07
651.043	732.38
651.456	728.84
651.868	729.53
652.28	741.97
652.693	752.13
653.105	756.07
653.517	763.29
653.929	764.88
654.341	769.51
654.753	761.71
655.165	767.67
655.577	766.46
655.989	765.39
656.401	761.19
656.813	737.64
657.224	725.22
657.636	706.32
658.047	695.9
658.459	683.31
658.87	678.72
659.282	673.97
659.693	662.04
660.104	654.48
660.515	646.36
660.926	649.55
661.338	649.66
661.749	647.36
662.159	643.97
662.57	642.57
662.981	642.29
663.392	639.98
663.803	644.65
664.213	645.45
664.624	645.83
665.035	652.03
665.445	643.05
665.855	641.26
666.266	638
666.676	638.17
667.086	633.41
667.497	634.82
667.907	631.34
668.317	625.12
668.727	625.1
669.137	624.92
669.547	623.82
669.956	626.34
670.366	627.83
670.776	630.55
671.186	634.76
671.595	639.29
672.005	641.81
672.414	641.95
672.824	641.08
673.233	642.8
673.642	645.14
674.052	648.09
674.461	650.43
674.87	654.37
675.279	651.29
675.688	651.92
676.097	651.91
676.506	649.19
676.915	660.25
677.323	660.86
677.732	658.56
678.141	658.02
678.549	646.31
678.958	643.2
679.366	640.67
679.775	642.7
680.183	649.35
680.592	650.74
681	652.28
681.408	642.97
681.816	646.06
682.224	648.43
682.632	652.74
683.04	672.41
683.448	686.2
683.856	704.47
684.264	726.08
684.671	743.89
685.079	767.49
685.487	791.5
685.894	828.68
686.302	855.78
686.709	876.32
687.116	898.84
687.524	915.2
687.931	928.72
688.338	935.23
688.745	936.69
689.152	940.78
689.559	953.17
689.966	966.95
690.373	965.68
690.78	977.1
691.187	1002.55
691.593	1017.69
692	1029.98
692.407	1053.55
692.813	1089.65
693.22	1116.22
693.626	1143.38
694.032	1162.61
694.439	1200.35
694.845	1227.82
695.251	1266.09
695.657	1298.94
696.063	1352.3
696.469	1390.88
696.875	1428.72
697.281	1447.03
697.687	1473.18
698.093	1495.98
698.498	1541.17
698.904	1573.55
699.31	1625.37
699.715	1666.13
700.12	1722.88
700.526	1738.06
700.931	1782.7
701.337	1819
701.742	1843.46
702.147	1898.56
702.552	1922.89
702.957	1965.13
