Data from C_2_DEC_OH_4N_Splice17_12-04-49-621.txt Node
Date: Sat Mar 14 12:04:49 EDT 2020
User: sa697716
Spectrometer: FLMS03696
Trigger mode: 0
Integration Time (sec): 3.180400E-1
Scans to average: 20
Electric dark correction enabled: true
Nonlinearity correction enabled: true
Boxcar width: 5
XAxis mode: Wavelengths
Number of Pixels in Spectrum: 2048
>>>>>Begin Spectral Data<<<<<
187.83	-312695.78
188.298	2432.88
188.766	1222.69
189.233	1109.79
189.701	1527.27
190.169	2164.05
190.636	850.7
191.104	714.24
191.571	114.55
192.039	-76.05
192.506	-149.27
192.974	396.34
193.441	-315.76
193.908	-148.3
194.375	-51.98
194.842	14.37
195.31	17.37
195.777	107.73
196.244	276.04
196.711	319.58
197.177	400.75
197.644	564.96
198.111	1043.84
198.578	1439.46
199.045	1185.29
199.511	1952.05
199.978	2245.82
200.445	1933.84
200.911	2173.52
201.378	2399.35
201.844	2176.58
202.31	3791.43
202.777	3933.99
203.243	2181.59
203.709	2121.12
204.176	2527.98
204.642	2075.91
205.108	1964.59
205.574	1604.62
206.04	1437.7
206.506	1358.83
206.972	1271.88
207.438	1211.28
207.903	1377.54
208.369	1209.31
208.835	1185.78
209.301	1234.9
209.766	1257.79
210.232	1230.32
210.697	1518.51
211.163	1883.11
211.628	2862.52
212.094	2408.97
212.559	2979.48
213.024	1851.84
213.49	2277.79
213.955	2223
214.42	2168.54
214.885	2051.08
215.35	1978.59
215.815	1929.69
216.28	2038.99
216.745	1636.31
217.21	1780.74
217.675	1629.04
218.14	1831.14
218.604	2021
219.069	2306.69
219.534	2439.05
219.998	2813.34
220.463	3397.47
220.927	4166.91
221.392	3934.19
221.856	4001.81
222.32	5025.95
222.785	6196.15
223.249	7802.14
223.713	8738.24
224.177	8729.6
224.642	11175.44
225.106	13739.3
225.57	15008.52
226.034	11174.9
226.497	17008.62
226.961	15394.31
227.425	17945.08
227.889	19842.23
228.353	19848.45
228.816	40883.68
229.28	39188.61
229.744	32982.33
230.207	20117.23
230.671	19802.77
231.134	32698.75
231.597	37728.56
232.061	37704.56
232.524	36701.52
232.987	25354.39
233.45	22870.04
233.914	20530.22
234.377	21051.67
234.84	19297.07
235.303	22711.78
235.766	25396.13
236.229	26266.28
236.691	16545.9
237.154	18597.94
237.617	14045.31
238.08	14400.12
238.542	16844.31
239.005	12045.52
239.468	11954.95
239.93	11265.89
240.393	10240.21
240.855	8986.14
241.317	9202.39
241.78	11188.16
242.242	11576.42
242.704	12498.29
243.166	10882.59
243.629	9900.06
244.091	11431.23
244.553	12539.3
245.015	13518
245.477	17518.32
245.939	25701.11
246.4	27359.27
246.862	26644.56
247.324	25135.38
247.786	28148.3
248.247	36897.42
248.709	38079.56
249.17	28535
249.632	26954.29
250.093	31291.94
250.555	27070.23
251.016	16532.46
251.477	15679.95
251.939	16941.76
252.4	17790.99
252.861	21177.94
253.322	19763.45
253.783	23538.92
254.244	30495.4
254.705	24049.97
255.166	21367.34
255.627	21041.32
256.088	29725.98
256.549	31644.22
257.009	27251.27
257.47	33112.78
257.931	27020.59
258.391	20274.72
258.852	20952.12
259.312	22058.6
259.773	27309.08
260.233	23156.85
260.694	19587.73
261.154	22261.26
261.614	17915.6
262.074	16087.8
262.534	16754.22
262.994	15823.98
263.455	21114.4
263.915	17812.37
264.374	16777.34
264.834	18357.34
265.294	20376.27
265.754	21139.66
266.214	20052.66
266.673	18841.81
267.133	23819.41
267.593	23691.7
268.052	29036.17
268.512	25315.8
268.971	30628.26
269.431	33663.02
269.89	30175.06
270.349	45310.38
270.809	50611.4
271.268	45582.68
271.727	102297.95
272.186	66344.75
272.645	49808.73
273.104	35973.54
273.563	52109.19
274.022	41032.18
274.481	34980.53
274.94	26991.68
275.399	20094.37
275.857	23424.82
276.316	31726.89
276.775	28267.1
277.233	27853.72
277.692	26116.17
278.15	29622.51
278.609	30550.92
279.067	28312.64
279.525	26340.65
279.984	34075.45
280.442	41009.99
280.9	40514.79
281.358	26688.2
281.816	24893.42
282.274	24430.53
282.732	25270.97
283.19	25423.02
283.648	21953.79
284.106	23403.91
284.564	23821.45
285.021	22119.41
285.479	16496.45
285.937	15018.95
286.394	13191.48
286.852	13606.11
287.309	14317.63
287.767	13857.08
288.224	13180.18
288.682	14490.03
289.139	15937.71
289.596	14610.18
290.053	15177.7
290.511	19177.31
290.968	23310.96
291.425	31672.9
291.882	26402.62
292.339	23025.66
292.796	22894.08
293.252	21598.05
293.709	17170.92
294.166	15392.45
294.623	17037.56
295.079	16400.44
295.536	16497.72
295.992	14982.42
296.449	14833.18
296.905	15406.96
297.362	14774.44
297.818	15526.15
298.274	16143.93
298.731	16472.4
299.187	16322.17
299.643	17526.65
300.099	21197.27
300.555	23260.3
301.011	19437.5
301.467	18764.15
301.923	21997.58
302.379	21503.14
302.835	21161.32
303.291	21181.03
303.746	24112.99
304.202	30473.04
304.658	30580.53
305.113	20596.14
305.569	20203
306.024	21567.19
306.479	20515.18
306.935	17299.9
307.39	18900.81
307.845	17451.21
308.301	17572.68
308.756	17122.6
309.211	16508.55
309.666	16918.13
310.121	20997.96
310.576	21310.44
311.031	21124
311.486	24227.2
311.94	24211.18
312.395	32414.71
312.85	61053.54
313.305	299826.14
313.759	1554435.16
314.214	112835.03
314.668	89692.22
315.123	75555.64
315.577	27163.23
316.032	24225.22
316.486	30384.94
316.94	24044.41
317.394	16754.63
317.849	13017.93
318.303	12335.53
318.757	11628.89
319.211	12860.15
319.665	11251.97
320.119	11403.46
320.572	16327.86
321.026	15252.97
321.48	12700.4
321.934	13857.4
322.387	13883.99
322.841	15005.61
323.295	13507.61
323.748	15603.73
324.202	15829.52
324.655	19044.12
325.108	26595.28
325.562	18832.17
326.015	22438.39
326.468	17004.82
326.921	18990.06
327.374	17739.63
327.827	18486.54
328.28	20938.06
328.733	14023.84
329.186	12329.69
329.639	11753.69
330.092	9905.54
330.545	9440.19
330.997	9506.15
331.45	10379.24
331.903	12179.86
332.355	20950.95
332.808	20381.36
333.26	16837.91
333.713	18283.27
334.165	18460.19
334.617	24655.48
335.069	19909.15
335.522	36019.02
335.974	39956.45
336.426	36477.13
336.878	25330.61
337.33	12844.49
337.782	12520.11
338.234	15672.85
338.686	18778.22
339.137	22239.89
339.589	20924.88
340.041	16427.48
340.493	14119.6
340.944	14441.39
341.396	15570.17
341.847	13092.38
342.299	15467.28
342.75	18894.97
343.201	16518.95
343.653	19026.17
344.104	23391.57
344.555	18440.06
345.006	28765.46
345.457	22054.52
345.908	17543.12
346.359	16528.28
346.81	13458.38
347.261	14187.53
347.712	13995.05
348.163	15018.84
348.613	15196.91
349.064	14189.34
349.515	12436.59
349.965	12766.95
350.416	15361.51
350.866	16893.81
351.317	19099.23
351.767	31678.65
352.217	40078.94
352.668	33279.31
353.118	30500.62
353.568	29394.69
354.018	23277.66
354.468	24592.22
354.918	17640.47
355.368	15448.23
355.818	21808.33
356.268	62767.89
356.718	262408.66
357.168	65291.16
357.617	32788.63
358.067	36451.81
358.517	34160.76
358.966	40031.71
359.416	44827.28
359.865	48442.93
360.315	57711.72
360.764	26983.15
361.213	15133.94
361.663	14315.29
362.112	17692.5
362.561	28595.78
363.01	21572.24
363.459	18197.2
363.908	19736.31
364.357	16793.55
364.806	28339.37
365.255	19510.71
365.703	17861.28
366.152	17884.81
366.601	14551.2
367.05	11829.28
367.498	10741.64
367.947	11240.53
368.395	11713.52
368.844	10364.04
369.292	12480.07
369.74	8634.59
370.189	13191.59
370.637	15480.86
371.085	13361.61
371.533	16234.92
371.981	15586.13
372.429	14853.17
372.877	15485.7
373.325	12951.23
373.773	13207.19
374.221	11735.42
374.669	14541.03
375.116	12558.92
375.564	12643.43
376.012	14112.33
376.459	11656.22
376.907	13910.04
377.354	16824.17
377.801	15680.42
378.249	17963.16
378.696	22924.39
379.143	27811.42
379.591	29619.72
380.038	50183.46
380.485	36280.43
380.932	39158.23
381.379	35701.19
381.826	26346.44
382.273	18707.87
382.72	16291.39
383.166	15882.88
383.613	10292.25
384.06	9273.42
384.506	10722.43
384.953	7854.88
385.4	7886.8
385.846	6914.94
386.292	6736.65
386.739	6579.28
387.185	6492.59
387.631	6500.4
388.078	6314.03
388.524	6767.11
388.97	6242.94
389.416	5204.56
389.862	5532.06
390.308	5248.73
390.754	5325.44
391.2	5780.83
391.645	5921.15
392.091	5677.22
392.537	5492.37
392.983	5491.9
393.428	5399.15
393.874	5780.05
394.319	5805.89
394.765	5512
395.21	5658.07
395.655	5304.41
396.101	4974.46
396.546	4485.81
396.991	4517.41
397.436	4193.97
397.881	4054.08
398.326	3833.28
398.771	3629.94
399.216	3173.77
399.661	2857.36
400.106	2851.95
400.551	2924.69
400.995	2625.57
401.44	2600.59
401.885	2447.94
402.329	2477.08
402.774	2377.64
403.218	2305.63
403.663	2225.77
404.107	2290.1
404.551	2311.69
404.995	2120.56
405.44	2040.78
405.884	2071.93
406.328	2007.3
406.772	2004.52
407.216	1827.32
407.66	1767.44
408.104	1680.66
408.547	1573.17
408.991	1525.09
409.435	1470.56
409.879	1454.88
410.322	1441.09
410.766	1395.5
411.209	1328.97
411.653	1274.29
412.096	1250.6
412.54	1251.51
412.983	1244.68
413.426	1250.31
413.869	1247.45
414.312	1223.12
414.756	1178.01
415.199	1121.86
415.642	1089.6
416.085	1091.59
416.527	1086.1
416.97	1103.85
417.413	1048.16
417.856	1037.93
418.298	1028.04
418.741	1023.71
419.184	1025.17
419.626	1069.16
420.069	1073.71
420.511	1078.59
420.953	1055.58
421.396	1047.07
421.838	1020.8
422.28	1046.93
422.722	1053.48
423.164	1069.59
423.606	1052.49
424.048	1049.05
424.49	995.09
424.932	988.43
425.374	977.19
425.816	994.3
426.258	1011.62
426.699	1020.94
427.141	1006.47
427.582	1021.65
428.024	1016.94
428.465	1009.09
428.907	985.55
429.348	973.84
429.789	971.7
430.231	948.21
430.672	956.71
431.113	934.5
431.554	919.03
431.995	894.21
432.436	858.45
432.877	836.31
433.318	821.76
433.759	815.05
434.2	814.98
434.64	806.57
435.081	809.41
435.522	769.91
435.962	739.79
436.403	726.25
436.843	733.23
437.284	717.28
437.724	696.74
438.164	698.47
438.604	682.34
439.045	654.82
439.485	626.52
439.925	612.75
440.365	597.17
440.805	590.38
441.245	579.09
441.685	557.54
442.125	553.67
442.564	555.16
443.004	540
443.444	537.66
443.883	538.06
444.323	532.38
444.762	529.51
445.202	534.54
445.641	541.77
446.081	538
446.52	541.96
446.959	534.97
447.398	522.77
447.837	516.48
448.276	507.62
448.716	512.79
449.154	515.85
449.593	504.5
450.032	501.57
450.471	490.18
450.91	490.64
451.349	490.1
451.787	485.8
452.226	492.83
452.664	493.28
453.103	492.72
453.541	490.37
453.98	490.29
454.418	492.45
454.856	484.64
455.295	486.24
455.733	489.89
456.171	490.88
456.609	494.03
457.047	493.8
457.485	501.17
457.923	502.43
458.361	494.57
458.798	495.85
459.236	496.12
459.674	499.4
460.111	500.83
460.549	495.8
460.987	494.5
461.424	491.6
461.862	489.15
462.299	482.51
462.736	483.21
463.173	486.01
463.611	481.63
464.048	480.32
464.485	485.48
464.922	481.07
465.359	478.44
465.796	475.44
466.233	472.51
466.67	469.11
467.106	467.61
467.543	462.12
467.98	456.06
468.416	444.48
468.853	441.44
469.29	427.88
469.726	423.44
470.162	412.98
470.599	405.17
471.035	402.03
471.471	392.28
471.907	389.41
472.344	387.03
472.78	388.8
473.216	393.04
473.652	388.34
474.088	387.99
474.523	387.33
474.959	391.17
475.395	388.15
475.831	387.2
476.266	388.35
476.702	387.28
477.138	383.18
477.573	381.11
478.008	379.64
478.444	380.93
478.879	384.99
479.314	386.12
479.75	386.02
480.185	387.08
480.62	389.03
481.055	391.91
481.49	394.92
481.925	400.67
482.36	408.62
482.795	420.2
483.229	431.76
483.664	440.03
484.099	442.37
484.534	449.27
484.968	454.38
485.403	456.14
485.837	455.37
486.271	455.36
486.706	455.99
487.14	450.63
487.574	443.22
488.009	440.11
488.443	435.72
488.877	440.05
489.311	441.52
489.745	447.04
490.179	451.03
490.613	460.18
491.046	464.22
491.48	468.36
491.914	469.99
492.348	474.51
492.781	477.78
493.215	479.84
493.648	481.54
494.082	485.25
494.515	486.44
494.948	493.18
495.382	496.48
495.815	500.04
496.248	504.58
496.681	513.69
497.114	522.31
497.547	529.97
497.98	541.2
498.413	547.15
498.846	556.34
499.279	562.86
499.711	566.64
500.144	570.32
500.577	579.62
501.009	588.55
501.442	597.22
501.874	599.75
502.306	602.53
502.739	610.35
503.171	622.42
503.603	626.34
504.036	634.89
504.468	641.76
504.9	651.88
505.332	657.7
505.764	663.41
506.196	671.3
506.627	684.81
507.059	697.87
507.491	705.74
507.923	706.45
508.354	719.34
508.786	729.88
509.217	744.08
509.649	757.43
510.08	774.51
510.512	788.83
510.943	802.05
511.374	812.01
511.805	827.88
512.237	844.06
512.668	869.58
513.099	891.96
513.53	914.3
513.961	932.49
514.391	958.82
514.822	985.95
515.253	1014.85
515.684	1035.23
516.114	1059.71
516.545	1078.75
516.975	1100.77
517.406	1116.3
517.836	1119.88
518.267	1126.39
518.697	1142.48
519.127	1147.11
519.558	1154.78
519.988	1158.52
520.418	1167.34
520.848	1182.4
521.278	1189.34
521.708	1209.53
522.138	1220.99
522.567	1246.16
522.997	1267.12
523.427	1279.69
523.857	1293.08
524.286	1300.72
524.716	1313.4
525.145	1329.11
525.575	1337.77
526.004	1349.05
526.433	1338.54
526.863	1339.19
527.292	1331.05
527.721	1335.15
528.15	1339.74
528.579	1340.74
529.008	1350.7
529.437	1369.55
529.866	1380.35
530.295	1394.93
530.724	1406.7
531.152	1428.92
531.581	1440.94
532.01	1456.59
532.438	1464.39
532.867	1476.64
533.295	1491.88
533.723	1496.25
534.152	1495.21
534.58	1495.29
535.008	1482.68
535.436	1484.7
535.865	1491.61
536.293	1503.63
536.721	1517.3
537.149	1539.6
537.576	1542.87
538.004	1554.43
538.432	1561.84
538.86	1561.77
539.287	1569.86
539.715	1582.42
540.143	1585.97
540.57	1584.95
540.998	1582.76
541.425	1564.28
541.852	1547.11
542.28	1546.52
542.707	1533.57
543.134	1522.64
543.561	1520.06
543.988	1513.94
544.415	1512.86
544.842	1508.34
545.269	1502
545.696	1503.43
546.123	1514.21
546.549	1506.2
546.976	1495.87
547.403	1494.87
547.829	1497.01
548.256	1497.86
548.682	1495.82
549.108	1490.38
549.535	1489.46
549.961	1491.11
550.387	1479.68
550.813	1475.63
551.24	1480.07
551.666	1481.21
552.092	1473.6
552.518	1467.72
552.943	1463.82
553.369	1468.42
553.795	1473
554.221	1473.95
554.646	1470.28
555.072	1479.97
555.498	1482.74
555.923	1490.02
556.349	1501.72
556.774	1508.25
557.199	1509.75
557.625	1513.22
558.05	1509.2
558.475	1518.06
558.9	1518.26
559.325	1512.08
559.75	1507.38
560.175	1502.62
560.6	1498.11
561.025	1496.06
561.449	1497.96
561.874	1503.16
562.299	1508.13
562.723	1513.76
563.148	1505.31
563.572	1507.74
563.997	1516.34
564.421	1520.16
564.846	1521.4
565.27	1524.59
565.694	1523.16
566.118	1533.43
566.542	1539.69
566.966	1533.78
567.39	1531.1
567.814	1523.36
568.238	1523.3
568.662	1528.5
569.086	1531.95
569.509	1539.5
569.933	1528.29
570.357	1523.56
570.78	1506.8
571.204	1496.24
571.627	1488.02
572.05	1487.14
572.474	1487.59
572.897	1478.65
573.32	1472.71
573.743	1463.98
574.166	1448.91
574.589	1447.65
575.012	1441.39
575.435	1440.77
575.858	1434.12
576.281	1424.91
576.704	1411.47
577.126	1401.1
577.549	1390.9
577.972	1382.56
578.394	1373.75
578.817	1367.52
579.239	1352.56
579.661	1341.12
580.084	1327.44
580.506	1315.58
580.928	1312.51
581.35	1303.81
581.772	1300.11
582.194	1289.75
582.616	1279.05
583.038	1268.87
583.46	1258.86
583.882	1256.18
584.303	1258.69
584.725	1255.48
585.147	1258.75
585.568	1267.72
585.99	1277.13
586.411	1282.81
586.833	1294.59
587.254	1296.6
587.675	1307.67
588.096	1318.59
588.518	1313.64
588.939	1300.62
589.36	1298.15
589.781	1288.14
590.202	1265.25
590.623	1257.65
591.043	1255.1
591.464	1245.62
591.885	1242.32
592.305	1236.67
592.726	1225.7
593.147	1226.65
593.567	1222.83
593.987	1217.62
594.408	1212.94
594.828	1210.39
595.248	1206.11
595.669	1191.45
596.089	1184.74
596.509	1179.68
596.929	1169.25
597.349	1169.56
597.769	1161.5
598.189	1155.4
598.608	1156.05
599.028	1157.86
599.448	1157.91
599.867	1147.61
600.287	1143.95
600.706	1141.07
601.126	1132.41
601.545	1131.28
601.965	1129.62
602.384	1125.61
602.803	1128.42
603.222	1123.62
603.641	1118.22
604.061	1115.76
604.48	1112.43
604.898	1118.38
605.317	1121.71
605.736	1123
606.155	1120.74
606.574	1113.49
606.992	1117.53
607.411	1112.75
607.829	1106.34
608.248	1103.15
608.666	1099.78
609.085	1098.2
609.503	1090.38
609.921	1085.42
610.339	1086.8
610.758	1085.15
611.176	1081.25
611.594	1073.95
612.012	1071.57
612.43	1074.34
612.847	1079.3
613.265	1080.96
613.683	1084.83
614.101	1087.03
614.518	1084.29
614.936	1075.81
615.353	1065.15
615.771	1063.13
616.188	1062.95
616.606	1060.21
617.023	1054.83
617.44	1043.95
617.857	1037.72
618.274	1031.32
618.691	1025.9
619.108	1017.64
619.525	1012.53
619.942	1017.32
620.359	1019
620.776	1014.63
621.192	1011.26
621.609	1009.5
622.026	1013.58
622.442	1017.67
622.859	1019.93
623.275	1013.63
623.691	1018
624.108	1026.96
624.524	1039.2
624.94	1039.23
625.356	1048.17
625.772	1058.96
626.188	1069.32
626.604	1071.9
627.02	1070.52
627.436	1069.12
627.852	1076.22
628.268	1086.49
628.683	1080.38
629.099	1072.56
629.514	1069.46
629.93	1071.77
630.345	1074.92
630.761	1069.91
631.176	1071.91
631.591	1066.2
632.007	1061.91
632.422	1059.88
632.837	1050.55
633.252	1049.02
633.667	1041.07
634.082	1033.07
634.497	1023.03
634.911	1006.87
635.326	1004.73
635.741	989.98
636.155	982.18
636.57	982.4
636.984	980.64
637.399	981.18
637.813	979.39
638.228	977.14
638.642	979.36
639.056	969.48
639.47	969.19
639.884	961.32
640.298	955.91
640.712	952.44
641.126	940.19
641.54	932.99
641.954	926.81
642.368	915.67
642.781	908.1
643.195	892.36
643.609	892.37
644.022	885.88
644.436	880.24
644.849	869.09
645.262	858.83
645.676	859.43
646.089	853.39
646.502	840.97
646.915	835.03
647.328	820.56
647.741	818.05
648.154	806.72
648.567	804.66
648.98	794.08
649.393	793.37
649.805	790.24
650.218	783.15
650.631	770.09
651.043	764.35
651.456	759
651.868	758.9
652.28	771.92
652.693	780.59
653.105	784.17
653.517	789.28
653.929	789.57
654.341	792.77
654.753	782.77
655.165	787.42
655.577	784.73
655.989	780.72
656.401	773.71
656.813	744.58
657.224	728.33
657.636	704.76
658.047	691.89
658.459	676.32
658.87	667.89
659.282	658.8
659.693	642.9
660.104	631.53
660.515	620.53
660.926	617.01
661.338	613.77
661.749	607.47
662.159	600.64
662.57	595.49
662.981	590.57
663.392	584.56
663.803	585.53
664.213	581.57
664.624	577.37
665.035	578.2
665.445	567.89
665.855	562.47
666.266	557.38
666.676	554.85
667.086	548.26
667.497	546.56
667.907	542.66
668.317	535.46
668.727	533.73
669.137	532.34
669.547	530.18
669.956	531.88
670.366	532.62
670.776	532.25
671.186	533.96
671.595	535.75
672.005	538.88
672.414	536.84
672.824	535.99
673.233	537.84
673.642	540.2
674.052	541.72
674.461	543.21
674.87	546.99
675.279	546.33
675.688	547.1
676.097	548.53
676.506	545.97
676.915	556.31
677.323	557.88
677.732	556.47
678.141	555.74
678.549	548.83
678.958	547.72
679.366	547.42
679.775	550.45
680.183	559.29
680.592	563.31
681	568.54
681.408	565.49
681.816	573.19
682.224	581.23
682.632	590.93
683.04	615.05
683.448	635.65
683.856	659.11
684.264	688.38
684.671	714.5
685.079	746.77
685.487	781.99
685.894	830.4
686.302	871.36
686.709	907.72
687.116	948.89
687.524	984.95
687.931	1016.84
688.338	1045.83
688.745	1068.89
689.152	1097.45
689.559	1133.67
689.966	1170.56
690.373	1191.36
690.78	1226.69
691.187	1279.15
691.593	1321.07
692	1355.79
692.407	1407.61
692.813	1471.11
693.22	1521.91
693.626	1572.6
694.032	1615.34
694.439	1678.23
694.845	1726.72
695.251	1788.25
695.657	1841.96
696.063	1920.3
696.469	1978.9
696.875	2034.03
697.281	2064.69
697.687	2104.56
698.093	2135.66
698.498	2196.51
698.904	2243.29
699.31	2314.03
