Data from C_2_HIR_IL_4N_Splice17_12-12-08-886.txt Node
Date: Sat Mar 14 12:12:08 EDT 2020
User: sa697716
Spectrometer: FLMS03696
Trigger mode: 0
Integration Time (sec): 3.180400E-1
Scans to average: 20
Electric dark correction enabled: true
Nonlinearity correction enabled: true
Boxcar width: 5
XAxis mode: Wavelengths
Number of Pixels in Spectrum: 2048
>>>>>Begin Spectral Data<<<<<
187.83	-287611.47
188.298	2120.62
188.766	1118.53
189.233	968.03
189.701	1431.47
190.169	2058.01
190.636	783.51
191.104	664.34
191.571	114.77
192.039	-57.11
192.506	-30.91
192.974	400.11
193.441	-566.94
193.908	-155.08
194.375	-39.49
194.842	47.54
195.31	158.41
195.777	163.91
196.244	405.41
196.711	439.84
197.177	526.26
197.644	728.59
198.111	1249.7
198.578	1749.53
199.045	1402.81
199.511	2262.31
199.978	2628.73
200.445	2221.8
200.911	2472.23
201.378	2731.18
201.844	2475.51
202.31	4234.46
202.777	4447.44
203.243	2515.05
203.709	2399.74
204.176	2867.96
204.642	2378.99
205.108	2227.73
205.574	1837.25
206.04	1675.63
206.506	1571.64
206.972	1487.35
207.438	1437.15
207.903	1625.32
208.369	1400.17
208.835	1392.68
209.301	1450.09
209.766	1488.28
210.232	1460.67
210.697	1817.77
211.163	2241.65
211.628	3364.12
212.094	2838.57
212.559	3518.24
213.024	2184.17
213.49	2652.31
213.955	2586.93
214.42	2517.66
214.885	2347.13
215.35	2295.99
215.815	2195.29
216.28	2336.59
216.745	1916.04
217.21	2063.07
217.675	1864.4
218.14	2086.11
218.604	2326.54
219.069	2638.11
219.534	2776.02
219.998	3195.9
220.463	3835.09
220.927	4708.58
221.392	4405.66
221.856	4433.04
222.32	5565.62
222.785	6878.93
223.249	8649.37
223.713	9628.44
224.177	9643.97
224.642	12353.31
225.106	15214.27
225.57	16604.05
226.034	12335.4
226.497	18787.13
226.961	17011.73
227.425	19826.91
227.889	22012.88
228.353	21997.52
228.816	45494.07
229.28	43508.7
229.744	36725.79
230.207	22322.8
230.671	21987.63
231.134	36366.76
231.597	41986.34
232.061	41960.27
232.524	40944.44
232.987	28248.63
233.45	25451.02
233.914	22826.71
234.377	23366.71
234.84	21379.27
235.303	25235.84
235.766	28198.5
236.229	29200.85
236.691	18413.07
237.154	20711.02
237.617	15608.16
238.08	15988.86
238.542	18746.63
239.005	13447.49
239.468	13390.35
239.93	12632.73
240.393	11506.38
240.855	10129.53
241.317	10374.38
241.78	12628.7
242.242	13063.67
242.704	14118.45
243.166	12298.14
243.629	11186.52
244.091	12890.16
244.553	14135.8
245.015	15221.04
245.477	19678.48
245.939	28807.71
246.4	30609
246.862	29763.87
247.324	28095.83
247.786	31468.06
248.247	41277.75
248.709	42642.02
249.17	31898.27
249.632	30086.85
250.093	34930.72
250.555	30173.25
251.016	18433.15
251.477	17475.13
251.939	18853.99
252.4	19800.68
252.861	23575.03
253.322	21926.76
253.783	26065.19
254.244	33793.27
254.705	26613.9
255.166	23635.89
255.627	23281.03
256.088	32837.1
256.549	34894.16
257.009	30069.27
257.47	36410.24
257.931	29623.19
258.391	22230.56
258.852	22934.63
259.312	24073.2
259.773	29736.96
260.233	25144.01
260.694	21213.98
261.154	24051.56
261.614	19308.75
262.074	17259.29
262.534	17943.76
262.994	16902.75
263.455	22487.35
263.915	18931.28
264.374	17795.31
264.834	19421.23
265.294	21511.87
265.754	22261.1
266.214	21042.65
266.673	19704.23
267.133	24844.1
267.593	24628.55
268.052	30107.37
268.512	26175.64
268.971	31536.21
269.431	34558.07
269.89	30924.22
270.349	46357.83
270.809	51651.25
271.268	46392.14
271.727	103809.34
272.186	67154.84
272.645	50323.64
273.104	36210.4
273.563	52344.12
274.022	41113.14
274.481	34951.48
274.94	26921.75
275.399	19957.45
275.857	23210.04
276.316	31381.49
276.775	27918.32
277.233	27493.04
277.692	25718.75
278.15	29117.8
278.609	29957.77
279.067	27730.97
279.525	25760.47
279.984	33208.16
280.442	39883.17
280.9	39361.08
281.358	25857.56
281.816	24109.77
282.274	23585.88
282.732	24325.35
283.19	24420.64
283.648	21057.02
284.106	22399.7
284.564	22759.36
285.021	21119.32
285.479	15729.92
285.937	14261.26
286.394	12529.47
286.852	12884.12
287.309	13544.5
287.767	13108.6
288.224	12469.41
288.682	13672.35
289.139	15009.66
289.596	13741.03
290.053	14276.03
290.511	18005.99
290.968	21856.56
291.425	29662.26
291.882	24726.67
292.339	21501.59
292.796	21281.75
293.252	20040.78
293.709	15920
294.166	14267.35
294.623	15740.24
295.079	15078.3
295.536	15159.5
295.992	13754.12
296.449	13566.99
296.905	14059.82
297.362	13497.85
297.818	14211.54
298.274	14754.07
298.731	15012.98
299.187	14835.76
299.643	15942.32
300.099	19274.52
300.555	21115.2
301.011	17654.64
301.467	17043.21
301.923	19928.68
302.379	19437.6
302.835	19090.81
303.291	19104.35
303.746	21791.06
304.202	27562.22
304.658	27666.94
305.113	18629.44
305.569	18246.06
306.024	19442.48
306.479	18518.42
306.935	15637.06
307.39	17075.43
307.845	15775.15
308.301	15882.23
308.756	15430.75
309.211	14851.42
309.666	15195.07
310.121	18862.16
310.576	19166.84
311.031	19023.52
311.486	21751.19
311.94	21741.12
312.395	29079.27
312.85	54586.22
313.305	267686
313.759	1388634.07
314.214	100820.03
314.668	80057.53
315.123	67405.21
315.577	24171.02
316.032	21473.03
316.486	26950.65
316.94	21234.09
317.394	14815.88
317.849	11528.01
318.303	10927.63
318.757	10339.86
319.211	11420.59
319.665	9986.51
320.119	10102.27
320.572	14478.2
321.026	13545.22
321.48	11254.86
321.934	12299.09
322.387	12304.35
322.841	13295.64
323.295	11974.52
323.748	13744.16
324.202	13955.6
324.655	16806.25
325.108	23495.14
325.562	16613.69
326.015	19742.19
326.468	14928.29
326.921	16699.03
327.374	15605.62
327.827	16238.39
328.28	18362.53
328.733	12324.46
329.186	10832.06
329.639	10305.36
330.092	8678.8
330.545	8268.16
330.997	8350.63
331.45	9142.47
331.903	10719.37
332.355	18410.93
332.808	17903.48
333.26	14785.01
333.713	16055.64
334.165	16204.22
334.617	21618.69
335.069	17487.49
335.522	31641.41
335.974	35066.18
336.426	31985.18
336.878	22125.22
337.33	11233.62
337.782	10986.22
338.234	13747.18
338.686	16460.52
339.137	19499.83
339.589	18392.47
340.041	14411.49
340.493	12382.96
340.944	12672.02
341.396	13675.73
341.847	11518.45
342.299	13597.61
342.75	16558.59
343.201	14452.55
343.653	16609.85
344.104	20378.06
344.555	16007.05
345.006	24855.25
345.457	19080.18
345.908	15127.47
346.359	14228.1
346.81	11571.4
347.261	12163.34
347.712	11979.7
348.163	12813.56
348.613	12957.82
349.064	12092.79
349.515	10595.81
349.965	10880.44
350.416	13055.24
350.866	14332.3
351.317	16190.03
351.767	26780.05
352.217	33876.92
352.668	28151.17
353.118	25857.73
353.568	24929.24
354.018	19744.59
354.468	20831.15
354.918	14972.99
355.368	13113.82
355.818	18513.35
356.268	53212.58
356.718	223015.65
357.168	55507.52
357.617	27795.22
358.067	30905.03
358.517	28991.28
358.966	34011.89
359.416	38079.24
359.865	41039.76
360.315	48711.55
360.764	22760.95
361.213	12744.48
361.663	12033.37
362.112	14828.07
362.561	23957.79
363.01	18050.06
363.459	15180.62
363.908	16379.04
364.357	13943.76
364.806	23562.46
365.255	16245.76
365.703	14883.41
366.152	14909.01
366.601	12112.92
367.05	9839.9
367.498	8939.21
367.947	9344.24
368.395	9683.28
368.844	8579.67
369.292	10319.11
369.74	7132.63
370.189	10884.09
370.637	12745.44
371.085	10978.59
371.533	13375.92
371.981	12861.64
372.429	12275.2
372.877	12760.35
373.325	10707.07
373.773	10869.08
374.221	9655.41
374.669	11941.25
375.116	10313.77
375.564	10373.21
376.012	11603.7
376.459	9565.19
376.907	11403.01
377.354	13767.17
377.801	12830.63
378.249	14727.8
378.696	18833.35
379.143	22835.33
379.591	24335.91
380.038	41246.19
380.485	29841.13
380.932	32176.42
381.379	29381.13
381.826	21634.38
382.273	15333.34
382.72	13391.49
383.166	13036.53
383.613	8464.45
384.06	7624.17
384.506	8794.69
384.953	6430.65
385.4	6472.14
385.846	5649.03
386.292	5483.41
386.739	5359.48
387.185	5283.2
387.631	5271.78
388.078	5110.13
388.524	5452.48
388.97	5015.46
389.416	4179.79
389.862	4442.88
390.308	4186.35
390.754	4251.39
391.2	4618.97
391.645	4706.33
392.091	4512.39
392.537	4361.75
392.983	4359.37
393.428	4302.19
393.874	4605.93
394.319	4627.25
394.765	4405.95
395.21	4530.26
395.655	4239.45
396.101	3961.83
396.546	3581.31
396.991	3606.27
397.436	3340.55
397.881	3221.64
398.326	3036.76
398.771	2869.16
399.216	2504.96
399.661	2240.65
400.106	2238.28
400.551	2298.4
400.995	2063.58
401.44	2045.06
401.885	1922.23
402.329	1947.82
402.774	1870.05
403.218	1815.59
403.663	1751.74
404.107	1804.76
404.551	1830.09
404.995	1676.14
405.44	1616.52
405.884	1639.64
406.328	1582.44
406.772	1573.55
407.216	1434.87
407.66	1386.46
408.104	1311.01
408.547	1228.64
408.991	1187.63
409.435	1138.02
409.879	1120.26
410.322	1105.39
410.766	1069.8
411.209	1022.19
411.653	983.88
412.096	965.52
412.54	967.71
412.983	962.29
413.426	967.99
413.869	965.74
414.312	952.98
414.756	922.47
415.199	879.5
415.642	854.19
416.085	855.43
416.527	850.39
416.97	863.56
417.413	819.42
417.856	810.47
418.298	800.1
418.741	795.17
419.184	790.44
419.626	818.44
420.069	818.42
420.511	825.51
420.953	807.95
421.396	800.09
421.838	778.39
422.28	796.46
422.722	803.78
423.164	814.68
423.606	802.76
424.048	802.28
424.49	766.2
424.932	761.91
425.374	748.03
425.816	758.96
426.258	774.48
426.699	780.73
427.141	769.27
427.582	777.75
428.024	776.75
428.465	769.16
428.907	748.69
429.348	741.74
429.789	743.91
430.231	732.69
430.672	743.15
431.113	723.6
431.554	713.91
431.995	697.57
432.436	673.36
432.877	659.01
433.318	651.2
433.759	648.83
434.2	645.99
434.64	639.7
435.081	639.97
435.522	608.26
435.962	589.35
436.403	580
436.843	584.86
437.284	573.24
437.724	554.61
438.164	554.21
438.604	542.17
439.045	523.61
439.485	502.1
439.925	490.54
440.365	477.37
440.805	469.5
441.245	463.53
441.685	447.99
442.125	445.95
442.564	450.45
443.004	440.98
443.444	440.78
443.883	442.03
444.323	437.18
444.762	436.97
445.202	444.68
445.641	454.08
446.081	450.99
446.52	455.29
446.959	452.34
447.398	442.42
447.837	437.92
448.276	430.56
448.716	435.1
449.154	439.76
449.593	431.34
450.032	429.21
450.471	420.3
450.91	420.84
451.349	421.61
451.787	418.73
452.226	424.72
452.664	426.54
453.103	428.41
453.541	426.71
453.98	427.4
454.418	429.95
454.856	424.61
455.295	424.99
455.733	429.17
456.171	432.23
456.609	435.24
457.047	434.97
457.485	441.78
457.923	442.25
458.361	436.9
458.798	437.96
459.236	437.24
459.674	439.44
460.111	441.97
460.549	437.99
460.987	433.98
461.424	429.24
461.862	428.45
462.299	420.84
462.736	421.25
463.173	422.18
463.611	419.01
464.048	418.46
464.485	423
464.922	418.88
465.359	415.27
465.796	415.5
466.233	414.98
466.67	412.18
467.106	411.88
467.543	406.93
467.98	401.68
468.416	390.18
468.853	387.15
469.29	374.54
469.726	369.71
470.162	359.8
470.599	351.68
471.035	346.9
471.471	338.21
471.907	334.57
472.344	332.14
472.78	333.48
473.216	336.57
473.652	332.42
474.088	330.95
474.523	329.75
474.959	333.54
475.395	329.91
475.831	328.73
476.266	329.28
476.702	328.43
477.138	325.4
477.573	324.2
478.008	324.06
478.444	325.67
478.879	329.51
479.314	331.99
479.75	331.92
480.185	332.67
480.62	334.91
481.055	336.63
481.49	339.01
481.925	343.1
482.36	349.48
482.795	357.96
483.229	367.69
483.664	375.18
484.099	375.93
484.534	381.73
484.968	387.29
485.403	387.94
485.837	387.4
486.271	387.63
486.706	388.15
487.14	384.31
487.574	379.75
488.009	376.79
488.443	373.99
488.877	379.29
489.311	381.11
489.745	386.1
490.179	392.06
490.613	401.57
491.046	405.88
491.48	410.85
491.914	413.23
492.348	417.99
492.781	422.15
493.215	425.08
493.648	427.39
494.082	432.92
494.515	435.96
494.948	442.41
495.382	447
495.815	452.72
496.248	459.48
496.681	470.3
497.114	481.25
497.547	491.93
497.98	505.43
498.413	514.49
498.846	525.2
499.279	534.88
499.711	543.15
500.144	549.79
500.577	562.55
501.009	574.93
501.442	587.42
501.874	593.31
502.306	599.47
502.739	610.04
503.171	625.08
503.603	633.11
504.036	645.5
504.468	655.06
504.9	669.29
505.332	680.42
505.764	690.4
506.196	701.18
506.627	719.14
507.059	736.28
507.491	749.11
507.923	753.39
508.354	771.39
508.786	786.42
509.217	807.12
509.649	826.13
510.08	847.35
510.512	867.23
510.943	885.78
511.374	900.53
511.805	922.84
512.237	945.26
512.668	979.58
513.099	1009
513.53	1038.68
513.961	1061.92
514.391	1094.57
514.822	1129.2
515.253	1165.69
515.684	1193.7
516.114	1225.59
516.545	1249.82
516.975	1278.12
517.406	1298.82
517.836	1305.73
518.267	1315.55
518.697	1337.46
519.127	1345.14
519.558	1355.33
519.988	1361.9
520.418	1375
520.848	1394.38
521.278	1405.42
521.708	1425.35
522.138	1439.75
522.567	1471.4
522.997	1497.32
523.427	1513.35
523.857	1532.9
524.286	1544.49
524.716	1560.74
525.145	1581.01
525.575	1593.39
526.004	1608.82
526.433	1603.9
526.863	1606.57
527.292	1598.3
527.721	1604.56
528.15	1611.08
528.579	1612.27
529.008	1624.42
529.437	1646.65
529.866	1660.02
530.295	1677.26
530.724	1689.98
531.152	1716.66
531.581	1730.77
532.01	1749.68
532.438	1758.58
532.867	1773.73
533.295	1792.1
533.723	1798.44
534.152	1798.58
534.58	1797.96
535.008	1783.11
535.436	1785.43
535.865	1793.92
536.293	1807.75
536.721	1822.6
537.149	1849.51
537.576	1853.08
538.004	1866.01
538.432	1873.98
538.86	1872.58
539.287	1881.98
539.715	1894.88
540.143	1898.68
540.57	1895.53
540.998	1892.89
541.425	1870.3
541.852	1849.08
542.28	1846.99
542.707	1830.27
543.134	1816.8
543.561	1812.92
543.988	1804.81
544.415	1804.43
544.842	1798.34
545.269	1791.36
545.696	1793.31
546.123	1806.59
546.549	1795.76
546.976	1783.63
547.403	1784.05
547.829	1785.47
548.256	1785.8
548.682	1781.89
549.108	1774.49
549.535	1774.03
549.961	1774.72
550.387	1760.28
550.813	1754.07
551.24	1760.19
551.666	1760.24
552.092	1749.29
552.518	1742.43
552.943	1737.08
553.369	1743.33
553.795	1748.71
554.221	1748.99
554.646	1745.41
555.072	1756.46
555.498	1760.92
555.923	1769.58
556.349	1784.57
556.774	1793.64
557.199	1794.68
557.625	1799.51
558.05	1793.9
558.475	1803.92
558.9	1804.41
559.325	1796.73
559.75	1790.44
560.175	1783.23
560.6	1776.37
561.025	1773.7
561.449	1774
561.874	1779.34
562.299	1783.82
562.723	1790.1
563.148	1780.04
563.572	1782.46
563.997	1791.44
564.421	1795.4
564.846	1795.78
565.27	1797.69
565.694	1793.52
566.118	1804.43
566.542	1810.58
566.966	1803.94
567.39	1799.23
567.814	1788.02
568.238	1786.71
568.662	1791.3
569.086	1793.68
569.509	1800.23
569.933	1785.71
570.357	1778.67
570.78	1757.87
571.204	1745.16
571.627	1734.03
572.05	1731.54
572.474	1730.61
572.897	1717.45
573.32	1708.84
573.743	1698.31
574.166	1678.9
574.589	1678.4
575.012	1670.26
575.435	1667.71
575.858	1658.41
576.281	1646.51
576.704	1629.36
577.126	1616.44
577.549	1604.34
577.972	1593.99
578.394	1582.37
578.817	1575.14
579.239	1555.52
579.661	1542.12
580.084	1526.9
580.506	1512.21
580.928	1507.32
581.35	1496.94
581.772	1491.07
582.194	1478.59
582.616	1464.9
583.038	1451.49
583.46	1440.49
583.882	1436.42
584.303	1438.37
584.725	1432.41
585.147	1433.86
585.568	1442.84
585.99	1453.42
586.411	1459.06
586.833	1472.03
587.254	1472.96
587.675	1485.24
588.096	1497.01
588.518	1491.84
588.939	1475.05
589.36	1472.3
589.781	1462.36
590.202	1435.37
590.623	1425.71
591.043	1423.22
591.464	1409.96
591.885	1406.2
592.305	1399.35
592.726	1384.88
593.147	1385.33
593.567	1381.11
593.987	1373.64
594.408	1367.52
594.828	1365.31
595.248	1359.29
595.669	1341.33
596.089	1333.87
596.509	1327.24
596.929	1315.74
597.349	1316.5
597.769	1306.98
598.189	1301.04
598.608	1302.6
599.028	1304.36
599.448	1302.96
599.867	1290.74
600.287	1286
600.706	1281.8
601.126	1272.12
601.545	1269.63
601.965	1267.85
602.384	1262.13
602.803	1264.11
603.222	1258.61
603.641	1251.23
604.061	1248.42
604.48	1244.51
604.898	1251.43
605.317	1255.77
605.736	1257.31
606.155	1254.05
606.574	1244.99
606.992	1249.28
607.411	1243.23
607.829	1233.75
608.248	1230.09
608.666	1226.8
609.085	1224.99
609.503	1215.48
609.921	1209.11
610.339	1210.01
610.758	1208.4
611.176	1202.91
611.594	1192.87
612.012	1188.56
612.43	1191.33
612.847	1195.9
613.265	1195.03
613.683	1198.43
614.101	1198.54
614.518	1193.56
614.936	1182.85
615.353	1168.92
615.771	1165.1
616.188	1165.39
616.606	1161.1
617.023	1153.4
617.44	1139.6
617.857	1131.83
618.274	1122.68
618.691	1117.02
619.108	1107.36
619.525	1100.99
619.942	1104.61
620.359	1105.67
620.776	1099.91
621.192	1095.7
621.609	1093.45
622.026	1098
622.442	1102.58
622.859	1104.5
623.275	1096.53
623.691	1100.78
624.108	1110.13
624.524	1122.2
624.94	1122.02
625.356	1128.98
625.772	1140.39
626.188	1150.63
626.604	1151.58
627.02	1148.35
627.436	1147.25
627.852	1155.16
628.268	1165.56
628.683	1157.27
629.099	1149.77
629.514	1145.17
629.93	1149.06
630.345	1152.7
630.761	1148.8
631.176	1151.73
631.591	1144.97
632.007	1137.51
632.422	1134.08
632.837	1121.94
633.252	1119
633.667	1108.22
634.082	1098.44
634.497	1085.44
634.911	1065.64
635.326	1059.45
635.741	1042.23
636.155	1031.92
636.57	1030.86
636.984	1027
637.399	1025.97
637.813	1021.93
638.228	1018.5
638.642	1018.24
639.056	1005.86
639.47	1001.64
639.884	990.33
640.298	980.63
640.712	976.02
641.126	961.06
641.54	949.62
641.954	939.91
642.368	925.59
642.781	913.82
643.195	895.62
643.609	890.95
644.022	882.76
644.436	875.82
644.849	863.05
645.262	848.5
645.676	846.04
646.089	838.11
646.502	824.27
646.915	816.54
647.328	801.09
647.741	796.11
648.154	784.48
648.567	780.51
648.98	767.57
649.393	764.53
649.805	759.7
650.218	751.8
650.631	738.07
651.043	731.54
651.456	724.42
651.868	722.49
652.28	733.49
652.693	740.13
653.105	741.69
653.517	746.85
653.929	745.96
654.341	748.58
654.753	738.7
655.165	741.34
655.577	737.99
655.989	733.31
656.401	725.1
656.813	696.31
657.224	679.25
657.636	656.51
658.047	640.64
658.459	622.74
658.87	612.81
659.282	600.63
659.693	583.67
660.104	568.79
660.515	556.77
660.926	550.04
661.338	544.68
661.749	536.18
662.159	526.43
662.57	518.79
662.981	513.22
663.392	504.33
663.803	502.32
664.213	495.82
664.624	490.31
665.035	487.48
665.445	477.6
665.855	470.19
666.266	464.18
666.676	459.84
667.086	451.76
667.497	448.03
667.907	442.86
668.317	435.86
668.727	434.64
669.137	433.05
669.547	431.03
669.956	430.16
670.366	429.91
670.776	430.07
671.186	431.54
671.595	433.95
672.005	435.94
672.414	435.56
672.824	435.01
673.233	435.94
673.642	437.02
674.052	438.96
674.461	441.72
674.87	445.95
675.279	444.65
675.688	445.39
676.097	448.43
676.506	447.92
676.915	456.38
677.323	459.58
677.732	459.47
678.141	461.18
678.549	455.68
678.958	456.19
679.366	457.11
679.775	462.87
680.183	472.99
680.592	478.7
681	484.87
681.408	484.39
681.816	492.66
682.224	501.9
682.632	513.18
683.04	537.18
683.448	559.84
683.856	585.92
684.264	616.69
684.671	644.44
685.079	679.67
685.487	719.63
685.894	772.35
686.302	819.15
686.709	860.84
687.116	907.72
687.524	952.06
687.931	990.69
688.338	1027.65
688.745	1060.73
689.152	1099.36
689.559	1145.3
689.966	1191.98
690.373	1221.49
690.78	1266.34
691.187	1328.87
691.593	1382.38
692	1429.08
692.407	1493.1
692.813	1568.2
693.22	1629.72
693.626	1693.11
694.032	1745.94
694.439	1819.75
694.845	1880.15
695.251	1954.28
695.657	2025.1
696.063	2120.88
696.469	2192.76
696.875	2262.84
697.281	2304.03
697.687	2353.7
698.093	2395.33
698.498	2469.22
698.904	2528.42
699.31	2616.74
699.715	2678.7
700.12	2765.17
