Data from C_2_DEC_NC_4N_Splice17_12-26-31-101.txt Node
Date: Sat Mar 14 12:26:31 EDT 2020
User: sa697716
Spectrometer: FLMS03696
Trigger mode: 0
Integration Time (sec): 3.180400E-1
Scans to average: 20
Electric dark correction enabled: true
Nonlinearity correction enabled: true
Boxcar width: 5
XAxis mode: Wavelengths
Number of Pixels in Spectrum: 2048
>>>>>Begin Spectral Data<<<<<
187.83	-294983.64
188.298	2168.64
188.766	1231.33
189.233	1112.97
189.701	1481.54
190.169	2034.84
190.636	710.29
191.104	501.27
191.571	18.28
192.039	-112.97
192.506	-78.34
192.974	432.31
193.441	-679.7
193.908	-58.19
194.375	-15.45
194.842	-2.5
195.31	104.18
195.777	169.28
196.244	403.96
196.711	482.17
197.177	607.79
197.644	836.38
198.111	1424.42
198.578	1967.28
199.045	1595.78
199.511	2595.38
199.978	3005.21
200.445	2551.94
200.911	2805.05
201.378	3099.47
201.844	2798.83
202.31	4800.64
202.777	5054.39
203.243	2798.24
203.709	2698.68
204.176	3230.27
204.642	2683.72
205.108	2532.71
205.574	2068.18
206.04	1891.26
206.506	1778.95
206.972	1684.91
207.438	1620.22
207.903	1835.92
208.369	1618.73
208.835	1593.76
209.301	1641.85
209.766	1673.99
210.232	1642.36
210.697	2009.83
211.163	2466.61
211.628	3718.32
212.094	3136.21
212.559	3809.67
213.024	2362.69
213.49	2885.33
213.955	2830.1
214.42	2771.35
214.885	2568.48
215.35	2491.56
215.815	2415.49
216.28	2567.96
216.745	2086.99
217.21	2239.17
217.675	2045.04
218.14	2278.92
218.604	2487.86
219.069	2802.67
219.534	2912.54
219.998	3353.48
220.463	3986.57
220.927	4828.71
221.392	4503.17
221.856	4520.68
222.32	5648.42
222.785	6971.19
223.249	8755.62
223.713	9781.89
224.177	9747.99
224.642	12504.55
225.106	15360.83
225.57	16800.93
226.034	12548.92
226.497	19099.98
226.961	17271.26
227.425	20135.3
227.889	22314.26
228.353	22320.72
228.816	46044.66
229.28	44197.96
229.744	37231.74
230.207	22677.89
230.671	22316.9
231.134	36815.87
231.597	42555.21
232.061	42555.59
232.524	41517.86
232.987	28649.6
233.45	25831.51
233.914	23207.33
234.377	23737.1
234.84	21759.69
235.303	25677.84
235.766	28680.36
236.229	29667.29
236.691	18699.24
237.154	21029.73
237.617	15849.01
238.08	16231.7
238.542	19007.06
239.005	13629.86
239.468	13559.08
239.93	12793.68
240.393	11642.28
240.855	10247.04
241.317	10512.23
241.78	12788.84
242.242	13257.69
242.704	14338.63
243.166	12487.88
243.629	11352.53
244.091	13084.05
244.553	14357.7
245.015	15434.58
245.477	19979.91
245.939	29252
246.4	31050.46
246.862	30212.61
247.324	28485.23
247.786	31890.04
248.247	41877.87
248.709	43245.46
249.17	32356.5
249.632	30512.83
250.093	35403.29
250.555	30576.54
251.016	18660.7
251.477	17720.1
251.939	19122.21
252.4	20041.97
252.861	23818.52
253.322	22175.61
253.783	26397.9
254.244	34255.92
254.705	26993.57
255.166	24000.73
255.627	23655.04
256.088	33411.05
256.549	35503.95
257.009	30560.46
257.47	37135.73
257.931	30267.66
258.391	22697.69
258.852	23410.66
259.312	24555.44
259.773	30370.94
260.233	25732.91
260.694	21698.83
261.154	24628.95
261.614	19794.87
262.074	17736.49
262.534	18449.28
262.994	17405.6
263.455	23204.52
263.915	19585.78
264.374	18464.31
264.834	20155.1
265.294	22346.13
265.754	23177
266.214	21943.28
266.673	20553.32
267.133	25940.15
267.593	25727.02
268.052	31487.22
268.512	27362.12
268.971	33015.33
269.431	36193.01
269.89	32468.58
270.349	48673.45
270.809	54269.92
271.268	48805.67
271.727	109578.33
272.186	71007.12
272.645	53267.83
273.104	38494.38
273.563	55810.74
274.022	43885.68
274.481	37372.5
274.94	28790.11
275.399	21409.37
275.857	24941.24
276.316	33792.78
276.775	30060.47
277.233	29634.99
277.692	27787.52
278.15	31436.39
278.609	32373.26
279.067	29976.37
279.525	27887.5
279.984	36078.93
280.442	43386.27
280.9	42871.23
281.358	28218.61
281.816	26353.08
282.274	25831.55
282.732	26709.67
283.19	26855.7
283.648	23205.09
284.106	24746.16
284.564	25173.63
285.021	23356.72
285.479	17419.11
285.937	15829.72
286.394	13925.78
286.852	14351.97
287.309	15109.1
287.767	14621.69
288.224	13920.56
288.682	15282.43
289.139	16804.78
289.596	15403.55
290.053	16040.33
290.511	20249.65
290.968	24601.39
291.425	33334.14
291.882	27770.97
292.339	24200.37
292.796	24032.03
293.252	22642.03
293.709	18006.67
294.166	16127.25
294.623	17816.2
295.079	17073.15
295.536	17185.66
295.992	15615.51
296.449	15443.8
296.905	16043.92
297.362	15387.72
297.818	16185.06
298.274	16810.71
298.731	17137.3
299.187	16961.93
299.643	18223.42
300.099	22055.4
300.555	24173.5
301.011	20200.14
301.467	19505.64
301.923	22822.47
302.379	22283.57
302.835	21897.01
303.291	21943.12
303.746	24959.6
304.202	31589.27
304.658	31726.33
305.113	21360.22
305.569	20972.24
306.024	22381.6
306.479	21321.34
306.935	18009.38
307.39	19683.68
307.845	18200.32
308.301	18323.96
308.756	17878.08
309.211	17220.84
309.666	17653.41
310.121	21914.14
310.576	22219.72
311.031	22084.36
311.486	25330.7
311.94	25357.25
312.395	33929.12
312.85	63841.73
313.305	313709.82
313.759	1626003.05
314.214	117983.01
314.668	93621.98
315.123	78809.36
315.577	28294.82
316.032	25149.54
316.486	31505.82
316.94	24845.57
317.394	17304.34
317.849	13454.55
318.303	12744.87
318.757	12018.51
319.211	13285.53
319.665	11625.2
320.119	11775.2
320.572	16894.88
321.026	15788.18
321.48	13131.56
321.934	14308.06
322.387	14335.84
322.841	15462.07
323.295	13921.67
323.748	16060.17
324.202	16295.1
324.655	19556.81
325.108	27311.78
325.562	19271.81
326.015	22917.26
326.468	17355.94
326.921	19434.47
327.374	18146.43
327.827	18910.84
328.28	21397.33
328.733	14325.18
329.186	12616.27
329.639	12048.22
330.092	10179.19
330.545	9720.89
330.997	9806.46
331.45	10704.45
331.903	12551.95
332.355	21595.26
332.808	21009.62
333.26	17346.11
333.713	18858.31
334.165	19029.19
334.617	25427.54
335.069	20517.56
335.522	37102.38
335.974	41164.08
336.426	37679.27
336.878	26113.23
337.33	13243.14
337.782	12928.73
338.234	16183.65
338.686	19350.21
339.137	22919.97
339.589	21583.17
340.041	16950.83
340.493	14578.85
340.944	14936.06
341.396	16087.69
341.847	13537.81
342.299	16000.01
342.75	19548.02
343.201	17108.33
343.653	19680.66
344.104	24143.41
344.555	18987.58
345.006	29511.1
345.457	22630.6
345.908	17925.42
346.359	16858.52
346.81	13716.83
347.261	14457.84
347.712	14230.89
348.163	15256.19
348.613	15474.71
349.064	14458.36
349.515	12699.68
349.965	13048.59
350.416	15716.9
350.866	17274.95
351.317	19539.36
351.767	32456.28
352.217	41042.7
352.668	34128.93
353.118	31319.05
353.568	30212.93
354.018	23948.75
354.468	25245.53
354.918	18083.79
355.368	15805.12
355.818	22364.95
356.268	64351.26
356.718	269492.19
357.168	67164.51
357.617	33642.14
358.067	37416.07
358.517	35105.38
358.966	41173.82
359.416	46215.48
359.865	50079.4
360.315	59653.92
360.764	27894.64
361.213	15651.48
361.663	14828.75
362.112	18303.05
362.561	29658.49
363.01	22376.54
363.459	18829.92
363.908	20388.15
364.357	17334.51
364.806	29317.63
365.255	20204.31
365.703	18513.55
366.152	18571.22
366.601	15061.26
367.05	12234.12
367.498	11126.91
367.947	11636.81
368.395	12110.18
368.844	10717.69
369.292	12912.7
369.74	8928.58
370.189	13656.76
370.637	16040.53
371.085	13844.03
371.533	16865.57
371.981	16249.86
372.429	15496.04
372.877	16141.21
373.325	13526.6
373.773	13805.85
374.221	12281.53
374.669	15226.04
375.116	13194.6
375.564	13261.44
376.012	14852.2
376.459	12263.55
376.907	14666.79
377.354	17724.58
377.801	16560.35
378.249	19061.48
378.696	24343.79
379.143	29595.46
379.591	31618.15
380.038	53590.98
380.485	38838.3
380.932	41981.64
381.379	38437.92
381.826	28363.54
382.273	20217.5
382.72	17678.1
383.166	17226.93
383.613	11212.5
384.06	10101.44
384.506	11684.34
384.953	8581.25
385.4	8636.97
385.846	7575.31
386.292	7367.34
386.739	7211.11
387.185	7136.47
387.631	7141.35
388.078	6935.34
388.524	7425.09
388.97	6870.53
389.416	5741.08
389.862	6108.48
390.308	5806.2
390.754	5897.47
391.2	6416.21
391.645	6591.31
392.091	6317.46
392.537	6122.05
392.983	6141.85
393.428	6054
393.874	6486.2
394.319	6536.74
394.765	6207.58
395.21	6389.03
395.655	6004.93
396.101	5631.89
396.546	5090.31
396.991	5136.79
397.436	4777.74
397.881	4624.46
398.326	4379.25
398.771	4148.74
399.216	3618.87
399.661	3259.1
400.106	3242.98
400.551	3322.42
400.995	2983.85
401.44	2946.3
401.885	2768.11
402.329	2793.94
402.774	2676.09
403.218	2593.73
403.663	2502.31
404.107	2575.92
404.551	2596.92
404.995	2383.57
405.44	2294.56
405.884	2332.38
406.328	2256.14
406.772	2246.39
407.216	2046.52
407.66	1980.89
408.104	1879.77
408.547	1762.04
408.991	1705.59
409.435	1642.75
409.879	1623.74
410.322	1604.61
410.766	1550.68
411.209	1476.13
411.653	1418.36
412.096	1392.01
412.54	1392.39
412.983	1385.3
413.426	1389.78
413.869	1387.85
414.312	1361.85
414.756	1310.75
415.199	1248.64
415.642	1212.38
416.085	1213.73
416.527	1208.1
416.97	1226.77
417.413	1165.13
417.856	1155.16
418.298	1141.3
418.741	1133.07
419.184	1132.11
419.626	1178.55
420.069	1181.97
420.511	1190.7
420.953	1165.51
421.396	1155.88
421.838	1127.98
422.28	1154.46
422.722	1159.07
423.164	1176.19
423.606	1160.48
424.048	1158.45
424.49	1103.21
424.932	1096.93
425.374	1081.42
425.816	1105.19
426.258	1123.34
426.699	1134.48
427.141	1115.47
427.582	1131.92
428.024	1126.78
428.465	1119.29
428.907	1092.5
429.348	1078.46
429.789	1079.97
430.231	1055.13
430.672	1063.96
431.113	1039.59
431.554	1024.34
431.995	999
432.436	965.6
432.877	945.08
433.318	928.98
433.759	924.11
434.2	926.98
434.64	915.2
435.081	920.73
435.522	876.35
435.962	846.15
436.403	829.84
436.843	842.76
437.284	823.48
437.724	801.34
438.164	803.06
438.604	786.46
439.045	755.95
439.485	727.83
439.925	711.88
440.365	692.86
440.805	683.64
441.245	676.67
441.685	654.28
442.125	649.75
442.564	655.32
443.004	641.39
443.444	640.92
443.883	642.56
444.323	638.41
444.762	640.15
445.202	650.57
445.641	664.98
446.081	661.5
446.52	668.24
446.959	664.79
447.398	650.27
447.837	644.62
448.276	635.24
448.716	642.73
449.154	648
449.593	636.52
450.032	635.07
450.471	624.49
450.91	625.71
451.349	626.22
451.787	623.31
452.226	633.48
452.664	634.82
453.103	635.68
453.541	635.81
453.98	637.84
454.418	642.19
454.856	634.12
455.295	634.07
455.733	639.78
456.171	642.98
456.609	646.08
457.047	647.18
457.485	657.12
457.923	659.46
458.361	650.84
458.798	653.32
459.236	651.58
459.674	655.92
460.111	659.06
460.549	653.23
460.987	650.44
461.424	646.23
461.862	643.25
462.299	633.79
462.736	634.56
463.173	637.07
463.611	629.51
464.048	628.38
464.485	633.31
464.922	626.58
465.359	622.84
465.796	616.75
466.233	613.55
466.67	608.56
467.106	607.26
467.543	599.53
467.98	592.48
468.416	577.19
468.853	572.3
469.29	554.88
469.726	549.81
470.162	535.11
470.599	526.98
471.035	521.77
471.471	509.12
471.907	505.64
472.344	504.62
472.78	506.6
473.216	512.24
473.652	507.05
474.088	506.36
474.523	505.44
474.959	510.46
475.395	506.2
475.831	504.5
476.266	507.22
476.702	507.11
477.138	500.22
477.573	498.43
478.008	497.52
478.444	498.64
478.879	504.02
479.314	505.9
479.75	506.41
480.185	508.58
480.62	513.28
481.055	515.49
481.49	519.23
481.925	527.64
482.36	537.93
482.795	552.88
483.229	569.37
483.664	581.31
484.099	584.22
484.534	593.79
484.968	601.11
485.403	603.11
485.837	603.31
486.271	602.79
486.706	603.46
487.14	596.41
487.574	587.98
488.009	583.25
488.443	579.24
488.877	586.29
489.311	589.04
489.745	596.87
490.179	603.47
490.613	615.9
491.046	621.65
491.48	628.31
491.914	631.13
492.348	637.64
492.781	642.88
493.215	646.18
493.648	649.23
494.082	656.13
494.515	658.31
494.948	668.51
495.382	675.24
495.815	682.54
496.248	690.71
496.681	704.68
497.114	718.68
497.547	731.48
497.98	747.86
498.413	757.74
498.846	770.85
499.279	782.53
499.711	789.29
500.144	794.74
500.577	807.42
501.009	821.24
501.442	835.61
501.874	839.78
502.306	845.74
502.739	855.67
503.171	872.77
503.603	879.12
504.036	891.77
504.468	901.23
504.9	917.61
505.332	929.06
505.764	937.09
506.196	947.58
506.627	965.37
507.059	983.13
507.491	996.27
507.923	997.58
508.354	1016.41
508.786	1031.13
509.217	1051.85
509.649	1069.41
510.08	1092.89
510.512	1113.34
510.943	1132.28
511.374	1148.61
511.805	1171.25
512.237	1194.14
512.668	1231.36
513.099	1262.66
513.53	1294.36
513.961	1319.92
514.391	1356.2
514.822	1392.99
515.253	1433.16
515.684	1461.58
516.114	1493.49
516.545	1517.85
516.975	1547.12
517.406	1566.42
517.836	1569.35
518.267	1576.05
518.697	1595.73
519.127	1600.34
519.558	1607.19
519.988	1610.86
520.418	1621.99
520.848	1640.86
521.278	1650.82
521.708	1666.25
522.138	1679.86
522.567	1713.38
522.997	1740.57
523.427	1756.45
523.857	1774.37
524.286	1786.04
524.716	1801.68
525.145	1821.08
525.575	1833.17
526.004	1847.24
526.433	1842.17
526.863	1841.6
527.292	1829.95
527.721	1835.58
528.15	1841.42
528.579	1841.06
529.008	1852.16
529.437	1876.61
529.866	1891.47
530.295	1909.23
530.724	1922.48
531.152	1951.92
531.581	1966.86
532.01	1986.57
532.438	1994.71
532.867	2009.22
533.295	2029.38
533.723	2035.86
534.152	2032.98
534.58	2032.85
535.008	2015.52
535.436	2017.21
535.865	2026.26
536.293	2043.7
536.721	2060.67
537.149	2090.15
537.576	2094.5
538.004	2108.44
538.432	2118.2
538.86	2117.52
539.287	2125.53
539.715	2142.29
540.143	2146.61
540.57	2141.58
540.998	2135.92
541.425	2110.34
541.852	2086.87
542.28	2085.7
542.707	2068.39
543.134	2052.25
543.561	2047.3
543.988	2038.25
544.415	2036.24
544.842	2029.99
545.269	2021.98
545.696	2024.28
546.123	2038.62
546.549	2026.3
546.976	2010.92
547.403	2009.92
547.829	2011.9
548.256	2014.29
548.682	2010.71
549.108	2002.74
549.535	2002.78
549.961	2005.27
550.387	1991.04
550.813	1985.33
551.24	1993.32
551.666	1995.28
552.092	1985.65
552.518	1977.88
552.943	1971.15
553.369	1980
553.795	1985.59
554.221	1986.34
554.646	1983.84
555.072	1996.5
555.498	2002.96
555.923	2012.97
556.349	2031.21
556.774	2041.29
557.199	2044.68
557.625	2051.06
558.05	2044.76
558.475	2057.41
558.9	2055.99
559.325	2047.59
559.75	2040.23
560.175	2033.36
560.6	2026.92
561.025	2024.6
561.449	2025.89
561.874	2032.88
562.299	2039.96
562.723	2048.21
563.148	2038.38
563.572	2044.52
563.997	2056.19
564.421	2064.83
564.846	2067.2
565.27	2073.15
565.694	2071.77
566.118	2086.87
566.542	2096.13
566.966	2090.59
567.39	2087.46
567.814	2076.33
568.238	2077.65
568.662	2086.39
569.086	2090.23
569.509	2099.96
569.933	2083.33
570.357	2075.96
570.78	2052.83
571.204	2039.41
571.627	2027.83
572.05	2027.03
572.474	2028.6
572.897	2015.67
573.32	2007.72
573.743	1998.48
574.166	1978.48
574.589	1980.29
575.012	1973.1
575.435	1974.56
575.858	1965.31
576.281	1954.2
576.704	1937.52
577.126	1924.01
577.549	1912.47
577.972	1900.46
578.394	1889.4
578.817	1881.49
579.239	1860.33
579.661	1846.36
580.084	1828.07
580.506	1813.44
580.928	1809.07
581.35	1797.42
581.772	1793.45
582.194	1778.77
582.616	1765.19
583.038	1748.9
583.46	1738.16
583.882	1736.5
584.303	1741.04
584.725	1736.84
585.147	1739.33
585.568	1751.74
585.99	1766.23
586.411	1774.36
586.833	1791.97
587.254	1793.68
587.675	1808.95
588.096	1823.53
588.518	1816.74
588.939	1797.58
589.36	1793.24
589.781	1782.33
590.202	1750.86
590.623	1740.19
591.043	1736.77
591.464	1721.72
591.885	1717.86
592.305	1711.91
592.726	1694.7
593.147	1696.7
593.567	1690.52
593.987	1683.08
594.408	1676.6
594.828	1674.68
595.248	1667.98
595.669	1647.25
596.089	1640.15
596.509	1632.69
596.929	1617.74
597.349	1619.66
597.769	1607.74
598.189	1600.1
598.608	1601.94
599.028	1605.41
599.448	1605.23
599.867	1590.37
600.287	1585.46
600.706	1580
601.126	1570.98
601.545	1569.07
601.965	1567.6
602.384	1561.32
602.803	1565.99
603.222	1560.63
603.641	1551.26
604.061	1546.62
604.48	1542.89
604.898	1552.73
605.317	1558.95
605.736	1559.45
606.155	1557.55
606.574	1546.89
606.992	1553.36
607.411	1547.09
607.829	1538.28
608.248	1536.89
608.666	1534.13
609.085	1534.06
609.503	1524.73
609.921	1517.61
610.339	1520.86
610.758	1519.73
611.176	1515.24
611.594	1504.2
612.012	1501.32
612.43	1505.28
612.847	1511.61
613.265	1513.62
613.683	1518.5
614.101	1519.73
614.518	1515.52
614.936	1503.8
615.353	1487.54
615.771	1484.9
616.188	1486.17
616.606	1480.99
617.023	1472.71
617.44	1456.62
617.857	1448.85
618.274	1438.58
618.691	1432.45
619.108	1422.27
619.525	1414.96
619.942	1423.18
620.359	1424.81
620.776	1419.72
621.192	1416.6
621.609	1414.49
622.026	1422.59
622.442	1429.47
622.859	1434.24
623.275	1424.67
623.691	1430.74
624.108	1445.15
624.524	1460.9
624.94	1461.2
625.356	1472.01
625.772	1487.01
626.188	1500.41
626.604	1501.69
627.02	1497.23
627.436	1493.84
627.852	1503.13
628.268	1516.37
628.683	1505.83
629.099	1496.47
629.514	1491.76
629.93	1495.75
630.345	1500.88
630.761	1496.62
631.176	1500.16
631.591	1493.16
632.007	1487.36
632.422	1484.09
632.837	1470.78
633.252	1467.68
633.667	1454.31
634.082	1442.86
634.497	1426.99
634.911	1403.2
635.326	1397.08
635.741	1375.93
636.155	1362.62
636.57	1360.88
636.984	1357.93
637.399	1358.88
637.813	1356.55
638.228	1353.12
638.642	1355.7
639.056	1341.93
639.47	1339.7
639.884	1327.89
640.298	1318.96
640.712	1315.73
641.126	1299.88
641.54	1287.89
641.954	1279.06
642.368	1262.39
642.781	1252
643.195	1230.56
643.609	1229.51
644.022	1220.99
644.436	1214.14
644.849	1199
645.262	1183.03
645.676	1181.06
646.089	1173.65
646.502	1154.47
646.915	1145.59
647.328	1124.41
647.741	1119.33
648.154	1102.2
648.567	1095.65
648.98	1079.19
649.393	1077.08
649.805	1071.15
650.218	1062.62
650.631	1044.58
651.043	1037.18
651.456	1030.78
651.868	1030.66
652.28	1047.48
652.693	1061.01
653.105	1067.28
653.517	1075.92
653.929	1074.86
654.341	1080.73
654.753	1067.14
655.165	1071.86
655.577	1067.98
655.989	1060.09
656.401	1050.44
656.813	1011.87
657.224	989.12
657.636	957.48
658.047	937.49
658.459	915.22
658.87	902.26
659.282	887.36
659.693	863.19
660.104	845.24
660.515	829.06
660.926	822.9
661.338	814.88
661.749	804.25
662.159	791.03
662.57	782.08
662.981	774.67
663.392	763
663.803	761.82
664.213	756.16
664.624	748.31
665.035	747.82
665.445	731.17
665.855	721.86
666.266	711.57
666.676	705.88
667.086	695.09
667.497	690.03
667.907	682.09
668.317	670.85
668.727	666
669.137	662.13
669.547	656.87
669.956	656.79
670.366	655.68
670.776	654.61
671.186	656.42
671.595	658.03
672.005	658.56
672.414	656.86
672.824	654.56
673.233	654.93
673.642	656.32
674.052	658.41
674.461	659.74
674.87	662.3
675.279	659.76
675.688	660.52
676.097	661.16
676.506	659.29
676.915	671.13
677.323	673.83
677.732	673.09
678.141	673.44
678.549	664.61
678.958	665.15
679.366	666.07
679.775	672.07
680.183	683.01
680.592	690.33
681	698.3
681.408	696.35
681.816	707.13
682.224	719.73
682.632	733.12
683.04	765.49
683.448	794.61
683.856	830.87
684.264	871.44
684.671	910.43
685.079	957.53
685.487	1011.88
685.894	1082.77
686.302	1144.37
686.709	1198.09
687.116	1260.49
687.524	1313.28
687.931	1360.58
688.338	1401.49
688.745	1438.72
689.152	1480.01
689.559	1533.55
689.966	1584.57
690.373	1612.19
690.78	1659.79
691.187	1732.53
691.593	1786.43
692	1834.51
692.407	1903.33
692.813	1987.28
693.22	2052.8
693.626	2123.26
694.032	2175.43
694.439	2256.88
694.845	2320.89
695.251	2401.51
695.657	2470.25
696.063	2579.57
696.469	2657.76
696.875	2729.6
