Data from C_2_DIV_PA_2N_Splice17_12-40-41-493.txt Node
Date: Sat Mar 14 12:40:41 EDT 2020
User: sa697716
Spectrometer: FLMS03696
Trigger mode: 0
Integration Time (sec): 3.180400E-1
Scans to average: 20
Electric dark correction enabled: true
Nonlinearity correction enabled: true
Boxcar width: 5
XAxis mode: Wavelengths
Number of Pixels in Spectrum: 2048
>>>>>Begin Spectral Data<<<<<
187.83	-491346.06
188.298	3482.37
188.766	1807.43
189.233	1644.96
189.701	2299.88
190.169	3069.32
190.636	1151.62
191.104	867.14
191.571	115.97
192.039	-95.06
192.506	-84.6
192.974	459.33
193.441	-794.35
193.908	-232.01
194.375	-38.39
194.842	13.74
195.31	117.96
195.777	189.42
196.244	405.78
196.711	397.32
197.177	480.89
197.644	676.63
198.111	1159.63
198.578	1604.44
199.045	1295.74
199.511	2053.52
199.978	2349.13
200.445	1994.11
200.911	2188.76
201.378	2409.32
201.844	2218.16
202.31	3755.85
202.777	3900.12
203.243	2167.3
203.709	2065.24
204.176	2443.33
204.642	2058.97
205.108	1938.55
205.574	1549.95
206.04	1399.94
206.506	1303.72
206.972	1220.19
207.438	1188.54
207.903	1343.62
208.369	1188.21
208.835	1190.66
209.301	1244.21
209.766	1250.94
210.232	1233.89
210.697	1548.55
211.163	1895.08
211.628	2890.67
212.094	2450.1
212.559	3069.85
213.024	1945.98
213.49	2395.41
213.955	2349.55
214.42	2281.54
214.885	2152.29
215.35	2096.18
215.815	2055.37
216.28	2211.64
216.745	1803.05
217.21	1983.63
217.675	1819.92
218.14	2065.23
218.604	2308.44
219.069	2692.16
219.534	2897.17
219.998	3406.37
220.463	4192.48
220.927	5210.89
221.392	4953.74
221.856	5065.23
222.32	6418.17
222.785	7981.75
223.249	10105.37
223.713	11375.65
224.177	11421.13
224.642	14680.72
225.106	18129.88
225.57	19856.75
226.034	14849.1
226.497	22692.06
226.961	20569.24
227.425	24032.77
227.889	26754.26
228.353	26850.48
228.816	55582.5
229.28	53301.25
229.744	45109.86
230.207	27560.32
230.671	27229.33
231.134	45165.97
231.597	52189.99
232.061	52330.26
232.524	51161.38
232.987	35342.63
233.45	31902.18
233.914	28695.29
234.377	29492.52
234.84	27051.99
235.303	31912.62
235.766	35652.31
236.229	36873.17
236.691	23283.93
237.154	26191.77
237.617	19733.68
238.08	20263.78
238.542	23769.72
239.005	17024.21
239.468	16908.5
239.93	15960.63
240.393	14542.91
240.855	12778.67
241.317	13097.88
241.78	15945.3
242.242	16534.14
242.704	17899.57
243.166	15592.54
243.629	14183.28
244.091	16356.85
244.553	17970.64
245.015	19351.79
245.477	25057.76
245.939	36804.57
246.4	39168.43
246.862	38174.45
247.324	36073.66
247.786	40442.71
248.247	53093.14
248.709	54858.02
249.17	41138.84
249.632	38845.07
250.093	45134.99
250.555	39043.95
251.016	23860.05
251.477	22666.59
251.939	24504.56
252.4	25698.69
252.861	30613.09
253.322	28537.84
253.783	34018.41
254.244	44136.59
254.705	34827.47
255.166	30965.9
255.627	30527.87
256.088	43114.26
256.549	45810.75
257.009	39448.62
257.47	47937.23
257.931	39010.01
258.391	29247.61
258.852	30170.81
259.312	31650.88
259.773	39081.81
260.233	33053.17
260.694	27897.31
261.154	31658.01
261.614	25456.21
262.074	22787.24
262.534	23670.7
262.994	22351.16
263.455	29804.61
263.915	25112.95
264.374	23651.58
264.834	25864.63
265.294	28742.21
265.754	29785.18
266.214	28207.35
266.673	26424.07
267.133	33417.26
267.593	33186.07
268.052	40613.13
268.512	35336.08
268.971	42656.99
269.431	46856.36
269.89	41960.68
270.349	62876.17
270.809	70157.7
271.268	63091.63
271.727	141613.61
272.186	91598.17
272.645	68684.18
273.104	49538.29
273.563	71719.53
274.022	56391.49
274.481	47971.27
274.94	36970.35
275.399	27476.98
275.857	31985.1
276.316	43269.13
276.775	38498.47
277.233	37928.72
277.692	35528.59
278.15	40190.87
278.609	41352.79
279.067	38230.72
279.525	35501.55
279.984	45824.26
280.442	55071.71
280.9	54292.43
281.358	35697.81
281.816	33278.53
282.274	32585.5
282.732	33666.92
283.19	33852.24
283.648	29217.52
284.106	31146.64
284.564	31680.9
285.021	29385.64
285.479	21869
285.937	19873.29
286.394	17428.02
286.852	17928.76
287.309	18840.74
287.767	18193.59
288.224	17302.95
288.682	18970.6
289.139	20825.56
289.596	19050.36
290.053	19810.8
290.511	25002.42
290.968	30379.37
291.425	41300.03
291.882	34397.44
292.339	29989.76
292.796	29812.24
293.252	28100.67
293.709	22359.42
294.166	20062.43
294.623	22207.79
295.079	21315.86
295.536	21453.33
295.992	19465.91
296.449	19249.71
296.905	20008.4
297.362	19176.88
297.818	20178.54
298.274	20938.82
298.731	21316.15
299.187	21092.44
299.643	22638.46
300.099	27370.92
300.555	30016.6
301.011	25077.42
301.467	24193.67
301.923	28300.66
302.379	27638.69
302.835	27133.27
303.291	27152.01
303.746	30924.11
304.202	39115.64
304.658	39296.7
305.113	26470.26
305.569	25941.26
306.024	27680.61
306.479	26339.08
306.935	22193.37
307.39	24221.6
307.845	22353.81
308.301	22489.6
308.756	21884.51
309.211	21035.15
309.666	21554.03
310.121	26719.46
310.576	27095.81
311.031	26900.21
311.486	30788.91
311.94	30772.29
312.395	41155.2
312.85	77372.22
313.305	380362.86
313.759	1971332.75
314.214	143082.38
314.668	113232.11
315.123	95291.42
315.577	34218.29
316.032	30384.55
316.486	38129.1
316.94	30114.46
317.394	20990.89
317.849	16346.43
318.303	15482.25
318.757	14645.04
319.211	16208.74
319.665	14203.7
320.119	14399.66
320.572	20658.6
321.026	19315.02
321.48	16086.81
321.934	17547.43
322.387	17588.06
322.841	18996.49
323.295	17103.12
323.748	19686.48
324.202	19968.31
324.655	23999.18
325.108	33534.15
325.562	23702.18
326.015	28228.29
326.468	21312.51
326.921	23882.56
327.374	22283.43
327.827	23207.51
328.28	26252.85
328.733	17626.32
329.186	15514.86
329.639	14808.7
330.092	12479.24
330.545	11875.82
330.997	12001.86
331.45	13132.48
331.903	15383.5
332.355	26465.22
332.808	25722.05
333.26	21227.77
333.713	22990.64
334.165	23160.68
334.617	30896.82
335.069	24969.97
335.522	45221.49
335.974	50053.23
336.426	45742.49
336.878	31703.02
337.33	16079.23
337.782	15709.43
338.234	19706.78
338.686	23628.61
339.137	27999.7
339.589	26363.9
340.041	20675.6
340.493	17768.9
340.944	18162.8
341.396	19575.52
341.847	16455.97
342.299	19455.04
342.75	23777.54
343.201	20797.66
343.653	23916.81
344.104	29458.4
344.555	23221.78
345.006	36171.82
345.457	27784.02
345.908	22111.65
346.359	20831.21
346.81	16988.39
347.261	17886.13
347.712	17633.69
348.163	18920.5
348.613	19188.14
349.064	17920.47
349.515	15699.38
349.965	16108.59
350.416	19371.51
350.866	21271.95
351.317	24020.61
351.767	39815.39
352.217	50385.31
352.668	41776.94
353.118	38255.7
353.568	36893.33
354.018	29182.79
354.468	30776.97
354.918	22097.02
355.368	19343.1
355.818	27323.15
356.268	78733.54
356.718	329607.61
357.168	82056.58
357.617	41187.23
358.067	45863.41
358.517	42939.23
358.966	50319.08
359.416	56469.03
359.865	61006.87
360.315	72685.79
360.764	34016.49
361.213	19103.18
361.663	18071.89
362.112	22309.21
362.561	36069.09
363.01	27206.73
363.459	22924.14
363.908	24836.69
364.357	21123.54
364.806	35730.02
365.255	24557.55
365.703	22456.33
366.152	22458.03
366.601	18240.64
367.05	14813.65
367.498	13453.57
367.947	14052.99
368.395	14624.5
368.844	12960.54
369.292	15607.06
369.74	10782.82
370.189	16530.67
370.637	19415.53
371.085	16740.3
371.533	20363.03
371.981	19623.06
372.429	18732.66
372.877	19514.11
373.325	16313.33
373.773	16573.23
374.221	14755.64
374.669	18303.18
375.116	15798.22
375.564	15900.88
376.012	17776.91
376.459	14672.74
376.907	17530.95
377.354	21142.82
377.801	19722.74
378.249	22664.09
378.696	28971.09
379.143	35057.13
379.591	37383.06
380.038	63279.83
380.485	45650.88
380.932	49367.67
381.379	45152.23
381.826	33255.77
382.273	23641.17
382.72	20637.84
383.166	20103.42
383.613	13046.86
384.06	11758.58
384.506	13561.91
384.953	9945.63
385.4	10020.42
385.846	8768.66
386.292	8536.8
386.739	8344.84
387.185	8251.07
387.631	8250.26
388.078	8001.79
388.524	8554.27
388.97	7895.25
389.416	6585.53
389.862	6995.09
390.308	6616.43
390.754	6707.89
391.2	7264.62
391.645	7414.88
392.091	7091.02
392.537	6845.92
392.983	6857.9
393.428	6740.71
393.874	7201.73
394.319	7223.18
394.765	6844.97
395.21	7030.68
395.655	6588.33
396.101	6168.82
396.546	5567.22
396.991	5608.24
397.436	5205.52
397.881	5013.99
398.326	4742.99
398.771	4493.62
399.216	3923.97
399.661	3534.61
400.106	3523.1
400.551	3607.44
400.995	3239.54
401.44	3214.18
401.885	3019.72
402.329	3055.13
402.774	2937
403.218	2851.27
403.663	2751.47
404.107	2836.22
404.551	2861.95
404.995	2629.32
405.44	2537.8
405.884	2583.55
406.328	2500.72
406.772	2505.29
407.216	2287
407.66	2215.65
408.104	2108.82
408.547	1982.15
408.991	1924.79
409.435	1857.97
409.879	1838.76
410.322	1819.42
410.766	1762.27
411.209	1683.14
411.653	1620.79
412.096	1595.55
412.54	1601.77
412.983	1598.58
413.426	1607.26
413.869	1610.17
414.312	1586.56
414.756	1532.6
415.199	1468.13
415.642	1428.49
416.085	1433.64
416.527	1426.14
416.97	1452.01
417.413	1381.47
417.856	1370.85
418.298	1361.98
418.741	1358.38
419.184	1357.96
419.626	1421.11
420.069	1426.54
420.511	1441.02
420.953	1419.72
421.396	1411.67
421.838	1378.99
422.28	1416.55
422.722	1424.93
423.164	1448.19
423.606	1426.08
424.048	1428.88
424.49	1361.03
424.932	1358.47
425.374	1343.14
425.816	1365.71
426.258	1395.38
426.699	1414.28
427.141	1397.74
427.582	1424.37
428.024	1421.92
428.465	1417.23
428.907	1383.5
429.348	1366.74
429.789	1365.51
430.231	1337.86
430.672	1357.75
431.113	1325.35
431.554	1307.44
431.995	1273.28
432.436	1227.17
432.877	1197.69
433.318	1177.88
433.759	1176.29
434.2	1176.71
434.64	1163.66
435.081	1165.52
435.522	1103.86
435.962	1063.84
436.403	1040.12
436.843	1053.92
437.284	1032.92
437.724	1006.17
438.164	1007.54
438.604	984.17
439.045	947.38
439.485	909.03
439.925	888.64
440.365	865.19
440.805	854.45
441.245	844.43
441.685	812.9
442.125	803.86
442.564	807.35
443.004	788.35
443.444	783.26
443.883	783.42
444.323	777.19
444.762	777.56
445.202	785.68
445.641	796.71
446.081	788.19
446.52	793.21
446.959	784.67
447.398	764.06
447.837	751.6
448.276	737.52
448.716	741.67
449.154	746.6
449.593	728.66
450.032	726.35
450.471	712.01
450.91	710.52
451.349	708.97
451.787	705.46
452.226	714.73
452.664	714.82
453.103	715.15
453.541	714.37
453.98	713.34
454.418	718.78
454.856	707.72
455.295	705.06
455.733	712.47
456.171	715.62
456.609	717.07
457.047	717.97
457.485	730.24
457.923	732.35
458.361	722.9
458.798	724.57
459.236	721.24
459.674	725.58
460.111	730.17
460.549	722.17
460.987	719.51
461.424	716.65
461.862	712.68
462.299	699
462.736	697.34
463.173	698.9
463.611	691.34
464.048	690.12
464.485	695.55
464.922	688.95
465.359	685.43
465.796	678.63
466.233	673.6
466.67	667.87
467.106	667.3
467.543	660.92
467.98	652.56
468.416	636.23
468.853	630.67
469.29	610.54
469.726	603.41
470.162	587.91
470.599	577.95
471.035	572.02
471.471	558.22
471.907	554.07
472.344	550.67
472.78	551.93
473.216	557.11
473.652	551.43
474.088	550.19
474.523	549.07
474.959	553.88
475.395	548.53
475.831	544.54
476.266	546.53
476.702	546.31
477.138	539.92
477.573	538.11
478.008	537.16
478.444	539.09
478.879	545.13
479.314	546.75
479.75	546.37
480.185	549.15
480.62	554.49
481.055	557.31
481.49	560.86
481.925	568.6
482.36	578.41
482.795	593.6
483.229	609.12
483.664	621.17
484.099	623.78
484.534	632.64
484.968	638.24
485.403	639
485.837	636.98
486.271	634.93
486.706	635.3
487.14	626.6
487.574	616.38
488.009	609.7
488.443	602.58
488.877	607.1
489.311	607.31
489.745	612.38
490.179	616.79
490.613	627.48
491.046	629.65
491.48	632.28
491.914	631.3
492.348	633.21
492.781	634.95
493.215	634.13
493.648	632.79
494.082	635.22
494.515	633.43
494.948	637.61
495.382	638.69
495.815	640.52
496.248	641.94
496.681	649
497.114	655.46
497.547	659.77
497.98	667.81
498.413	669.25
498.846	673.21
499.279	675.75
499.711	674.07
500.144	671.05
500.577	675.64
501.009	679.68
501.442	684.24
501.874	680.72
502.306	677.69
502.739	680.19
503.171	685.93
503.603	683.59
504.036	685.46
504.468	685.84
504.9	688.84
505.332	688.73
505.764	686.47
506.196	685.31
506.627	690.22
507.059	694.46
507.491	693.63
507.923	686.58
508.354	691.37
508.786	693.05
509.217	699.36
509.649	705.14
510.08	712.27
510.512	719.5
510.943	724.57
511.374	727.21
511.805	736.05
512.237	743.09
512.668	760.64
513.099	774.16
513.53	788.07
513.961	797.05
514.391	812.17
514.822	829.8
515.253	848.53
515.684	860.54
516.114	875.64
516.545	886
516.975	899.8
517.406	906.47
517.836	904.48
518.267	905.85
518.697	914.38
519.127	914.81
519.558	914.93
519.988	913.9
520.418	917.4
520.848	925.64
521.278	929.06
521.708	960.18
522.138	967.92
522.567	985.36
522.997	999.47
523.427	1007.3
523.857	1016.39
524.286	1022.7
524.716	1031.45
525.145	1043.54
525.575	1049.54
526.004	1056.86
526.433	1030.03
526.863	1027.87
527.292	1022.65
527.721	1026.48
528.15	1030.3
528.579	1031.7
529.008	1038.35
529.437	1051.91
529.866	1059.63
530.295	1070.22
530.724	1079.46
531.152	1096.99
531.581	1108.32
532.01	1118.8
532.438	1124.21
532.867	1132.77
533.295	1144.35
533.723	1149.83
534.152	1149.83
534.58	1151.31
535.008	1141.54
535.436	1142.6
535.865	1147.05
536.293	1154.93
536.721	1164.24
537.149	1180.22
537.576	1184.26
538.004	1192.46
538.432	1196.66
538.86	1195.39
539.287	1199.7
539.715	1208.9
540.143	1210.34
540.57	1209.07
540.998	1207.62
541.425	1195.89
541.852	1182.09
542.28	1180.36
542.707	1170.55
543.134	1161.6
543.561	1159.46
543.988	1155.28
544.415	1155.55
544.842	1152.96
545.269	1148.64
545.696	1150.83
546.123	1159.07
546.549	1152.94
546.976	1145.2
547.403	1145
547.829	1146.59
548.256	1148.38
548.682	1146.46
549.108	1142.89
549.535	1142.5
549.961	1143.37
550.387	1134.17
550.813	1130.92
551.24	1135.73
551.666	1135.8
552.092	1129.7
552.518	1126.1
552.943	1121.58
553.369	1126.6
553.795	1129.28
554.221	1130.49
554.646	1128.88
555.072	1137.38
555.498	1139.42
555.923	1144.76
556.349	1155.04
556.774	1160.51
557.199	1161.9
557.625	1165.43
558.05	1161.86
558.475	1169.28
558.9	1168.74
559.325	1164.69
559.75	1160.57
560.175	1156.48
560.6	1152.83
561.025	1151.05
561.449	1152.38
561.874	1155.25
562.299	1159.92
562.723	1165.26
563.148	1158.76
563.572	1160.67
563.997	1166.79
564.421	1170.02
564.846	1171.71
565.27	1174.28
565.694	1174.11
566.118	1181.89
566.542	1188.82
566.966	1184.11
567.39	1181.65
567.814	1175.19
568.238	1176.5
568.662	1180
569.086	1182.46
569.509	1187.13
569.933	1179.82
570.357	1174.98
570.78	1162.5
571.204	1155.55
571.627	1150.3
572.05	1149.22
572.474	1151.01
572.897	1143.68
573.32	1140.44
573.743	1134.72
574.166	1125.35
574.589	1126.18
575.012	1123.93
575.435	1124.18
575.858	1118.01
576.281	1111.75
576.704	1101.67
577.126	1094.05
577.549	1087.52
577.972	1080.51
578.394	1074.39
578.817	1070.44
579.239	1057.64
579.661	1049.24
580.084	1040.88
580.506	1033.1
580.928	1030.93
581.35	1024.65
581.772	1022.65
582.194	1014.88
582.616	1008.18
583.038	999.26
583.46	992.08
583.882	991.57
584.303	993.84
584.725	990.83
585.147	996.09
585.568	1003.74
585.99	1013.92
586.411	1019.47
586.833	1029.95
587.254	1031.61
587.675	1042.29
588.096	1052.06
588.518	1049.65
588.939	1039.66
589.36	1038.82
589.781	1029.08
590.202	1014.05
590.623	1008.2
591.043	1006.42
591.464	999.35
591.885	997.54
592.305	994.22
592.726	985.79
593.147	987.27
593.567	984.7
593.987	979.61
594.408	975.8
594.828	972.49
595.248	970.2
595.669	959.11
596.089	954.78
596.509	951.19
596.929	942.45
597.349	943.27
597.769	936.76
598.189	933.55
598.608	935.67
599.028	938.73
599.448	939.25
599.867	930.33
600.287	927.33
600.706	925.16
601.126	919.21
601.545	919.25
601.965	918.44
602.384	915.03
602.803	916.47
603.222	913.45
603.641	909.07
604.061	907.37
604.48	904.96
604.898	910.23
605.317	913.72
605.736	915.62
606.155	915.14
606.574	909.65
606.992	913.88
607.411	911.87
607.829	906.79
608.248	905.84
608.666	904.57
609.085	905.3
609.503	900.62
609.921	897.91
610.339	900.39
610.758	899.62
611.176	897.75
611.594	892.95
612.012	892.11
612.43	896.21
612.847	900.51
613.265	902.7
613.683	906.71
614.101	908.96
614.518	906.68
614.936	900.36
615.353	892.49
615.771	890.69
616.188	892.41
616.606	889.72
617.023	885.51
617.44	876.95
617.857	872.29
618.274	867.57
618.691	865.48
619.108	859.13
619.525	856.56
619.942	862.16
620.359	865.87
620.776	862.62
621.192	862.63
621.609	862.35
622.026	868.41
622.442	874.22
622.859	876.73
623.275	871.02
623.691	876.47
624.108	885.13
624.524	894.53
624.94	893.45
625.356	900.56
625.772	909.06
626.188	917.44
626.604	918.71
627.02	916.17
627.436	915.1
627.852	921.84
628.268	930.86
628.683	924.81
629.099	919.53
629.514	916.94
629.93	920.72
630.345	924.61
630.761	921.97
631.176	924.52
631.591	921.8
632.007	919.28
632.422	917.97
632.837	910.06
633.252	909.19
633.667	903.6
634.082	900.39
634.497	892.62
634.911	881.02
635.326	880.3
635.741	870.3
636.155	864.76
636.57	867.88
636.984	870.44
637.399	876.08
637.813	877.68
638.228	879.44
638.642	884.28
639.056	879.84
639.47	884.21
639.884	882.32
640.298	882.35
640.712	885.64
641.126	879.86
641.54	877.16
641.954	875.5
642.368	871.43
642.781	871.47
643.195	862.18
643.609	867.4
644.022	866.21
644.436	866.08
644.849	859.97
645.262	853.96
645.676	859.62
646.089	859.32
646.502	852.36
646.915	851.55
647.328	840.45
647.741	841.54
648.154	832.7
648.567	834.32
648.98	826.15
649.393	827.76
649.805	827.39
650.218	822.15
650.631	810.53
651.043	807.25
651.456	804.08
651.868	805.11
652.28	820.48
652.693	833.8
653.105	837.76
653.517	846.89
653.929	849.82
654.341	855.66
654.753	848.03
655.165	855.58
655.577	853.87
655.989	852
656.401	846.66
656.813	820.38
657.224	805.09
657.636	784.01
658.047	772.27
658.459	758.1
658.87	753.43
659.282	745.9
659.693	732.21
660.104	724.38
660.515	715.53
660.926	719.76
661.338	720.04
661.749	718.55
662.159	714.77
662.57	714.65
662.981	714.09
663.392	710.17
663.803	718.26
664.213	718.71
664.624	717.56
665.035	724.17
665.445	712.73
665.855	709.62
666.266	704.89
666.676	705.59
667.086	699.69
667.497	702.05
667.907	698.9
668.317	691.03
668.727	690.63
669.137	692.28
669.547	689.97
669.956	693.44
670.366	695.51
670.776	698.26
671.186	701.98
671.595	705.74
672.005	708.47
672.414	709.56
672.824	708.89
673.233	712.11
673.642	713.71
674.052	718.12
674.461	719.83
674.87	723.27
675.279	720.33
675.688	721.63
676.097	721.49
676.506	717.25
676.915	727.74
677.323	728.62
677.732	724.73
678.141	722.99
678.549	709.52
678.958	706.93
679.366	703.64
679.775	706.27
680.183	712.91
680.592	715.41
681	717.92
681.408	709.17
681.816	712.4
682.224	716.52
682.632	721.79
683.04	743.24
683.448	758.75
683.856	779.84
684.264	803.58
684.671	822.4
685.079	848.63
685.487	876.43
685.894	916.39
686.302	946.1
686.709	967.82
687.116	993.97
687.524	1013.68
687.931	1026.37
688.338	1034.02
688.745	1036.17
689.152	1042.87
689.559	1056.02
689.966	1068.94
690.373	1065.63
690.78	1076.53
691.187	1104.46
691.593	1119
692	1129.58
692.407	1156.81
692.813	1194.62
693.22	1220.16
693.626	1246.52
694.032	1266.94
694.439	1303.5
694.845	1332.45
695.251	1370.37
695.657	1403.07
696.063	1459.37
696.469	1498.36
696.875	1535.04
697.281	1550.59
697.687	1576.94
698.093	1600.55
698.498	1644.78
698.904	1678.83
699.31	1732.18
699.715	1773.68
700.12	1831.46
700.526	1842.9
700.931	1888.12
701.337	1923.24
