Data from C_2_DIV_IL_4N_Splice17_12-37-07-155.txt Node
Date: Sat Mar 14 12:37:07 EDT 2020
User: sa697716
Spectrometer: FLMS03696
Trigger mode: 0
Integration Time (sec): 3.180400E-1
Scans to average: 20
Electric dark correction enabled: true
Nonlinearity correction enabled: true
Boxcar width: 5
XAxis mode: Wavelengths
Number of Pixels in Spectrum: 2048
>>>>>Begin Spectral Data<<<<<
187.83	-380840.07
188.298	2916.67
188.766	1518.52
189.233	1386.87
189.701	1955.11
190.169	2642.25
190.636	953.42
191.104	778.9
191.571	83.54
192.039	-114.47
192.506	-126.44
192.974	461.39
193.441	-447.8
193.908	12.02
194.375	13.88
194.842	45.51
195.31	48.72
195.777	157.19
196.244	424.3
196.711	506.33
197.177	655.75
197.644	949.77
198.111	1663.26
198.578	2323.92
199.045	1837.08
199.511	3044.43
199.978	3578.84
200.445	3056.23
200.911	3375.35
201.378	3774.36
201.844	3412.56
202.31	5844.59
202.777	6046.43
203.243	3341.22
203.709	3179.33
204.176	3808.45
204.642	3157.71
205.108	2972.6
205.574	2434.87
206.04	2222.16
206.506	2098.77
206.972	1996.32
207.438	1939.95
207.903	2239.99
208.369	1975.41
208.835	1989.6
209.301	2103.57
209.766	2167.89
210.232	2164.69
210.697	2709.83
211.163	3391.42
211.628	5167.43
212.094	4371.58
212.559	5398.21
213.024	3379.01
213.49	4175.65
213.955	4126.09
214.42	4089.21
214.885	3813.3
215.35	3697.96
215.815	3594.29
216.28	3865.53
216.745	3206.59
217.21	3529.48
217.675	3362.43
218.14	3893.5
218.604	4504.33
219.069	5309.22
219.534	5732.47
219.998	6888.52
220.463	8577.97
220.927	10880.02
221.392	10469.38
221.856	10814.95
222.32	13894.16
222.785	17331.83
223.249	22062.66
223.713	24815.55
224.177	25004.6
224.642	32339.45
225.106	40032.68
225.57	43936.08
226.034	32707.68
226.497	49902.39
226.961	45079.11
227.425	52604.34
227.889	58524
228.353	58624.01
228.816	121188.2
229.28	115972.72
229.744	97924.87
230.207	59460.56
230.671	58508.41
231.134	96964.48
231.597	111722.18
232.061	111735.29
232.524	108974.56
232.987	74994.05
233.45	67467.32
233.914	60546.11
234.377	62054.56
234.84	56728.56
235.303	66891.02
235.766	74638.83
236.229	77087.91
236.691	48559.69
237.154	54527.94
237.617	40994.87
238.08	41971.16
238.542	49054.49
239.005	34995.52
239.468	34706.1
239.93	32698.84
240.393	29689.88
240.855	26019.1
241.317	26627.87
241.78	32362.67
242.242	33403.06
242.704	35967.25
243.166	31269.27
243.629	28324.92
244.091	32606.07
244.553	35714.4
245.015	38293.89
245.477	49520.15
245.939	72585.33
246.4	76944.01
246.862	74744.17
247.324	70398.19
247.786	78746.86
248.247	103200.92
248.709	106653.09
249.17	79699.28
249.632	74889.39
250.093	86676.51
250.555	74669.03
251.016	45430.5
251.477	43031.39
251.939	46337.11
252.4	48562.37
252.861	57749.83
253.322	53562.47
253.783	63665.41
254.244	82478.18
254.705	64981.07
255.166	57767.61
255.627	56846.13
256.088	80061.57
256.549	84882.95
257.009	73081.95
257.47	88578.49
257.931	71949.36
258.391	53937.41
258.852	55556.67
259.312	58175.36
259.773	71830.5
260.233	60578.3
260.694	51021.17
261.154	57842.23
261.614	46341.13
262.074	41376.85
262.534	42913.37
262.994	40429.98
263.455	53809.58
263.915	45290.41
264.374	42653
264.834	46539.62
265.294	51562.42
265.754	53366.56
266.214	50470.05
266.673	47275.9
267.133	59667.3
267.593	59212.27
268.052	72391.76
268.512	62893.69
268.971	75714.8
269.431	82962.69
269.89	74239.23
270.349	111300.58
270.809	124042.59
271.268	111485.83
271.727	250112.07
272.186	161911.77
272.645	121353.47
273.104	87547.82
273.563	126691.16
274.022	99644.78
274.481	84701
274.94	65166.72
275.399	48377.44
275.857	56298.53
276.316	76064.12
276.775	67608.99
277.233	66486.04
277.692	62163.93
278.15	70225.43
278.609	72191.94
279.067	66725.37
279.525	61877.48
279.984	79886.81
280.442	95895.86
280.9	94416.75
281.358	62076.74
281.816	57811.08
282.274	56588.17
282.732	58463.27
283.19	58722.52
283.648	50630.41
284.106	53938.42
284.564	54852.5
285.021	50793.78
285.479	37854.85
285.937	34427.2
286.394	30164.7
286.852	31019.94
287.309	32542.14
287.767	31352.66
288.224	29767.03
288.682	32627.73
289.139	35754.12
289.596	32659.89
290.053	33905.89
290.511	42746.13
290.968	51712.94
291.425	70104.83
291.882	58209.86
292.339	50657.21
292.796	50283.64
293.252	47353.3
293.709	37567.43
294.166	33659.7
294.623	37200.39
295.079	35678.29
295.536	35790.75
295.992	32489.71
296.449	32104.96
296.905	33330.1
297.362	31926.09
297.818	33571.96
298.274	34798.14
298.731	35483.02
299.187	35067.21
299.643	37601.25
300.099	45436.47
300.555	49800.65
301.011	41599.14
301.467	40011.07
301.923	46892.06
302.379	45730.76
302.835	44882.68
303.291	44899.29
303.746	51038.75
304.202	64445.84
304.658	64677.22
305.113	43467.86
305.569	42569.07
306.024	45325.15
306.479	43197.81
306.935	36362.92
307.39	39730.14
307.845	36635.48
308.301	36817.8
308.756	35809.2
309.211	34461.02
309.666	35298.99
310.121	43779.48
310.576	44408.08
311.031	44062.67
311.486	50436.79
311.94	50342.42
312.395	67245.11
312.85	126303.19
313.305	621588.17
313.759	3214558.22
314.214	232748.06
314.668	184132.06
315.123	154551.88
315.577	55357.13
316.032	49194.53
316.486	61606.63
316.94	48569.73
317.394	33749.77
317.849	26192.94
318.303	24740.74
318.757	23305
319.211	25764.32
319.665	22519.27
320.119	22789.66
320.572	32667.11
321.026	30480.68
321.48	25347.75
321.934	27625.24
322.387	27677.99
322.841	29894.29
323.295	26819.92
323.748	30923.48
324.202	31309.58
324.655	37573.46
325.108	52452.25
325.562	37009.56
326.015	43958.12
326.468	33180.04
326.921	37115.94
327.374	34591.06
327.827	35959.64
328.28	40674.98
328.733	27238.91
329.186	23951.71
329.639	22824.73
330.092	19234.76
330.545	18305.91
330.997	18446.28
331.45	20150.91
331.903	23556.5
332.355	40525.47
332.808	39383.08
333.26	32494.64
333.713	35218.73
334.165	35482.15
334.617	47341.23
335.069	38223.49
335.522	69059.96
335.974	76422.74
336.426	69755.78
336.878	48329.97
337.33	24464.86
337.782	23879.27
338.234	29849.43
338.686	35726.68
339.137	42259.99
339.589	39763.83
340.041	31148.64
340.493	26814.28
340.944	27427.18
341.396	29550.36
341.847	24804.55
342.299	29235.39
342.75	35636
343.201	31199.97
343.653	35836.98
344.104	44021.27
344.555	34691.96
345.006	54034.17
345.457	41293.06
345.908	32844.44
346.359	30869.04
346.81	25154.05
347.261	26503.02
347.712	26096.6
348.163	27934.23
348.613	28233.86
349.064	26359.59
349.515	23044.44
349.965	23621.15
350.416	28426.95
350.866	31186.15
351.317	35251.01
351.767	58363.26
352.217	73776.96
352.668	61171.42
353.118	56010.89
353.568	54068.03
354.018	42673.02
354.468	44961.83
354.918	32197.51
355.368	28162.37
355.818	39715.38
356.268	114194.91
356.718	477085.87
357.168	118552.06
357.617	59415.87
358.067	66150.56
358.517	61934.25
358.966	72615.85
359.416	81273.42
359.865	87836.7
360.315	104566.76
360.764	48761.26
361.213	27280.93
361.663	25850.61
362.112	31902.88
362.561	51498.18
363.01	38728.56
363.459	32571.4
363.908	35224.96
364.357	29880.7
364.806	50403.11
365.255	34597.67
365.703	31680.82
366.152	31715.88
366.601	25686.9
367.05	20817.41
367.498	18903.27
367.947	19759.25
368.395	20515.3
368.844	18138.77
369.292	21913.29
369.74	15122.25
370.189	23160.41
370.637	27139.04
371.085	23367.18
371.533	28468.66
371.981	27440.45
372.429	26106.8
372.877	27179.37
373.325	22736.77
373.773	23176.74
374.221	20600.99
374.669	25562.25
375.116	22077.8
375.564	22207.19
376.012	24849.79
376.459	20421.24
376.907	24359.16
377.354	29439.7
377.801	27387.21
378.249	31420.22
378.696	40106.34
379.143	48444.85
379.591	51574.21
380.038	87105.95
380.485	62968.9
380.932	67796.95
381.379	61973.02
381.826	45568.93
382.273	32388.89
382.72	28299.36
383.166	27526.53
383.613	17832.55
384.06	16082.96
384.506	18558.76
384.953	13622.91
385.4	13704.41
385.846	12013.07
386.292	11707.68
386.739	11455.58
387.185	11320.27
387.631	11321.4
388.078	10978.29
388.524	11735.15
388.97	10824
389.416	9016.16
389.862	9556.51
390.308	9030.71
390.754	9144.2
391.2	9913.91
391.645	10145.08
392.091	9677.54
392.537	9326.94
392.983	9343.44
393.428	9154.96
393.874	9803.58
394.319	9835.19
394.765	9317.27
395.21	9573.67
395.655	8976.78
396.101	8388.88
396.546	7556.56
396.991	7623.35
397.436	7088.02
397.881	6836.48
398.326	6483.11
398.771	6126.19
399.216	5352.41
399.661	4824.11
400.106	4804.45
400.551	4909.99
400.995	4405.06
401.44	4351.94
401.885	4080.33
402.329	4116.53
402.774	3945.47
403.218	3809.74
403.663	3665.13
404.107	3764.15
404.551	3787.3
404.995	3468.84
405.44	3344.62
405.884	3386.92
406.328	3275.42
406.772	3272.51
407.216	2975.77
407.66	2877.49
408.104	2736.35
408.547	2560.29
408.991	2476.15
409.435	2382.17
409.879	2349.17
410.322	2313.25
410.766	2237.01
411.209	2127.64
411.653	2037.29
412.096	1995.18
412.54	1992.17
412.983	1978.45
413.426	1982.27
413.869	1980.58
414.312	1941.74
414.756	1868.05
415.199	1781.24
415.642	1726.29
416.085	1726.34
416.527	1715.04
416.97	1740.31
417.413	1650.85
417.856	1631.97
418.298	1615.15
418.741	1603.47
419.184	1598.59
419.626	1668.05
420.069	1671.52
420.511	1680.83
420.953	1645.12
421.396	1630.24
421.838	1590.22
422.28	1629.29
422.722	1636.05
423.164	1660.39
423.606	1631.51
424.048	1628.14
424.49	1543.91
424.932	1531.85
425.374	1510.81
425.816	1536.4
426.258	1563.16
426.699	1579.24
427.141	1554.19
427.582	1577.27
428.024	1571.12
428.465	1561.61
428.907	1520.81
429.348	1503.15
429.789	1504.03
430.231	1472.82
430.672	1492.41
431.113	1458.47
431.554	1437.22
431.995	1399.76
432.436	1351.03
432.877	1316.37
433.318	1294.3
433.759	1291.57
434.2	1289.03
434.64	1275.81
435.081	1278.87
435.522	1210.28
435.962	1166.11
436.403	1140.62
436.843	1155.73
437.284	1129.23
437.724	1101.92
438.164	1104.91
438.604	1079.06
439.045	1038.53
439.485	994.83
439.925	970.3
440.365	944.63
440.805	930.42
441.245	917.47
441.685	884.05
442.125	877.81
442.564	881.02
443.004	859.44
443.444	855.33
443.883	857.73
444.323	850.21
444.762	855.63
445.202	868.71
445.641	883.78
446.081	877.31
446.52	884.98
446.959	875.76
447.398	854.75
447.837	843.68
448.276	830.06
448.716	835.32
449.154	844.55
449.593	822.06
450.032	817.95
450.471	802.95
450.91	804.1
451.349	801.39
451.787	796.74
452.226	809.19
452.664	809.82
453.103	811.76
453.541	811.09
453.98	808.85
454.418	815.03
454.856	801.02
455.295	798.21
455.733	803.68
456.171	807.73
456.609	809.56
457.047	808.65
457.485	820
457.923	820.06
458.361	807.93
458.798	810.83
459.236	809.14
459.674	815.51
460.111	820.53
460.549	812.56
460.987	809.85
461.424	806.38
461.862	802.26
462.299	790.07
462.736	788.58
463.173	792.7
463.611	783
464.048	780.45
464.485	787.04
464.922	780.04
465.359	775.92
465.796	764.96
466.233	759.39
466.67	751.65
467.106	750.64
467.543	744.94
467.98	734.64
468.416	715.86
468.853	708.99
469.29	686.4
469.726	677.65
470.162	659.09
470.599	651.56
471.035	645.02
471.471	630.32
471.907	625.63
472.344	620.41
472.78	621.07
473.216	628.88
473.652	622.35
474.088	621.35
474.523	619.57
474.959	625.85
475.395	619.02
475.831	615.82
476.266	616.92
476.702	614.22
477.138	607.3
477.573	605.09
478.008	601.95
478.444	603.43
478.879	608.03
479.314	610.6
479.75	610.72
480.185	613
480.62	617.72
481.055	621.28
481.49	625.43
481.925	634.65
482.36	646.25
482.795	664.29
483.229	681.83
483.664	695.98
484.099	697.93
484.534	708.02
484.968	715.11
485.403	717.35
485.837	716.16
486.271	715.25
486.706	714.84
487.14	706.82
487.574	694.32
488.009	687.75
488.443	681.22
488.877	687.5
489.311	688.64
489.745	695.76
490.179	700.94
490.613	713.5
491.046	717.64
491.48	722.21
491.914	721.49
492.348	726.35
492.781	729.69
493.215	730.11
493.648	731.37
494.082	735.65
494.515	735.01
494.948	741.75
495.382	745.56
495.815	749.69
496.248	755.25
496.681	767.99
497.114	778.65
497.547	788.15
497.98	800.73
498.413	805.83
498.846	815.36
499.279	823.54
499.711	827.22
500.144	828.27
500.577	839.19
501.009	848.89
501.442	856.78
501.874	857.47
502.306	858.01
502.739	866.29
503.171	880.69
503.603	882.51
504.036	891.55
504.468	897.16
504.9	907.93
505.332	913.5
505.764	917.3
506.196	925.27
506.627	939.66
507.059	953.52
507.491	961.36
507.923	959.06
508.354	974.74
508.786	985.36
509.217	1003.15
509.649	1019.02
510.08	1038.85
510.512	1056.81
510.943	1072.86
511.374	1084.59
511.805	1106.3
512.237	1126.93
512.668	1160.26
513.099	1189.7
513.53	1219.17
513.961	1241.89
514.391	1276.12
514.822	1311.17
515.253	1348.76
515.684	1375.23
516.114	1407.45
516.545	1431.34
516.975	1460.86
517.406	1482.11
517.836	1486.4
518.267	1494.77
518.697	1515.38
519.127	1520.5
519.558	1530.24
519.988	1536.77
520.418	1549.87
520.848	1570.66
521.278	1581.42
521.708	1601.31
522.138	1616.81
522.567	1651.22
522.997	1680.2
523.427	1699.48
523.857	1720.9
524.286	1732.63
524.716	1750.17
525.145	1773.41
525.575	1787.33
526.004	1805.7
526.433	1801.53
526.863	1802.55
527.292	1793.64
527.721	1802.07
528.15	1810
528.579	1811.79
529.008	1826.77
529.437	1853.59
529.866	1868.38
530.295	1888.23
530.724	1902.47
531.152	1934.3
531.581	1952.05
532.01	1972.07
532.438	1981.66
532.867	1998.17
533.295	2020.11
533.723	2026.56
534.152	2025.04
534.58	2026.39
535.008	2009.73
535.436	2012.17
535.865	2020.78
536.293	2038.07
536.721	2056.23
537.149	2085.68
537.576	2088.75
538.004	2103.91
538.432	2114.05
538.86	2113.19
539.287	2121.68
539.715	2138.36
540.143	2142.39
540.57	2137.62
540.998	2132.2
541.425	2107.78
541.852	2085.23
542.28	2084.6
542.707	2064.93
543.134	2050.33
543.561	2045.9
543.988	2037.59
544.415	2036.22
544.842	2030.48
545.269	2023.11
545.696	2026.32
546.123	2040.7
546.549	2028.73
546.976	2014.69
547.403	2015.42
547.829	2018.04
548.256	2020.37
548.682	2016.71
549.108	2008.74
549.535	2008.37
549.961	2009.95
550.387	1995.84
550.813	1989.88
551.24	1996.41
551.666	1998.02
552.092	1987.88
552.518	1979.22
552.943	1972.2
553.369	1980.91
553.795	1987
554.221	1987.54
554.646	1985.15
555.072	1996.12
555.498	2002.13
555.923	2011.57
556.349	2027.01
556.774	2035.88
557.199	2037.34
557.625	2043.53
558.05	2036.75
558.475	2048.57
558.9	2047.27
559.325	2038.69
559.75	2031.78
560.175	2024.69
560.6	2017.55
561.025	2015.22
561.449	2016.15
561.874	2022.63
562.299	2027.14
562.723	2033.9
563.148	2021.59
563.572	2025.56
563.997	2035.52
564.421	2039.88
564.846	2038.8
565.27	2042.05
565.694	2038.35
566.118	2050.43
566.542	2056.58
566.966	2048.36
567.39	2043.34
567.814	2030.2
568.238	2028.6
568.662	2032.5
569.086	2035.4
569.509	2042.59
569.933	2024.53
570.357	2016.35
570.78	1991.41
571.204	1978.4
571.627	1967.3
572.05	1963.91
572.474	1964.18
572.897	1950.45
573.32	1942.01
573.743	1930.64
574.166	1910.1
574.589	1910.26
575.012	1901.14
575.435	1901.45
575.858	1890.08
576.281	1877.17
576.704	1858.83
577.126	1843.68
577.549	1830.28
577.972	1818.25
578.394	1805.91
578.817	1798.08
579.239	1776.18
579.661	1760.39
580.084	1741.84
580.506	1726.71
580.928	1721.91
581.35	1710.24
581.772	1705.43
582.194	1690.73
582.616	1677.63
583.038	1661.44
583.46	1648.72
583.882	1646.3
584.303	1650.15
584.725	1644.9
585.147	1647.92
585.568	1659.14
585.99	1671.91
586.411	1678.81
586.833	1695.74
587.254	1696.09
587.675	1711.43
588.096	1724.58
588.518	1717.86
588.939	1700.31
589.36	1697.8
589.781	1684.33
590.202	1651.98
590.623	1642.47
591.043	1640.22
591.464	1625.99
591.885	1621.71
592.305	1614.52
592.726	1600.77
593.147	1602.82
593.567	1596.62
593.987	1588.29
594.408	1582.92
594.828	1581.03
595.248	1574.62
595.669	1553.93
596.089	1546.14
596.509	1539.01
596.929	1525.85
597.349	1525.84
597.769	1513.63
598.189	1506.75
598.608	1507.57
599.028	1509.29
599.448	1509.35
599.867	1495.63
600.287	1490.49
600.706	1485.61
601.126	1474.57
601.545	1472.96
601.965	1471.67
602.384	1466.2
602.803	1469.43
603.222	1463.68
603.641	1456.72
604.061	1452.53
604.48	1447.98
604.898	1456.86
605.317	1460.93
605.736	1462.81
606.155	1460.14
606.574	1449.39
606.992	1454.61
607.411	1448.45
607.829	1440.08
608.248	1435.7
608.666	1432.54
609.085	1430.94
609.503	1421.7
609.921	1414.73
610.339	1417.4
610.758	1414.7
611.176	1409.73
611.594	1400.9
612.012	1396.92
612.43	1398.76
612.847	1405.99
613.265	1406.62
613.683	1411.13
614.101	1411.6
614.518	1407.79
614.936	1396.25
615.353	1381.09
615.771	1376.62
616.188	1375.19
616.606	1370.53
617.023	1364.84
617.44	1349.06
617.857	1340.83
618.274	1331.24
618.691	1324.59
619.108	1313.57
619.525	1307.13
619.942	1313.45
620.359	1316.32
620.776	1310.88
621.192	1306.36
621.609	1301.65
622.026	1307.12
622.442	1312.86
622.859	1315.53
623.275	1307.73
623.691	1313.97
624.108	1325.06
624.524	1339.36
624.94	1339.48
625.356	1349.09
625.772	1363.93
626.188	1377.43
626.604	1379.78
627.02	1375.69
627.436	1372.57
627.852	1379.26
628.268	1390.79
628.683	1380.51
629.099	1371.33
629.514	1365.78
629.93	1370.02
630.345	1373.37
630.761	1367.83
631.176	1370.73
631.591	1365.57
632.007	1360.91
632.422	1359.94
632.837	1348.29
633.252	1345.49
633.667	1335
634.082	1326.33
634.497	1313.08
634.911	1294
635.326	1290.29
635.741	1272.33
636.155	1260.81
636.57	1261.43
636.984	1259.64
637.399	1261.54
637.813	1262.12
638.228	1260.48
638.642	1263.38
639.056	1253.14
639.47	1252.2
639.884	1244.66
640.298	1239.38
640.712	1238.14
641.126	1225.04
641.54	1216.86
641.954	1211.22
642.368	1198.71
642.781	1191.4
643.195	1173.66
643.609	1173.43
644.022	1167.52
644.436	1163.23
644.849	1150.79
645.262	1139.35
645.676	1141.77
646.089	1136.77
646.502	1122.21
646.915	1116.25
647.328	1098.53
647.741	1096.09
648.154	1082.05
648.567	1079.29
648.98	1064.27
649.393	1063.39
649.805	1058.59
650.218	1049.62
650.631	1032.86
651.043	1025.12
651.456	1018.72
651.868	1019.65
652.28	1037.1
652.693	1050.44
653.105	1056.17
653.517	1066.71
653.929	1066.37
654.341	1071.42
654.753	1058.91
655.165	1064.26
655.577	1061.1
655.989	1055.99
656.401	1045.28
656.813	1007.11
657.224	986.19
657.636	956.32
658.047	937.39
658.459	916.61
658.87	906.6
659.282	893.73
659.693	873.23
660.104	858.2
660.515	844.03
660.926	843.48
661.338	841.38
661.749	834.06
662.159	824.55
662.57	819.2
662.981	815.56
663.392	808.05
663.803	811.91
664.213	808.99
664.624	805.74
665.035	809.02
665.445	794.22
665.855	787.68
666.266	780.99
666.676	779.35
667.086	770.59
667.497	770.04
667.907	765.19
668.317	756.82
668.727	754.85
669.137	755.14
669.547	753.56
669.956	757.15
670.366	758.01
670.776	759.82
671.186	763.22
671.595	768.16
672.005	771.6
672.414	770.13
672.824	769.21
673.233	772.95
673.642	776.02
674.052	779.52
674.461	781.2
674.87	785.96
675.279	785.38
675.688	786.85
676.097	787.25
676.506	782.94
676.915	798.11
677.323	799.7
677.732	797.47
678.141	795.21
678.549	783.55
678.958	783.11
679.366	782.97
679.775	786.3
680.183	797.64
680.592	803.42
681	810.76
681.408	804.14
681.816	812.26
682.224	820.35
682.632	831.59
683.04	861.98
683.448	885.39
683.856	914.17
684.264	948.14
684.671	979.61
685.079	1019
685.487	1062.13
685.894	1121.59
686.302	1170.27
686.709	1211.04
687.116	1257.62
687.524	1294.57
687.931	1327.01
688.338	1355.09
688.745	1377.89
689.152	1403.79
689.559	1441.31
689.966	1479.25
690.373	1497.72
690.78	1534.77
691.187	1593.44
691.593	1636.3
692	1675.41
692.407	1735.02
692.813	1808.93
693.22	1868.67
693.626	1931
694.032	1981.12
694.439	2057.62
694.845	2117.99
695.251	2194.53
695.657	2263.64
