Data from C_2_HIR_IL_4N_Splice17_12-12-12-429.txt Node
Date: Sat Mar 14 12:12:12 EDT 2020
User: sa697716
Spectrometer: FLMS03696
Trigger mode: 0
Integration Time (sec): 3.180400E-1
Scans to average: 20
Electric dark correction enabled: true
Nonlinearity correction enabled: true
Boxcar width: 5
XAxis mode: Wavelengths
Number of Pixels in Spectrum: 2048
>>>>>Begin Spectral Data<<<<<
187.83	-372868.56
188.298	2775.82
188.766	1444.52
189.233	1327.33
189.701	1852.64
190.169	2622.23
190.636	984.73
191.104	737.4
191.571	153.55
192.039	-1.72
192.506	19.81
192.974	542.47
193.441	-699.6
193.908	-137.21
194.375	1.85
194.842	74.57
195.31	149.45
195.777	167.77
196.244	320.52
196.711	397.31
197.177	495.99
197.644	716.42
198.111	1266.58
198.578	1771.62
199.045	1426.41
199.511	2302.28
199.978	2664.51
200.445	2287.56
200.911	2513.51
201.378	2810.64
201.844	2537.36
202.31	4325.91
202.777	4493.38
203.243	2477.87
203.709	2362.99
204.176	2822.53
204.642	2320.33
205.108	2171.94
205.574	1758.66
206.04	1611.57
206.506	1518.35
206.972	1437.42
207.438	1393.63
207.903	1589.91
208.369	1395.05
208.835	1390.88
209.301	1425.59
209.766	1480.72
210.232	1475.63
210.697	1835.06
211.163	2261.88
211.628	3385.7
212.094	2856.91
212.559	3546.08
213.024	2201.27
213.49	2666.65
213.955	2584.18
214.42	2548.62
214.885	2346.19
215.35	2251.86
215.815	2182.03
216.28	2303.65
216.745	1869.43
217.21	2011.32
217.675	1816.81
218.14	2032.95
218.604	2272.97
219.069	2590.53
219.534	2715.3
219.998	3151.65
220.463	3794.76
220.927	4621.2
221.392	4336.43
221.856	4393.64
222.32	5519.84
222.785	6838.52
223.249	8590.86
223.713	9575.63
224.177	9573.52
224.642	12245.02
225.106	15067.84
225.57	16468.2
226.034	12298.19
226.497	18767.48
226.961	16952.73
227.425	19769.46
227.889	21913.33
228.353	21976.31
228.816	45368.17
229.28	43417.92
229.744	36641.4
230.207	22268.97
230.671	21883.18
231.134	36180.48
231.597	41776.85
232.061	41827.36
232.524	40885.7
232.987	28206.27
233.45	25374.55
233.914	22785.22
234.377	23346.78
234.84	21427.94
235.303	25287.9
235.766	28304.38
236.229	29254.16
236.691	18408.29
237.154	20694.81
237.617	15582.95
238.08	15956.51
238.542	18694.49
239.005	13390.01
239.468	13324.11
239.93	12550.88
240.393	11422.99
240.855	10027.42
241.317	10274.88
241.78	12515.56
242.242	12962.19
242.704	14008.13
243.166	12216.36
243.629	11100.54
244.091	12784.32
244.553	14020.29
245.015	15084.78
245.477	19512.46
245.939	28628.07
246.4	30466.94
246.862	29634.63
247.324	27944.71
247.786	31238.15
248.247	40965.3
248.709	42325.08
249.17	31690.63
249.632	29909.38
250.093	34716.98
250.555	30014.45
251.016	18322.95
251.477	17367.78
251.939	18764.2
252.4	19676.22
252.861	23425.5
253.322	21812.85
253.783	25968.57
254.244	33668.89
254.705	26517.13
255.166	23563.01
255.627	23215.54
256.088	32764.44
256.549	34780.05
257.009	29938.24
257.47	36346.19
257.931	29601.1
258.391	22169.61
258.852	22872.82
259.312	23980.08
259.773	29618.98
260.233	25031.73
260.694	21099.44
261.154	23918.55
261.614	19204.32
262.074	17157.83
262.534	17817.1
262.994	16790.4
263.455	22376.11
263.915	18808.67
264.374	17714.13
264.834	19332.74
265.294	21419.74
265.754	22178.82
266.214	20971.25
266.673	19643.98
267.133	24775.81
267.593	24568.73
268.052	30035.92
268.512	26062.33
268.971	31457.68
269.431	34470.28
269.89	30833.05
270.349	46206.12
270.809	51460.13
271.268	46209.09
271.727	103459.72
272.186	66935.3
272.645	50194.7
273.104	36150.81
273.563	52330.94
274.022	41051.06
274.481	34896.63
274.94	26852.05
275.399	19917.02
275.857	23153.23
276.316	31281.05
276.775	27846.56
277.233	27402.9
277.692	25605.92
278.15	28933.69
278.609	29764.86
279.067	27532.69
279.525	25562.14
279.984	32989.2
280.442	39659.03
280.9	39138.31
281.358	25733.78
281.816	23937.42
282.274	23419.48
282.732	24204.34
283.19	24328.13
283.648	20950.36
284.106	22310.69
284.564	22663.54
285.021	21010.2
285.479	15625.57
285.937	14207.01
286.394	12465.23
286.852	12833.56
287.309	13491.6
287.767	13024.37
288.224	12385.61
288.682	13597.28
289.139	14935.23
289.596	13673.41
290.053	14203.86
290.511	17918.66
290.968	21709.21
291.425	29457.09
291.882	24497.81
292.339	21304.06
292.796	21138.13
293.252	19922.68
293.709	15851.48
294.166	14187.89
294.623	15668.89
295.079	15022.89
295.536	15103.49
295.992	13701.62
296.449	13552.97
296.905	14096.53
297.362	13535.83
297.818	14210.5
298.274	14740.88
298.731	14993.47
299.187	14843.63
299.643	15907.65
300.099	19264.85
300.555	21127.98
301.011	17645.04
301.467	17005.2
301.923	19881.88
302.379	19397.89
302.835	19079.87
303.291	19092.95
303.746	21709.98
304.202	27411.61
304.658	27556.37
305.113	18506.31
305.569	18148.63
306.024	19361.67
306.479	18442.82
306.935	15534.58
307.39	16952.16
307.845	15630.82
308.301	15744.29
308.756	15353.45
309.211	14800.53
309.666	15152.68
310.121	18845.14
310.576	19108.72
311.031	18983.95
311.486	21736.59
311.94	21721.78
312.395	29063.2
312.85	54687.68
313.305	268377.26
313.759	1389987.29
314.214	100771.32
314.668	79869.38
315.123	67175.46
315.577	24133.37
316.032	21419.73
316.486	26848.46
316.94	21200.01
317.394	14756.08
317.849	11457.17
318.303	10850.29
318.757	10251.83
319.211	11319.91
319.665	9930.71
320.119	10033.09
320.572	14354.43
321.026	13432.31
321.48	11169.39
321.934	12181.2
322.387	12211.23
322.841	13200.87
323.295	11865.41
323.748	13647.94
324.202	13852.31
324.655	16630.1
325.108	23282.18
325.562	16451.78
326.015	19559.02
326.468	14776.99
326.921	16552.34
327.374	15461.01
327.827	16121.65
328.28	18237.52
328.733	12234.45
329.186	10764.93
329.639	10248.35
330.092	8632.09
330.545	8213.93
330.997	8287.06
331.45	9087.8
331.903	10641.14
332.355	18294.37
332.808	17748.41
333.26	14666.34
333.713	15936.02
334.165	16080.87
334.617	21485.95
335.069	17357.1
335.522	31398.18
335.974	34754.57
336.426	31666.31
336.878	21928.01
337.33	11127.32
337.782	10897.08
338.234	13641.47
338.686	16327.31
339.137	19333.84
339.589	18214.39
340.041	14293.16
340.493	12306.46
340.944	12606.1
341.396	13582.25
341.847	11437.15
342.299	13480.74
342.75	16449.55
343.201	14368.8
343.653	16492.88
344.104	20239.75
344.555	15927.72
345.006	24760.07
345.457	18992.38
345.908	15089.13
346.359	14191.89
346.81	11557.4
347.261	12197.56
347.712	11995.68
348.163	12853.87
348.613	13019.39
349.064	12163.32
349.515	10650.25
349.965	10897.47
350.416	13086.4
350.866	14324.49
351.317	16198.61
351.767	26808.91
352.217	33852.74
352.668	28121.12
353.118	25828.47
353.568	24831.65
354.018	19609.02
354.468	20678.18
354.918	14876.68
355.368	13037.77
355.818	18410.81
356.268	52866.52
356.718	221409.46
357.168	55011.27
357.617	27560.84
358.067	30573.56
358.517	28700.33
358.966	33659.09
359.416	37728.08
359.865	40704.78
360.315	48357.92
360.764	22630.52
361.213	12676.32
361.663	11988.51
362.112	14777.17
362.561	23894.72
363.01	18039.88
363.459	15162.58
363.908	16429.91
364.357	13966.68
364.806	23596.13
365.255	16228.84
365.703	14836.8
366.152	14853.65
366.601	12038.11
367.05	9784.35
367.498	8866.2
367.947	9247.62
368.395	9618.02
368.844	8520.2
369.292	10256.12
369.74	7090.62
370.189	10847.19
370.637	12726.78
371.085	10985.21
371.533	13332.47
371.981	12844.45
372.429	12264.76
372.877	12745.66
373.325	10661.17
373.773	10826.18
374.221	9618.95
374.669	11895.19
375.116	10285.1
375.564	10349.43
376.012	11543.31
376.459	9556.62
376.907	11391.41
377.354	13713.07
377.801	12785.33
378.249	14687.01
378.696	18707.77
379.143	22631.87
379.591	24115.88
380.038	40635.1
380.485	29298.47
380.932	31562.1
381.379	28828.27
381.826	21221.3
382.273	15081.12
382.72	13164.32
383.166	12799.4
383.613	8301.15
384.06	7466.06
384.506	8642.39
384.953	6339.12
385.4	6373.61
385.846	5580.78
386.292	5408.84
386.739	5276.46
387.185	5213.11
387.631	5207.96
388.078	5063.95
388.524	5410.41
388.97	4995.43
389.416	4155.85
389.862	4417
390.308	4179.83
390.754	4244.4
391.2	4596.51
391.645	4708.41
392.091	4512.24
392.537	4361.31
392.983	4342.32
393.428	4275.74
393.874	4583.09
394.319	4612.64
394.765	4376.26
395.21	4494.75
395.655	4216.62
396.101	3957.94
396.546	3566.27
396.991	3583.02
397.436	3326.87
397.881	3210.08
398.326	3039.18
398.771	2873.27
399.216	2503.9
399.661	2254.29
400.106	2249.85
400.551	2305.61
400.995	2068.12
401.44	2047.79
401.885	1923.56
402.329	1940.13
402.774	1864.74
403.218	1807.8
403.663	1739.35
404.107	1789
404.551	1803.23
404.995	1652.6
405.44	1587.66
405.884	1608.61
406.328	1553.32
406.772	1550.36
407.216	1414.18
407.66	1367.16
408.104	1293.56
408.547	1210.22
408.991	1168.32
409.435	1123.67
409.879	1111.35
410.322	1100.08
410.766	1066.77
411.209	1016.17
411.653	976.02
412.096	959.66
412.54	960.71
412.983	957.88
413.426	963.74
413.869	965.01
414.312	949.06
414.756	911.59
415.199	868.96
415.642	844.26
416.085	847.44
416.527	841.92
416.97	851.66
417.413	808.96
417.856	799.38
418.298	790.36
418.741	783.3
419.184	778.92
419.626	810.65
420.069	811.01
420.511	815.22
420.953	797.88
421.396	790.36
421.838	769.59
422.28	786.08
422.722	791.93
423.164	802.45
423.606	791.15
424.048	791.4
424.49	754.06
424.932	750.01
425.374	740.62
425.816	751.86
426.258	763.79
426.699	773.65
427.141	766.54
427.582	778.26
428.024	775.25
428.465	768.93
428.907	748.44
429.348	738.62
429.789	740.76
430.231	724.5
430.672	736.36
431.113	720.76
431.554	710.61
431.995	689.67
432.436	665.05
432.877	650.17
433.318	641.76
433.759	639.88
434.2	640.88
434.64	633.18
435.081	633.97
435.522	600.67
435.962	580.03
436.403	568.72
436.843	576.4
437.284	562.84
437.724	547.39
438.164	548.5
438.604	536.53
439.045	516.55
439.485	495.68
439.925	486.02
440.365	474.3
440.805	467.71
441.245	462.14
441.685	446.11
442.125	442.51
442.564	445.17
443.004	434.75
443.444	435.25
443.883	437.16
444.323	433.38
444.762	432.11
445.202	438.65
445.641	448.82
446.081	446.52
446.52	451.09
446.959	449.35
447.398	440.44
447.837	435.44
448.276	427.51
448.716	434.04
449.154	438.23
449.593	431.19
450.032	429.54
450.471	420.18
450.91	420.98
451.349	421.83
451.787	419.9
452.226	425.35
452.664	426.05
453.103	427.08
453.541	423.27
453.98	423.67
454.418	425.67
454.856	419.45
455.295	418.58
455.733	422
456.171	423.5
456.609	425.42
457.047	425.58
457.485	432.35
457.923	434.53
458.361	429.93
458.798	430.65
459.236	429.93
459.674	432.23
460.111	434.99
460.549	431.67
460.987	429.69
461.424	426.95
461.862	425.65
462.299	419.52
462.736	419.91
463.173	421.13
463.611	419.39
464.048	419.46
464.485	424.22
464.922	420.31
465.359	417.17
465.796	416.43
466.233	414.27
466.67	410.88
467.106	409.38
467.543	402.9
467.98	397.17
468.416	385.41
468.853	381.11
469.29	368.6
469.726	365.1
470.162	354.99
470.599	346.58
471.035	342.35
471.471	333.77
471.907	331.51
472.344	330.16
472.78	331.85
473.216	335.36
473.652	331.53
474.088	330.93
474.523	330.09
474.959	333.66
475.395	329.75
475.831	327.61
476.266	329.81
476.702	328.02
477.138	324.73
477.573	322.32
478.008	320.91
478.444	322.39
478.879	326.15
479.314	326.88
479.75	326.12
480.185	327.97
480.62	330.29
481.055	331.24
481.49	334.31
481.925	338.36
482.36	345.15
482.795	354.43
483.229	363.16
483.664	370.02
484.099	371.96
484.534	379.2
484.968	383.86
485.403	385.72
485.837	385.25
486.271	384.76
486.706	386.03
487.14	382.52
487.574	377.29
488.009	375.06
488.443	372.22
488.877	377.58
489.311	379.06
489.745	384.24
490.179	389.33
490.613	399.41
491.046	404.23
491.48	408.34
491.914	411.04
492.348	416.64
492.781	421.43
493.215	424.74
493.648	426.85
494.082	432.49
494.515	435.44
494.948	443
495.382	447.89
495.815	453.83
496.248	461.13
496.681	471.69
497.114	481.33
497.547	490.69
497.98	503.24
498.413	511.68
498.846	522.35
499.279	531.74
499.711	539.08
500.144	545.21
500.577	557.51
501.009	569.8
501.442	581.57
501.874	587.84
502.306	595.76
502.739	607.43
503.171	623.36
503.603	630.9
504.036	643.2
504.468	652.93
504.9	667.09
505.332	677.29
505.764	686.56
506.196	697.95
506.627	715.27
507.059	731.21
507.491	743.45
507.923	748.05
508.354	766.36
508.786	781.62
509.217	802.11
509.649	820.14
510.08	841.77
510.512	861.55
510.943	880.4
511.374	896.45
511.805	919.23
512.237	940.74
512.668	974.89
513.099	1004
513.53	1033.26
513.961	1057.08
514.391	1091.08
514.822	1126.78
515.253	1163.97
515.684	1191.64
516.114	1223.12
516.545	1247.16
516.975	1276.11
517.406	1295.4
517.836	1302.62
518.267	1313.42
518.697	1334.19
519.127	1342.02
519.558	1351.46
519.988	1357.72
520.418	1371.07
520.848	1390.3
521.278	1401.04
521.708	1421.5
522.138	1437.01
522.567	1467.69
522.997	1493.28
523.427	1509.37
523.857	1527.98
524.286	1539.89
524.716	1556.77
525.145	1575.86
525.575	1587.96
526.004	1603.69
526.433	1599.08
526.863	1600.7
527.292	1592.65
527.721	1598.87
528.15	1606.07
528.579	1607.31
529.008	1620.01
529.437	1642.4
529.866	1656.9
530.295	1673.64
530.724	1686.05
531.152	1712.32
531.581	1727.22
532.01	1744.05
532.438	1753.12
532.867	1768.02
533.295	1785.71
533.723	1790.67
534.152	1789.84
534.58	1790.3
535.008	1776.35
535.436	1779.5
535.865	1787.44
536.293	1801.15
536.721	1819.13
537.149	1844.92
537.576	1848.67
538.004	1862.51
538.432	1871.49
538.86	1869.57
539.287	1877.28
539.715	1891.23
540.143	1894.32
540.57	1891.38
540.998	1887.99
541.425	1865.64
541.852	1844.74
542.28	1841.94
542.707	1824.64
543.134	1810.77
543.561	1807.08
543.988	1799.17
544.415	1799.3
544.842	1792.75
545.269	1785.14
545.696	1787.29
546.123	1799.46
546.549	1788.55
546.976	1775.78
547.403	1775.81
547.829	1777.73
548.256	1779.34
548.682	1775.79
549.108	1767.12
549.535	1766.93
549.961	1768.21
550.387	1754.75
550.813	1748.72
551.24	1754.96
551.666	1756.26
552.092	1747.57
552.518	1740.39
552.943	1733.82
553.369	1740.73
553.795	1745.94
554.221	1747.4
554.646	1744.92
555.072	1755
555.498	1758.88
555.923	1768.37
556.349	1782.13
556.774	1789.55
557.199	1790.52
557.625	1796.61
558.05	1789.95
558.475	1799.66
558.9	1797.36
559.325	1788.55
559.75	1782.63
560.175	1776.8
560.6	1769.35
561.025	1767.12
561.449	1767.64
561.874	1773.19
562.299	1777.24
562.723	1782.6
563.148	1771.85
563.572	1776.09
563.997	1785.1
564.421	1788.72
564.846	1787.89
565.27	1790.75
565.694	1787.51
566.118	1798.14
566.542	1803.78
566.966	1796.29
567.39	1792.87
567.814	1782.71
568.238	1780.95
568.662	1785.6
569.086	1787.38
569.509	1794.41
569.933	1778.64
570.357	1771.51
570.78	1750.61
571.204	1737.78
571.627	1726.53
572.05	1723.4
572.474	1722.62
572.897	1709.48
573.32	1700.94
573.743	1691.77
574.166	1671.98
574.589	1671.21
575.012	1662.75
575.435	1661.16
575.858	1651.22
576.281	1639.45
576.704	1622.55
577.126	1608.77
577.549	1596.98
577.972	1586.27
578.394	1574.63
578.817	1568.51
579.239	1549.9
579.661	1536.15
580.084	1519.82
580.506	1506.22
580.928	1502.07
581.35	1491.6
581.772	1486.73
582.194	1473.61
582.616	1460.5
583.038	1445.93
583.46	1434.45
583.882	1430.24
584.303	1432.59
584.725	1426.74
585.147	1428.45
585.568	1437.67
585.99	1448.43
586.411	1453.42
586.833	1468.24
587.254	1470.49
587.675	1482.35
588.096	1493.24
588.518	1487.52
588.939	1471.62
589.36	1469.4
589.781	1458
590.202	1430.04
590.623	1421.31
591.043	1418.54
591.464	1404.4
591.885	1399.96
592.305	1394.9
592.726	1381.48
593.147	1382.41
593.567	1376.72
593.987	1369.72
594.408	1364.07
594.828	1361.85
595.248	1355.9
595.669	1338.68
596.089	1331.39
596.509	1324.55
596.929	1310.65
597.349	1310.19
597.769	1300.27
598.189	1294.15
598.608	1295.17
599.028	1296.68
599.448	1296.08
599.867	1283.27
600.287	1278.03
600.706	1273.79
601.126	1264.3
601.545	1263.86
601.965	1262.59
602.384	1257.53
602.803	1259.83
603.222	1253.84
603.641	1248.09
604.061	1244.08
604.48	1239.51
604.898	1246
605.317	1249.76
605.736	1250.12
606.155	1245.66
606.574	1236.67
606.992	1240.73
607.411	1234.69
607.829	1226.76
608.248	1222.53
608.666	1219.32
609.085	1218.5
609.503	1210.41
609.921	1203.87
610.339	1204.78
610.758	1203.49
611.176	1198.19
611.594	1188.86
612.012	1185.02
612.43	1187.02
612.847	1191.15
613.265	1191.84
613.683	1194.58
614.101	1194.67
614.518	1190.29
614.936	1180.8
615.353	1166.4
615.771	1161.98
616.188	1160.37
616.606	1156.63
617.023	1148.32
617.44	1133.99
617.857	1126.03
618.274	1116.97
618.691	1110.4
619.108	1100.27
619.525	1094.16
619.942	1098.85
620.359	1099.68
620.776	1094.58
621.192	1089.78
621.609	1087.76
622.026	1093.41
622.442	1097.89
622.859	1099.22
623.275	1091.68
623.691	1096.08
624.108	1104.31
624.524	1115.74
624.94	1115.25
625.356	1123.53
625.772	1134.89
626.188	1144.39
626.604	1144.85
627.02	1141.71
627.436	1141.05
627.852	1147.38
628.268	1157.4
628.683	1149.09
629.099	1141.71
629.514	1137.75
629.93	1140.93
630.345	1143.82
630.761	1139.67
631.176	1141.65
631.591	1134.92
632.007	1128.04
632.422	1125.36
632.837	1114.76
633.252	1111.46
633.667	1100.55
634.082	1091.05
634.497	1076.67
634.911	1057.48
635.326	1051.52
635.741	1035.07
636.155	1023.88
636.57	1022.58
636.984	1018.85
637.399	1017.4
637.813	1013.82
638.228	1009.98
638.642	1010.58
639.056	999.8
639.47	997.05
639.884	986.62
640.298	977.02
640.712	971.69
641.126	957.08
641.54	946.1
641.954	936.04
642.368	922.61
642.781	913.26
643.195	895.34
643.609	890.63
644.022	881.34
644.436	874.12
644.849	861.03
645.262	847.67
645.676	844.53
646.089	836.63
646.502	822.94
646.915	815.21
647.328	798.62
647.741	792.87
648.154	781.13
648.567	776.63
648.98	764.71
649.393	762.77
649.805	757.61
650.218	750.24
650.631	737.35
651.043	730.46
651.456	724.52
651.868	722.57
652.28	733.24
652.693	740.57
653.105	742.92
653.517	747.51
653.929	745.32
654.341	748.57
654.753	737.07
655.165	738.69
655.577	734.31
655.989	726.99
656.401	717.38
656.813	689.84
657.224	673.14
657.636	649.55
658.047	634.43
658.459	617.7
658.87	607.86
659.282	596.81
659.693	580.71
660.104	567.99
660.515	555.65
660.926	550.75
661.338	544.88
661.749	535.47
662.159	526.9
662.57	519.56
662.981	513.72
663.392	505.24
663.803	503.86
664.213	497.78
664.624	491.31
665.035	490.1
665.445	479.28
665.855	472.05
666.266	466.75
666.676	461.86
667.086	453.75
667.497	450.96
667.907	444.29
668.317	436.76
668.727	433.47
669.137	431.8
669.547	429.11
669.956	429.02
670.366	429.41
670.776	428.44
671.186	429.92
671.595	431.58
672.005	432.01
672.414	432.02
672.824	431.74
673.233	432.47
673.642	433.35
674.052	435.69
674.461	437.85
674.87	440.37
675.279	439.52
675.688	440.84
676.097	442.88
676.506	442.13
676.915	451.6
677.323	454.22
677.732	455.92
678.141	458.52
678.549	453.29
678.958	454.5
679.366	455.76
679.775	460.56
680.183	470.77
680.592	476.3
681	483.56
681.408	482.97
681.816	491.4
682.224	499.78
682.632	511.03
683.04	535.18
683.448	556.29
683.856	582.31
684.264	612.95
684.671	640.07
685.079	675.83
685.487	714.61
685.894	765.8
686.302	811.99
686.709	854.37
687.116	901.54
687.524	945.18
687.931	985.04
688.338	1021.77
688.745	1053.25
689.152	1091.3
689.559	1138.28
689.966	1185.55
690.373	1216.34
690.78	1262
691.187	1326.67
691.593	1378.41
692	1424.06
692.407	1486.75
692.813	1562.85
693.22	1627.58
693.626	1690.43
694.032	1742.52
694.439	1817.7
694.845	1879.04
695.251	1954.32
695.657	2020.48
696.063	2116.46
696.469	2190.34
696.875	2259.56
697.281	2300.67
697.687	2349.02
698.093	2390.69
698.498	2465.75
698.904	2523.38
699.31	2608.9
699.715	2669.55
