Data from C_2_DIV_IL_4N_Splice17_12-37-01-862.txt Node
Date: Sat Mar 14 12:37:01 EDT 2020
User: sa697716
Spectrometer: FLMS03696
Trigger mode: 0
Integration Time (sec): 3.180400E-1
Scans to average: 20
Electric dark correction enabled: true
Nonlinearity correction enabled: true
Boxcar width: 5
XAxis mode: Wavelengths
Number of Pixels in Spectrum: 2048
>>>>>Begin Spectral Data<<<<<
187.83	-397435.44
188.298	2759.98
188.766	1513.09
189.233	1379.37
189.701	1916.65
190.169	2676.96
190.636	1008.51
191.104	849.66
191.571	139.62
192.039	-63.01
192.506	-29.36
192.974	462.8
193.441	-781.92
193.908	-56.03
194.375	-26.25
194.842	38.18
195.31	201.71
195.777	198.82
196.244	451.13
196.711	542.08
197.177	683.33
197.644	1007.91
198.111	1711.1
198.578	2395.72
199.045	1921.44
199.511	3153.07
199.978	3701.02
200.445	3119.65
200.911	3491.49
201.378	3907.32
201.844	3534.67
202.31	6044.42
202.777	6245.14
203.243	3469.98
203.709	3300.65
204.176	3915.82
204.642	3259.8
205.108	3037.38
205.574	2497.59
206.04	2263.4
206.506	2138.77
206.972	2038.33
207.438	1983.75
207.903	2265.94
208.369	2009.83
208.835	2012.32
209.301	2121.53
209.766	2182.83
210.232	2173.17
210.697	2710.86
211.163	3394.46
211.628	5192.42
212.094	4369.06
212.559	5407.76
213.024	3413.01
213.49	4176.83
213.955	4125.26
214.42	4082.46
214.885	3836.22
215.35	3728.38
215.815	3606.33
216.28	3866.27
216.745	3205.93
217.21	3543.69
217.675	3364.47
218.14	3885.38
218.604	4511.19
219.069	5340.33
219.534	5774.88
219.998	6933.67
220.463	8647.86
220.927	10981.73
221.392	10582.45
221.856	10881.05
222.32	13990.91
222.785	17452.57
223.249	22199.14
223.713	24972.17
224.177	25117.19
224.642	32433.4
225.106	40106.41
225.57	44055.09
226.034	32760.39
226.497	49981.06
226.961	45154.57
227.425	52569.38
227.889	58483.89
228.353	58622.44
228.816	121266.56
229.28	116094.3
229.744	97989.76
230.207	59445.1
230.671	58413.8
231.134	96767.56
231.597	111360.85
232.061	111478.37
232.524	108779.97
232.987	74947.64
233.45	67381.17
233.914	60386.73
234.377	61937.28
234.84	56690.52
235.303	66943.54
235.766	74645.51
236.229	77168.27
236.691	48632.83
237.154	54608.34
237.617	41036.15
238.08	41968.7
238.542	49091.37
239.005	35055.84
239.468	34725.55
239.93	32690.8
240.393	29651
240.855	26011.32
241.317	26615.54
241.78	32376.53
242.242	33409.66
242.704	36007.81
243.166	31317.57
243.629	28385.92
244.091	32687.32
244.553	35791.26
245.015	38397.3
245.477	49663.21
245.939	72761.3
246.4	77152.58
246.862	74893.19
247.324	70573.93
247.786	78955.34
248.247	103422.88
248.709	106791.99
249.17	79735.07
249.632	74932.45
250.093	86769.88
250.555	74807.79
251.016	45511.47
251.477	43077.52
251.939	46414.62
252.4	48648.22
252.861	57793.2
253.322	53637.2
253.783	63764.1
254.244	82566.94
254.705	65058.78
255.166	57817.44
255.627	56877.21
256.088	80045.49
256.549	84904.69
257.009	73049.05
257.47	88501.06
257.931	71993.71
258.391	53915.98
258.852	55499.24
259.312	58201.17
259.773	71896.5
260.233	60618.06
260.694	51048.8
261.154	57925.86
261.614	46384.27
262.074	41433.84
262.534	42983.12
262.994	40474.24
263.455	53880.05
263.915	45358.5
264.374	42706.58
264.834	46590.39
265.294	51633.69
265.754	53452.59
266.214	50595.18
266.673	47411.97
267.133	59833.03
267.593	59374.82
268.052	72546.9
268.512	63073.76
268.971	75959.84
269.431	83169.32
269.89	74402.12
270.349	111552.95
270.809	124283.34
271.268	111602
271.727	250304.14
272.186	161921.84
272.645	121387.27
273.104	87630.96
273.563	126783.67
274.022	99733.97
274.481	84773.76
274.94	65231.22
275.399	48416.91
275.857	56359.14
276.316	76208.44
276.775	67754.11
277.233	66663.25
277.692	62285.86
278.15	70347.4
278.609	72259.76
279.067	66809.3
279.525	61980.64
279.984	80024.57
280.442	96053.09
280.9	94492.81
281.358	62070.27
281.816	57793.7
282.274	56575.68
282.732	58468
283.19	58729.87
283.648	50672.47
284.106	53945.05
284.564	54837.16
285.021	50771.67
285.479	37810.82
285.937	34414.11
286.394	30148.41
286.852	31015.4
287.309	32539.74
287.767	31333.7
288.224	29735.02
288.682	32588.53
289.139	35722.05
289.596	32634.57
290.053	33904.34
290.511	42763.12
290.968	51762.65
291.425	70298.37
291.882	58365.41
292.339	50760.71
292.796	50410.72
293.252	47509.22
293.709	37693.7
294.166	33735.49
294.623	37271.28
295.079	35756.23
295.536	35912.52
295.992	32585.56
296.449	32164.11
296.905	33417.92
297.362	32031.44
297.818	33673.36
298.274	34886.98
298.731	35537.4
299.187	35175.08
299.643	37732.8
300.099	45567.31
300.555	49898.48
301.011	41641.64
301.467	40067.97
301.923	46901.99
302.379	45749.08
302.835	44890.32
303.291	44874.56
303.746	51053.72
304.202	64361.18
304.658	64612.06
305.113	43412.3
305.569	42502.05
306.024	45322.22
306.479	43138.41
306.935	36287.77
307.39	39584.04
307.845	36511.84
308.301	36705.61
308.756	35725.07
309.211	34407.62
309.666	35218.21
310.121	43650.45
310.576	44272.25
311.031	43889.94
311.486	50271.73
311.94	50247.52
312.395	67225.86
312.85	126389.9
313.305	621268.29
313.759	3208224.14
314.214	232296.7
314.668	183846.41
315.123	154588.15
315.577	55378
316.032	49157.59
316.486	61583.69
316.94	48490.28
317.394	33673.94
317.849	26122.42
318.303	24705.15
318.757	23294.2
319.211	25727.34
319.665	22510.42
320.119	22758.04
320.572	32647.02
321.026	30487.84
321.48	25364.35
321.934	27696.77
322.387	27787.98
322.841	29993.34
323.295	26927.35
323.748	31050.49
324.202	31498.5
324.655	37761.13
325.108	52706.56
325.562	37167.58
326.015	44172.45
326.468	33326.55
326.921	37222.76
327.374	34622.95
327.827	36009.68
328.28	40782.88
328.733	27303.75
329.186	23984.76
329.639	22855.85
330.092	19263.07
330.545	18339.4
330.997	18461.79
331.45	20163.73
331.903	23611.13
332.355	40646.5
332.808	39462.25
333.26	32477.07
333.713	35232.21
334.165	35465.17
334.617	47385.59
335.069	38321.84
335.522	69312.83
335.974	76757.32
336.426	70138.19
336.878	48532.73
337.33	24575.29
337.782	24018.96
338.234	30052.75
338.686	35906.05
339.137	42511.49
339.589	39954.39
340.041	31253.47
340.493	26815.09
340.944	27446.67
341.396	29522.17
341.847	24813.56
342.299	29243.66
342.75	35660.7
343.201	31202.08
343.653	35898.55
344.104	44087.68
344.555	34682.92
345.006	54017.84
345.457	41312.51
345.908	32827.41
346.359	30831.98
346.81	25106.44
347.261	26475.84
347.712	26054.77
348.163	27898.44
348.613	28198.54
349.064	26322.3
349.515	23049.78
349.965	23618.62
350.416	28458.36
350.866	31200.08
351.317	35262.54
351.767	58330
352.217	73547.45
352.668	60998.01
353.118	55965.05
353.568	53977.46
354.018	42603.83
354.468	44871.13
354.918	32096.02
355.368	28016.35
355.818	39573.2
356.268	113998.86
356.718	476614.32
357.168	118626.94
357.617	59482.55
358.067	66064.01
358.517	61840.86
358.966	72475.67
359.416	81147.37
359.865	87831.56
360.315	104661.59
360.764	48817.64
361.213	27276.18
361.663	25844.55
362.112	31888.12
362.561	51466.84
363.01	38742.89
363.459	32578.01
363.908	35242.41
364.357	29888.98
364.806	50409.41
365.255	34642.59
365.703	31695.12
366.152	31722.61
366.601	25681.01
367.05	20818.75
367.498	18901.44
367.947	19734.81
368.395	20510.18
368.844	18138.36
369.292	21888.83
369.74	15111.25
370.189	23124.92
370.637	27096.25
371.085	23389.53
371.533	28451.77
371.981	27427.45
372.429	26133.82
372.877	27210.96
373.325	22774.3
373.773	23184.84
374.221	20662.94
374.669	25618.58
375.116	22124.32
375.564	22262.04
376.012	24852.31
376.459	20482.25
376.907	24456.37
377.354	29556.69
377.801	27504.36
378.249	31535.92
378.696	40301.98
379.143	48670.24
379.591	51821.43
380.038	87542.27
380.485	63232.13
380.932	68245.17
381.379	62257.22
381.826	45732.54
382.273	32462.24
382.72	28380.45
383.166	27616.84
383.613	17895.48
384.06	16120.77
384.506	18628.97
384.953	13668.08
385.4	13728.56
385.846	12014.51
386.292	11717.08
386.739	11458.57
387.185	11332.76
387.631	11321.49
388.078	10968.92
388.524	11729.22
388.97	10809.71
389.416	8999.55
389.862	9565.92
390.308	9067.24
390.754	9185.18
391.2	9954.81
391.645	10183.16
392.091	9704.1
392.537	9361.84
392.983	9373.56
393.428	9193.93
393.874	9852.62
394.319	9886.03
394.765	9341.6
395.21	9594.18
395.655	8991.95
396.101	8411.57
396.546	7574.92
396.991	7632.4
397.436	7084.58
397.881	6842.35
398.326	6477.35
398.771	6122.04
399.216	5341.1
399.661	4811.67
400.106	4778.98
400.551	4890.28
400.995	4379.78
401.44	4325.62
401.885	4063.57
402.329	4102.72
402.774	3932.2
403.218	3799.92
403.663	3650.46
404.107	3753.33
404.551	3774.4
404.995	3463.11
405.44	3331.3
405.884	3382.74
406.328	3279.99
406.772	3272.83
407.216	2977.84
407.66	2875.71
408.104	2729.96
408.547	2558.94
408.991	2473.47
409.435	2380.87
409.879	2346.9
410.322	2313.95
410.766	2234.46
411.209	2118.98
411.653	2034.58
412.096	1994.63
412.54	1994.65
412.983	1982.75
413.426	1986.33
413.869	1983.42
414.312	1944.33
414.756	1874.51
415.199	1790.75
415.642	1734.26
416.085	1736.59
416.527	1719.78
416.97	1744.84
417.413	1652.03
417.856	1634.24
418.298	1616.05
418.741	1602.33
419.184	1596.02
419.626	1661.21
420.069	1656.91
420.511	1663.7
420.953	1624.97
421.396	1610.81
421.838	1570.18
422.28	1608.01
422.722	1613.07
423.164	1637.19
423.606	1612.9
424.048	1611.26
424.49	1530.12
424.932	1524.84
425.374	1509.04
425.816	1537.95
426.258	1566.55
426.699	1583.29
427.141	1558.85
427.582	1585.33
428.024	1576.43
428.465	1567.65
428.907	1532.19
429.348	1513.67
429.789	1513.31
430.231	1477.7
430.672	1498.28
431.113	1460.26
431.554	1437.66
431.995	1402.38
432.436	1352.9
432.877	1321.18
433.318	1298.75
433.759	1292.39
434.2	1292.33
434.64	1276.17
435.081	1281.66
435.522	1215.6
435.962	1172.8
436.403	1146.9
436.843	1162.68
437.284	1134.74
437.724	1105.54
438.164	1106.66
438.604	1081.55
439.045	1040.57
439.485	998.09
439.925	975.74
440.365	950.12
440.805	938.2
441.245	925.09
441.685	887.91
442.125	882.95
442.564	888.93
443.004	868.76
443.444	865.88
443.883	865.51
444.323	858.18
444.762	860.11
445.202	870.04
445.641	883.99
446.081	879.69
446.52	888.98
446.959	878.41
447.398	855.54
447.837	845.42
448.276	829.55
448.716	836.9
449.154	844.49
449.593	823.59
450.032	822.59
450.471	807.02
450.91	807.15
451.349	805.98
451.787	802.81
452.226	813.94
452.664	813.3
453.103	814.91
453.541	813.89
453.98	812.5
454.418	818.66
454.856	803.17
455.295	801.67
455.733	807.68
456.171	810.76
456.609	811.76
457.047	812.08
457.485	824.18
457.923	825.43
458.361	813.1
458.798	815.06
459.236	812.42
459.674	818.46
460.111	822.6
460.549	813.57
460.987	811.46
461.424	808.55
461.862	803.92
462.299	790.82
462.736	790.72
463.173	794.39
463.611	787.13
464.048	784.07
464.485	790.22
464.922	781.66
465.359	778.8
465.796	767.31
466.233	759.96
466.67	752.54
467.106	750.89
467.543	741.8
467.98	732.92
468.416	712.16
468.853	706.49
469.29	684.68
469.726	677.33
470.162	658.36
470.599	648.48
471.035	642.89
471.471	627.19
471.907	622.76
472.344	619.43
472.78	619.84
473.216	627.54
473.652	620.01
474.088	617.9
474.523	616.5
474.959	622.81
475.395	617.3
475.831	613.52
476.266	616.34
476.702	614.6
477.138	607.31
477.573	604.37
478.008	601.94
478.444	604.33
478.879	610.47
479.314	612.68
479.75	611.4
480.185	613.92
480.62	618.91
481.055	622.19
481.49	626.55
481.925	634.99
482.36	646.28
482.795	664.07
483.229	681.42
483.664	694.27
484.099	696.36
484.534	706.98
484.968	713.94
485.403	716.88
485.837	714.89
486.271	713.03
486.706	712.85
487.14	703.93
487.574	691.76
488.009	684.99
488.443	678.61
488.877	684.42
489.311	685.9
489.745	693.22
490.179	697.8
490.613	710.55
491.046	715.55
491.48	720.23
491.914	721.21
492.348	726.69
492.781	729.62
493.215	731.64
493.648	732.13
494.082	736.68
494.515	735.87
494.948	743.48
495.382	747.3
495.815	751.02
496.248	756.05
496.681	767.67
497.114	777.9
497.547	788.54
497.98	800.84
498.413	806.76
498.846	816.24
499.279	824.75
499.711	827.9
500.144	829.74
500.577	840.08
501.009	850.51
501.442	860.14
501.874	860.15
502.306	860.72
502.739	868.42
503.171	882.26
503.603	884.7
504.036	893.34
504.468	898.68
504.9	909.46
505.332	915.38
505.764	920.61
506.196	927.25
506.627	941.6
507.059	955.28
507.491	962.61
507.923	960.72
508.354	975.65
508.786	986.86
509.217	1005.17
509.649	1021.13
510.08	1041.25
510.512	1057.79
510.943	1073.54
511.374	1086.55
511.805	1107.8
512.237	1128.11
512.668	1162.66
513.099	1192.66
513.53	1222.42
513.961	1245.21
514.391	1278.63
514.822	1314.29
515.253	1352.22
515.684	1379.61
516.114	1411.5
516.545	1435.42
516.975	1464.51
517.406	1483.92
517.836	1488.09
518.267	1496
518.697	1516.57
519.127	1523.52
519.558	1532.79
519.988	1538.11
520.418	1551.06
520.848	1571.14
521.278	1582.6
521.708	1592.78
522.138	1608.65
522.567	1643.57
522.997	1673.71
523.427	1692.09
523.857	1712.36
524.286	1724.82
524.716	1743.55
525.145	1766.64
525.575	1780.45
526.004	1797.5
526.433	1804.16
526.863	1807.38
527.292	1798.85
527.721	1805.34
528.15	1813.04
528.579	1814.78
529.008	1828.58
529.437	1854.98
529.866	1870.68
530.295	1891.07
530.724	1906.89
531.152	1936.33
531.581	1952.23
532.01	1971.41
532.438	1981.89
532.867	2000.26
533.295	2021.4
533.723	2028.43
534.152	2027.14
534.58	2028.47
535.008	2011.42
535.436	2014.12
535.865	2024.44
536.293	2041.44
536.721	2060.3
537.149	2088.79
537.576	2091.53
538.004	2105.63
538.432	2115.45
538.86	2113.48
539.287	2121.69
539.715	2138.57
540.143	2141.76
540.57	2137.39
540.998	2132.28
541.425	2107.17
541.852	2084.44
542.28	2082.16
542.707	2065.4
543.134	2049.33
543.561	2045.65
543.988	2037.69
544.415	2036.94
544.842	2030.97
545.269	2023.54
545.696	2026.87
546.123	2041.63
546.549	2030.33
546.976	2015.83
547.403	2016.06
547.829	2018.69
548.256	2021.33
548.682	2017.09
549.108	2009.26
549.535	2010.4
549.961	2013.52
550.387	1999.6
550.813	1992.8
551.24	1999.61
551.666	2002.15
552.092	1991.31
552.518	1984.91
552.943	1977.72
553.369	1985.97
553.795	1992.13
554.221	1991.71
554.646	1987.42
555.072	1998.35
555.498	2004.72
555.923	2014.62
556.349	2030.45
556.774	2038.67
557.199	2039.42
557.625	2046.22
558.05	2038.87
558.475	2049.1
558.9	2046.23
559.325	2036.6
559.75	2028.82
560.175	2020.07
560.6	2012.79
561.025	2010.11
561.449	2012.31
561.874	2018.57
562.299	2022.91
562.723	2030.18
563.148	2019.42
563.572	2024.5
563.997	2034.63
564.421	2040.38
564.846	2040
565.27	2044.17
565.694	2041.15
566.118	2052.2
566.542	2059.35
566.966	2050.42
567.39	2044.87
567.814	2030.91
568.238	2029.49
568.662	2035.48
569.086	2037.52
569.509	2045.05
569.933	2026.59
570.357	2018.66
570.78	1994.78
571.204	1979.57
571.627	1968.89
572.05	1967.29
572.474	1967.78
572.897	1953.46
573.32	1944.95
573.743	1933.35
574.166	1913.3
574.589	1912.55
575.012	1902.9
575.435	1901.2
575.858	1890.71
576.281	1876.81
576.704	1858.21
577.126	1843.89
577.549	1830.78
577.972	1817.67
578.394	1806.3
578.817	1798.02
579.239	1776.52
579.661	1761.02
580.084	1743.14
580.506	1728.17
580.928	1722.91
581.35	1709.19
581.772	1703.24
582.194	1688.03
582.616	1673.79
583.038	1656.71
583.46	1644.52
583.882	1642.21
584.303	1646.09
584.725	1641.72
585.147	1643.81
585.568	1656.1
585.99	1669.52
586.411	1677.42
586.833	1694.93
587.254	1696.46
587.675	1714.06
588.096	1727.51
588.518	1721.32
588.939	1702.79
589.36	1699.28
589.781	1687.16
590.202	1655.83
590.623	1646.49
591.043	1642.3
591.464	1627.87
591.885	1624.57
592.305	1616.5
592.726	1601.67
593.147	1601.89
593.567	1596.85
593.987	1589.88
594.408	1584.41
594.828	1581.51
595.248	1574.98
595.669	1555.15
596.089	1547.39
596.509	1539.78
596.929	1525.04
597.349	1525.83
597.769	1515.59
598.189	1508.93
598.608	1509.43
599.028	1511.66
599.448	1511.6
599.867	1497.77
600.287	1492.72
600.706	1488.1
601.126	1477.85
601.545	1475.79
601.965	1473.81
602.384	1467.46
602.803	1469.74
603.222	1463.83
603.641	1456.38
604.061	1452.84
604.48	1448.26
604.898	1456.85
605.317	1461.71
605.736	1462.82
606.155	1459.71
606.574	1448.97
606.992	1454.95
607.411	1449.24
607.829	1440.51
608.248	1436.18
608.666	1432.37
609.085	1430.97
609.503	1421.4
609.921	1413.66
610.339	1415.09
610.758	1414.12
611.176	1408.29
611.594	1397.55
612.012	1393.81
612.43	1397.43
612.847	1403.96
613.265	1404.56
613.683	1409.07
614.101	1409.75
614.518	1405.58
614.936	1395.26
615.353	1380.38
615.771	1377.29
616.188	1377.72
616.606	1372.52
617.023	1363.88
617.44	1347.85
617.857	1340.49
618.274	1330.9
618.691	1324.3
619.108	1314.21
619.525	1306.18
619.942	1311.78
620.359	1314.53
620.776	1307.94
621.192	1303.81
621.609	1300.93
622.026	1307.97
622.442	1313.52
622.859	1316.2
623.275	1307.6
623.691	1312.69
624.108	1324.97
624.524	1339.58
624.94	1339.65
625.356	1350.47
625.772	1364.97
626.188	1377.39
626.604	1379.65
627.02	1375.26
627.436	1374.15
627.852	1382.29
628.268	1394.1
628.683	1384.23
629.099	1375.1
629.514	1369.15
629.93	1371.61
630.345	1375.15
630.761	1370.68
631.176	1373.58
631.591	1367.37
632.007	1360.55
632.422	1357.96
632.837	1346.05
633.252	1344.59
633.667	1333.99
634.082	1324.81
634.497	1312.14
634.911	1292.3
635.326	1287.9
635.741	1269.3
636.155	1258.54
636.57	1260.27
636.984	1260.46
637.399	1262.48
637.813	1262.14
638.228	1261.07
638.642	1266.24
639.056	1257.15
639.47	1257.38
639.884	1249.95
640.298	1243.69
640.712	1242.54
641.126	1229.17
641.54	1220.78
641.954	1216.56
642.368	1202.65
642.781	1195.84
643.195	1177.19
643.609	1176.8
644.022	1169.76
644.436	1164.29
644.849	1152.91
645.262	1141.31
645.676	1142.86
646.089	1136.94
646.502	1121.06
646.915	1117.03
647.328	1097.91
647.741	1095.36
648.154	1080.78
648.567	1078.34
648.98	1064.67
649.393	1063.91
649.805	1059.71
650.218	1051.1
650.631	1035.38
651.043	1027.87
651.456	1019.97
651.868	1019.51
652.28	1036.27
652.693	1049.79
653.105	1055.08
653.517	1065.39
653.929	1064.87
654.341	1069.29
654.753	1055.89
655.165	1060.13
655.577	1056.48
655.989	1052.11
656.401	1043.5
656.813	1006.27
657.224	985.22
657.636	955
658.047	935.62
658.459	916.2
658.87	905.22
659.282	893.4
659.693	872.37
660.104	858.1
660.515	843.86
660.926	843.85
661.338	840.15
661.749	832.95
662.159	824.7
662.57	820.02
662.981	814.55
663.392	809.33
663.803	814.32
664.213	812.66
664.624	808.72
665.035	811.19
665.445	795.31
665.855	788.58
666.266	782.33
666.676	780.1
667.086	771.21
667.497	771.83
667.907	766.06
668.317	756.29
668.727	752.94
669.137	753.24
669.547	752.87
669.956	755.77
670.366	757.75
670.776	759.05
671.186	762.58
671.595	766.27
672.005	768.96
672.414	768.06
672.824	766
673.233	769.5
673.642	771.98
674.052	773.4
674.461	775.24
674.87	780.55
675.279	778.38
675.688	780.33
676.097	781.38
676.506	778.18
676.915	792.44
677.323	795.66
677.732	794.41
678.141	793.19
678.549	782.58
678.958	782.81
679.366	781
679.775	783.94
680.183	793.99
680.592	799.59
681	805.73
681.408	798.97
681.816	806.01
682.224	813.98
682.632	824.13
683.04	853.28
683.448	877.04
683.856	907.38
684.264	942.87
684.671	973.6
685.079	1013.24
685.487	1054.25
685.894	1113.65
686.302	1162.45
686.709	1202.63
687.116	1249.57
687.524	1287.59
687.931	1319.93
688.338	1349.52
688.745	1372.43
689.152	1400.98
689.559	1438.7
689.966	1478.44
690.373	1496.89
690.78	1534.5
691.187	1594.24
691.593	1640.2
692	1679.8
692.407	1739.29
692.813	1811.48
693.22	1872.4
693.626	1935.63
694.032	1986.44
694.439	2064.34
694.845	2124.96
695.251	2201.23
695.657	2270.01
696.063	2372.16
