Data from C_2_DEC_NC_4N_Splice17_12-25-59-957.txt Node
Date: Sat Mar 14 12:25:59 EDT 2020
User: sa697716
Spectrometer: FLMS03696
Trigger mode: 0
Integration Time (sec): 3.180400E-1
Scans to average: 20
Electric dark correction enabled: true
Nonlinearity correction enabled: true
Boxcar width: 5
XAxis mode: Wavelengths
Number of Pixels in Spectrum: 2048
>>>>>Begin Spectral Data<<<<<
187.83	-378549.38
188.298	2616.58
188.766	1424.48
189.233	1340.98
189.701	1896.75
190.169	2653.95
190.636	997.44
191.104	782.54
191.571	121.9
192.039	-58.04
192.506	-67.99
192.974	356.99
193.441	-791.3
193.908	-79.59
194.375	-10.36
194.842	65.05
195.31	154.07
195.777	175.02
196.244	420.59
196.711	526.01
197.177	655.32
197.644	917.06
198.111	1572.41
198.578	2237.3
199.045	1773.49
199.511	2952.27
199.978	3471.19
200.445	2953.2
200.911	3268.43
201.378	3622.7
201.844	3262.66
202.31	5530.01
202.777	5785.92
203.243	3214.95
203.709	3043.2
204.176	3660.96
204.642	2996.6
205.108	2774.28
205.574	2255.89
206.04	2048.44
206.506	1910.04
206.972	1805.91
207.438	1750.6
207.903	1982.7
208.369	1723.46
208.835	1709
209.301	1758.19
209.766	1785.24
210.232	1756.12
210.697	2152.56
211.163	2647.31
211.628	3977.17
212.094	3313.07
212.559	4026.52
213.024	2489.65
213.49	3010.54
213.955	2926.17
214.42	2846.87
214.885	2619.02
215.35	2508
215.815	2427.88
216.28	2563.84
216.745	2061.3
217.21	2186.85
217.675	1963.35
218.14	2157.61
218.604	2358.28
219.069	2615.66
219.534	2695.77
219.998	3089.9
220.463	3658.74
220.927	4368.02
221.392	4035.35
221.856	4048.27
222.32	5026.42
222.785	6165.86
223.249	7721.17
223.713	8577.95
224.177	8550.62
224.642	10875.34
225.106	13277.29
225.57	14489.5
226.034	10786.31
226.497	16430.6
226.961	14838.22
227.425	17272.85
227.889	19119.49
228.353	19043.85
228.816	39237.28
229.28	37622.54
229.744	31751.06
230.207	19353.94
230.671	19025.9
231.134	31424.32
231.597	36166.31
232.061	36099.38
232.524	35234.35
232.987	24305.9
233.45	21931.76
233.914	19656.41
234.377	20075.91
234.84	18379.18
235.303	21661.9
235.766	24166.73
236.229	25009.91
236.691	15787.7
237.154	17766.95
237.617	13387.63
238.08	13713.75
238.542	16050.77
239.005	11515.57
239.468	11455.01
239.93	10827.74
240.393	9846.54
240.855	8659.8
241.317	8865.6
241.78	10776.28
242.242	11164.17
242.704	12060.1
243.166	10504.89
243.629	9556.32
244.091	11025.68
244.553	12092.42
245.015	13009.71
245.477	16847.33
245.939	24713.57
246.4	26273.7
246.862	25601.52
247.324	24103.11
247.786	27003.9
248.247	35417.6
248.709	36587.22
249.17	27353.05
249.632	25825.81
250.093	29967.99
250.555	25926.47
251.016	15829.01
251.477	15031.37
251.939	16216.38
252.4	17044.83
252.861	20261.87
253.322	18876.51
253.783	22434.69
254.244	29092.76
254.705	22946.19
255.166	20391.98
255.627	20074.69
256.088	28372.76
256.549	30166.11
257.009	26003.17
257.47	31590.14
257.931	25750.37
258.391	19322.92
258.852	19939.03
259.312	20905.44
259.773	25823.59
260.233	21832.34
260.694	18430.9
261.154	20890.65
261.614	16769.73
262.074	15001.12
262.534	15566.06
262.994	14676.83
263.455	19540.92
263.915	16469.51
264.374	15531.29
264.834	16965.39
265.294	18818.6
265.754	19484.96
266.214	18448.52
266.673	17273.88
267.133	21799.84
267.593	21615.62
268.052	26462.48
268.512	23001.35
268.971	27813.81
269.431	30500.62
269.89	27302.28
270.349	40984.7
270.809	45761.84
271.268	41184.64
271.727	92403.56
272.186	59938.93
272.645	45060.98
273.104	32520.07
273.563	47189.97
274.022	37104.28
274.481	31625.4
274.94	24408.82
275.399	18143.56
275.857	21119.07
276.316	28597.12
276.775	25481.62
277.233	25091.73
277.692	23532.41
278.15	26670.19
278.609	27494.43
279.067	25448.1
279.525	23650.05
279.984	30566.98
280.442	36754.29
280.9	36332.77
281.358	23899.41
281.816	22325.88
282.274	21910.33
282.732	22660.57
283.19	22824.13
283.648	19703.44
284.106	21037.19
284.564	21437.41
285.021	19937.17
285.479	14890.74
285.937	13562.4
286.394	11939.3
286.852	12302.95
287.309	12948.39
287.767	12539.05
288.224	11928.14
288.682	13113.37
289.139	14407.46
289.596	13193.93
290.053	13718.85
290.511	17324.51
290.968	21018.57
291.425	28487.83
291.882	23745.92
292.339	20684.77
292.796	20515.21
293.252	19342.74
293.709	15381.01
294.166	13787.28
294.623	15259.5
295.079	14637.09
295.536	14707.49
295.992	13372.81
296.449	13246.84
296.905	13776.07
297.362	13233.26
297.818	13927.21
298.274	14469.59
298.731	14752.13
299.187	14608.4
299.643	15681.84
300.099	18984
300.555	20845.73
301.011	17413.16
301.467	16824.98
301.923	19704.45
302.379	19242.7
302.835	18921.07
303.291	18965.83
303.746	21594.89
304.202	27325.84
304.658	27465.59
305.113	18480.71
305.569	18126.73
306.024	19342.24
306.479	18406.35
306.935	15514.98
307.39	16938.79
307.845	15662.62
308.301	15756.49
308.756	15376.4
309.211	14827.82
309.666	15196.7
310.121	18918.38
310.576	19265.92
311.031	19143.51
311.486	21959.29
311.94	21984.09
312.395	29418.31
312.85	55299.39
313.305	271617.15
313.759	1409013.33
314.214	102187.28
314.668	81225.62
315.123	68283.1
315.577	24426.27
316.032	21733.82
316.486	27257.98
316.94	21520.71
317.394	15025.41
317.849	11686.89
318.303	11083.98
318.757	10434.9
319.211	11540.3
319.665	10092.49
320.119	10223.31
320.572	14650.62
321.026	13703.3
321.48	11390.45
321.934	12411.45
322.387	12415.43
322.841	13407.24
323.295	12052.46
323.748	13892.26
324.202	14089.08
324.655	16948.35
325.108	23711.89
325.562	16778.57
326.015	19950.11
326.468	15102.04
326.921	16926.16
327.374	15811.49
327.827	16491.13
328.28	18687.45
328.733	12548.39
329.186	11050.36
329.639	10528.33
330.092	8864.08
330.545	8448.81
330.997	8538.46
331.45	9333.34
331.903	10941.58
332.355	18826.17
332.808	18303.54
333.26	15113.24
333.713	16406.91
334.165	16518.72
334.617	22056.91
335.069	17851.65
335.522	32314.25
335.974	35737.74
336.426	32693.39
336.878	22654.39
337.33	11514.55
337.782	11267.42
338.234	14123.89
338.686	16917.17
339.137	20095.63
339.589	18927.12
340.041	14869.99
340.493	12793.32
340.944	13107.68
341.396	14138.05
341.847	11919.77
342.299	14076.05
342.75	17155.7
343.201	14986.36
343.653	17220.17
344.104	21167.78
344.555	16686.56
345.006	25920.44
345.457	19875.52
345.908	15804.08
346.359	14861.45
346.81	12066.47
347.261	12696.02
347.712	12522.63
348.163	13425.93
348.613	13622.75
349.064	12747.72
349.515	11153.28
349.965	11462.57
350.416	13802.56
350.866	15139.19
351.317	17149.09
351.767	28460.74
352.217	36019.13
352.668	29888.42
353.118	27479.62
353.568	26452.52
354.018	20910.16
354.468	22123.13
354.918	15876.34
355.368	13908.51
355.818	19701.82
356.268	56513.98
356.718	236880.28
357.168	59053.05
357.617	29653.94
358.067	32939.9
358.517	30914.69
358.966	36340.25
359.416	40629.17
359.865	43965.27
360.315	52318.63
360.764	24431.27
361.213	13740.87
361.663	13015.18
362.112	16085.86
362.561	25993.43
363.01	19608.38
363.459	16534.85
363.908	17841.03
364.357	15228.75
364.806	25704.81
365.255	17678.24
365.703	16239.39
366.152	16286.44
366.601	13238.87
367.05	10757.78
367.498	9799.77
367.947	10269.5
368.395	10696.41
368.844	9495.47
369.292	11426.59
369.74	7927.09
370.189	12162.36
370.637	14247.92
371.085	12291.87
371.533	14996.7
371.981	14448.89
372.429	13787.76
372.877	14371.52
373.325	12017.79
373.773	12255.58
374.221	10932.3
374.669	13529.03
375.116	11735.94
375.564	11839.59
376.012	13285.91
376.459	10948.11
376.907	13093.45
377.354	15820.64
377.801	14778.25
378.249	17000.45
378.696	21780.68
379.143	26432.61
379.591	28226.95
380.038	47813.32
380.485	34679.07
380.932	37421.66
381.379	34257.39
381.826	25308.77
382.273	18017.33
382.72	15756.69
383.166	15407.93
383.613	9997.6
384.06	9036.89
384.506	10502.47
384.953	7730.27
385.4	7812.05
385.846	6873.12
386.292	6746.13
386.739	6643.59
387.185	6633.38
387.631	6701.06
388.078	6595.06
388.524	7164.66
388.97	6707.54
389.416	5665.64
389.862	6094.61
390.308	5844.31
390.754	6033.92
391.2	6711.63
391.645	7070.66
392.091	6990.46
392.537	7003.41
392.983	7238.77
393.428	7325.9
393.874	8096.34
394.319	8465.64
394.765	8475.08
395.21	9288.68
395.655	9326.99
396.101	9338.68
396.546	9003.69
396.991	9728.15
397.436	9660.32
397.881	10002.55
398.326	10212.88
398.771	10367.17
399.216	9730.78
399.661	9332
400.106	9806.76
400.551	10545.21
400.995	9891.8
401.44	10177.95
401.885	9887.38
402.329	10294.55
402.774	10139.27
403.218	10023.03
403.663	9913.63
404.107	10419.61
404.551	10756.49
404.995	10149.7
405.44	10080.39
405.884	10528.86
406.328	10467.08
406.772	10690.37
407.216	9962.26
407.66	9890.54
408.104	9703.84
408.547	9327.96
408.991	9247.88
409.435	9087.17
409.879	9089.91
410.322	9092.74
410.766	8891.48
411.209	8583.8
411.653	8395.25
412.096	8364.4
412.54	8510.05
412.983	8562.56
413.426	8669.26
413.869	8774.84
414.312	8699.69
414.756	8506.53
415.199	8225.53
415.642	8075.96
416.085	8166.36
416.527	8189.45
416.97	8401.88
417.413	8012.99
417.856	7973.42
418.298	7918.02
418.741	7875.56
419.184	7867.75
419.626	8212.84
420.069	8205.77
420.511	8257.17
420.953	8088.43
421.396	8035.48
421.838	7872.59
422.28	8083.92
422.722	8160.39
423.164	8366.63
423.606	8307.12
424.048	8391.07
424.49	8022.22
424.932	8058.46
425.374	8019.83
425.816	8209.62
426.258	8349.11
426.699	8357.4
427.141	8093.4
427.582	8108.22
428.024	7986.59
428.465	7935.64
428.907	7772.13
429.348	7761.28
429.789	7814.32
430.231	7681.37
430.672	7824.1
431.113	7726.24
431.554	7757.46
431.995	7803.27
432.436	7710.57
432.877	7710.33
433.318	7680.34
433.759	7752.18
434.2	7823.19
434.64	7815.39
435.081	7912.5
435.522	7590.04
435.962	7413.09
436.403	7343.93
436.843	7545.42
437.284	7485.16
437.724	7367.85
438.164	7477.03
438.604	7362.21
439.045	7105.28
439.485	6830.38
439.925	6747.66
440.365	6632.91
440.805	6591.37
441.245	6511.52
441.685	6282.81
442.125	6251.53
442.564	6294.71
443.004	6137.6
443.444	6125.29
443.883	6136.96
444.323	6135.07
444.762	6192.97
445.202	6291.91
445.641	6393.07
446.081	6406.56
446.52	6449.83
446.959	6385.99
447.398	6234.87
447.837	6177.5
448.276	6082.08
448.716	6144.86
449.154	6203.52
449.593	6021.58
450.032	5973.63
450.471	5858.23
450.91	5831.58
451.349	5774.86
451.787	5726.08
452.226	5771.01
452.664	5729.26
453.103	5695.69
453.541	5643.4
453.98	5548.15
454.418	5529.33
454.856	5374.21
455.295	5318.14
455.733	5291.13
456.171	5274.77
456.609	5222.5
457.047	5156.69
457.485	5169.82
457.923	5128.18
458.361	5033.43
458.798	5038
459.236	5009.63
459.674	5054.34
460.111	5063.24
460.549	5021.73
460.987	5020.14
461.424	5013.05
461.862	5008.39
462.299	4945.43
462.736	4939.97
463.173	4970.57
463.611	4906.87
464.048	4907.08
464.485	4956.45
464.922	4935.69
465.359	4935.11
465.796	4812.14
466.233	4799.77
466.67	4763.58
467.106	4767.79
467.543	4757.87
467.98	4721.28
468.416	4643.33
468.853	4633.76
469.29	4516.47
469.726	4482.13
470.162	4373.31
470.599	4383.29
471.035	4353.36
471.471	4259.34
471.907	4251.55
472.344	4224.06
472.78	4218.37
473.216	4259.56
473.652	4186.83
474.088	4158.06
474.523	4108.12
474.959	4119.63
475.395	4053.81
475.831	3991.48
476.266	3980.35
476.702	3934.66
477.138	3849.93
477.573	3800.56
478.008	3742.16
478.444	3708.91
478.879	3687.14
479.314	3662.45
479.75	3616.03
480.185	3593.99
480.62	3582.93
481.055	3558.34
481.49	3533.14
481.925	3536.15
482.36	3532.12
482.795	3580.93
483.229	3630.97
483.664	3655.34
484.099	3619.04
484.534	3620.65
484.968	3606.67
485.403	3574.58
485.837	3534.45
486.271	3490.57
486.706	3458.9
487.14	3403.19
487.574	3321.95
488.009	3267.75
488.443	3217.6
488.877	3220.63
489.311	3208.58
489.745	3218.53
490.179	3221.83
490.613	3245.53
491.046	3251.69
491.48	3254.36
491.914	3234.21
492.348	3236.99
492.781	3235.69
493.215	3227.99
493.648	3224.18
494.082	3233.45
494.515	3219.75
494.948	3235.52
495.382	3246.19
495.815	3246.41
496.248	3250.98
496.681	3289.88
497.114	3323.81
497.547	3345.21
497.98	3373.74
498.413	3368.94
498.846	3383.4
499.279	3396.33
499.711	3392.54
500.144	3377.83
500.577	3392.49
501.009	3413.72
501.442	3423.49
501.874	3395.73
502.306	3381.84
502.739	3378.05
503.171	3417.51
503.603	3404.13
504.036	3412.87
504.468	3406.55
504.9	3420.44
505.332	3418.09
505.764	3401.94
506.196	3399.49
506.627	3423.14
507.059	3437.04
507.491	3444.79
507.923	3397.16
508.354	3414.61
508.786	3416.79
509.217	3441.92
509.649	3458.28
510.08	3487.7
510.512	3505.39
510.943	3518.75
511.374	3520.28
511.805	3549.63
512.237	3576.57
512.668	3647.41
513.099	3697.9
513.53	3743.26
513.961	3764.54
514.391	3818.23
514.822	3868.65
515.253	3931.15
515.684	3960.64
516.114	4000.56
516.545	4014.07
516.975	4041.03
517.406	4041.92
517.836	4002.65
518.267	3974.43
518.697	3977.6
519.127	3945.67
519.558	3923.81
519.988	3893.35
520.418	3881.88
520.848	3888.67
521.278	3873.04
521.708	3805.28
522.138	3803.94
522.567	3847.28
522.997	3876.46
523.427	3884.24
523.857	3894.25
524.286	3892.42
524.716	3900.13
525.145	3916.2
525.575	3916.06
526.004	3926.54
526.433	3953.13
526.863	3931.51
527.292	3883.64
527.721	3875.89
528.15	3871.79
528.579	3854.64
529.008	3863.56
529.437	3901.71
529.866	3918.09
530.295	3942.55
530.724	3954.78
531.152	4000.68
531.581	4017.79
532.01	4047.47
532.438	4056.38
532.867	4078.66
533.295	4111.89
533.723	4116.07
534.152	4102.27
534.58	4093.54
535.008	4052.47
535.436	4049.44
535.865	4062.18
536.293	4090.57
536.721	4122.3
537.149	4173.4
537.576	4176.32
538.004	4203.16
538.432	4219.36
538.86	4213.87
539.287	4229.68
539.715	4259.6
540.143	4269.66
540.57	4263.8
540.998	4259.24
541.425	4207.01
541.852	4166.66
542.28	4167.12
542.707	4136.38
543.134	4110.37
543.561	4106.32
543.988	4094.85
544.415	4101.01
544.842	4094.91
545.269	4082.97
545.696	4090.94
546.123	4129.58
546.549	4112.23
546.976	4087.38
547.403	4091.07
547.829	4101.36
548.256	4113.14
548.682	4110.29
549.108	4096.34
549.535	4101.61
549.961	4111.98
550.387	4088.44
550.813	4078.73
551.24	4097.18
551.666	4105.56
552.092	4087.48
552.518	4078.77
552.943	4067.68
553.369	4091.68
553.795	4111.9
554.221	4117.72
554.646	4116.66
555.072	4141.17
555.498	4158.27
555.923	4185.47
556.349	4224.32
556.774	4250.17
557.199	4256.36
557.625	4277.73
558.05	4264.4
558.475	4289.71
558.9	4289.06
559.325	4270.06
559.75	4259.05
560.175	4247.18
560.6	4234.48
561.025	4230.27
561.449	4233.51
561.874	4247.64
562.299	4254.12
562.723	4274.19
563.148	4251.03
563.572	4260.54
563.997	4285.37
564.421	4298.92
564.846	4298.92
565.27	4303.29
565.694	4296.73
566.118	4318.67
566.542	4331.07
566.966	4313.59
567.39	4296.34
567.814	4267.88
568.238	4266.21
568.662	4276.28
569.086	4281.94
569.509	4301.91
569.933	4269.08
570.357	4259.4
570.78	4219.83
571.204	4196.43
571.627	4185.53
572.05	4198.03
572.474	4213.52
572.897	4203.85
573.32	4206.27
573.743	4208.18
574.166	4185.14
574.589	4212.36
575.012	4218.31
575.435	4242.94
575.858	4249.47
576.281	4249.08
576.704	4237.63
577.126	4236.52
577.549	4234.21
577.972	4238.08
578.394	4235.95
578.817	4238.83
579.239	4215.59
579.661	4204.57
580.084	4181.74
580.506	4172.36
580.928	4186.81
581.35	4181.32
581.772	4190.95
582.194	4176.82
582.616	4161.67
583.038	4145.4
583.46	4141.55
583.882	4151.37
584.303	4182.95
584.725	4196.05
585.147	4206.2
585.568	4248.32
585.99	4292.49
586.411	4321.64
586.833	4373.09
587.254	4387.95
587.675	4440.82
588.096	4489.41
588.518	4486.34
588.939	4450.05
589.36	4453.13
589.781	4448.01
590.202	4368.41
590.623	4355.65
591.043	4359.22
591.464	4330.1
591.885	4324.49
592.305	4312.21
592.726	4274.21
593.147	4276.35
593.567	4259.43
593.987	4234.09
594.408	4214.41
594.828	4212.76
595.248	4184.96
595.669	4118.03
596.089	4087.51
596.509	4060.48
596.929	4007
597.349	3994.33
597.769	3952.47
598.189	3918.83
598.608	3907.95
599.028	3898.67
599.448	3885.77
599.867	3839.61
600.287	3820.38
600.706	3796.52
601.126	3757.86
601.545	3744.71
601.965	3736.05
602.384	3717.03
602.803	3721.82
603.222	3704.91
603.641	3686.37
604.061	3674.94
604.48	3666.56
604.898	3693.65
605.317	3713.84
605.736	3727.6
606.155	3727.28
606.574	3710.79
606.992	3735.52
607.411	3732.86
607.829	3725.21
608.248	3731.03
608.666	3739.99
609.085	3752.18
609.503	3739.47
609.921	3736.15
610.339	3756
610.758	3771.71
611.176	3774.51
611.594	3763.44
612.012	3769.83
612.43	3792.47
612.847	3825.56
613.265	3839.72
613.683	3868.47
614.101	3889.28
614.518	3895.47
614.936	3882.94
615.353	3854.05
615.771	3859.49
616.188	3876.2
616.606	3881.4
617.023	3876.19
617.44	3847.26
617.857	3844.52
618.274	3833.46
618.691	3827.75
619.108	3812.27
619.525	3805.05
619.942	3835.05
620.359	3852.71
620.776	3845.05
621.192	3838.45
621.609	3838.86
622.026	3863.97
622.442	3886.93
622.859	3903.35
623.275	3887.85
623.691	3909.77
624.108	3950.89
624.524	4000.97
624.94	4005.62
625.356	4042.55
625.772	4090.44
626.188	4133.56
626.604	4144.39
627.02	4136.81
627.436	4133.93
627.852	4156.77
628.268	4197.21
628.683	4174.74
629.099	4154.27
629.514	4147.01
629.93	4166.06
630.345	4188.24
630.761	4184.68
631.176	4204.7
631.591	4190.53
632.007	4180.67
632.422	4190.33
632.837	4168.67
633.252	4170.24
633.667	4150.72
634.082	4135.58
634.497	4107.63
634.911	4055.5
635.326	4059.49
635.741	4022.23
636.155	4012.99
636.57	4035.3
636.984	4054.38
637.399	4077.81
637.813	4102.68
638.228	4122.46
638.642	4163.7
639.056	4157.2
639.47	4189.61
639.884	4189.12
640.298	4195.26
640.712	4217.69
641.126	4204.66
641.54	4205.62
641.954	4224.24
642.368	4207.42
642.781	4198.42
643.195	4160.58
643.609	4185.69
644.022	4187.09
644.436	4192.83
644.849	4171.09
645.262	4148.18
645.676	4174.94
646.089	4170.92
646.502	4121.85
646.915	4117.93
647.328	4076.83
647.741	4084.52
648.154	4052.35
648.567	4048.07
648.98	4011.08
649.393	4027.61
649.805	4028.44
650.218	4014
650.631	3964.99
651.043	3959.17
651.456	3947.75
651.868	3962.82
652.28	4038.87
652.693	4090.89
653.105	4110.58
653.517	4133.53
653.929	4119.84
654.341	4134.29
654.753	4080.94
655.165	4111.72
655.577	4109.17
655.989	4105.14
656.401	4092.83
656.813	3962.04
657.224	3912.71
657.636	3843.69
658.047	3814.75
658.459	3780.48
658.87	3789.09
659.282	3779.61
659.693	3720.68
660.104	3684.56
660.515	3652.64
660.926	3668.27
661.338	3684.92
661.749	3682.65
662.159	3658.81
662.57	3664.98
662.981	3664.68
663.392	3645.85
663.803	3679.23
664.213	3686.32
664.624	3683.31
665.035	3713.23
665.445	3666.13
665.855	3642.28
666.266	3612.47
666.676	3614.05
667.086	3580.66
667.497	3578.43
667.907	3554
668.317	3514.78
668.727	3485.22
669.137	3492.14
669.547	3477.14
669.956	3488.16
670.366	3493.72
670.776	3493.52
671.186	3505.34
671.595	3510.48
672.005	3521.12
672.414	3506.23
672.824	3487.84
673.233	3513.4
673.642	3512.21
674.052	3511.99
674.461	3504.14
674.87	3514.1
675.279	3487.83
675.688	3488.22
676.097	3476.93
676.506	3449.95
676.915	3504.2
677.323	3502.26
677.732	3481.96
678.141	3467.27
678.549	3411.79
678.958	3398.41
679.366	3383.61
679.775	3397.55
680.183	3412.99
680.592	3424.73
681	3430.46
681.408	3380.79
681.816	3393.61
682.224	3409.23
682.632	3416.73
683.04	3505.98
683.448	3558.48
683.856	3610.99
684.264	3661.02
684.671	3700.76
685.079	3759.77
685.487	3830.48
685.894	3959.52
686.302	4040.66
686.709	4075.38
687.116	4138.32
687.524	4165.22
687.931	4186.24
688.338	4214.41
688.745	4241.86
689.152	4280.26
689.559	4342.33
689.966	4387.08
690.373	4361.32
