Data from C_2_HIR_IL_4N_Splice17_12-11-42-172.txt Node
Date: Sat Mar 14 12:11:42 EDT 2020
User: sa697716
Spectrometer: FLMS03696
Trigger mode: 0
Integration Time (sec): 3.180400E-1
Scans to average: 20
Electric dark correction enabled: true
Nonlinearity correction enabled: true
Boxcar width: 5
XAxis mode: Wavelengths
Number of Pixels in Spectrum: 2048
>>>>>Begin Spectral Data<<<<<
187.83	-256752.86
188.298	1937.76
188.766	1070.41
189.233	963.06
189.701	1367.12
190.169	1893.86
190.636	721.03
191.104	552.69
191.571	82.89
192.039	-78.53
192.506	-136.37
192.974	365.66
193.441	-561.95
193.908	-109.88
194.375	-27.24
194.842	9.62
195.31	89.38
195.777	151.1
196.244	354.67
196.711	438.29
197.177	554.78
197.644	769.79
198.111	1335.01
198.578	1880.27
199.045	1513.26
199.511	2450.94
199.978	2872.54
200.445	2410.45
200.911	2641.17
201.378	2905.52
201.844	2618.83
202.31	4421.73
202.777	4623.23
203.243	2535.64
203.709	2352
204.176	2773.45
204.642	2287.44
205.108	2119.19
205.574	1713.94
206.04	1566
206.506	1477.07
206.972	1381.24
207.438	1321.36
207.903	1487.7
208.369	1304.04
208.835	1311.3
209.301	1361.99
209.766	1381.66
210.232	1359.1
210.697	1673.12
211.163	2034.72
211.628	2983.34
212.094	2470.64
212.559	2994.25
213.024	1845.15
213.49	2224.94
213.955	2135.26
214.42	2065.6
214.885	1907.27
215.35	1804.98
215.815	1755.24
216.28	1840.54
216.745	1478.2
217.21	1579.09
217.675	1407.98
218.14	1531.08
218.604	1644.5
219.069	1824.51
219.534	1856.68
219.998	2072.36
220.463	2425.65
220.927	2814.47
221.392	2579.86
221.856	2562.63
222.32	3112.44
222.785	3765.82
223.249	4641.82
223.713	5079.51
224.177	5009.09
224.642	6294.57
225.106	7664.82
225.57	8285.49
226.034	6178.26
226.497	9309.93
226.961	8361.85
227.425	9705.58
227.889	10711.75
228.353	10625.3
228.816	21796.71
229.28	20726.99
229.744	17446.58
230.207	10609.47
230.671	10382.78
231.134	16999.26
231.597	19605.38
232.061	19505.24
232.524	18915
232.987	12979.82
233.45	11685.48
233.914	10458.62
234.377	10683.5
234.84	9746.59
235.303	11423.24
235.766	12724.29
236.229	13087.28
236.691	8203.94
237.154	9206.92
237.617	6937.51
238.08	7085.75
238.542	8283.06
239.005	5934.38
239.468	5903.62
239.93	5562.42
240.393	5048.73
240.855	4434.06
241.317	4537.86
241.78	5507.81
242.242	5683.08
242.704	6172.06
243.166	5395.11
243.629	4926.48
244.091	5681.33
244.553	6215.96
245.015	6685.29
245.477	8637.82
245.939	12628.14
246.4	13414.77
246.862	13016.48
247.324	12293.38
247.786	13703.76
248.247	17862.64
248.709	18309.55
249.17	13678.07
249.632	12944.22
250.093	15093.51
250.555	13033.2
251.016	7972.08
251.477	7577.06
251.939	8199.17
252.4	8582.09
252.861	10184.76
253.322	9520.69
253.783	11320.5
254.244	14684.44
254.705	11524.08
255.166	10177.46
255.627	10014.03
256.088	14156.44
256.549	15049.45
257.009	12905.66
257.47	15623.68
257.931	12695.12
258.391	9493.56
258.852	9771.15
259.312	10232.91
259.773	12609.62
260.233	10692.18
260.694	9025.56
261.154	10208.86
261.614	8204.5
262.074	7347.37
262.534	7658.97
262.994	7224.9
263.455	9610.93
263.915	8106.2
264.374	7626.14
264.834	8329.25
265.294	9192.74
265.754	9532.58
266.214	9002.18
266.673	8419.15
267.133	10588.55
267.593	10469.48
268.052	12812.04
268.512	11116.04
268.971	13456.33
269.431	14741.07
269.89	13184.57
270.349	19791.6
270.809	22073.51
271.268	19855.13
271.727	44473.01
272.186	28852.56
272.645	21631.09
273.104	15524.77
273.563	22459.18
274.022	17572.8
274.481	14985.25
274.94	11540.87
275.399	8545.39
275.857	9912.09
276.316	13403
276.775	11912.36
277.233	11729.79
277.692	11022.25
278.15	12530.67
278.609	12978.89
279.067	12006.85
279.525	11156.88
279.984	14394.02
280.442	17355.56
280.9	17204.68
281.358	11297.13
281.816	10545.92
282.274	10344.63
282.732	10656.09
283.19	10702.82
283.648	9206.61
284.106	9835.78
284.564	9982.28
285.021	9300.57
285.479	6920.02
285.937	6261.73
286.394	5519.35
286.852	5678.89
287.309	5967.88
287.767	5799.2
288.224	5532.8
288.682	6061.44
289.139	6651.09
289.596	6107.44
290.053	6343.98
290.511	7991.68
290.968	9702.76
291.425	13165.08
291.882	10997.52
292.339	9577.7
292.796	9470.82
293.252	8908.69
293.709	7096.93
294.166	6355.33
294.623	7004.93
295.079	6695.01
295.536	6746.24
295.992	6128.19
296.449	6040.8
296.905	6244.92
297.362	6001.91
297.818	6297.95
298.274	6543.31
298.731	6641.2
299.187	6569.09
299.643	7050.4
300.099	8532.87
300.555	9345.75
301.011	7801.88
301.467	7567.14
301.923	8853.92
302.379	8637.82
302.835	8473.92
303.291	8469.32
303.746	9631.96
304.202	12170.55
304.658	12213.22
305.113	8226.01
305.569	8084.33
306.024	8621.82
306.479	8169.79
306.935	6921.14
307.39	7550.18
307.845	7001.34
308.301	7061.92
308.756	6904.71
309.211	6681.73
309.666	6860.72
310.121	8568.47
310.576	8681.48
311.031	8626.49
311.486	9901.12
311.94	9886.31
312.395	13231.42
312.85	24926.14
313.305	122043.93
313.759	636157.59
314.214	45962.25
314.668	36516.93
315.123	30716.36
315.577	11053.09
316.032	9838.34
316.486	12305.64
316.94	9747.92
317.394	6802.31
317.849	5268.49
318.303	4986.9
318.757	4697.99
319.211	5193.53
319.665	4541.34
320.119	4583.6
320.572	6567.25
321.026	6151.62
321.48	5121.56
321.934	5552.14
322.387	5543.56
322.841	5989.12
323.295	5426.45
323.748	6210.87
324.202	6317
324.655	7574.06
325.108	10649.4
325.562	7508.86
326.015	8891.05
326.468	6744.53
326.921	7552.1
327.374	7058.52
327.827	7382.78
328.28	8318.75
328.733	5594.21
329.186	4916.16
329.639	4699.62
330.092	3949
330.545	3776.32
330.997	3832.42
331.45	4214.34
331.903	4958.21
332.355	8515.72
332.808	8276.37
333.26	6852.49
333.713	7480.04
334.165	7552.26
334.617	10082.37
335.069	8097.21
335.522	14586.05
335.974	16046.78
336.426	14624.37
336.878	10065.85
337.33	5136.24
337.782	5017.81
338.234	6319.53
338.686	7533.69
339.137	8927.22
339.589	8357
340.041	6603.63
340.493	5688.19
340.944	5854.9
341.396	6296.43
341.847	5349.2
342.299	6312.57
342.75	7749.43
343.201	6732.37
343.653	7707.91
344.104	9420.63
344.555	7439.54
345.006	11507.44
345.457	8883.78
345.908	7053.92
346.359	6670.59
346.81	5420.77
347.261	5699.3
347.712	5552.72
348.163	5936.91
348.613	6071.16
349.064	5683.74
349.515	4993.72
349.965	5123.61
350.416	6155.11
350.866	6739.96
351.317	7552.64
351.767	12477.05
352.217	15781.18
352.668	13187.92
353.118	12080.94
353.568	11575.64
354.018	9205.04
354.468	9708.78
354.918	7014.06
355.368	6143.66
355.818	8686.36
356.268	24925.42
356.718	104933.27
357.168	26229.19
357.617	13160.74
358.067	14594.01
358.517	13694.6
358.966	16068.55
359.416	18100.22
359.865	19473.88
360.315	23015.22
360.764	10779.38
361.213	6066.75
361.663	5687.3
362.112	6980.19
362.561	11265.03
363.01	8547.43
363.459	7164.34
363.908	7732.07
364.357	6581.93
364.806	11107.01
365.255	7674.88
365.703	7067.59
366.152	7093.1
366.601	5788.34
367.05	4721.7
367.498	4302.93
367.947	4482.61
368.395	4673.35
368.844	4143.32
369.292	4944.99
369.74	3437.56
370.189	5230.43
370.637	6134.01
371.085	5293.4
371.533	6447.57
371.981	6179.4
372.429	5894.12
372.877	6119.25
373.325	5131.39
373.773	5216.15
374.221	4629.48
374.669	5721.73
375.116	4973.83
375.564	4993.29
376.012	5553.3
376.459	4584.3
376.907	5482.81
377.354	6615.16
377.801	6222.53
378.249	7147.99
378.696	9143.12
379.143	11111.23
379.591	11808.87
380.038	19972.55
380.485	14509.01
380.932	15643.02
381.379	14385.47
381.826	10688.49
382.273	7573.15
382.72	6611.38
383.166	6449.41
383.613	4200.82
384.06	3794.58
384.506	4422.81
384.953	3254.04
385.4	3272.76
385.846	2895.31
386.292	2819.15
386.739	2760.31
387.185	2767.18
387.631	2812.82
388.078	2792.57
388.524	3035.8
388.97	2862.72
389.416	2419.6
389.862	2611.1
390.308	2502.75
390.754	2592.21
391.2	2880.62
391.645	3038.66
392.091	3021.27
392.537	3023.83
392.983	3108.39
393.428	3154.42
393.874	3479.2
394.319	3659
394.765	3668.87
395.21	4033.66
395.655	4063.01
396.101	4093.63
396.546	3971.22
396.991	4294.18
397.436	4278.74
397.881	4463.88
398.326	4583.96
398.771	4699.29
399.216	4436.26
399.661	4295.67
400.106	4565.13
400.551	4971.45
400.995	4727.48
401.44	4924.51
401.885	4858.41
402.329	5135.8
402.774	5134.56
403.218	5164.96
403.663	5188.42
404.107	5555.98
404.551	5840
404.995	5608.7
405.44	5671.91
405.884	6030.15
406.328	6099.14
406.772	6328.67
407.216	5998.98
407.66	6059.77
408.104	6059.87
408.547	5944.63
408.991	5999
409.435	6004.97
409.879	6115.41
410.322	6218.46
410.766	6190.49
411.209	6074.73
411.653	6041.07
412.096	6115.31
412.54	6321.18
412.983	6447.63
413.426	6618
413.869	6790.89
414.312	6812.61
414.756	6734.87
415.199	6578.13
415.642	6519.54
416.085	6657.57
416.527	6735.16
416.97	6964.08
417.413	6693.07
417.856	6719.15
418.298	6732.83
418.741	6743.68
419.184	6784.42
419.626	7123.68
420.069	7168.9
420.511	7262.02
420.953	7168.21
421.396	7171.4
421.838	7074.28
422.28	7311.48
422.722	7420.6
423.164	7651.84
423.606	7638.75
424.048	7766.66
424.49	7477.94
424.932	7557.48
425.374	7563.73
425.816	7763.01
426.258	7900.86
426.699	7907.51
427.141	7643.89
427.582	7644.13
428.024	7518.63
428.465	7495.64
428.907	7392.12
429.348	7453.07
429.789	7570.13
430.231	7494.44
430.672	7699.52
431.113	7669.47
431.554	7793.45
431.995	7943.51
432.436	7966
432.877	8073.68
433.318	8131.48
433.759	8271.22
434.2	8385.65
434.64	8415.83
435.081	8558.73
435.522	8237.21
435.962	8095.73
436.403	8045.74
436.843	8292.41
437.284	8250.32
437.724	8137.12
438.164	8275.3
438.604	8167.23
439.045	7916.68
439.485	7662.72
439.925	7620.19
440.365	7547.72
440.805	7542.15
441.245	7514.43
441.685	7284.08
442.125	7281.02
442.564	7359.29
443.004	7196.97
443.444	7200.77
443.883	7245.27
444.323	7261.95
444.762	7354.67
445.202	7503.16
445.641	7647.09
446.081	7672.3
446.52	7767.42
446.959	7725.47
447.398	7581.21
447.837	7559.2
448.276	7490.62
448.716	7600.67
449.154	7691.25
449.593	7474.02
450.032	7420.2
450.471	7293.38
450.91	7281.56
451.349	7225.06
451.787	7172.46
452.226	7241.03
452.664	7199.49
453.103	7166.96
453.541	7126.42
453.98	7044.85
454.418	7069.69
454.856	6909.95
455.295	6864.46
455.733	6859.43
456.171	6863.23
456.609	6816.44
457.047	6772.97
457.485	6815.06
457.923	6784.91
458.361	6673.77
458.798	6694.11
459.236	6672.34
459.674	6746.1
460.111	6784.09
460.549	6737.29
460.987	6745.98
461.424	6754.42
461.862	6746.81
462.299	6670.38
462.736	6674.95
463.173	6721.09
463.611	6632.63
464.048	6627.21
464.485	6698.19
464.922	6675.51
465.359	6690.94
465.796	6543.3
466.233	6537.23
466.67	6499.47
467.106	6517.27
467.543	6514.44
467.98	6483.74
468.416	6404.3
468.853	6423.31
469.29	6287.72
469.726	6262.5
470.162	6131.98
470.599	6167.12
471.035	6150.93
471.471	6040.24
471.907	6055.41
472.344	6039.81
472.78	6048.04
473.216	6122.33
473.652	6030.19
474.088	6005.04
474.523	5955
474.959	5992.65
475.395	5915.87
475.831	5841.43
476.266	5844.43
476.702	5795.98
477.138	5690.41
477.573	5637.44
478.008	5572.73
478.444	5545.57
478.879	5533.27
479.314	5509.85
479.75	5453.44
480.185	5432.28
480.62	5430.94
481.055	5404.25
481.49	5374.69
481.925	5383.42
482.36	5373.46
482.795	5432.08
483.229	5483.9
483.664	5500.91
484.099	5433.79
484.534	5428.17
484.968	5404.54
485.403	5353.98
485.837	5294.66
486.271	5233.76
486.706	5200.3
487.14	5135.78
487.574	5041.78
488.009	4991.1
488.443	4938.49
488.877	4957.6
489.311	4951.13
489.745	4976.97
490.179	4990.11
490.613	5034.39
491.046	5049.85
491.48	5058.77
491.914	5034.35
492.348	5042.84
492.781	5044.16
493.215	5039.62
493.648	5044.28
494.082	5070.07
494.515	5053.74
494.948	5081.94
495.382	5101.78
495.815	5102.54
496.248	5106.88
496.681	5165.44
497.114	5213.6
497.547	5242.96
497.98	5278.38
498.413	5260.98
498.846	5271.96
499.279	5288.68
499.711	5284.38
500.144	5265.48
500.577	5288.12
501.009	5319.46
501.442	5335.63
501.874	5300.58
502.306	5290.91
502.739	5300.06
503.171	5381.34
503.603	5379.35
504.036	5408.49
504.468	5406.45
504.9	5437.45
505.332	5447.02
505.764	5437.8
506.196	5449.28
506.627	5501.1
507.059	5535.3
507.491	5560.81
507.923	5497.08
508.354	5538.98
508.786	5557.16
509.217	5615.4
509.649	5652.45
510.08	5712.32
510.512	5748.34
510.943	5774.14
511.374	5779.79
511.805	5832.58
512.237	5882.18
512.668	6000.78
513.099	6078.34
513.53	6137.04
513.961	6150.51
514.391	6221.7
514.822	6288.04
515.253	6380.63
515.684	6423.67
516.114	6490.41
516.545	6517.49
516.975	6569.64
517.406	6585.24
517.836	6541.6
518.267	6529.57
518.697	6576.27
519.127	6564.46
519.558	6567.74
519.988	6547.5
520.418	6558.76
520.848	6599.07
521.278	6599.15
521.708	6476.69
522.138	6491.15
522.567	6582.6
522.997	6637.22
523.427	6645.82
523.857	6652.41
524.286	6640.31
524.716	6652.42
525.145	6682.5
525.575	6682.63
526.004	6703.73
526.433	6778.88
526.863	6743.48
527.292	6665.03
527.721	6664.59
528.15	6678.89
528.579	6673.82
529.008	6703.8
529.437	6776.86
529.866	6804.23
530.295	6842.5
530.724	6852.95
531.152	6925.57
531.581	6946.3
532.01	6991.01
532.438	7000.13
532.867	7031.49
533.295	7077.04
533.723	7078.36
534.152	7050.36
534.58	7034.56
535.008	6962.63
535.436	6955.68
535.865	6973.48
536.293	7018
536.721	7059.27
537.149	7130.25
537.576	7114.78
538.004	7146.56
538.432	7166.32
538.86	7153.01
539.287	7176.13
539.715	7221.08
540.143	7235.25
540.57	7224.05
540.998	7216.89
541.425	7134.22
541.852	7074.18
542.28	7090.15
542.707	7051.28
543.134	7015.81
543.561	7015.78
543.988	7001.18
544.415	7016
544.842	7009.68
545.269	6992.98
545.696	7011.3
546.123	7082.28
546.549	7056.03
546.976	7016.91
547.403	7024.89
547.829	7046.61
548.256	7070.43
548.682	7068.94
549.108	7051.47
549.535	7065
549.961	7087.37
550.387	7046.94
550.813	7030.15
551.24	7065.71
551.666	7082.37
552.092	7055.98
552.518	7042.34
552.943	7022.61
553.369	7061.09
553.795	7089.09
554.221	7092.44
554.646	7082.31
555.072	7117.28
555.498	7138.71
555.923	7168.61
556.349	7217.72
556.774	7243.2
557.199	7239.5
557.625	7266.01
558.05	7239.1
558.475	7279.62
558.9	7275.78
559.325	7241.42
559.75	7219.93
560.175	7198.26
560.6	7179.44
561.025	7175.6
561.449	7182.44
561.874	7204.85
562.299	7210.33
562.723	7232.75
563.148	7182.46
563.572	7189.48
563.997	7222.51
564.421	7239.3
564.846	7231.86
565.27	7230.41
565.694	7207.64
566.118	7234.56
566.542	7244.68
566.966	7205.69
567.39	7168.65
567.814	7112.35
568.238	7098.07
568.662	7107.83
569.086	7110.75
569.509	7141.07
569.933	7083.86
570.357	7069.58
570.78	7006.65
571.204	6970.88
571.627	6953.91
572.05	6976.11
572.474	7000.48
572.897	6985.53
573.32	6985.7
573.743	6984.5
574.166	6939.68
574.589	6977.36
575.012	6975.75
575.435	7003.85
575.858	7000.35
576.281	6992.55
576.704	6966.68
577.126	6962.17
577.549	6956.16
577.972	6959.66
578.394	6951.96
578.817	6952.51
579.239	6915.53
579.661	6899.19
580.084	6865.71
580.506	6853.02
580.928	6877.13
581.35	6867.89
581.772	6881.64
582.194	6850.46
582.616	6818.35
583.038	6783.08
583.46	6766.46
583.882	6768.53
584.303	6807.02
584.725	6808.75
585.147	6800.81
585.568	6836.25
585.99	6865.58
586.411	6865.48
586.833	6905.68
587.254	6893.46
587.675	6944.38
588.096	6990.04
588.518	6956.02
588.939	6870.9
589.36	6852.92
589.781	6833.34
590.202	6707.51
590.623	6693.13
591.043	6711.44
591.464	6674.18
591.885	6667.41
592.305	6647.45
592.726	6588.54
593.147	6592.82
593.567	6568.93
593.987	6532.44
594.408	6501.43
594.828	6496.07
595.248	6452.09
595.669	6351.2
596.089	6308.6
596.509	6271.11
596.929	6194.3
597.349	6178.57
597.769	6115.76
598.189	6064
598.608	6045.16
599.028	6028.18
599.448	6007.99
599.867	5938.55
600.287	5909.26
600.706	5874.82
601.126	5818.44
601.545	5799.31
601.965	5786.02
602.384	5756.61
602.803	5763.27
603.222	5736.67
603.641	5708.73
604.061	5688.28
604.48	5671.74
604.898	5702.74
605.317	5724
605.736	5731.38
606.155	5718.03
606.574	5678.28
606.992	5700.97
607.411	5681.22
607.829	5652.8
608.248	5644.69
608.666	5643.39
609.085	5643.5
609.503	5612.28
609.921	5589.61
610.339	5603.14
610.758	5609.07
611.176	5596.63
611.594	5565.05
612.012	5560.03
612.43	5577.09
612.847	5608.16
613.265	5608.04
613.683	5628.76
614.101	5640.15
614.518	5633.86
614.936	5601.64
615.353	5547.95
615.771	5544
616.188	5555.33
616.606	5551.72
617.023	5536.69
617.44	5491.35
617.857	5484.34
618.274	5465.62
618.691	5449.24
619.108	5419.52
619.525	5400.9
619.942	5432.48
620.359	5444.5
620.776	5423.37
621.192	5399.96
621.609	5383.24
622.026	5398.46
622.442	5411.94
622.859	5419.96
623.275	5384.35
623.691	5402.11
624.108	5445.11
624.524	5498.98
624.94	5490.35
625.356	5523.11
625.772	5575.66
626.188	5623.5
626.604	5626.54
627.02	5603.51
627.436	5586.54
627.852	5605.82
628.268	5645.94
628.683	5603.12
629.099	5564.76
629.514	5551.55
629.93	5572.22
630.345	5595.23
630.761	5583.53
631.176	5607.24
631.591	5585.11
632.007	5566.76
632.422	5576.35
632.837	5542.94
633.252	5539.12
633.667	5510.81
634.082	5485.04
634.497	5442.61
634.911	5368.85
635.326	5372.66
635.741	5316.4
636.155	5298.37
636.57	5322.17
636.984	5337.95
637.399	5360.26
637.813	5386.07
638.228	5403.4
638.642	5446.04
639.056	5426.61
639.47	5456.66
639.884	5442.64
640.298	5441.56
640.712	5460.75
641.126	5436.07
641.54	5430.78
641.954	5451.17
642.368	5424.56
642.781	5407.53
643.195	5354.99
643.609	5385.3
644.022	5384.28
644.436	5391.45
644.849	5359.32
645.262	5329.87
645.676	5364.18
646.089	5355.61
646.502	5288.09
646.915	5281.74
647.328	5229.43
647.741	5238.44
648.154	5194.86
648.567	5187.99
648.98	5138.15
649.393	5159.83
649.805	5162.87
650.218	5143.34
650.631	5083.34
651.043	5077.14
651.456	5062
651.868	5078.04
652.28	5172.67
652.693	5231.74
653.105	5248.9
653.517	5267.2
653.929	5237.31
654.341	5244.25
654.753	5169.18
655.165	5202.58
655.577	5197.83
655.989	5191.75
656.401	5178.8
656.813	5019.11
657.224	4966.71
657.636	4891.35
658.047	4867.14
658.459	4837.09
658.87	4858.65
659.282	4856.79
659.693	4786.96
660.104	4747.61
660.515	4711.58
660.926	4735.71
661.338	4760.11
661.749	4760.67
662.159	4733.13
662.57	4744.95
662.981	4747.75
663.392	4728.6
663.803	4774.76
664.213	4790.93
664.624	4791.82
665.035	4834.91
665.445	4778.51
665.855	4749.99
666.266	4714.37
666.676	4717.89
667.086	4678.99
667.497	4683.3
667.907	4656.08
668.317	4607.82
668.727	4569.76
669.137	4580.46
669.547	4564.28
669.956	4580.26
670.366	4591.22
670.776	4596.66
671.186	4617.22
671.595	4627.85
672.005	4645.24
672.414	4626
672.824	4603.92
673.233	4641.99
673.642	4643.23
674.052	4642.88
674.461	4635.23
674.87	4653.08
675.279	4617.91
675.688	4619.11
676.097	4604.2
676.506	4567.9
676.915	4640.85
677.323	4639.85
677.732	4613.47
678.141	4593.54
678.549	4520.93
678.958	4503.76
679.366	4481.45
679.775	4500.5
680.183	4519.07
680.592	4530.38
681	4532.71
681.408	4460.02
681.816	4469.22
682.224	4481.76
682.632	4483.35
683.04	4591.23
683.448	4648.02
683.856	4702.71
684.264	4752.61
684.671	4786.52
685.079	4846.84
685.487	4918.14
685.894	5063.06
686.302	5143.49
686.709	5163.56
687.116	5214.4
687.524	5220.05
687.931	5218.45
688.338	5223.99
688.745	5232.29
689.152	5257.11
689.559	5304.48
689.966	5333.44
690.373	5275.06
690.78	5277.39
691.187	5354.92
691.593	5366.88
692	5359.42
692.407	5410.62
692.813	5493.44
693.22	5536.21
693.626	5592.22
694.032	5615.01
694.439	5716.68
694.845	5777.21
695.251	5880.03
695.657	5956.05
696.063	6119.96
696.469	6207.88
696.875	6278.51
697.281	6272.1
