Data from C_2_HIR_WI_4N_Splice17_12-33-45-975.txt Node
Date: Sat Mar 14 12:33:45 EDT 2020
User: sa697716
Spectrometer: FLMS03696
Trigger mode: 0
Integration Time (sec): 3.180400E-1
Scans to average: 20
Electric dark correction enabled: true
Nonlinearity correction enabled: true
Boxcar width: 5
XAxis mode: Wavelengths
Number of Pixels in Spectrum: 2048
>>>>>Begin Spectral Data<<<<<
187.83	-304809.84
188.298	2225.62
188.766	1248.11
189.233	1118.83
189.701	1682.14
190.169	2173.83
190.636	757.29
191.104	603.83
191.571	40.83
192.039	-132.99
192.506	-115.73
192.974	377.67
193.441	-878.94
193.908	-96.27
194.375	-79.48
194.842	96.83
195.31	150.4
195.777	187.22
196.244	413.8
196.711	431.36
197.177	515.06
197.644	712.86
198.111	1213.17
198.578	1719.58
199.045	1365.82
199.511	2248.04
199.978	2572.39
200.445	2181.23
200.911	2401.77
201.378	2671.73
201.844	2442.11
202.31	4140.28
202.777	4359.59
203.243	2436.6
203.709	2325.74
204.176	2767.78
204.642	2303.16
205.108	2172.28
205.574	1752.31
206.04	1583.69
206.506	1483.9
206.972	1401.76
207.438	1359.12
207.903	1520.49
208.369	1337.6
208.835	1352.42
209.301	1410.46
209.766	1437.33
210.232	1422.16
210.697	1785.07
211.163	2196.5
211.628	3327.54
212.094	2801.53
212.559	3474.36
213.024	2205.34
213.49	2708.93
213.955	2655.42
214.42	2589.65
214.885	2427.76
215.35	2336.89
215.815	2281.57
216.28	2466.06
216.745	2026.5
217.21	2216.81
217.675	2055.68
218.14	2328.77
218.604	2635.49
219.069	3048.44
219.534	3281.2
219.998	3869.04
220.463	4738.53
220.927	5915.79
221.392	5618.96
221.856	5738.74
222.32	7305.21
222.785	9089.8
223.249	11522.96
223.713	12936.24
224.177	12983.77
224.642	16679.33
225.106	20580.85
225.57	22525.22
226.034	16719.94
226.497	25456.55
226.961	23036.45
227.425	26818.37
227.889	29756.78
228.353	29786.16
228.816	61448.5
229.28	58872.93
229.744	49700.96
230.207	30215.98
230.671	29734.22
231.134	49192.3
231.597	56772.65
232.061	56700.64
232.524	55299.44
232.987	38082.33
233.45	34254.76
233.914	30727.19
234.377	31425.31
234.84	28717.98
235.303	33826.65
235.766	37732.1
236.229	39011.24
236.691	24528.49
237.154	27519.72
237.617	20689.72
238.08	21185.09
238.542	24782.89
239.005	17705.39
239.468	17546.2
239.93	16530.67
240.393	15011.75
240.855	13161.53
241.317	13450.82
241.78	16362.66
242.242	16914.07
242.704	18222.23
243.166	15843.86
243.629	14379.19
244.091	16541.48
244.553	18116.02
245.015	19453.37
245.477	25128.4
245.939	36824.19
246.4	39062.48
246.862	37937.95
247.324	35718.77
247.786	39953.56
248.247	52326.47
248.709	53905.82
249.17	40322.13
249.632	38001.92
250.093	44022.91
250.555	38039.17
251.016	23193.35
251.477	21977.07
251.939	23677.21
252.4	24813.01
252.861	29506.23
253.322	27434.95
253.783	32665.54
254.244	42335.57
254.705	33346.84
255.166	29616.23
255.627	29106.53
256.088	41025.48
256.549	43549.09
257.009	37522.74
257.47	45527.51
257.931	37003.06
258.391	27690.15
258.852	28495.85
259.312	29818.42
259.773	36815.24
260.233	31103.02
260.694	26217.64
261.154	29729.94
261.614	23862.5
262.074	21296.34
262.534	22087.04
262.994	20810.13
263.455	27691.03
263.915	23315.86
264.374	21962.48
264.834	23950.13
265.294	26523.21
265.754	27458.38
266.214	25959.16
266.673	24313.08
267.133	30667.89
267.593	30422.43
268.052	37187.45
268.512	32347.81
268.971	39017.02
269.431	42733.6
269.89	38261.14
270.349	57336.67
270.809	63872.54
271.268	57350.81
271.727	128513.96
272.186	83179.17
272.645	62341.2
273.104	44947.44
273.563	65021.91
274.022	51098.46
274.481	43500.02
274.94	33492.62
275.399	24854.32
275.857	28897.33
276.316	39036.49
276.775	34708.84
277.233	34159.19
277.692	31980.51
278.15	36181.35
278.609	37193.49
279.067	34382.71
279.525	31866.97
279.984	41126.12
280.442	49428.25
280.9	48744.17
281.358	32063.91
281.816	29837.93
282.274	29216.52
282.732	30145.85
283.19	30275.01
283.648	26099.98
284.106	27748.65
284.564	28213.33
285.021	26115.02
285.479	19415.29
285.937	17632.4
286.394	15457.57
286.852	15902.47
287.309	16679.58
287.767	16118.02
288.224	15297.3
288.682	16775.37
289.139	18412.45
289.596	16833.51
290.053	17473.38
290.511	22062.38
290.968	26731.74
291.425	36267.79
291.882	30179.2
292.339	26278.97
292.796	26004.99
293.252	24472.87
293.709	19432.53
294.166	17409.88
294.623	19223.1
295.079	18432.86
295.536	18479.87
295.992	16753.29
296.449	16538.79
296.905	17166.32
297.362	16414.55
297.818	17230.9
298.274	17888.8
298.731	18210.49
299.187	17972.46
299.643	19260.68
300.099	23259.99
300.555	25502.53
301.011	21309.31
301.467	20544.21
301.923	24012.16
302.379	23453.25
302.835	23063.15
303.291	23059.28
303.746	26204.99
304.202	33109.28
304.658	33234.72
305.113	22344.96
305.569	21898.38
306.024	23334.88
306.479	22175.7
306.935	18668.75
307.39	20367.39
307.845	18782.37
308.301	18868.3
308.756	18352.03
309.211	17665.53
309.666	18079.33
310.121	22427.69
310.576	22726.21
311.031	22519.34
311.486	25751.12
311.94	25738.59
312.395	34379.75
312.85	64548.03
313.305	316641.97
313.759	1639515.33
314.214	118830.65
314.668	94104.58
315.123	79067.17
315.577	28293.01
316.032	25155.58
316.486	31511.83
316.94	24833.84
317.394	17289.12
317.849	13424.53
318.303	12696.72
318.757	11972.88
319.211	13213.53
319.665	11542.55
320.119	11675.67
320.572	16734.57
321.026	15613.97
321.48	12991.44
321.934	14141.94
322.387	14169.9
322.841	15295.79
323.295	13759.92
323.748	15801.89
324.202	15997.6
324.655	19211.5
325.108	26794.87
325.562	18920.02
326.015	22443.63
326.468	16910.73
326.921	18876.71
327.374	17561.27
327.827	18269.47
328.28	20630.95
328.733	13837.91
329.186	12166.95
329.639	11602.15
330.092	9777.01
330.545	9305.65
330.997	9385.37
331.45	10282.38
331.903	12055.5
332.355	20732.67
332.808	20136.42
333.26	16599.25
333.713	17997.39
334.165	18104.69
334.617	24114.87
335.069	19476.7
335.522	35173.86
335.974	38898.96
336.426	35408.37
336.878	24489.95
337.33	12433.61
337.782	12119.69
338.234	15201.39
338.686	18171.15
339.137	21527.73
339.589	20266.1
340.041	15850.33
340.493	13618.1
340.944	13940.44
341.396	15029.83
341.847	12645.31
342.299	14912.35
342.75	18215.84
343.201	15860.49
343.653	18231.46
344.104	22338.25
344.555	17548.94
345.006	27295.02
345.457	20928.95
345.908	16634.98
346.359	15666.82
346.81	12746.3
347.261	13392.46
347.712	13173.69
348.163	14134.99
348.613	14328.15
349.064	13386.82
349.515	11715.99
349.965	12018.09
350.416	14445.69
350.866	15812.22
351.317	17798.02
351.767	29456.32
352.217	37190.66
352.668	30824.69
353.118	28244.61
353.568	27191.18
354.018	21547.54
354.468	22753.91
354.918	16324.9
355.368	14251.3
355.818	20165.35
356.268	58015.92
356.718	242377.65
357.168	60338.77
357.617	30250.46
358.067	33587.63
358.517	31429.92
358.966	36785.88
359.416	41204.96
359.865	44502.93
360.315	53023.48
360.764	24692.7
361.213	13878.1
361.663	13134.39
362.112	16166.45
362.561	26129.3
363.01	19697.89
363.459	16572.71
363.908	17915.02
364.357	15228.57
364.806	25683.12
365.255	17625.17
365.703	16167.55
366.152	16125.79
366.601	13103.13
367.05	10662.07
367.498	9687.53
367.947	10130.97
368.395	10528.99
368.844	9316.55
369.292	11179.92
369.74	7728.86
370.189	11812.92
370.637	13795.86
371.085	11911.43
371.533	14474.8
371.981	13919.75
372.429	13253.96
372.877	13759.59
373.325	11495.61
373.773	11697.21
374.221	10434.46
374.669	12945.32
375.116	11205.19
375.564	11317.51
376.012	12657.11
376.459	10467.74
376.907	12515.56
377.354	15087.78
377.801	14072.58
378.249	16184.08
378.696	20679.5
379.143	25070.91
379.591	26645.9
380.038	45155.52
380.485	32653.93
380.932	35272.49
381.379	32188.7
381.826	23754.1
382.273	16926.48
382.72	14806.93
383.166	14471.13
383.613	9404.9
384.06	8463.78
384.506	9820.17
384.953	7210.96
385.4	7257.1
385.846	6361.18
386.292	6201.94
386.739	6076.92
387.185	6013.19
387.631	6030.76
388.078	5869.8
388.524	6284.62
388.97	5820.5
389.416	4871.56
389.862	5203.25
390.308	4950.57
390.754	5045.31
391.2	5482.73
391.645	5622.37
392.091	5424.88
392.537	5266.36
392.983	5285.58
393.428	5229.96
393.874	5629.56
394.319	5672.03
394.765	5394.83
395.21	5559.51
395.655	5228.44
396.101	4927.33
396.546	4460.45
396.991	4497.67
397.436	4185.56
397.881	4055.14
398.326	3856.53
398.771	3661.26
399.216	3206.26
399.661	2894.61
400.106	2893.24
400.551	2978.35
400.995	2677.5
401.44	2656.53
401.885	2501.47
402.329	2532.13
402.774	2441.88
403.218	2369.71
403.663	2289.36
404.107	2362.64
404.551	2390.45
404.995	2196.59
405.44	2117.14
405.884	2148.22
406.328	2079.91
406.772	2074.38
407.216	1897.38
407.66	1828.59
408.104	1738.4
408.547	1625.31
408.991	1571.23
409.435	1509.8
409.879	1490.33
410.322	1469.95
410.766	1426.28
411.209	1359.47
411.653	1309.49
412.096	1282.05
412.54	1283.74
412.983	1274.55
413.426	1283.11
413.869	1283.65
414.312	1264.57
414.756	1219.86
415.199	1166.22
415.642	1132.92
416.085	1135.06
416.527	1126.64
416.97	1146.13
417.413	1088.86
417.856	1076.69
418.298	1064.84
418.741	1056.09
419.184	1049.86
419.626	1094.97
420.069	1096.34
420.511	1103.11
420.953	1081.12
421.396	1069.57
421.838	1040.52
422.28	1065.01
422.722	1071.65
423.164	1087.49
423.606	1072.45
424.048	1072.5
424.49	1018.42
424.932	1011.8
425.374	996.56
425.816	1011.58
426.258	1032.15
426.699	1046.61
427.141	1031.73
427.582	1045.6
428.024	1038.42
428.465	1029.91
428.907	1003.77
429.348	991
429.789	991.1
430.231	970.94
430.672	983.22
431.113	960.4
431.554	946.71
431.995	921.58
432.436	890.7
432.877	871.23
433.318	858.76
433.759	853.96
434.2	852.8
434.64	844.44
435.081	845.03
435.522	802.63
435.962	772
436.403	754.46
436.843	765.07
437.284	748.13
437.724	729.26
438.164	730.38
438.604	713.83
439.045	688.81
439.485	661.43
439.925	649.74
440.365	634.24
440.805	627.96
441.245	621.84
441.685	600.45
442.125	595.69
442.564	598.92
443.004	587.78
443.444	588.84
443.883	591.35
444.323	587.21
444.762	588.19
445.202	595.89
445.641	608.96
446.081	603.99
446.52	611.58
446.959	609.25
447.398	597.65
447.837	592.43
448.276	583.33
448.716	590.41
449.154	597.21
449.593	585.86
450.032	587.29
450.471	577.95
450.91	581.46
451.349	582.34
451.787	581.64
452.226	591.34
452.664	592.66
453.103	595.84
453.541	596.56
453.98	597.88
454.418	603.32
454.856	595.13
455.295	594.71
455.733	599.6
456.171	601.48
456.609	604.07
457.047	605.44
457.485	614.71
457.923	616.58
458.361	608.1
458.798	609.95
459.236	608.79
459.674	612.72
460.111	616.85
460.549	612.47
460.987	611.45
461.424	608.04
461.862	605.33
462.299	597.05
462.736	597.13
463.173	600.23
463.611	596.31
464.048	595.22
464.485	599.85
464.922	594.59
465.359	589.81
465.796	584.41
466.233	580.96
466.67	575.73
467.106	574
467.543	567.48
467.98	560.27
468.416	544.53
468.853	538.86
469.29	523.28
469.726	516.9
470.162	504.03
470.599	494.95
471.035	490.08
471.471	477.55
471.907	473.33
472.344	470.51
472.78	471.22
473.216	475.58
473.652	471.48
474.088	470.11
474.523	468.64
474.959	473.39
475.395	470.09
475.831	467.21
476.266	470.13
476.702	470.73
477.138	466.05
477.573	465.28
478.008	464.74
478.444	467.31
478.879	473.15
479.314	475.93
479.75	475.35
480.185	477.35
480.62	482.37
481.055	485.69
481.49	489.33
481.925	496.37
482.36	506.36
482.795	520.33
483.229	533.96
483.664	544.89
484.099	547.98
484.534	557.89
484.968	564.4
485.403	567.68
485.837	567.21
486.271	566.42
486.706	568.87
487.14	562.5
487.574	554.95
488.009	551.31
488.443	547.65
488.877	554.29
489.311	557.32
489.745	565.89
490.179	572.11
490.613	584.99
491.046	590.85
491.48	596.38
491.914	599.14
492.348	605.09
492.781	611.05
493.215	614.39
493.648	618.11
494.082	626.03
494.515	628.38
494.948	638.4
495.382	644.68
495.815	652.46
496.248	660.35
496.681	675
497.114	689.11
497.547	701
497.98	716.54
498.413	725.22
498.846	736.54
499.279	747.93
499.711	755.01
500.144	761.06
500.577	775.12
501.009	789.34
501.442	801.84
501.874	806.16
502.306	811.95
502.739	823.23
503.171	841.02
503.603	847.66
504.036	861.08
504.468	869.81
504.9	884.33
505.332	894.15
505.764	901.53
506.196	912.46
506.627	931.28
507.059	947.9
507.491	960.04
507.923	960.71
508.354	978.53
508.786	991.1
509.217	1011.37
509.649	1029.18
510.08	1050.28
510.512	1069.04
510.943	1085.99
511.374	1100.24
511.805	1122.21
512.237	1142.6
512.668	1176.56
513.099	1206.15
513.53	1235.27
513.961	1257.85
514.391	1290.99
514.822	1326.17
515.253	1364.29
515.684	1389.5
516.114	1418.29
516.545	1440.89
516.975	1467.25
517.406	1485.3
517.836	1486.76
518.267	1493.08
518.697	1510.46
519.127	1513.02
519.558	1517.59
519.988	1519.27
520.418	1529.57
520.848	1545.55
521.278	1551.7
521.708	1570.97
522.138	1582.62
522.567	1612.69
522.997	1635.67
523.427	1648.64
523.857	1663.79
524.286	1673.06
524.716	1687.24
525.145	1703.56
525.575	1712.2
526.004	1725.58
526.433	1713.86
526.863	1712.12
527.292	1699
527.721	1703.55
528.15	1708.57
528.579	1707.64
529.008	1716.74
529.437	1737.68
529.866	1750.5
530.295	1768.03
530.724	1779.26
531.152	1804.81
531.581	1817.59
532.01	1834.63
532.438	1842.53
532.867	1855.24
533.295	1874.2
533.723	1879.85
534.152	1876.88
534.58	1876.16
535.008	1858.26
535.436	1859.95
535.865	1866.94
536.293	1880.99
536.721	1896.51
537.149	1920.68
537.576	1924.27
538.004	1934.8
538.432	1942.09
538.86	1940.3
539.287	1946.56
539.715	1959.8
540.143	1961.5
540.57	1956.11
540.998	1951.91
541.425	1928.25
541.852	1906.45
542.28	1902.66
542.707	1886.71
543.134	1872.24
543.561	1866.38
543.988	1858.54
544.415	1857.96
544.842	1851.68
545.269	1845.21
545.696	1847.34
546.123	1860.7
546.549	1849.91
546.976	1837.77
547.403	1835.53
547.829	1836.5
548.256	1838.47
548.682	1834.44
549.108	1825.42
549.535	1823.63
549.961	1824.83
550.387	1810.38
550.813	1803.39
551.24	1809.44
551.666	1809.49
552.092	1800.7
552.518	1794.53
552.943	1788.88
553.369	1796.45
553.795	1802.7
554.221	1805.06
554.646	1802.78
555.072	1814.81
555.498	1820.98
555.923	1830.68
556.349	1846.83
556.774	1856.12
557.199	1857.92
557.625	1864.23
558.05	1858.34
558.475	1870.32
558.9	1869.78
559.325	1862.74
559.75	1856.47
560.175	1851.81
560.6	1846.82
561.025	1845.97
561.449	1849.06
561.874	1856.04
562.299	1861.74
562.723	1871.52
563.148	1861.21
563.572	1866.75
563.997	1877.92
564.421	1884.35
564.846	1885.21
565.27	1890.17
565.694	1888.89
566.118	1901.78
566.542	1911.31
566.966	1906.81
567.39	1903.39
567.814	1895.24
568.238	1897.45
568.662	1904.3
569.086	1910.14
569.509	1919.27
569.933	1904.86
570.357	1899.32
570.78	1879.05
571.204	1866.8
571.627	1857.66
572.05	1857.11
572.474	1858.02
572.897	1844.94
573.32	1838.43
573.743	1828.82
574.166	1811.03
574.589	1813.3
575.012	1807.34
575.435	1807.52
575.858	1798.62
576.281	1788.07
576.704	1772.04
577.126	1760.09
577.549	1750.66
577.972	1741.76
578.394	1732.3
578.817	1726.72
579.239	1707.21
579.661	1693.62
580.084	1677.96
580.506	1665.14
580.928	1661.51
581.35	1650.65
581.772	1647.28
582.194	1633.53
582.616	1620.72
583.038	1605.75
583.46	1595.07
583.882	1592.78
584.303	1597.22
584.725	1593.32
585.147	1595.51
585.568	1608.14
585.99	1622.53
586.411	1631.3
586.833	1647.25
587.254	1649.99
587.675	1666.3
588.096	1680.43
588.518	1675.45
588.939	1657.99
589.36	1657.26
589.781	1648.07
590.202	1617.85
590.623	1609.64
591.043	1607.25
591.464	1595.71
591.885	1591.68
592.305	1585.83
592.726	1571.27
593.147	1573.48
593.567	1567.84
593.987	1559.65
594.408	1553.97
594.828	1552.54
595.248	1545.98
595.669	1525.95
596.089	1517.82
596.509	1511.35
596.929	1497.56
597.349	1497.4
597.769	1485.7
598.189	1480.07
598.608	1480.98
599.028	1484.07
599.448	1482.7
599.867	1469.02
600.287	1464.6
600.706	1460.22
601.126	1450.29
601.545	1448.87
601.965	1448.12
602.384	1442.89
602.803	1445.88
603.222	1441.46
603.641	1433.98
604.061	1431.22
604.48	1427.03
604.898	1435.62
605.317	1441.23
605.736	1443.72
606.155	1440.19
606.574	1431.18
606.992	1437.57
607.411	1432.84
607.829	1424.69
608.248	1421.1
608.666	1418.8
609.085	1419.19
609.503	1409.79
609.921	1403.07
610.339	1404.55
610.758	1404.34
611.176	1400.11
611.594	1389.87
612.012	1386.21
612.43	1389.47
612.847	1396.39
613.265	1396.72
613.683	1400.51
614.101	1402.85
614.518	1399.08
614.936	1388.65
615.353	1372.77
615.771	1369.36
616.188	1370.71
616.606	1366.97
617.023	1359.35
617.44	1343.86
617.857	1337.11
618.274	1327.99
618.691	1321.31
619.108	1310.51
619.525	1304.78
619.942	1311.71
620.359	1313.88
620.776	1307.17
621.192	1302.38
621.609	1299.9
622.026	1307.76
622.442	1313.44
622.859	1317.11
623.275	1307.92
623.691	1314.39
624.108	1326.27
624.524	1341.58
624.94	1341.39
625.356	1352.26
625.772	1366.6
626.188	1378.53
626.604	1379.66
627.02	1374.7
627.436	1373.48
627.852	1381.68
628.268	1393.11
628.683	1382.78
629.099	1374.39
629.514	1369.34
629.93	1372.95
630.345	1376.89
630.761	1372.83
631.176	1376.6
631.591	1370.63
632.007	1363.75
632.422	1362.68
632.837	1351.54
633.252	1348.98
633.667	1338.48
634.082	1329.66
634.497	1316.87
634.911	1296.41
635.326	1292.12
635.741	1273.83
636.155	1263.52
636.57	1264.02
636.984	1262.08
637.399	1263.4
637.813	1261.87
638.228	1259.46
638.642	1262.85
639.056	1250.76
639.47	1250.03
639.884	1240.27
640.298	1233.2
640.712	1230.78
641.126	1217.65
641.54	1207.33
641.954	1201.68
642.368	1188.93
642.781	1179.54
643.195	1159.9
643.609	1159.22
644.022	1152.93
644.436	1148.77
644.849	1134.66
645.262	1122.67
645.676	1121.61
646.089	1116.24
646.502	1099.07
646.915	1091.72
647.328	1074.35
647.741	1070.63
648.154	1056.51
648.567	1050.52
648.98	1034.69
649.393	1034.41
649.805	1028.54
650.218	1019.92
650.631	1002.36
651.043	993.5
651.456	986.93
651.868	984.86
652.28	1000.19
652.693	1012.18
653.105	1017.64
653.517	1026.01
653.929	1023.49
654.341	1026.96
654.753	1012.09
655.165	1015.48
655.577	1011.25
655.989	1003.19
656.401	991.74
656.813	954.41
657.224	931.08
657.636	900.69
658.047	879.69
658.459	857.67
658.87	844.5
659.282	828.68
659.693	806.9
660.104	789.19
660.515	772.82
660.926	768.53
661.338	761.37
661.749	751.52
662.159	738.25
662.57	729.41
662.981	719.87
663.392	709.08
663.803	709.38
664.213	701.71
664.624	693.11
665.035	690.25
665.445	673.28
665.855	663.19
666.266	652.55
666.676	646.33
667.086	635.24
667.497	632.46
667.907	624.38
668.317	613.16
668.727	608.86
669.137	607.17
669.547	603.03
669.956	601.87
670.366	600.13
670.776	599.36
671.186	600.59
671.595	601.89
672.005	601.89
672.414	599.94
672.824	598.26
673.233	598.25
673.642	598.32
674.052	599.73
674.461	600.9
674.87	604.47
675.279	601.53
675.688	601.11
676.097	601.14
676.506	598.59
676.915	609.44
677.323	612.31
677.732	611.63
678.141	612
678.549	603.94
678.958	603.95
679.366	603.31
679.775	607.96
680.183	619.11
680.592	626.49
681	634.07
681.408	632.52
681.816	641.75
682.224	653.06
682.632	667.31
683.04	698.22
683.448	725.31
683.856	758.25
684.264	795.78
684.671	831.53
685.079	874.5
685.487	923.01
685.894	986.84
686.302	1042.03
686.709	1089.54
687.116	1143.61
687.524	1191.14
687.931	1232.54
688.338	1270.06
688.745	1302.98
689.152	1338.95
689.559	1384.57
689.966	1428.58
690.373	1452.44
690.78	1493.68
691.187	1558.5
691.593	1606.56
692	1646.9
692.407	1706.67
692.813	1780.04
693.22	1838.61
693.626	1897.42
694.032	1942.86
694.439	2013.54
694.845	2068.11
695.251	2136.79
695.657	2194.96
696.063	2286.19
696.469	2352.88
696.875	2414.41
697.281	2443.98
