Data from C_2_DEC_VA_2N_Splice17_12-08-29-251.txt Node
Date: Sat Mar 14 12:08:29 EDT 2020
User: sa697716
Spectrometer: FLMS03696
Trigger mode: 0
Integration Time (sec): 3.180400E-1
Scans to average: 20
Electric dark correction enabled: true
Nonlinearity correction enabled: true
Boxcar width: 5
XAxis mode: Wavelengths
Number of Pixels in Spectrum: 2048
>>>>>Begin Spectral Data<<<<<
187.83	-222764.3
188.298	1803.98
188.766	962.48
189.233	854.4
189.701	1174.39
190.169	1635.82
190.636	556.99
191.104	460.77
191.571	50.27
192.039	-81.38
192.506	-35.95
192.974	355.38
193.441	-287.09
193.908	-18.93
194.375	12.3
194.842	2.8
195.31	49.99
195.777	145.81
196.244	401.96
196.711	508.72
197.177	623.4
197.644	886.33
198.111	1499.25
198.578	2091.76
199.045	1697.51
199.511	2791.21
199.978	3303.38
200.445	2800.38
200.911	3078.07
201.378	3415.13
201.844	3079.97
202.31	5264.37
202.777	5528.83
203.243	3059.28
203.709	2924.71
204.176	3436.58
204.642	2819.72
205.108	2616.5
205.574	2125.22
206.04	1942.76
206.506	1834.12
206.972	1738.72
207.438	1690.01
207.903	1910
208.369	1675.19
208.835	1665.83
209.301	1761.36
209.766	1811.77
210.232	1795.97
210.697	2228.43
211.163	2750.86
211.628	4132.66
212.094	3443.21
212.559	4181.26
213.024	2580.22
213.49	3136.26
213.955	3054.36
214.42	2978.82
214.885	2740.78
215.35	2619.41
215.815	2504.54
216.28	2625.84
216.745	2107.66
217.21	2272.46
217.675	2051.54
218.14	2290.99
218.604	2518.96
219.069	2816.33
219.534	2899.72
219.998	3308.26
220.463	3939.14
220.927	4765.27
221.392	4451.35
221.856	4465.46
222.32	5550.61
222.785	6823.12
223.249	8515.38
223.713	9446.74
224.177	9422.71
224.642	11989.26
225.106	14744.8
225.57	16074.96
226.034	11935.91
226.497	18101.49
226.961	16341.55
227.425	19005.07
227.889	21045.22
228.353	21015.56
228.816	43323.25
229.28	41419.66
229.744	35022.39
230.207	21275.82
230.671	20917.26
231.134	34606.15
231.597	39921.79
232.061	39905.13
232.524	38834.58
232.987	26723.2
233.45	24049.09
233.914	21566.61
234.377	22041.94
234.84	20161.38
235.303	23731.55
235.766	26491.79
236.229	27318.04
236.691	17177.08
237.154	19293.58
237.617	14555.17
238.08	14925.04
238.542	17464.98
239.005	12486.86
239.468	12407.44
239.93	11705.9
240.393	10655.47
240.855	9349.5
241.317	9590.12
241.78	11687.32
242.242	12080.75
242.704	13036.36
243.166	11329.97
243.629	10296.12
244.091	11860.22
244.553	12988.58
245.015	13961.94
245.477	18042.68
245.939	26430.44
246.4	28062.16
246.862	27206.21
247.324	25667.21
247.786	28713.53
248.247	37654.85
248.709	38825.78
249.17	29090.46
249.632	27472.47
250.093	31817.22
250.555	27464
251.016	16753.15
251.477	15860.35
251.939	17108.8
252.4	17914.51
252.861	21277.74
253.322	19781.39
253.783	23528.48
254.244	30419.52
254.705	23922.37
255.166	21238.12
255.627	20907.93
256.088	29485.84
256.549	31276.91
257.009	26944.06
257.47	32660.05
257.931	26608.99
258.391	19908.27
258.852	20463.78
259.312	21455.26
259.773	26439.24
260.233	22301.73
260.694	18792.82
261.154	21282.09
261.614	17073.2
262.074	15243.01
262.534	15826.47
262.994	14873.4
263.455	19788.63
263.915	16651.88
264.374	15615.58
264.834	17012.74
265.294	18819.43
265.754	19445.84
266.214	18351.21
266.673	17159.67
267.133	21604.71
267.593	21375.47
268.052	26093.04
268.512	22638.7
268.971	27280.62
269.431	29937.26
269.89	26793.18
270.349	40107.13
270.809	44680.06
271.268	40165.68
271.727	89963.68
272.186	58189.13
272.645	43613.12
273.104	31415.7
273.563	45455.85
274.022	35728.13
274.481	30354.76
274.94	23386.28
275.399	17396.61
275.857	20240.87
276.316	27309.72
276.775	24278.24
277.233	23930.05
277.692	22395.9
278.15	25362.02
278.609	26109.75
279.067	24139.84
279.525	22451.98
279.984	28947.39
280.442	34775.95
280.9	34298.95
281.358	22610.58
281.816	21097.22
282.274	20641.21
282.732	21343.32
283.19	21464.88
283.648	18546.23
284.106	19762.62
284.564	20103.41
285.021	18682.79
285.479	13928.27
285.937	12671.07
286.394	11136.75
286.852	11466.03
287.309	12074.6
287.767	11673.94
288.224	11100.86
288.682	12170.36
289.139	13385.09
289.596	12239.98
290.053	12697.83
290.511	15997.03
290.968	19389.45
291.425	26258.14
291.882	21860.43
292.339	19014.25
292.796	18867.58
293.252	17784.26
293.709	14132.73
294.166	12640.04
294.623	13961.3
295.079	13388.74
295.536	13493.13
295.992	12239.57
296.449	12106.88
296.905	12586.29
297.362	12061.39
297.818	12681.24
298.274	13155.15
298.731	13389.48
299.187	13258.53
299.643	14239.32
300.099	17245.12
300.555	18870.16
301.011	15794.51
301.467	15266.76
301.923	17854.22
302.379	17464.14
302.835	17155.11
303.291	17185.25
303.746	19580.19
304.202	24746.78
304.658	24871.63
305.113	16738.32
305.569	16421.62
306.024	17485.43
306.479	16623.98
306.935	14046.97
307.39	15342.06
307.845	14169.21
308.301	14269.8
308.756	13899.15
309.211	13411.56
309.666	13743.44
310.121	17112.96
310.576	17387.95
311.031	17306.83
311.486	19837.46
311.94	19817.17
312.395	26509.72
312.85	49887.69
313.305	244900.73
313.759	1272562.06
314.214	92442.44
314.668	73355.6
315.123	61643.98
315.577	22167.13
316.032	19725.61
316.486	24719.51
316.94	19514.36
317.394	13609.59
317.849	10568.19
318.303	10005.01
318.757	9424.69
319.211	10412.62
319.665	9107.07
320.119	9210.89
320.572	13142.24
321.026	12273.3
321.48	10198.81
321.934	11109.62
322.387	11116.87
322.841	12026.45
323.295	10841.92
323.748	12499.04
324.202	12660.97
324.655	15214.77
325.108	21285.36
325.562	15074.87
326.015	17899.51
326.468	13559.3
326.921	15131.41
327.374	14132.12
327.827	14715.99
328.28	16644.24
328.733	11167.6
329.186	9819.06
329.639	9351.4
330.092	7872.07
330.545	7505
330.997	7596.22
331.45	8303.28
331.903	9776.84
332.355	16805.52
332.808	16304.41
333.26	13448.98
333.713	14581.38
334.165	14678.35
334.617	19628.83
335.069	15866.84
335.522	28701.01
335.974	31745.83
336.426	29011.36
336.878	20042.13
337.33	10159.12
337.782	9945.36
338.234	12488.63
338.686	14942.53
339.137	17755.15
339.589	16722.24
340.041	13123.52
340.493	11262.75
340.944	11546.73
341.396	12434.55
341.847	10485.45
342.299	12384.08
342.75	15177.6
343.201	13221.72
343.653	15206.26
344.104	18622.55
344.555	14635.29
345.006	22765.74
345.457	17465.77
345.908	13846.61
346.359	13036.02
346.81	10601.13
347.261	11169.58
347.712	10939.28
348.163	11714.08
348.613	11860.17
349.064	11094.65
349.515	9709.46
349.965	9958.19
350.416	11962.1
350.866	13159.55
351.317	14856.1
351.767	24615.6
352.217	31108.65
352.668	25858.93
353.118	23761.46
353.568	22888.86
354.018	18157.28
354.468	19177.72
354.918	13776.43
355.368	12087.68
355.818	17042.74
356.268	49080.61
356.718	205478.7
357.168	51129.75
357.617	25668.37
358.067	28483.87
358.517	26759.8
358.966	31352.74
359.416	35177.53
359.865	37961.4
360.315	45171.63
360.764	21104.64
361.213	11848.76
361.663	11231.59
362.112	13852.97
362.561	22400.22
363.01	16949.56
363.459	14231.5
363.908	15374.32
364.357	13099.68
364.806	22142.69
365.255	15226.22
365.703	13969.72
366.152	13993.1
366.601	11363.07
367.05	9254.99
367.498	8407.54
367.947	8783.68
368.395	9148.55
368.844	8117.97
369.292	9753.64
369.74	6744.61
370.189	10336.45
370.637	12104.5
371.085	10435.86
371.533	12725.55
371.981	12231.95
372.429	11693.42
372.877	12205.22
373.325	10237.84
373.773	10445.32
374.221	9313.93
374.669	11570.59
375.116	10016.69
375.564	10135.31
376.012	11372.92
376.459	9404.5
376.907	11308.68
377.354	13695.18
377.801	12825.69
378.249	14802.96
378.696	18968.75
379.143	23124.05
379.591	24751.66
380.038	42072.42
380.485	30468.42
380.932	33041.28
381.379	30372.97
381.826	22412.65
382.273	15989.5
382.72	14017.71
383.166	13731.71
383.613	8951.72
384.06	8105.93
384.506	9439.58
384.953	6969.33
385.4	7078.16
385.846	6227.51
386.292	6098.03
386.739	6003.56
387.185	5983.02
387.631	6017.9
388.078	5889.91
388.524	6356.24
388.97	5916.18
389.416	4980.18
389.862	5341.83
390.308	5086.21
390.754	5209.74
391.2	5689.97
391.645	5883.26
392.091	5671.51
392.537	5533.83
392.983	5569.8
393.428	5532.39
393.874	5987.49
394.319	6063.72
394.765	5804.11
395.21	6026.04
395.655	5705.67
396.101	5401.04
396.546	4922.76
396.991	5010.3
397.436	4692.97
397.881	4583.82
398.326	4379.97
398.771	4168.93
399.216	3675.02
399.661	3334.52
400.106	3348.88
400.551	3452.74
400.995	3119.44
401.44	3101.25
401.885	2937.79
402.329	2992.58
402.774	2885.62
403.218	2804.68
403.663	2719.88
404.107	2811.1
404.551	2852.27
404.995	2631.59
405.44	2546.69
405.884	2598.85
406.328	2529.86
406.772	2538.06
407.216	2323.61
407.66	2259.64
408.104	2158.68
408.547	2034.59
408.991	1974.3
409.435	1908.89
409.879	1893.15
410.322	1880.37
410.766	1827
411.209	1741.89
411.653	1677.04
412.096	1648.04
412.54	1654.79
412.983	1650.81
413.426	1658.58
413.869	1664.82
414.312	1638.57
414.756	1580.37
415.199	1511.82
415.642	1471.27
416.085	1479.91
416.527	1473.87
416.97	1498.73
417.413	1426.18
417.856	1416.24
418.298	1404
418.741	1398.56
419.184	1398.38
419.626	1462.47
420.069	1463.84
420.511	1472.96
420.953	1443.74
421.396	1432.08
421.838	1400.58
422.28	1430.1
422.722	1435.9
423.164	1459.21
423.606	1434.88
424.048	1429.05
424.49	1356.49
424.932	1350.18
425.374	1331.76
425.816	1355.71
426.258	1379.05
426.699	1392.06
427.141	1371.03
427.582	1392.81
428.024	1383.34
428.465	1375.17
428.907	1340.88
429.348	1323.21
429.789	1320.94
430.231	1293.1
430.672	1305.09
431.113	1274.97
431.554	1253.58
431.995	1223.09
432.436	1175.2
432.877	1147.88
433.318	1125.25
433.759	1121.4
434.2	1120.95
434.64	1109.35
435.081	1112.95
435.522	1058.03
435.962	1020.56
436.403	1000.06
436.843	1015.52
437.284	999.16
437.724	975.75
438.164	983.34
438.604	964.95
439.045	933.2
439.485	900.48
439.925	883.62
440.365	865.55
440.805	859.1
441.245	854.1
441.685	828.58
442.125	828.01
442.564	838.47
443.004	823.82
443.444	829.72
443.883	836.78
444.323	837.26
444.762	847.49
445.202	866.64
445.641	887.18
446.081	889.75
446.52	903.33
446.959	899.63
447.398	884.07
447.837	880.5
448.276	871.06
448.716	888.14
449.154	902.91
449.593	886.98
450.032	890.56
450.471	882.32
450.91	890.67
451.349	895.62
451.787	899.32
452.226	918.93
452.664	926.79
453.103	933.41
453.541	936.43
453.98	938.17
454.418	948.32
454.856	935.72
455.295	937.64
455.733	945.44
456.171	953.21
456.609	957.07
457.047	960.16
457.485	974.78
457.923	977.42
458.361	965.4
458.798	970.59
459.236	970.37
459.674	978.57
460.111	983.87
460.549	977.17
460.987	974.4
461.424	971.54
461.862	966
462.299	950.94
462.736	948.67
463.173	953.61
463.611	941.89
464.048	938.99
464.485	947.3
464.922	937.78
465.359	931.61
465.796	914.68
466.233	906.69
466.67	897.51
467.106	895.74
467.543	887.54
467.98	875.88
468.416	854.82
468.853	848.44
469.29	823.41
469.726	815.29
470.162	795.44
470.599	789.27
471.035	784.36
471.471	766.9
471.907	763.64
472.344	760.71
472.78	763.34
473.216	773.61
473.652	765.14
474.088	764.57
474.523	763.23
474.959	770.68
475.395	764.28
475.831	759.07
476.266	764.39
476.702	762.9
477.138	755.54
477.573	753.58
478.008	751.02
478.444	754.74
478.879	761.61
479.314	766.01
479.75	766.46
480.185	771.45
480.62	781.18
481.055	786.15
481.49	793.96
481.925	806.92
482.36	821.84
482.795	847.56
483.229	873.14
483.664	894.61
484.099	900.98
484.534	916.72
484.968	929.31
485.403	934.54
485.837	937.07
486.271	938.75
486.706	944.39
487.14	938.97
487.574	928.19
488.009	923.86
488.443	920.48
488.877	933.51
489.311	941.81
489.745	957.99
490.179	971.52
490.613	993.15
491.046	1006.98
491.48	1019.38
491.914	1026.12
492.348	1039.51
492.781	1052.9
493.215	1061.27
493.648	1070.87
494.082	1086.66
494.515	1093.59
494.948	1112.24
495.382	1129.49
495.815	1144.71
496.248	1161.54
496.681	1190.51
497.114	1217.55
497.547	1241.93
497.98	1271.25
498.413	1288.01
498.846	1312.01
499.279	1334.79
499.711	1351.04
500.144	1362.26
500.577	1386.34
501.009	1412.82
501.442	1434.88
501.874	1442.92
502.306	1453.13
502.739	1469.45
503.171	1501.98
503.603	1512.4
504.036	1534.2
504.468	1549.57
504.9	1573.73
505.332	1590.44
505.764	1600.16
506.196	1617.74
506.627	1646.83
507.059	1673.41
507.491	1695.02
507.923	1692.93
508.354	1721.11
508.786	1740.37
509.217	1771.61
509.649	1796.82
510.08	1829.18
510.512	1856.75
510.943	1880.24
511.374	1896.98
511.805	1928.75
512.237	1958.59
512.668	2010.95
513.099	2053.86
513.53	2095.52
513.961	2122.78
514.391	2171.35
514.822	2218.37
515.253	2271.26
515.684	2305.7
516.114	2347.95
516.545	2372.33
516.975	2405.88
517.406	2425.62
517.836	2418.87
518.267	2418.87
518.697	2438.6
519.127	2435.75
519.558	2438.86
519.988	2433.92
520.418	2439.96
520.848	2457.72
521.278	2462.64
521.708	2452.3
522.138	2460.97
522.567	2501.96
522.997	2531.07
523.427	2544.71
523.857	2560.97
524.286	2565.99
524.716	2579.47
525.145	2597.93
525.575	2603.84
526.004	2615.58
526.433	2618.95
526.863	2610.04
527.292	2582.68
527.721	2582.05
528.15	2582.54
528.579	2574.02
529.008	2583.12
529.437	2611.56
529.866	2626.16
530.295	2646.29
530.724	2658.64
531.152	2694.37
531.581	2710.02
532.01	2731.5
532.438	2740.4
532.867	2758.51
533.295	2782.29
533.723	2786.49
534.152	2779.59
534.58	2774.28
535.008	2746.7
535.436	2746.5
535.865	2756.73
536.293	2776.83
536.721	2798.09
537.149	2833.51
537.576	2835.12
538.004	2853.06
538.432	2865.17
538.86	2860.53
539.287	2872.04
539.715	2892.14
540.143	2896.45
540.57	2888.7
540.998	2882.41
541.425	2847.49
541.852	2815.68
542.28	2811.96
542.707	2786.6
543.134	2763.51
543.561	2755.54
543.988	2742.99
544.415	2740.43
544.842	2730.72
545.269	2718.74
545.696	2718.94
546.123	2736.12
546.549	2719.69
546.976	2699.92
547.403	2696.84
547.829	2699.06
548.256	2702.37
548.682	2694.7
549.108	2681.24
549.535	2678.57
549.961	2679.91
550.387	2659.31
550.813	2650.32
551.24	2657.21
551.666	2657.35
552.092	2643.4
552.518	2633.04
552.943	2622.62
553.369	2634.58
553.795	2643.88
554.221	2645.59
554.646	2641.56
555.072	2658
555.498	2666.78
555.923	2682.57
556.349	2707.3
556.774	2721.7
557.199	2725.82
557.625	2737.15
558.05	2729.49
558.475	2747.74
558.9	2749.1
559.325	2739.9
559.75	2734.27
560.175	2727.78
560.6	2721.53
561.025	2722.17
561.449	2727.06
561.874	2739.53
562.299	2751.97
562.723	2768.57
563.148	2759.77
563.572	2771.1
563.997	2791.6
564.421	2806.34
564.846	2813.57
565.27	2825.11
565.694	2828.54
566.118	2855.76
566.542	2873.59
566.966	2869.27
567.39	2870.25
567.814	2859.22
568.238	2867.98
568.662	2885.61
569.086	2897.79
569.509	2918.44
569.933	2902.58
570.357	2899.09
570.78	2872.27
571.204	2859.3
571.627	2852.16
572.05	2857.66
572.474	2865.68
572.897	2853.11
573.32	2847.84
573.743	2840.48
574.166	2817.99
574.589	2826.64
575.012	2821.84
575.435	2828.13
575.858	2821.09
576.281	2809.22
576.704	2788.85
577.126	2775.05
577.549	2761.69
577.972	2749.89
578.394	2737.59
578.817	2729.06
579.239	2701.89
579.661	2683.24
580.084	2659.54
580.506	2641.07
580.928	2639.61
581.35	2624.72
581.772	2621.78
582.194	2603.83
582.616	2588.3
583.038	2568.58
583.46	2556.84
583.882	2556.33
584.303	2568.77
584.725	2567.03
585.147	2570.69
585.568	2590.59
585.99	2615.44
586.411	2628.7
586.833	2657.35
587.254	2661.91
587.675	2688.79
588.096	2712.79
588.518	2706.89
588.939	2679.42
589.36	2677.13
589.781	2668.22
590.202	2620.15
590.623	2607.4
591.043	2607.63
591.464	2586.79
591.885	2581.34
592.305	2573.46
592.726	2551.3
593.147	2554.47
593.567	2547.81
593.987	2537.81
594.408	2529.79
594.828	2530.99
595.248	2521.66
595.669	2489.61
596.089	2479.8
596.509	2472.28
596.929	2450.22
597.349	2452.67
597.769	2436.78
598.189	2426.9
598.608	2430.49
599.028	2434.75
599.448	2436.28
599.867	2416.86
600.287	2411.99
600.706	2406.74
601.126	2391.81
601.545	2390.9
601.965	2390.45
602.384	2383.98
602.803	2391.99
603.222	2385.82
603.641	2377.01
604.061	2371.8
604.48	2367.6
604.898	2385.02
605.317	2397.1
605.736	2403.01
606.155	2401.24
606.574	2389.25
606.992	2401.27
607.411	2395.11
607.829	2384.73
608.248	2382.51
608.666	2382.99
609.085	2385.2
609.503	2372.42
609.921	2363.24
610.339	2370.44
610.758	2373.7
611.176	2368.66
611.594	2355.42
612.012	2354.46
612.43	2363.55
612.847	2378.38
613.265	2383.05
613.683	2395.68
614.101	2402.54
614.518	2400.28
614.936	2385.97
615.353	2363.48
615.771	2361.25
616.188	2366.03
616.606	2362.5
617.023	2352.94
617.44	2331.29
617.857	2324.48
618.274	2312.24
618.691	2303.32
619.108	2289.3
619.525	2279.95
619.942	2294.41
620.359	2302.03
620.776	2294.69
621.192	2288.81
621.609	2286.09
622.026	2299.17
622.442	2308.4
622.859	2315.71
623.275	2304.46
623.691	2315.99
624.108	2338.83
624.524	2366.53
624.94	2366.93
625.356	2387.7
625.772	2413.44
626.188	2436.73
626.604	2440.24
627.02	2434.42
627.436	2430.11
627.852	2442.87
628.268	2466.4
628.683	2449.94
629.099	2434.09
629.514	2427.21
629.93	2432.52
630.345	2440.83
630.761	2434.79
631.176	2442.79
631.591	2431.58
632.007	2419.82
632.422	2418.08
632.837	2398.43
633.252	2394.61
633.667	2377.23
634.082	2361.66
634.497	2339.91
634.911	2303.82
635.326	2298.82
635.741	2268.91
636.155	2252.56
636.57	2256.29
636.984	2256.06
637.399	2258.54
637.813	2259.95
638.228	2259.01
638.642	2268.1
639.056	2251.23
639.47	2254.81
639.884	2238.26
640.298	2226.18
640.712	2224.12
641.126	2202.07
641.54	2187.04
641.954	2181
642.368	2158.45
642.781	2140.46
643.195	2106.23
643.609	2104.72
644.022	2091.14
644.436	2084.08
644.849	2061.27
645.262	2039.66
645.676	2043.2
646.089	2032.81
646.502	2000.21
646.915	1989.29
647.328	1959.19
647.741	1953.67
648.154	1928.74
648.567	1919.23
648.98	1891.9
649.393	1892.37
649.805	1884.67
650.218	1868.12
650.631	1838.24
651.043	1825.77
651.456	1813.5
651.868	1813.04
652.28	1845.99
652.693	1870.05
653.105	1883.05
653.517	1901.74
653.929	1900.39
654.341	1909.12
654.753	1885.36
655.165	1895.71
655.577	1890.04
655.989	1881.02
656.401	1867.08
656.813	1796.06
657.224	1758.46
657.636	1705.54
658.047	1668.26
658.459	1629.93
658.87	1610.14
659.282	1586.14
659.693	1543.84
660.104	1511.45
660.515	1481.23
660.926	1470.08
661.338	1459.77
661.749	1441.22
662.159	1417.28
662.57	1401.77
662.981	1384.46
663.392	1363.38
663.803	1360.27
664.213	1347.91
664.624	1332.3
665.035	1327.93
665.445	1296.64
665.855	1273.25
666.266	1249.14
666.676	1235.29
667.086	1212.11
667.497	1202.35
667.907	1183.29
668.317	1159.55
668.727	1142.85
669.137	1135.77
669.547	1122.83
669.956	1119.07
670.366	1114.88
670.776	1110.93
671.186	1111.01
671.595	1108.94
672.005	1107.6
672.414	1101.42
672.824	1093.83
673.233	1097.55
673.642	1096.92
674.052	1096.82
674.461	1095.34
674.87	1099.19
675.279	1092.17
675.688	1092.58
676.097	1093.77
676.506	1088
676.915	1106.96
677.323	1111.1
677.732	1109.23
678.141	1109.9
678.549	1097.84
678.958	1101.1
679.366	1105.28
679.775	1119.19
680.183	1139.05
680.592	1155.36
681	1173.45
681.408	1173.98
681.816	1199.34
682.224	1226.4
682.632	1256.55
683.04	1319.91
683.448	1376.49
683.856	1444.15
684.264	1521.56
684.671	1599.08
685.079	1688.94
685.487	1787.33
685.894	1919.02
686.302	2032.21
686.709	2127.04
687.116	2236.23
687.524	2323.61
687.931	2399.28
688.338	2463.93
688.745	2518.25
689.152	2572.73
689.559	2646.62
689.966	2713.82
690.373	2737.06
690.78	2790.96
691.187	2884.69
691.593	2945.06
692	2993.94
692.407	3073.68
692.813	3170.43
693.22	3238.25
693.626	3312.86
694.032	3358.69
694.439	3446.78
