Data from C_2_DEC_NC_4N_Splice17_12-26-12-019.txt Node
Date: Sat Mar 14 12:26:12 EDT 2020
User: sa697716
Spectrometer: FLMS03696
Trigger mode: 0
Integration Time (sec): 3.180400E-1
Scans to average: 20
Electric dark correction enabled: true
Nonlinearity correction enabled: true
Boxcar width: 5
XAxis mode: Wavelengths
Number of Pixels in Spectrum: 2048
>>>>>Begin Spectral Data<<<<<
187.83	-321127.49
188.298	2393.46
188.766	1316.84
189.233	1174.28
189.701	1596.93
190.169	2190.64
190.636	833.3
191.104	613.45
191.571	100.68
192.039	-38
192.506	-33.04
192.974	567.97
193.441	-929.94
193.908	-218.19
194.375	-55.39
194.842	7.51
195.31	41.93
195.777	122.97
196.244	280.33
196.711	390.94
197.177	513.24
197.644	732.37
198.111	1296.39
198.578	1793.42
199.045	1452.73
199.511	2367.22
199.978	2696.1
200.445	2328.36
200.911	2584.93
201.378	2904.66
201.844	2628.88
202.31	4494.42
202.777	4691.68
203.243	2594.2
203.709	2497.79
204.176	2949.24
204.642	2430.32
205.108	2295.18
205.574	1864.52
206.04	1695.52
206.506	1585.63
206.972	1483.67
207.438	1422.88
207.903	1614.89
208.369	1417.35
208.835	1409.67
209.301	1477.44
209.766	1504.24
210.232	1486.61
210.697	1842.28
211.163	2257.42
211.628	3396.54
212.094	2862.23
212.559	3567.09
213.024	2234.26
213.49	2719.67
213.955	2638.45
214.42	2577.74
214.885	2397.48
215.35	2284.75
215.815	2182.34
216.28	2329.6
216.745	1878.96
217.21	2012.29
217.675	1806.35
218.14	1997.81
218.604	2189.66
219.069	2483.42
219.534	2588.67
219.998	2981.22
220.463	3589.11
220.927	4384.53
221.392	4110.09
221.856	4161.19
222.32	5236.81
222.785	6464.7
223.249	8146.26
223.713	9120.6
224.177	9113.14
224.642	11657.33
225.106	14360.31
225.57	15693.92
226.034	11699.55
226.497	17808.81
226.961	16082.42
227.425	18744.63
227.889	20808.05
228.353	20813.2
228.816	43011.19
229.28	41253.89
229.744	34921.03
230.207	21292.97
230.671	21022.73
231.134	34839.25
231.597	40328.32
232.061	40425.24
232.524	39441.62
232.987	27273.19
233.45	24641.58
233.914	22128.53
234.377	22720.36
234.84	20825.44
235.303	24625.13
235.766	27563.11
236.229	28535.94
236.691	17993.38
237.154	20307.31
237.617	15350.16
238.08	15753.9
238.542	18519.47
239.005	13286.76
239.468	13254.17
239.93	12518.53
240.393	11409.64
240.855	10035.43
241.317	10298.82
241.78	12556.68
242.242	13010.12
242.704	14059.19
243.166	12268.18
243.629	11148.38
244.091	12882.47
244.553	14122.22
245.015	15228.65
245.477	19715.66
245.939	28964.87
246.4	30810.41
246.862	29993.86
247.324	28324
247.786	31800.6
248.247	41784.8
248.709	43166.82
249.17	32376.56
249.632	30614.02
250.093	35565.87
250.555	30764.48
251.016	18797.92
251.477	17870.75
251.939	19330.7
252.4	20321.27
252.861	24207.65
253.322	22558.62
253.783	26898.07
254.244	34901.78
254.705	27515.97
255.166	24485.61
255.627	24171.63
256.088	34193.32
256.549	36386.15
257.009	31409.62
257.47	38137.12
257.931	31104.48
258.391	23337.73
258.852	24151.32
259.312	25363.14
259.773	31421.43
260.233	26624.96
260.694	22533.95
261.154	25565.66
261.614	20546.4
262.074	18414.94
262.534	19188.89
262.994	18139.25
263.455	24216.27
263.915	20413.11
264.374	19280.1
264.834	21063.64
265.294	23383.14
265.754	24219.55
266.214	22966.77
266.673	21556.94
267.133	27258
267.593	27071.53
268.052	33141.62
268.512	28865.58
268.971	34871.58
269.431	38298.75
269.89	34388.28
270.349	51640.34
270.809	57723.19
271.268	51966.42
271.727	116708.83
272.186	75694.04
272.645	56886.87
273.104	41116.97
273.563	59675.38
274.022	47019.59
274.481	40022.91
274.94	30895.64
275.399	22991.61
275.857	26796.64
276.316	36303.28
276.775	32404.5
277.233	31980.3
277.692	29987.88
278.15	33970.57
278.609	34995.31
279.067	32415.07
279.525	30208.44
279.984	39043.92
280.442	46988.32
280.9	46430.38
281.358	30605.49
281.816	28533.94
282.274	27949.11
282.732	28927.79
283.19	29145.05
283.648	25200.87
284.106	26886.54
284.564	27349.7
285.021	25396.92
285.479	18965.58
285.937	17269.65
286.394	15191.61
286.852	15672.63
287.309	16501.28
287.767	15964.08
288.224	15203.66
288.682	16694.39
289.139	18363.4
289.596	16836.06
290.053	17530.36
290.511	22125.56
290.968	26839.46
291.425	36477.53
291.882	30393.48
292.339	26484.2
292.796	26262.88
293.252	24766.23
293.709	19675.75
294.166	17650.57
294.623	19520.05
295.079	18755.15
295.536	18883.56
295.992	17167.45
296.449	17000.18
296.905	17692.51
297.362	16991.03
297.818	17904.49
298.274	18580.99
298.731	18957.93
299.187	18773.64
299.643	20188.06
300.099	24434.52
300.555	26811.05
301.011	22417.42
301.467	21616.78
301.923	25293.9
302.379	24703.74
302.835	24290.65
303.291	24357.77
303.746	27763.83
304.202	35163.28
304.658	35317.54
305.113	23762.92
305.569	23318.62
306.024	24896.32
306.479	23711.18
306.935	20011.35
307.39	21885.22
307.845	20217.98
308.301	20340.57
308.756	19832.65
309.211	19089.25
309.666	19548.86
310.121	24280.63
310.576	24665.52
311.031	24482.97
311.486	28027.38
311.94	28021.19
312.395	37495.42
312.85	70461.29
313.305	346929.76
313.759	1798378.12
314.214	130409.42
314.668	103634.12
315.123	87250.83
315.577	31297
316.032	27895.87
316.486	35027.36
316.94	27683.04
317.394	19285.16
317.849	15012.12
318.303	14221.14
318.757	13420.62
319.211	14847.83
319.665	12996.53
320.119	13143.1
320.572	18848.81
321.026	17600.3
321.48	14649.14
321.934	15980.83
322.387	16011.17
322.841	17297.66
323.295	15511.56
323.748	17876.25
324.202	18143.27
324.655	21792.34
325.108	30449.14
325.562	21530.85
326.015	25590.07
326.468	19364.06
326.921	21671.68
327.374	20233.39
327.827	21086.92
328.28	23926.04
328.733	16024.89
329.186	14096.77
329.639	13428.92
330.092	11345.73
330.545	10810.24
330.997	10914.11
331.45	11941.89
331.903	14000.25
332.355	24087.5
332.808	23388.2
333.26	19306.85
333.713	21017.3
334.165	21180.97
334.617	28317.29
335.069	22869.7
335.522	41295.93
335.974	45725.92
336.426	41735.7
336.878	28850.45
337.33	14598.85
337.782	14284.99
338.234	17900.73
338.686	21375.47
339.137	25352.39
339.589	23906.3
340.041	18750.98
340.493	16167.7
340.944	16550.5
341.396	17826.67
341.847	15027.29
342.299	17765.55
342.75	21718.79
343.201	18947.98
343.653	21828.16
344.104	26806.84
344.555	21095.39
345.006	32859.74
345.457	25174.88
345.908	20057.31
346.359	18872.03
346.81	15381.95
347.261	16218.45
347.712	15965.28
348.163	17169.58
348.613	17368.81
349.064	16255.06
349.515	14241.41
349.965	14605.73
350.416	17569.93
350.866	19281.49
351.317	21835.73
351.767	36157.27
352.217	45770.2
352.668	37933.64
353.118	34728.99
353.568	33521.12
354.018	26476.03
354.468	27926.15
354.918	20072.87
355.368	17600.02
355.818	24838.67
356.268	71511.37
356.718	299452.7
357.168	74517.6
357.617	37448.54
358.067	41668.15
358.517	39021.69
358.966	45900.77
359.416	51491.54
359.865	55725.62
360.315	66407.61
360.764	31061.71
361.213	17391.4
361.663	16486.79
362.112	20422.89
362.561	33017.33
363.01	24916.88
363.459	21013.25
363.908	22698.29
364.357	19281.96
364.806	32522.45
365.255	22352.31
365.703	20476.15
366.152	20537.2
366.601	16674.55
367.05	13508.64
367.498	12290.39
367.947	12840.79
368.395	13341.42
368.844	11831.53
369.292	14280.34
369.74	9886.11
370.189	15128.37
370.637	17732.19
371.085	15278.48
371.533	18595.27
371.981	17954.41
372.429	17148.2
372.877	17884.14
373.325	14961.81
373.773	15246.07
374.221	13589.4
374.669	16827.72
375.116	14585.64
375.564	14715.11
376.012	16488.7
376.459	13587.91
376.907	16204.45
377.354	19572.42
377.801	18277.38
378.249	21073.42
378.696	26880.54
379.143	32534.49
379.591	34735.41
380.038	58731.66
380.485	42530.17
380.932	45991.41
381.379	42147.79
381.826	31022.1
382.273	22044.16
382.72	19221.68
383.166	18729.5
383.613	12195.98
384.06	10986.32
384.506	12714.8
384.953	9342.46
385.4	9392.52
385.846	8221.69
386.292	7998.13
386.739	7834.49
387.185	7755.02
387.631	7776.25
388.078	7544.12
388.524	8058.81
388.97	7453.61
389.416	6216.55
389.862	6610.58
390.308	6269.58
390.754	6359.79
391.2	6923.46
391.645	7094.52
392.091	6779.93
392.537	6556.58
392.983	6566.91
393.428	6454.53
393.874	6918.55
394.319	6952.81
394.765	6587.23
395.21	6771.96
395.655	6367.08
396.101	5960.89
396.546	5383.89
396.991	5441.29
397.436	5052.98
397.881	4885.62
398.326	4628.71
398.771	4378.58
399.216	3824.55
399.661	3446.38
400.106	3433.28
400.551	3507.77
400.995	3150.13
401.44	3111.46
401.885	2922
402.329	2951.5
402.774	2832.12
403.218	2747.89
403.663	2645.37
404.107	2722.92
404.551	2747.41
404.995	2521.9
405.44	2430.97
405.884	2462.48
406.328	2388.44
406.772	2381.64
407.216	2172.22
407.66	2099.15
408.104	1992.94
408.547	1869.18
408.991	1805.68
409.435	1737.95
409.879	1714.69
410.322	1695.82
410.766	1640.03
411.209	1560.72
411.653	1500.58
412.096	1472.65
412.54	1473.69
412.983	1464.13
413.426	1470.03
413.869	1472.03
414.312	1446.28
414.756	1393.39
415.199	1328.4
415.642	1289.71
416.085	1291.3
416.527	1281.31
416.97	1299.53
417.413	1234.66
417.856	1222.71
418.298	1210.36
418.741	1200.81
419.184	1195.82
419.626	1246.27
420.069	1249.59
420.511	1259.32
420.953	1231.89
421.396	1222.92
421.838	1191.68
422.28	1222.37
422.722	1227.7
423.164	1244.85
423.606	1225.24
424.048	1225.7
424.49	1164.5
424.932	1156.4
425.374	1137.74
425.816	1157.12
426.258	1176.95
426.699	1191.43
427.141	1168.69
427.582	1187.23
428.024	1181.51
428.465	1173.7
428.907	1144.69
429.348	1130.6
429.789	1132.15
430.231	1109.87
430.672	1123.72
431.113	1097.7
431.554	1080.73
431.995	1054.84
432.436	1019.01
432.877	996.9
433.318	983.18
433.759	978.9
434.2	979.37
434.64	967.23
435.081	971.37
435.522	919.2
435.962	886.77
436.403	870.11
436.843	880.82
437.284	859.82
437.724	837.51
438.164	837.18
438.604	819.18
439.045	788.5
439.485	759.14
439.925	742.12
440.365	727
440.805	715.96
441.245	706.53
441.685	683.81
442.125	678.81
442.564	683.18
443.004	669.6
443.444	669.04
443.883	672.4
444.323	667.58
444.762	668.49
445.202	679.15
445.641	693.67
446.081	691.04
446.52	698.31
446.959	694.1
447.398	680.1
447.837	672.99
448.276	661.72
448.716	666.74
449.154	672.64
449.593	660.23
450.032	658.88
450.471	648.11
450.91	650.02
451.349	649.05
451.787	647.95
452.226	657.12
452.664	657.11
453.103	659.92
453.541	660.91
453.98	660.31
454.418	664.69
454.856	654.71
455.295	653.99
455.733	659.52
456.171	663.5
456.609	664.9
457.047	666.4
457.485	677.49
457.923	679.13
458.361	670.63
458.798	674.08
459.236	672.21
459.674	676.57
460.111	679.64
460.549	672.74
460.987	670.48
461.424	667.04
461.862	663.28
462.299	652.48
462.736	651.77
463.173	654.09
463.611	648.02
464.048	647.9
464.485	653.75
464.922	647.71
465.359	644.04
465.796	637.5
466.233	633.23
466.67	626.7
467.106	625.68
467.543	618.87
467.98	611.02
468.416	594.87
468.853	590.1
469.29	572.75
469.726	567.8
470.162	554.1
470.599	544.85
471.035	540.36
471.471	528.74
471.907	525.81
472.344	523.08
472.78	525.61
473.216	531.9
473.652	526.34
474.088	525.13
474.523	523.5
474.959	527.68
475.395	523.54
475.831	520.49
476.266	522.36
476.702	521.44
477.138	516.32
477.573	513.7
478.008	510.83
478.444	511.88
478.879	516.57
479.314	518.6
479.75	518.42
480.185	521.22
480.62	526.03
481.055	529.3
481.49	533.22
481.925	540.86
482.36	551.03
482.795	567.4
483.229	583.19
483.664	595.14
484.099	597.68
484.534	607.44
484.968	613.73
485.403	616.02
485.837	615.9
486.271	615.65
486.706	616.7
487.14	609.72
487.574	600.58
488.009	596.05
488.443	591.73
488.877	599.09
489.311	601.14
489.745	608.04
490.179	614.65
490.613	626.87
491.046	631.75
491.48	636.5
491.914	638.33
492.348	644.33
492.781	649.62
493.215	652.61
493.648	654.76
494.082	661.31
494.515	663.65
494.948	672.35
495.382	677.98
495.815	684.75
496.248	692.48
496.681	707.03
497.114	719.02
497.547	730.24
497.98	744.41
498.413	752.23
498.846	763.68
499.279	773.08
499.711	778.65
500.144	782.88
500.577	795.08
501.009	807.48
501.442	818.57
501.874	821.68
502.306	825.86
502.739	835.49
503.171	851.91
503.603	856.92
504.036	868.01
504.468	875.9
504.9	889.13
505.332	897.09
505.764	902.34
506.196	910.65
506.627	927.29
507.059	940.85
507.491	949.93
507.923	948.45
508.354	964.53
508.786	976.54
509.217	995.89
509.649	1012.12
510.08	1032.16
510.512	1050.54
510.943	1067.12
511.374	1078.89
511.805	1100.63
512.237	1121.64
512.668	1154.91
513.099	1183.22
513.53	1211.61
513.961	1232.44
514.391	1264.12
514.822	1297.71
515.253	1333.59
515.684	1358.74
516.114	1388.09
516.545	1408.47
516.975	1433.84
517.406	1451.9
517.836	1453.1
518.267	1458.66
518.697	1475.28
519.127	1478.07
519.558	1484.01
519.988	1485.03
520.418	1493.73
520.848	1509.27
521.278	1515.37
521.708	1532.13
522.138	1543.78
522.567	1573.13
522.997	1595.71
523.427	1609.43
523.857	1624.88
524.286	1632.91
524.716	1647.18
525.145	1664.16
525.575	1673.98
526.004	1688.76
526.433	1679.59
526.863	1678.15
527.292	1667.02
527.721	1672.36
528.15	1676.74
528.579	1676.72
529.008	1687.94
529.437	1710.08
529.866	1722.98
530.295	1739.78
530.724	1750.18
531.152	1775.13
531.581	1787.44
532.01	1805.12
532.438	1814.16
532.867	1828.06
533.295	1846.5
533.723	1851.78
534.152	1849.5
534.58	1849.07
535.008	1833.42
535.436	1835.8
535.865	1844.59
536.293	1859.87
536.721	1874.48
537.149	1899.7
537.576	1903.23
538.004	1915.04
538.432	1921.6
538.86	1918.93
539.287	1927
539.715	1940.6
540.143	1943.39
540.57	1939.63
540.998	1935.55
541.425	1913.11
541.852	1890.93
542.28	1889.76
542.707	1873.62
543.134	1860.81
543.561	1857.69
543.988	1850.12
544.415	1848.63
544.842	1843.56
545.269	1836.3
545.696	1837.84
546.123	1850.48
546.549	1840.63
546.976	1826.55
547.403	1825.73
547.829	1828.22
548.256	1830.04
548.682	1825.81
549.108	1818.99
549.535	1818.87
549.961	1820.55
550.387	1808.05
550.813	1803.09
551.24	1808.65
551.666	1809.67
552.092	1800.72
552.518	1793.06
552.943	1787.41
553.369	1794.51
553.795	1799.86
554.221	1800.21
554.646	1797.43
555.072	1807.26
555.498	1811.97
555.923	1822.99
556.349	1839.28
556.774	1848.25
557.199	1851.26
557.625	1858.12
558.05	1852.95
558.475	1864.16
558.9	1864.28
559.325	1857.41
559.75	1852.56
560.175	1847.45
560.6	1841.23
561.025	1840.25
561.449	1842.28
561.874	1849.06
562.299	1854.01
562.723	1862.36
563.148	1854.58
563.572	1859.92
563.997	1871.12
564.421	1878.22
564.846	1879.98
565.27	1885.17
565.694	1883.79
566.118	1898.03
566.542	1906.96
566.966	1901.64
567.39	1899.4
567.814	1889.52
568.238	1891.24
568.662	1899.14
569.086	1903.6
569.509	1913.67
569.933	1899.31
570.357	1893.82
570.78	1872.84
571.204	1861.09
571.627	1852.59
572.05	1851.66
572.474	1853.45
572.897	1841.73
573.32	1834.51
573.743	1826.79
574.166	1808.2
574.589	1810.44
575.012	1803.57
575.435	1803.72
575.858	1795.19
576.281	1785.64
576.704	1770.4
577.126	1757.37
577.549	1746.78
577.972	1737.56
578.394	1727.02
578.817	1721.64
579.239	1700.88
579.661	1686.96
580.084	1672.37
580.506	1658.54
580.928	1654.38
581.35	1643.91
581.772	1640.92
582.194	1628.99
582.616	1617.23
583.038	1602.92
583.46	1592.09
583.882	1591.12
584.303	1597.74
584.725	1592.18
585.147	1594.88
585.568	1606.38
585.99	1619.25
586.411	1627.27
586.833	1642.01
587.254	1642.9
587.675	1658.08
588.096	1670.9
588.518	1665.65
588.939	1648.39
589.36	1647.83
589.781	1638.27
590.202	1608.77
590.623	1600.83
591.043	1597.07
591.464	1584.92
591.885	1581.52
592.305	1575.44
592.726	1561.42
593.147	1563.67
593.567	1557.49
593.987	1549.13
594.408	1544.13
594.828	1542.33
595.248	1536.13
595.669	1517.42
596.089	1509.46
596.509	1503.42
596.929	1490.1
597.349	1490.93
597.769	1479.89
598.189	1473.59
598.608	1475.57
599.028	1478
599.448	1478.28
599.867	1465.29
600.287	1460.88
600.706	1457.87
601.126	1448.24
601.545	1446.94
601.965	1446.25
602.384	1440.33
602.803	1444.65
603.222	1440.75
603.641	1433.8
604.061	1430.21
604.48	1426.3
604.898	1436.51
605.317	1440.72
605.736	1442.97
606.155	1440.37
606.574	1431.36
606.992	1437.34
607.411	1431.88
607.829	1422.37
608.248	1419.85
608.666	1417.71
609.085	1417.48
609.503	1408.15
609.921	1401.63
610.339	1404.32
610.758	1404.93
611.176	1401.54
611.594	1393.13
612.012	1390.14
612.43	1394.74
612.847	1400.67
613.265	1403
613.683	1407.75
614.101	1409.65
614.518	1406.39
614.936	1396.29
615.353	1381.11
615.771	1377.36
616.188	1378.5
616.606	1374.96
617.023	1368.6
617.44	1354.63
617.857	1346.15
618.274	1337.43
618.691	1331.74
619.108	1322.71
619.525	1317.05
619.942	1323.97
620.359	1326.89
620.776	1320.99
621.192	1317.98
621.609	1315.26
622.026	1321.6
622.442	1329.98
622.859	1334.02
623.275	1325.73
623.691	1331.77
624.108	1342.97
624.524	1358.07
624.94	1358.16
625.356	1370.72
625.772	1383.53
626.188	1396.36
626.604	1399.17
627.02	1393.42
627.436	1392.29
627.852	1400.34
628.268	1412.94
628.683	1403.92
629.099	1394.63
629.514	1389.38
629.93	1392.33
630.345	1396.13
630.761	1392.77
631.176	1396.5
631.591	1390.92
632.007	1384.61
632.422	1382.16
632.837	1369.03
633.252	1365.21
633.667	1353.78
634.082	1344.27
634.497	1329.07
634.911	1309.22
635.326	1303.51
635.741	1283.65
636.155	1271.97
636.57	1271.44
636.984	1269.67
637.399	1271.72
637.813	1271.16
638.228	1269.05
638.642	1272.19
639.056	1260.32
639.47	1258.86
639.884	1249.07
640.298	1241.47
640.712	1238.86
641.126	1223.89
641.54	1213.06
641.954	1205.01
642.368	1190.08
642.781	1180.89
643.195	1161.64
643.609	1161.15
644.022	1153.43
644.436	1146.77
644.849	1133.52
645.262	1120.03
645.676	1120.66
646.089	1114.2
646.502	1098.16
646.915	1091.61
647.328	1072.65
647.741	1068.22
648.154	1052.88
648.567	1049.1
648.98	1034.25
649.393	1032.86
649.805	1027.17
650.218	1018.09
650.631	1002.41
651.043	994.4
651.456	988.08
651.868	986.59
652.28	1002.17
652.693	1016.14
653.105	1020.37
653.517	1029.63
653.929	1030.31
654.341	1035.74
654.753	1023.06
655.165	1026.7
655.577	1023.97
655.989	1017.79
656.401	1010.13
656.813	973.58
657.224	951.39
657.636	923.32
658.047	904.77
658.459	883.08
658.87	871.79
659.282	858.52
659.693	836.74
660.104	820.62
660.515	806.12
660.926	801.62
661.338	797.23
661.749	788.2
662.159	776.47
662.57	769.94
662.981	762.37
663.392	754.09
663.803	755.1
664.213	751.42
664.624	743.97
665.035	743.62
665.445	727.98
665.855	718.67
666.266	708.96
666.676	704.58
667.086	693.11
667.497	691.21
667.907	682.76
668.317	671.32
668.727	666.3
669.137	665.15
669.547	660.36
669.956	660.88
670.366	659.91
670.776	660.38
671.186	661.44
671.595	662.99
672.005	662.65
672.414	660.29
672.824	658.78
673.233	659.53
673.642	660.61
674.052	662.39
674.461	664.01
674.87	667.96
675.279	664.78
675.688	665.19
676.097	665.57
676.506	664.03
676.915	675.63
677.323	676.96
677.732	676.4
678.141	675.62
678.549	666.81
678.958	665.51
679.366	664.51
679.775	669.15
680.183	680.24
680.592	687.52
681	693.93
681.408	690.83
681.816	700.49
682.224	711.02
682.632	722.92
683.04	752.89
683.448	779.73
683.856	811.97
684.264	850.04
684.671	885.51
685.079	927.48
685.487	975.57
685.894	1041.14
686.302	1096.68
686.709	1144.44
687.116	1201.71
687.524	1249.22
687.931	1290.2
688.338	1329.86
688.745	1360.98
689.152	1395.82
689.559	1442.16
689.966	1487.06
690.373	1508.53
690.78	1549.51
691.187	1611.49
691.593	1658.4
692	1698.12
692.407	1758.86
692.813	1831.51
693.22	1890.8
693.626	1951.14
694.032	1998.15
694.439	2071.5
694.845	2127.72
695.251	2199.46
695.657	2262.63
696.063	2358.82
696.469	2430.63
696.875	2495.13
