Data from C_2_HIR_WI_4N_Splice17_12-33-34-104.txt Node
Date: Sat Mar 14 12:33:34 EDT 2020
User: sa697716
Spectrometer: FLMS03696
Trigger mode: 0
Integration Time (sec): 3.180400E-1
Scans to average: 20
Electric dark correction enabled: true
Nonlinearity correction enabled: true
Boxcar width: 5
XAxis mode: Wavelengths
Number of Pixels in Spectrum: 2048
>>>>>Begin Spectral Data<<<<<
187.83	-243772.17
188.298	1803.04
188.766	998.22
189.233	941.16
189.701	1279.51
190.169	1673.65
190.636	614.15
191.104	505.46
191.571	26.31
192.039	-129.27
192.506	-199.66
192.974	214.84
193.441	-337.21
193.908	-77.09
194.375	17.97
194.842	25.34
195.31	55.52
195.777	153.85
196.244	356.3
196.711	418.1
197.177	521.29
197.644	729.55
198.111	1297.84
198.578	1825.89
199.045	1499.78
199.511	2464.7
199.978	2900.28
200.445	2452.45
200.911	2715.12
201.378	3049.3
201.844	2756.21
202.31	4756.37
202.777	4993.54
203.243	2769.76
203.709	2653.97
204.176	3179.61
204.642	2634.11
205.108	2483.06
205.574	2046.67
206.04	1862.34
206.506	1745.3
206.972	1655.3
207.438	1603.44
207.903	1822.33
208.369	1606.85
208.835	1607.2
209.301	1694.46
209.766	1739.66
210.232	1713.69
210.697	2125.32
211.163	2643.13
211.628	4022.08
212.094	3397.3
212.559	4196.01
213.024	2642.8
213.49	3240.84
213.955	3178.69
214.42	3088.42
214.885	2890.59
215.35	2807.01
215.815	2739.03
216.28	2921.53
216.745	2409.29
217.21	2642.66
217.675	2468.52
218.14	2836.37
218.604	3234.3
219.069	3765.14
219.534	4033.65
219.998	4768.92
220.463	5871.88
220.927	7334.38
221.392	7006.16
221.856	7179.62
222.32	9150.06
222.785	11397.26
223.249	14453.31
223.713	16224.89
224.177	16303.65
224.642	21013.75
225.106	25928.77
225.57	28420.81
226.034	21175.21
226.497	32303.76
226.961	29175.41
227.425	33975.14
227.889	37716.03
228.353	37710.69
228.816	77871.04
229.28	74445.51
229.744	62788.89
230.207	38202.68
230.671	37557.17
231.134	62148.4
231.597	71584.97
232.061	71571.43
232.524	69835.28
232.987	48037.15
233.45	43187.72
233.914	38715.14
234.377	39706.22
234.84	36321.12
235.303	42778.25
235.766	47695.86
236.229	49220.17
236.691	30978.66
237.154	34784.88
237.617	26150.41
238.08	26775.23
238.542	31317.49
239.005	22362.95
239.468	22164.1
239.93	20863.42
240.393	18940.89
240.855	16609.33
241.317	17002.96
241.78	20673.3
242.242	21339.88
242.704	22998.15
243.166	20013.83
243.629	18136.36
244.091	20874.72
244.553	22849.1
245.015	24535.91
245.477	31726.81
245.939	46476.77
246.4	49285.44
246.862	47855.7
247.324	45094.15
247.786	50456.2
248.247	66165.23
248.709	68378.94
249.17	51121
249.632	48136.24
250.093	55755.62
250.555	48126.38
251.016	29327.57
251.477	27801.24
251.939	29979.91
252.4	31441.8
252.861	37348.6
253.322	34644.06
253.783	41175.17
254.244	53375.26
254.705	42058.39
255.166	37379.99
255.627	36769.04
256.088	51781.68
256.549	54959.32
257.009	47328.6
257.47	57372.61
257.931	46716.77
258.391	35019.63
258.852	36067.45
259.312	37774.9
259.773	46640.64
260.233	39368.02
260.694	33187.69
261.154	37620.67
261.614	30150.3
262.074	26923.75
262.534	27950.06
262.994	26302.84
263.455	35012.5
263.915	29499.8
264.374	27769.08
264.834	30287.4
265.294	33562.96
265.754	34729.33
266.214	32889.66
266.673	30825.8
267.133	38917.4
267.593	38590.71
268.052	47219.02
268.512	41037.17
268.971	49462.81
269.431	54254.46
269.89	48551.85
270.349	72761.96
270.809	81085.02
271.268	72830.42
271.727	163172.26
272.186	105629.55
272.645	79175.09
273.104	57090.7
273.563	82601.53
274.022	64896.96
274.481	55151.09
274.94	42442.02
275.399	31543.41
275.857	36716.3
276.316	49628.58
276.775	44148.78
277.233	43444.38
277.692	40679.2
278.15	45966.31
278.609	47273.48
279.067	43727.37
279.525	40589.74
279.984	52425.78
280.442	62919.87
280.9	61951.05
281.358	40737.03
281.816	37912.03
282.274	37079.06
282.732	38223
283.19	38426.61
283.648	33144.52
284.106	35268.4
284.564	35819.65
285.021	33169.95
285.479	24692.19
285.937	22433.08
286.394	19666.29
286.852	20233.95
287.309	21245.83
287.767	20510.56
288.224	19467.31
288.682	21332.64
289.139	23388.59
289.596	21371.54
290.053	22198.64
290.511	27987.66
290.968	33951.02
291.425	46040.23
291.882	38270.72
292.339	33285.49
292.796	33022.15
293.252	31105.27
293.709	24674.98
294.166	22099.72
294.623	24424.93
295.079	23420.07
295.536	23503.02
295.992	21284.14
296.449	21025.41
296.905	21842.26
297.362	20914.43
297.818	21957.11
298.274	22744
298.731	23168.08
299.187	22900.85
299.643	24567.52
300.099	29695.72
300.555	32516.95
301.011	27168.52
301.467	26128.84
301.923	30527.99
302.379	29786.51
302.835	29217.82
303.291	29205.59
303.746	33170.04
304.202	41819.13
304.658	41920.77
305.113	28146.79
305.569	27567.72
306.024	29358.59
306.479	27897.7
306.935	23488.42
307.39	25593.63
307.845	23607.91
308.301	23744.34
308.756	23114.46
309.211	22259.95
309.666	22755.54
310.121	28208.44
310.576	28536.7
311.031	28263.01
311.486	32346.88
311.94	32307.09
312.395	43125.99
312.85	80991.52
313.305	397216.06
313.759	2053125.58
314.214	148539.98
314.668	117526.88
315.123	98771.34
315.577	35441.11
316.032	31493.55
316.486	39456.67
316.94	31033.09
317.394	21604.64
317.849	16756.06
318.303	15846.96
318.757	14936.8
319.211	16489.54
319.665	14431.25
320.119	14567.77
320.572	20877.83
321.026	19498.82
321.48	16201.04
321.934	17676.4
322.387	17693.75
322.841	19119.5
323.295	17155.91
323.748	19777.87
324.202	20042.89
324.655	24053.44
325.108	33558.91
325.562	23670.27
326.015	28086.74
326.468	21216.3
326.921	23690.51
327.374	22061.25
327.827	22928.36
328.28	25912.81
328.733	17327.45
329.186	15226.82
329.639	14496.13
330.092	12210.41
330.545	11614.71
330.997	11699.01
331.45	12770.94
331.903	14944.32
332.355	25719.76
332.808	24961.98
333.26	20606.58
333.713	22306.22
334.165	22442.82
334.617	29927.4
335.069	24141.63
335.522	43623.14
335.974	48230.21
336.426	44001.39
336.878	30467.57
337.33	15431.63
337.782	15051.75
338.234	18810.52
338.686	22522.61
339.137	26691.31
339.589	25090.55
340.041	19707.04
340.493	16892
340.944	17310.54
341.396	18671.43
341.847	15706.03
342.299	18532.99
342.75	22610.98
343.201	19751.62
343.653	22683.66
344.104	27826.42
344.555	21915.03
345.006	34052.17
345.457	26076.12
345.908	20696.39
346.359	19412.41
346.81	15777.63
347.261	16598.75
347.712	16338.96
348.163	17486.19
348.613	17686.78
349.064	16500.07
349.515	14431.17
349.965	14798.82
350.416	17833.08
350.866	19567.26
351.317	22112.74
351.767	36586.46
352.217	46137.18
352.668	38231.43
353.118	35028.09
353.568	33813.46
354.018	26707.46
354.468	28132.47
354.918	20122.03
355.368	17584.2
355.818	24750.43
356.268	71085.78
356.718	297469.05
357.168	73976.71
357.617	37131.58
358.067	41294.79
358.517	38507.15
358.966	45159.9
359.416	50579.52
359.865	54676.6
360.315	65070.91
360.764	30407.05
361.213	17055.72
361.663	16119.51
362.112	19898.51
362.561	32063.81
363.01	24170.63
363.459	20387.67
363.908	22033.5
364.357	18735.91
364.806	31639.62
365.255	21729.73
365.703	19946.9
366.152	19910.78
366.601	16146.28
367.05	13088.58
367.498	11880.68
367.947	12389.72
368.395	12853.56
368.844	11364.81
369.292	13654.57
369.74	9416.33
370.189	14412.62
370.637	16802.59
371.085	14501.43
371.533	17625.65
371.981	16962.48
372.429	16201.83
372.877	16880.97
373.325	14123.76
373.773	14356.57
374.221	12774.46
374.669	15825.14
375.116	13662.54
375.564	13750.98
376.012	15354.72
376.459	12682.33
376.907	15121.32
377.354	18230.54
377.801	16982.98
378.249	19491.04
378.696	24900.84
379.143	30052.82
379.591	32029.77
380.038	54147.76
380.485	39146.88
380.932	42274.3
381.379	38661.18
381.826	28518.53
382.273	20270.83
382.72	17686.68
383.166	17258.85
383.613	11201.96
384.06	10130.19
384.506	11714.76
384.953	8603.17
385.4	8676.14
385.846	7612.47
386.292	7412.32
386.739	7269.96
387.185	7193.01
387.631	7214.48
388.078	7013
388.524	7511.02
388.97	6950.58
389.416	5803.7
389.862	6171.76
390.308	5849.14
390.754	5951.09
391.2	6457.83
391.645	6608.52
392.091	6337.15
392.537	6128.08
392.983	6138.32
393.428	6052.35
393.874	6490.99
394.319	6543.55
394.765	6219.08
395.21	6410.75
395.655	6022.8
396.101	5657.79
396.546	5117.77
396.991	5170.86
397.436	4809.55
397.881	4660.6
398.326	4420.73
398.771	4192.87
399.216	3663.76
399.661	3309.72
400.106	3309
400.551	3396.4
400.995	3054.79
401.44	3024.04
401.885	2843.93
402.329	2877.68
402.774	2764.77
403.218	2687.1
403.663	2591.7
404.107	2670.58
404.551	2695.78
404.995	2468.66
405.44	2375.95
405.884	2415.25
406.328	2341.77
406.772	2334.56
407.216	2128
407.66	2058.13
408.104	1945.26
408.547	1821.17
408.991	1763.35
409.435	1693.55
409.879	1672.04
410.322	1650.69
410.766	1592.98
411.209	1512.3
411.653	1453.38
412.096	1423.71
412.54	1423.59
412.983	1420.04
413.426	1426.83
413.869	1424.65
414.312	1403.21
414.756	1354.01
415.199	1294
415.642	1258.72
416.085	1262.39
416.527	1255.41
416.97	1275.27
417.413	1211.01
417.856	1196.5
418.298	1183.08
418.741	1175.16
419.184	1170.29
419.626	1217.92
420.069	1217.04
420.511	1221.6
420.953	1196.26
421.396	1185.94
421.838	1157.2
422.28	1182.05
422.722	1188.82
423.164	1203.75
423.606	1185.2
424.048	1179.61
424.49	1119.69
424.932	1113.09
425.374	1095.87
425.816	1115.04
426.258	1136.42
426.699	1148.64
427.141	1133.19
427.582	1147.06
428.024	1141.26
428.465	1132.2
428.907	1106.38
429.348	1092.26
429.789	1091.24
430.231	1069.6
430.672	1081.96
431.113	1054.11
431.554	1037.14
431.995	1009.43
432.436	976.82
432.877	955.16
433.318	941.54
433.759	937.09
434.2	938.42
434.64	929.29
435.081	930.9
435.522	881.31
435.962	848.67
436.403	832.01
436.843	843.51
437.284	823.64
437.724	799.63
438.164	798.63
438.604	782.33
439.045	753.88
439.485	725.34
439.925	711.14
440.365	694.51
440.805	684.97
441.245	674.43
441.685	651.28
442.125	647.48
442.564	653.77
443.004	640.39
443.444	638.31
443.883	639.63
444.323	633.75
444.762	635.05
445.202	643.05
445.641	657.07
446.081	654.66
446.52	659.15
446.959	653.6
447.398	638.62
447.837	633.21
448.276	623.23
448.716	628.96
449.154	634.93
449.593	620.63
450.032	620.02
450.471	608.17
450.91	609.42
451.349	610.2
451.787	609.64
452.226	619.21
452.664	619.44
453.103	622.42
453.541	622.75
453.98	622.82
454.418	629.4
454.856	621.62
455.295	622.56
455.733	629.31
456.171	633.06
456.609	634.17
457.047	634.07
457.485	642.2
457.923	642.94
458.361	634.16
458.798	636.25
459.236	633.16
459.674	636.73
460.111	639.71
460.549	634.08
460.987	631.12
461.424	629.04
461.862	626.06
462.299	617.37
462.736	616.73
463.173	619.52
463.611	613.33
464.048	612.04
464.485	617.67
464.922	611.31
465.359	606.45
465.796	600.44
466.233	595.45
466.67	591.02
467.106	589.37
467.543	582.78
467.98	574.05
468.416	557.87
468.853	552.29
469.29	535.18
469.726	529.04
470.162	515.18
470.599	507.74
471.035	503.67
471.471	490.4
471.907	487.02
472.344	484.37
472.78	486.16
473.216	493.19
473.652	488.21
474.088	487.06
474.523	486.47
474.959	490.76
475.395	485.3
475.831	482.44
476.266	485.71
476.702	484.68
477.138	479.46
477.573	478.42
478.008	476.05
478.444	479.89
478.879	484.83
479.314	486.29
479.75	486.92
480.185	489.41
480.62	493.45
481.055	496.43
481.49	499.78
481.925	507.26
482.36	516.68
482.795	530.59
483.229	543.61
483.664	554.73
484.099	557.03
484.534	566.34
484.968	571.92
485.403	573.68
485.837	573.02
486.271	572.86
486.706	573.88
487.14	567.75
487.574	560.55
488.009	555.9
488.443	552.21
488.877	558.91
489.311	560.98
489.745	569.32
490.179	575.83
490.613	588.73
491.046	595.21
491.48	600.62
491.914	603.01
492.348	609.29
492.781	616.05
493.215	619.2
493.648	622.43
494.082	629.53
494.515	632.22
494.948	641.91
495.382	647.77
495.815	654.28
496.248	662.34
496.681	676.41
497.114	689.45
497.547	700.78
497.98	715.93
498.413	724.83
498.846	736.61
499.279	747.49
499.711	754.71
500.144	760.53
500.577	774.1
501.009	788.01
501.442	801.14
501.874	806.09
502.306	812.05
502.739	823.18
503.171	841.65
503.603	849.2
504.036	862.66
504.468	872.2
504.9	887.49
505.332	898.4
505.764	906.95
506.196	918.34
506.627	937.69
507.059	955.7
507.491	967.93
507.923	970.54
508.354	989.58
508.786	1003.75
509.217	1026.19
509.649	1044.85
510.08	1068.29
510.512	1089.81
510.943	1108.59
511.374	1123.89
511.805	1148.32
512.237	1173.54
512.668	1209.3
513.099	1241.5
513.53	1272.88
513.961	1297.94
514.391	1334.83
514.822	1372.04
515.253	1412.6
515.684	1441.35
516.114	1474.21
516.545	1498.16
516.975	1526.9
517.406	1548.31
517.836	1552.25
518.267	1560.83
518.697	1580.79
519.127	1585.94
519.558	1594.25
519.988	1597.91
520.418	1610.47
520.848	1630.41
521.278	1640.28
521.708	1660.03
522.138	1674.77
522.567	1708.25
522.997	1735.53
523.427	1751.29
523.857	1770.5
524.286	1781.84
524.716	1798.8
525.145	1818.45
525.575	1829.91
526.004	1845.58
526.433	1837.06
526.863	1835.54
527.292	1824.27
527.721	1830.81
528.15	1837.23
528.579	1836.02
529.008	1846.73
529.437	1871.19
529.866	1886.84
530.295	1904.4
530.724	1916.63
531.152	1946.9
531.581	1963.19
532.01	1982.34
532.438	1990.85
532.867	2007.36
533.295	2027.68
533.723	2035.59
534.152	2031.83
534.58	2031.17
535.008	2013.77
535.436	2016.63
535.865	2024.03
536.293	2038.33
536.721	2055.49
537.149	2083.22
537.576	2085.01
538.004	2098.83
538.432	2106.28
538.86	2105.13
539.287	2112.3
539.715	2127.49
540.143	2130.4
540.57	2125.42
540.998	2121.01
541.425	2095.86
541.852	2071.93
542.28	2070.39
542.707	2051.5
543.134	2036.35
543.561	2031.66
543.988	2022.04
544.415	2021.65
544.842	2013.4
545.269	2006.28
545.696	2008.64
546.123	2022.27
546.549	2010.79
546.976	1996.41
547.403	1996.86
547.829	1998.11
548.256	1999.95
548.682	1996.51
549.108	1987.7
549.535	1988.2
549.961	1989.61
550.387	1975.29
550.813	1968.53
551.24	1976.27
551.666	1976.96
552.092	1966.24
552.518	1959.66
552.943	1953.19
553.369	1961.23
553.795	1967.14
554.221	1968.42
554.646	1966.33
555.072	1978.25
555.498	1983.77
555.923	1992.52
556.349	2009.64
556.774	2018.92
557.199	2020.03
557.625	2026.34
558.05	2019.63
558.475	2030.03
558.9	2028.53
559.325	2018.9
559.75	2011.63
560.175	2005.54
560.6	1999.78
561.025	1997.8
561.449	1999.72
561.874	2007.4
562.299	2012.45
562.723	2020.97
563.148	2011.42
563.572	2018.31
563.997	2028.98
564.421	2036.68
564.846	2036.9
565.27	2041.71
565.694	2039.26
566.118	2052.71
566.542	2061.18
566.966	2054.47
567.39	2050.75
567.814	2039.2
568.238	2038.29
568.662	2046.06
569.086	2048.71
569.509	2057.79
569.933	2040.73
570.357	2033.9
570.78	2011.14
571.204	1996.68
571.627	1985.43
572.05	1983.5
572.474	1984.02
572.897	1970.14
573.32	1961.46
573.743	1951
574.166	1930.7
574.589	1931.47
575.012	1923.08
575.435	1921.79
575.858	1911.76
576.281	1899
576.704	1881.54
577.126	1868.07
577.549	1856.1
577.972	1844.4
578.394	1832.93
578.817	1825.06
579.239	1803.88
579.661	1788.91
580.084	1771.15
580.506	1757.59
580.928	1755.27
581.35	1743.49
581.772	1738.71
582.194	1724.62
582.616	1711.37
583.038	1694.67
583.46	1683.54
583.882	1680.76
584.303	1684.62
584.725	1680.17
585.147	1681.58
585.568	1692.16
585.99	1705.31
586.411	1711.93
586.833	1728.08
587.254	1729.89
587.675	1747.28
588.096	1761.27
588.518	1754.08
588.939	1736.5
589.36	1734.1
589.781	1721.5
590.202	1689.73
590.623	1679.94
591.043	1678.21
591.464	1664.19
591.885	1659.75
592.305	1652.46
592.726	1637.12
593.147	1640.02
593.567	1633.43
593.987	1626.66
594.408	1621.64
594.828	1619.54
595.248	1612.79
595.669	1592.34
596.089	1584.91
596.509	1577.01
596.929	1561.88
597.349	1562.01
597.769	1550.13
598.189	1542.82
598.608	1542.28
599.028	1544.02
599.448	1543.82
599.867	1530.38
600.287	1524.62
600.706	1518.63
601.126	1508.54
601.545	1507.13
601.965	1505.67
602.384	1499.56
602.803	1503.18
603.222	1498.06
603.641	1490.81
604.061	1487.07
604.48	1481.64
604.898	1490.69
605.317	1495.42
605.736	1496.74
606.155	1492.65
606.574	1482.93
606.992	1487.98
607.411	1482.45
607.829	1472.96
608.248	1468.51
608.666	1464.95
609.085	1464.33
609.503	1455.13
609.921	1447.6
610.339	1449.02
610.758	1448.33
611.176	1442.11
611.594	1432.33
612.012	1426.58
612.43	1429.04
612.847	1435.98
613.265	1436.16
613.683	1440.55
614.101	1440.56
614.518	1436.53
614.936	1424.46
615.353	1407.71
615.771	1403.38
616.188	1402.81
616.606	1398.98
617.023	1392.05
617.44	1375.25
617.857	1367.4
618.274	1356.23
618.691	1347.94
619.108	1336.83
619.525	1330.29
619.942	1336.06
620.359	1338.13
620.776	1331.54
621.192	1326.46
621.609	1322.52
622.026	1330.03
622.442	1335.1
622.859	1338.94
623.275	1331.34
623.691	1337.82
624.108	1350.1
624.524	1365.81
624.94	1366.28
625.356	1376.58
625.772	1390.75
626.188	1402.87
626.604	1403.65
627.02	1399.3
627.436	1396.44
627.852	1404.3
628.268	1416.58
628.683	1406.11
629.099	1396.28
629.514	1391.37
629.93	1395.64
630.345	1399.66
630.761	1394.73
631.176	1398.05
631.591	1391.98
632.007	1385.15
632.422	1382.21
632.837	1369.39
633.252	1366.61
633.667	1354.67
634.082	1343.63
634.497	1328.24
634.911	1306.45
635.326	1301.88
635.741	1282.96
636.155	1270.75
636.57	1271.35
636.984	1268.93
637.399	1268.55
637.813	1266.26
638.228	1264.85
638.642	1267.21
639.056	1255.58
639.47	1254.63
639.884	1244.07
640.298	1235.96
640.712	1232.79
641.126	1217.5
641.54	1207.7
641.954	1201.43
642.368	1186.06
642.781	1175.42
643.195	1154.57
643.609	1151.93
644.022	1144.02
644.436	1137.83
644.849	1121.67
645.262	1107.21
645.676	1106.34
646.089	1098.96
646.502	1081.72
646.915	1074.85
647.328	1054.6
647.741	1050.67
648.154	1035.98
648.567	1030.45
648.98	1015.21
649.393	1013.89
649.805	1008.3
650.218	998.1
650.631	979.24
651.043	970.66
651.456	963.15
651.868	962.55
652.28	977.8
652.693	989.92
653.105	992.56
653.517	998.64
653.929	996.2
654.341	998.19
654.753	985.76
655.165	989.6
655.577	982.92
655.989	975.01
656.401	964.32
656.813	926.76
657.224	903.93
657.636	874.23
658.047	855.06
658.459	833.46
658.87	821.96
659.282	806.23
659.693	783.78
660.104	767.42
660.515	751.02
660.926	745.87
661.338	737.95
661.749	727.33
662.159	715.4
662.57	706.38
662.981	698.07
663.392	687.02
663.803	685.48
664.213	678.79
664.624	670.69
665.035	668.71
665.445	651.5
665.855	644.12
666.266	634.45
666.676	629.05
667.086	618.73
667.497	615.14
667.907	607.23
668.317	597.03
668.727	593.09
669.137	591.35
669.547	587.58
669.956	587.91
670.366	586.37
670.776	586.03
671.186	587.45
671.595	588.9
672.005	589.27
672.414	587.94
672.824	586.6
673.233	588.02
673.642	588.24
674.052	590.48
674.461	592.36
674.87	594.8
675.279	593.29
675.688	593.28
676.097	595.04
676.506	593.82
676.915	605.76
677.323	608.51
677.732	607.52
678.141	607.5
678.549	599.88
678.958	600.05
679.366	600.4
679.775	604.49
680.183	616.6
680.592	622.98
681	630.1
681.408	627.67
681.816	637.15
682.224	647.5
682.632	661.67
683.04	690.49
683.448	714.79
683.856	747.03
684.264	784.29
684.671	816.81
685.079	858.3
685.487	904.67
685.894	967.97
686.302	1022.74
686.709	1071.89
687.116	1127.06
687.524	1174.54
687.931	1217.95
688.338	1257.36
688.745	1291.98
689.152	1331.94
689.559	1382.42
689.966	1432.06
690.373	1460.89
690.78	1506.79
691.187	1573.99
691.593	1626.75
692	1673.92
692.407	1743.36
692.813	1823.63
693.22	1888.29
693.626	1955.41
694.032	2007.95
694.439	2088.21
694.845	2150.34
695.251	2229.18
695.657	2299.63
696.063	2402.14
696.469	2479.34
696.875	2547.97
697.281	2588.01
697.687	2634.42
