Data from C_2_DIV_WI_4N_Splice17_12-18-40-677.txt Node
Date: Sat Mar 14 12:18:40 EDT 2020
User: sa697716
Spectrometer: FLMS03696
Trigger mode: 0
Integration Time (sec): 3.180400E-1
Scans to average: 20
Electric dark correction enabled: true
Nonlinearity correction enabled: true
Boxcar width: 5
XAxis mode: Wavelengths
Number of Pixels in Spectrum: 2048
>>>>>Begin Spectral Data<<<<<
187.83	-355997.58
188.298	2573.21
188.766	1403.7
189.233	1213.65
189.701	1625.93
190.169	2275.5
190.636	865.26
191.104	752.13
191.571	134.88
192.039	-57.03
192.506	-24.1
192.974	441.94
193.441	-625.62
193.908	-33.45
194.375	-49.86
194.842	21.77
195.31	49.53
195.777	142.97
196.244	375.69
196.711	440.92
197.177	524.76
197.644	750.95
198.111	1334.59
198.578	1838.24
199.045	1458.02
199.511	2386.88
199.978	2725.5
200.445	2367.02
200.911	2610.33
201.378	2902.26
201.844	2627.56
202.31	4460.78
202.777	4601.33
203.243	2540.51
203.709	2420.85
204.176	2903.88
204.642	2406.76
205.108	2275.16
205.574	1841.19
206.04	1680.35
206.506	1579.08
206.972	1488.54
207.438	1461.93
207.903	1676.86
208.369	1475.67
208.835	1482.97
209.301	1543.65
209.766	1571.37
210.232	1547.99
210.697	1922.16
211.163	2366.44
211.628	3576.99
212.094	3010.92
212.559	3696.3
213.024	2307.55
213.49	2818.32
213.955	2753.08
214.42	2722.83
214.885	2543.2
215.35	2451.71
215.815	2374.69
216.28	2541.96
216.745	2078.8
217.21	2260.13
217.675	2095.77
218.14	2381.18
218.604	2689.7
219.069	3094.27
219.534	3269.85
219.998	3847.84
220.463	4702.32
220.927	5858.81
221.392	5544.57
221.856	5661.42
222.32	7185.61
222.785	8914.25
223.249	11248.57
223.713	12572.48
224.177	12612.1
224.642	16271.78
225.106	20066.85
225.57	21970.92
226.034	16334.83
226.497	24950.17
226.961	22521.86
227.425	26263.8
227.889	29162.57
228.353	29193.9
228.816	60399.66
229.28	57809.43
229.744	48670.66
230.207	29579.58
230.671	29112.78
231.134	48241.52
231.597	55636.78
232.061	55711.2
232.524	54317.78
232.987	37439.89
233.45	33732.87
233.914	30260.1
234.377	31049.01
234.84	28470.88
235.303	33580.96
235.766	37517.75
236.229	38806.01
236.691	24421.87
237.154	27450.86
237.617	20668.27
238.08	21182.23
238.542	24818.24
239.005	17751.58
239.468	17615.71
239.93	16589.82
240.393	15066.75
240.855	13215.19
241.317	13520.64
241.78	16469.15
242.242	17026.25
242.704	18403.18
243.166	16023.57
243.629	14547.37
244.091	16750.9
244.553	18343.61
245.015	19727.48
245.477	25556.61
245.939	37476.51
246.4	39788.88
246.862	38718.36
247.324	36515.44
247.786	40796.5
248.247	53463.66
248.709	55197.41
249.17	41297.18
249.632	38968.19
250.093	45175.64
250.555	38984.51
251.016	23810.06
251.477	22560.02
251.939	24317.37
252.4	25521.14
252.861	30363.63
253.322	28253.3
253.783	33632.56
254.244	43649.03
254.705	34441.9
255.166	30661.31
255.627	30228.32
256.088	42586.72
256.549	45325.36
257.009	39067.26
257.47	47337.73
257.931	38564
258.391	28900.14
258.852	29799.05
259.312	31220.51
259.773	38510.34
260.233	32527.58
260.694	27435.42
261.154	31162.44
261.614	25014.27
262.074	22357.69
262.534	23254.89
262.994	21932.78
263.455	29208.91
263.915	24578.7
264.374	23186.79
264.834	25347.15
265.294	28102
265.754	29121.63
266.214	27584.66
266.673	25853.2
267.133	32643.76
267.593	32421.4
268.052	39669.72
268.512	34523.86
268.971	41657.94
269.431	45685.42
269.89	40927.65
270.349	61364.18
270.809	68419.6
271.268	61483.38
271.727	137812.97
272.186	89248.95
272.645	66957.46
273.104	48305.98
273.563	69983.83
274.022	55121.24
274.481	46886.35
274.94	36114.26
275.399	26865.05
275.857	31279.13
276.316	42302.56
276.775	37656.17
277.233	37096.25
277.692	34702.06
278.15	39273.17
278.609	40338.02
279.067	37284.75
279.525	34635.84
279.984	44726.77
280.442	53680.5
280.9	52934.63
281.358	34823.44
281.816	32433.98
282.274	31736.55
282.732	32780.71
283.19	32911.36
283.648	28420.62
284.106	30275.67
284.564	30753.12
285.021	28517.29
285.479	21239.78
285.937	19312.83
286.394	16921.61
286.852	17418.64
287.309	18311.7
287.767	17671.72
288.224	16799.27
288.682	18433.59
289.139	20226.79
289.596	18517.21
290.053	19229.3
290.511	24269.89
290.968	29419.78
291.425	39966.53
291.882	33267.67
292.339	28940.04
292.796	28715.25
293.252	27061.68
293.709	21510.74
294.166	19267.26
294.623	21295.1
295.079	20416.06
295.536	20516.37
295.992	18615.67
296.449	18391.84
296.905	19103.71
297.362	18330.51
297.818	19275.21
298.274	19996.26
298.731	20364.06
299.187	20147.09
299.643	21599.46
300.099	26145.45
300.555	28635.8
301.011	23915.23
301.467	23049.79
301.923	26952.82
302.379	26285.65
302.835	25823.57
303.291	25833.94
303.746	29367.18
304.202	37093.07
304.658	37244.84
305.113	25013.32
305.569	24534.52
306.024	26159.51
306.479	24909.13
306.935	20979.56
307.39	22898.27
307.845	21139.2
308.301	21263.74
308.756	20719.63
309.211	19946.42
309.666	20418.81
310.121	25334.88
310.576	25669.75
311.031	25448.34
311.486	29119.65
311.94	29132.54
312.395	38967.73
312.85	73121.51
313.305	358970.99
313.759	1855210.57
314.214	134490.9
314.668	106596.5
315.123	89749.68
315.577	32163.15
316.032	28639.14
316.486	35846.11
316.94	28274.74
317.394	19677.93
317.849	15309.57
318.303	14498.96
318.757	13672.26
319.211	15124.71
319.665	13229.87
320.119	13345.23
320.572	19127.69
321.026	17846.99
321.48	14838.5
321.934	16168.88
322.387	16196.22
322.841	17466.11
323.295	15687.37
323.748	18087.45
324.202	18322.14
324.655	21981.09
325.108	30747.89
325.562	21712.46
326.015	25754.95
326.468	19467.35
326.921	21765.74
327.374	20316.1
327.827	21163.31
328.28	23942.13
328.733	16037.52
329.186	14084.8
329.639	13436.56
330.092	11320.01
330.545	10785.98
330.997	10882.54
331.45	11890.43
331.903	13901.53
332.355	23835.52
332.808	23163.03
333.26	19104.51
333.713	20715.22
334.165	20894.07
334.617	27852.4
335.069	22500.09
335.522	40635.71
335.974	44991.48
336.426	41052.3
336.878	28447.4
337.33	14439.25
337.782	14092.54
338.234	17632.13
338.686	21112.84
339.137	24985.72
339.589	23549.29
340.041	18461.32
340.493	15848.86
340.944	16208.04
341.396	17476.88
341.847	14674.6
342.299	17330.68
342.75	21128.22
343.201	18481.53
343.653	21230.03
344.104	26053.19
344.555	20483.07
345.006	31867.97
345.457	24447.3
345.908	19452.3
346.359	18291.88
346.81	14922.78
347.261	15702.39
347.712	15467.37
348.163	16581.62
348.613	16777.57
349.064	15677.45
349.515	13731.94
349.965	14083.42
350.416	16911.57
350.866	18535.65
351.317	20951.13
351.767	34669.53
352.217	43823.77
352.668	36297.57
353.118	33197
353.568	31966.7
354.018	25261.5
354.468	26605.87
354.918	19080.56
355.368	16711.1
355.818	23599.79
356.268	67896.4
356.718	283669.27
357.168	70606.4
357.617	35463.92
358.067	39472.31
358.517	37038.98
358.966	43420.14
359.416	48761.35
359.865	52693.78
360.315	62731.23
360.764	29356.76
361.213	16453.58
361.663	15569.01
362.112	19180.07
362.561	30966.66
363.01	23321.3
363.459	19636.19
363.908	21241.84
364.357	18052.9
364.806	30428.02
365.255	20944.71
365.703	19187.2
366.152	19231.27
366.601	15645.67
367.05	12723.98
367.498	11590.18
367.947	12140.46
368.395	12632.59
368.844	11197.46
369.292	13496.85
369.74	9350.96
370.189	14340.29
370.637	16814.27
371.085	14506.72
371.533	17702.57
371.981	17085.51
372.429	16272.76
372.877	16975.54
373.325	14243.68
373.773	14557.46
374.221	12982.68
374.669	16120.88
375.116	13959.4
375.564	14092.49
376.012	15801.22
376.459	13026.26
376.907	15582.88
377.354	18916.86
377.801	17716.54
378.249	20430.22
378.696	26182.23
379.143	31813.19
379.591	34040.36
380.038	57725.96
380.485	41913.79
380.932	45367.26
381.379	41686.2
381.826	30835.56
382.273	21952.83
382.72	19208.31
383.166	18768.45
383.613	12216.1
384.06	11061.7
384.506	12840.16
384.953	9475.96
385.4	9566.86
385.846	8413.09
386.292	8221.3
386.739	8072.86
387.185	8016.37
387.631	8048.72
388.078	7828.65
388.524	8411.55
388.97	7786.8
389.416	6510.9
389.862	6941.05
390.308	6586.59
390.754	6703.35
391.2	7305.2
391.645	7485.57
392.091	7172.23
392.537	6939.87
392.983	6969.17
393.428	6853.24
393.874	7335.29
394.319	7363.92
394.765	6972.82
395.21	7177.14
395.655	6727.7
396.101	6304.13
396.546	5695.77
396.991	5752.94
397.436	5349.36
397.881	5167.53
398.326	4891.51
398.771	4628.03
399.216	4050.46
399.661	3648.28
400.106	3628.92
400.551	3704.98
400.995	3314.81
401.44	3262.37
401.885	3059.47
402.329	3078.54
402.774	2941.38
403.218	2841.37
403.663	2734.54
404.107	2802.64
404.551	2817.71
404.995	2574.95
405.44	2478.4
405.884	2504.6
406.328	2420.94
406.772	2405.13
407.216	2187.54
407.66	2107.94
408.104	1994.18
408.547	1863.11
408.991	1798.54
409.435	1725.7
409.879	1698.77
410.322	1672.4
410.766	1613.44
411.209	1531.21
411.653	1465.6
412.096	1429.58
412.54	1425.95
412.983	1413.69
413.426	1413.59
413.869	1408.58
414.312	1381.03
414.756	1325.47
415.199	1261.76
415.642	1224.31
416.085	1223.49
416.527	1211.54
416.97	1228.09
417.413	1164.63
417.856	1149.15
418.298	1133.59
418.741	1124.15
419.184	1117.27
419.626	1163.41
420.069	1161.63
420.511	1164.64
420.953	1141.54
421.396	1132.54
421.838	1104.03
422.28	1128.27
422.722	1134.38
423.164	1150.47
423.606	1129.71
424.048	1126.34
424.49	1067.92
424.932	1060.79
425.374	1045.54
425.816	1060.97
426.258	1078.01
426.699	1088.32
427.141	1071.23
427.582	1083.3
428.024	1073.83
428.465	1066.43
428.907	1039.06
429.348	1028.67
429.789	1029.63
430.231	1006.79
430.672	1017.77
431.113	991.72
431.554	974.88
431.995	948.39
432.436	912.01
432.877	892.99
433.318	877.38
433.759	873.36
434.2	871.07
434.64	859.41
435.081	861.35
435.522	816.48
435.962	786.69
436.403	772.17
436.843	782.61
437.284	770.11
437.724	750.39
438.164	752.89
438.604	735.98
439.045	710.12
439.485	682.89
439.925	667.77
440.365	649.39
440.805	641.92
441.245	633.95
441.685	612.1
442.125	607.26
442.564	609.74
443.004	594.8
443.444	593.95
443.883	592.43
444.323	586.24
444.762	587.48
445.202	596.24
445.641	607.79
446.081	603.45
446.52	609.34
446.959	604.04
447.398	591.93
447.837	585.48
448.276	575.22
448.716	581.66
449.154	587.87
449.593	574.12
450.032	574.08
450.471	563.13
450.91	564.77
451.349	562.74
451.787	559.33
452.226	566.69
452.664	568.68
453.103	569.7
453.541	569.68
453.98	569.55
454.418	574.35
454.856	564.8
455.295	563.34
455.733	567.48
456.171	570.58
456.609	573.54
457.047	573.07
457.485	580.66
457.923	582.41
458.361	574.69
458.798	575.88
459.236	574.58
459.674	578.47
460.111	582.53
460.549	576.02
460.987	573.54
461.424	569.53
461.862	567.23
462.299	558.19
462.736	557.97
463.173	560.11
463.611	555.54
464.048	554.67
464.485	559.13
464.922	553.67
465.359	551.6
465.796	547.26
466.233	544.3
466.67	539.59
467.106	539.31
467.543	532.89
467.98	525.35
468.416	511.02
468.853	506.12
469.29	491.73
469.726	486.24
470.162	473.69
470.599	465.97
471.035	461.31
471.471	450.32
471.907	446.61
472.344	445.42
472.78	447.34
473.216	452.39
473.652	445.98
474.088	444.73
474.523	443.02
474.959	447.02
475.395	441.88
475.831	439.43
476.266	441.51
476.702	439.92
477.138	434.87
477.573	433.17
478.008	431.88
478.444	435.28
478.879	439.72
479.314	441.73
479.75	441.8
480.185	443.88
480.62	446.48
481.055	448.62
481.49	451.68
481.925	457.27
482.36	465.72
482.795	478.19
483.229	490.6
483.664	498.9
484.099	500.16
484.534	507.72
484.968	513.08
485.403	515.32
485.837	514.09
486.271	514.06
486.706	514.62
487.14	509.22
487.574	501.56
488.009	497.04
488.443	493.6
488.877	500.4
489.311	502.22
489.745	508.24
490.179	513.84
490.613	525.07
491.046	529.67
491.48	534.74
491.914	535.97
492.348	541.3
492.781	545.78
493.215	548.13
493.648	549.26
494.082	554.37
494.515	556.78
494.948	564.98
495.382	569.91
495.815	575.52
496.248	581.42
496.681	592.96
497.114	603.71
497.547	614.4
497.98	628.8
498.413	636.41
498.846	646.74
499.279	655.65
499.711	661.46
500.144	665.73
500.577	677.8
501.009	690.09
501.442	701.09
501.874	705.74
502.306	709.94
502.739	718.98
503.171	734.71
503.603	740.01
504.036	751.75
504.468	759.06
504.9	772.54
505.332	781
505.764	787.21
506.196	796.7
506.627	811.35
507.059	826.04
507.491	836.34
507.923	837.83
508.354	854.76
508.786	867.08
509.217	886.23
509.649	902.08
510.08	921.4
510.512	939.38
510.943	956.12
511.374	969.88
511.805	991.65
512.237	1011.96
512.668	1043.8
513.099	1071.49
513.53	1099.22
513.961	1120.42
514.391	1151.47
514.822	1184.39
515.253	1219.71
515.684	1244.43
516.114	1274.31
516.545	1296.09
516.975	1322.21
517.406	1340.76
517.836	1345.03
518.267	1353.43
518.697	1372.67
519.127	1378.96
519.558	1387.97
519.988	1393.04
520.418	1404.57
520.848	1422.38
521.278	1430.38
521.708	1439.56
522.138	1452.45
522.567	1483.28
522.997	1506.91
523.427	1523.14
523.857	1540.28
524.286	1550.43
524.716	1566.06
525.145	1585.54
525.575	1596.99
526.004	1613.48
526.433	1616.7
526.863	1617.86
527.292	1608.19
527.721	1615.06
528.15	1620.28
528.579	1621.3
529.008	1632.55
529.437	1653.89
529.866	1666.56
530.295	1683.16
530.724	1694.01
531.152	1719.75
531.581	1734.87
532.01	1751.64
532.438	1760.67
532.867	1775.66
533.295	1794.63
533.723	1800.57
534.152	1799.48
534.58	1799.92
535.008	1784.37
535.436	1787.18
535.865	1795.73
536.293	1808.6
536.721	1824.9
537.149	1848.68
537.576	1850.29
538.004	1862.09
538.432	1869.39
538.86	1867.64
539.287	1873.56
539.715	1886.98
540.143	1889.7
540.57	1885.83
540.998	1882.24
541.425	1859.95
541.852	1839.55
542.28	1839.34
542.707	1823.03
543.134	1810.22
543.561	1806.43
543.988	1800.1
544.415	1799.38
544.842	1794.19
545.269	1787.12
545.696	1788.19
546.123	1800.4
546.549	1790.13
546.976	1776.45
547.403	1776.17
547.829	1777.59
548.256	1779.2
548.682	1774.62
549.108	1767.94
549.535	1766.17
549.961	1767.38
550.387	1754.48
550.813	1748.39
551.24	1754.34
551.666	1754.88
552.092	1743.95
552.518	1737.48
552.943	1731.98
553.369	1739.08
553.795	1744.33
554.221	1746.26
554.646	1742.63
555.072	1753.05
555.498	1757.67
555.923	1765.52
556.349	1780.23
556.774	1789.12
557.199	1790.02
557.625	1794.74
558.05	1789.28
558.475	1797.63
558.9	1794.79
559.325	1786.89
559.75	1780.65
560.175	1774.06
560.6	1768.26
561.025	1765.43
561.449	1766.57
561.874	1771.18
562.299	1775.97
562.723	1782.49
563.148	1773.03
563.572	1777.57
563.997	1787.73
564.421	1791.8
564.846	1792.1
565.27	1794.28
565.694	1791.72
566.118	1802.12
566.542	1808.77
566.966	1801.36
567.39	1796.12
567.814	1784.09
568.238	1781.34
568.662	1784.58
569.086	1787.12
569.509	1793.6
569.933	1778.82
570.357	1771.4
570.78	1750.4
571.204	1737.89
571.627	1726.31
572.05	1724.31
572.474	1723.87
572.897	1712.1
573.32	1703.9
573.743	1693.95
574.166	1675.16
574.589	1674
575.012	1665.68
575.435	1663.83
575.858	1654.38
576.281	1643.72
576.704	1627.31
577.126	1614.97
577.549	1603.58
577.972	1593.57
578.394	1583.42
578.817	1576.38
579.239	1558.36
579.661	1545.1
580.084	1529.44
580.506	1515.78
580.928	1511.65
581.35	1500.12
581.772	1496.16
582.194	1483.59
582.616	1471.86
583.038	1455.61
583.46	1445.27
583.882	1441.6
584.303	1444.74
584.725	1440.33
585.147	1441.43
585.568	1449.45
585.99	1461.6
586.411	1465.73
586.833	1478.21
587.254	1478.62
587.675	1491.97
588.096	1502.43
588.518	1496.73
588.939	1479.97
589.36	1477.14
589.781	1466.15
590.202	1439.58
590.623	1429.79
591.043	1427.77
591.464	1416.67
591.885	1412.26
592.305	1406.74
592.726	1393.38
593.147	1393.78
593.567	1388.87
593.987	1382.5
594.408	1377.06
594.828	1374.92
595.248	1369.08
595.669	1351.08
596.089	1343.43
596.509	1336.24
596.929	1324.28
597.349	1324.62
597.769	1315.38
598.189	1309.71
598.608	1309.24
599.028	1311.76
599.448	1311.87
599.867	1299.67
600.287	1295.79
600.706	1291.43
601.126	1282.52
601.545	1280.85
601.965	1280.51
602.384	1274.61
602.803	1277.22
603.222	1273.16
603.641	1266.38
604.061	1263.02
604.48	1259.13
604.898	1266.11
605.317	1270.4
605.736	1272.24
606.155	1268.97
606.574	1258.76
606.992	1263.65
607.411	1257.88
607.829	1249.88
608.248	1246.28
608.666	1242.88
609.085	1242.16
609.503	1234.17
609.921	1227.23
610.339	1228.62
610.758	1227.26
611.176	1222.39
611.594	1213.62
612.012	1208.85
612.43	1210.71
612.847	1215.05
613.265	1215.56
613.683	1218.57
614.101	1218.21
614.518	1213.89
614.936	1203.75
615.353	1189.99
615.771	1186.07
616.188	1185.54
616.606	1182.7
617.023	1175.75
617.44	1162.84
617.857	1156.12
618.274	1147.38
618.691	1140.89
619.108	1132.83
619.525	1126.65
619.942	1131.73
620.359	1133.72
620.776	1128.06
621.192	1123.88
621.609	1121.6
622.026	1126.55
622.442	1130.78
622.859	1133.77
623.275	1126.47
623.691	1130.72
624.108	1139.88
624.524	1152.89
624.94	1152.78
625.356	1160.38
625.772	1171.37
626.188	1181.31
626.604	1183.27
627.02	1178.4
627.436	1175.42
627.852	1182.32
628.268	1193.29
628.683	1185.9
629.099	1177.66
629.514	1173.35
629.93	1176.79
630.345	1180.21
630.761	1175.85
631.176	1178
631.591	1172.95
632.007	1166.12
632.422	1163.37
632.837	1152.24
633.252	1148.66
633.667	1139.03
634.082	1130.27
634.497	1119.15
634.911	1100.43
635.326	1095.71
635.741	1079.2
636.155	1069.35
636.57	1070.58
636.984	1068.65
637.399	1068.32
637.813	1066.65
638.228	1062.99
638.642	1064.96
639.056	1053.3
639.47	1052.13
639.884	1042.81
640.298	1034.53
640.712	1030.79
641.126	1018.46
641.54	1008.12
641.954	1000.9
642.368	987.86
642.781	979.15
643.195	960.69
643.609	958.79
644.022	950.61
644.436	945.08
644.849	933.31
645.262	921.03
645.676	918.86
646.089	913.2
646.502	899
646.915	892.89
647.328	876.65
647.741	874.03
648.154	860.96
648.567	857.84
648.98	845.63
649.393	844.75
649.805	840.56
650.218	834.15
650.631	821.07
651.043	814.11
651.456	808.09
651.868	807.41
652.28	820.03
652.693	830.14
653.105	833.69
653.517	840.41
653.929	839.86
654.341	844.08
654.753	832.76
655.165	835.88
655.577	833.23
655.989	828.67
656.401	820.87
656.813	791.14
657.224	774.55
657.636	751
658.047	735.77
658.459	718.6
658.87	708.36
659.282	696.81
659.693	679.67
660.104	666.32
660.515	653.55
660.926	650.79
661.338	646.1
661.749	638.13
662.159	628.67
662.57	621.49
662.981	615.74
663.392	608.82
663.803	609.44
664.213	604.79
664.624	600.16
665.035	599.21
665.445	585.7
665.855	578.27
666.266	572.04
666.676	568.18
667.086	560.15
667.497	557.49
667.907	551.59
668.317	544.37
668.727	541.49
669.137	540.47
669.547	538.56
669.956	539.31
670.366	539.44
670.776	539.93
671.186	542.2
671.595	545.49
672.005	547.32
672.414	547.36
672.824	545.48
673.233	547.68
673.642	548.2
674.052	551.12
674.461	554.77
674.87	558.62
675.279	556.87
675.688	558.5
676.097	559.97
676.506	559.1
676.915	568.76
677.323	571.25
677.732	571.34
678.141	572.26
678.549	564.98
678.958	564.14
679.366	565.64
679.775	570.73
680.183	580.7
680.592	586.42
681	592.49
681.408	590.57
681.816	599.36
682.224	607.8
682.632	619.59
683.04	646.75
683.448	669.52
683.856	695.83
684.264	726.59
684.671	755.95
685.079	792.54
685.487	831.58
685.894	885.06
686.302	930.4
686.709	969.45
687.116	1014.57
687.524	1052.38
687.931	1088.45
688.338	1120.67
688.745	1149.78
689.152	1180.94
689.559	1220.38
689.966	1260.11
690.373	1283.06
690.78	1322.53
691.187	1381.48
691.593	1425.87
692	1464.76
692.407	1522.28
692.813	1591.21
693.22	1645.53
693.626	1702.81
694.032	1749.72
694.439	1819.96
694.845	1875.06
695.251	1946.74
695.657	2008.19
696.063	2098.33
696.469	2167.59
696.875	2230.01
697.281	2266.58
697.687	2312.78
698.093	2347.82
