Data from C_2_DIV_IL_4N_Splice17_12-36-35-352.txt Node
Date: Sat Mar 14 12:36:35 EDT 2020
User: sa697716
Spectrometer: FLMS03696
Trigger mode: 0
Integration Time (sec): 3.180400E-1
Scans to average: 20
Electric dark correction enabled: true
Nonlinearity correction enabled: true
Boxcar width: 5
XAxis mode: Wavelengths
Number of Pixels in Spectrum: 2048
>>>>>Begin Spectral Data<<<<<
187.83	-387422.33
188.298	2864.94
188.766	1499.69
189.233	1295.72
189.701	1763.97
190.169	2449.04
190.636	945.9
191.104	824.37
191.571	189.25
192.039	-35.72
192.506	-27.65
192.974	594.46
193.441	-840.56
193.908	-165.46
194.375	-66.5
194.842	-21.96
195.31	107.21
195.777	180.04
196.244	438.08
196.711	560.26
197.177	685.2
197.644	956.08
198.111	1674.54
198.578	2342.58
199.045	1872.33
199.511	3055.53
199.978	3550.41
200.445	2999.5
200.911	3325.69
201.378	3714.71
201.844	3340.98
202.31	5725.91
202.777	6008.63
203.243	3355.4
203.709	3205.3
204.176	3817.44
204.642	3161.36
205.108	2979.85
205.574	2440.16
206.04	2237.95
206.506	2107.58
206.972	2009.48
207.438	1960.89
207.903	2244.8
208.369	1971.63
208.835	1963.88
209.301	2064.57
209.766	2120.76
210.232	2114.1
210.697	2660.23
211.163	3315.55
211.628	5075.49
212.094	4307.62
212.559	5351.34
213.024	3363.09
213.49	4132.19
213.955	4096.76
214.42	4062.11
214.885	3803.74
215.35	3688.17
215.815	3549.32
216.28	3811.11
216.745	3159.37
217.21	3476.18
217.675	3277.39
218.14	3813.84
218.604	4416.44
219.069	5222.28
219.534	5634.89
219.998	6785.85
220.463	8455.82
220.927	10752.06
221.392	10341.4
221.856	10638.7
222.32	13662.16
222.785	17064.71
223.249	21696.33
223.713	24432.37
224.177	24608.17
224.642	31831.56
225.106	39376.36
225.57	43198.01
226.034	32121.25
226.497	49024.83
226.961	44338.16
227.425	51670.87
227.889	57507.53
228.353	57597.87
228.816	119072.21
229.28	113969.17
229.744	96147.68
230.207	58337.31
230.671	57428.45
231.134	95269.7
231.597	109811.87
232.061	109836.23
232.524	107178.19
232.987	73727
233.45	66300.5
233.914	59429.75
234.377	60913.53
234.84	55720.22
235.303	65733.6
235.766	73302.26
236.229	75713.52
236.691	47632.35
237.154	53507.8
237.617	40220.77
238.08	41203.69
238.542	48203.42
239.005	34421.39
239.468	34098.87
239.93	32126.06
240.393	29162.29
240.855	25565.56
241.317	26143.15
241.78	31830.11
242.242	32868.92
242.704	35422.26
243.166	30782.44
243.629	27884.02
244.091	32085.67
244.553	35146.26
245.015	37681.22
245.477	48728.03
245.939	71401.47
246.4	75656.67
246.862	73394.73
247.324	69125.45
247.786	77353.5
248.247	101406.58
248.709	104717.91
249.17	78292.07
249.632	73618.68
250.093	85223.77
250.555	73531.47
251.016	44760.23
251.477	42417.35
251.939	45743.63
252.4	47928.85
252.861	56944.06
253.322	52811.86
253.783	62850.03
254.244	81372.55
254.705	64098.95
255.166	56980.1
255.627	55973.35
256.088	78802.66
256.549	83624.6
257.009	71887.34
257.47	87107.13
257.931	70819.08
258.391	53054.99
258.852	54604.84
259.312	57191.28
259.773	70639.44
260.233	59600.5
260.694	50249.31
261.154	56970.1
261.614	45619.94
262.074	40797.51
262.534	42334.15
262.994	39840.26
263.455	53074.09
263.915	44678.61
264.374	42082.78
264.834	45880.24
265.294	50828.4
265.754	52586.27
266.214	49768.14
266.673	46641.55
267.133	58823.28
267.593	58345.68
268.052	71353.65
268.512	62032.08
268.971	74690.34
269.431	81842.57
269.89	73298.13
270.349	109852.73
270.809	122421.57
271.268	109942.17
271.727	246530.31
272.186	159566.38
272.645	119636.88
273.104	86292.51
273.563	124833
274.022	98184.09
274.481	83452.2
274.94	64218.52
275.399	47714.08
275.857	55592.77
276.316	75177.75
276.775	66838.69
277.233	65788.84
277.692	61510.58
278.15	69568.39
278.609	71447.19
279.067	66047.26
279.525	61292.67
279.984	79105.84
280.442	94955.92
280.9	93343.39
281.358	61334.74
281.816	57098.62
282.274	55863.69
282.732	57718.12
283.19	57920.93
283.648	49993.12
284.106	53229.88
284.564	54092.78
285.021	50100.82
285.479	37309.19
285.937	33939.09
286.394	29734.41
286.852	30586.68
287.309	32098.45
287.767	30929.52
288.224	29361.65
288.682	32169.67
289.139	35238.26
289.596	32193.55
290.053	33412.12
290.511	42116.2
290.968	50981.34
291.425	69190.36
291.882	57450.48
292.339	49935.61
292.796	49528.53
293.252	46663.21
293.709	37018.59
294.166	33188.45
294.623	36683.39
295.079	35198.52
295.536	35342.6
295.992	32084.53
296.449	31688.17
296.905	32869.15
297.362	31494.76
297.818	33163.76
298.274	34366.96
298.731	35000.12
299.187	34611.48
299.643	37117.58
300.099	44829.88
300.555	49117.58
301.011	40996.04
301.467	39430.75
301.923	46240.14
302.379	45106.99
302.835	44192.99
303.291	44195.04
303.746	50263.8
304.202	63407.96
304.658	63617.74
305.113	42766.64
305.569	41850.94
306.024	44602.28
306.479	42497.06
306.935	35768.73
307.39	39044.23
307.845	36051.78
308.301	36255.09
308.756	35293.69
309.211	33965.45
309.666	34766.18
310.121	43114.12
310.576	43773.35
311.031	43435.22
311.486	49706.89
311.94	49638.53
312.395	66351.52
312.85	124629.2
313.305	611978.28
313.759	3164219.46
314.214	229016.36
314.668	181218.58
315.123	152198.19
315.577	54451.41
316.032	48360.99
316.486	60552.11
316.94	47702.06
317.394	33166.28
317.849	25729.61
318.303	24361.74
318.757	22948.93
319.211	25358.63
319.665	22199.85
320.119	22450.22
320.572	32209.98
321.026	30026.78
321.48	24984.48
321.934	27255.07
322.387	27304.73
322.841	29477.49
323.295	26419.5
323.748	30484.23
324.202	30907.42
324.655	37062.22
325.108	51761.23
325.562	36517.14
326.015	43427.31
326.468	32788.58
326.921	36633.69
327.374	34129.35
327.827	35446.6
328.28	40153.42
328.733	26834.82
329.186	23587.63
329.639	22476.98
330.092	18922.6
330.545	18016.45
330.997	18151.77
331.45	19814.13
331.903	23177.07
332.355	39893.29
332.808	38804.77
333.26	31989.96
333.713	34694.91
334.165	34903.26
334.617	46546.31
335.069	37594.88
335.522	67874.57
335.974	75108.43
336.426	68516.43
336.878	47450.9
337.33	24007.35
337.782	23432.6
338.234	29287.19
338.686	35085.46
339.137	41558.97
339.589	39090.89
340.041	30620.46
340.493	26297.82
340.944	26903.53
341.396	28973.86
341.847	24338.22
342.299	28662.92
342.75	34944.54
343.201	30585.03
343.653	35124.6
344.104	43173.27
344.555	33975.51
345.006	52893.65
345.457	40483.23
345.908	32158.96
346.359	30226.97
346.81	24613.57
347.261	25947.75
347.712	25552.31
348.163	27357.83
348.613	27682.86
349.064	25832.04
349.515	22607.15
349.965	23165.19
350.416	27877.16
350.866	30582.98
351.317	34597.34
351.767	57242.78
352.217	72388.95
352.668	60047.71
353.118	54994.2
353.568	53066.91
354.018	41943.38
354.468	44213.12
354.918	31718.62
355.368	27742.17
355.818	39179.43
356.268	112727.9
356.718	471854.83
357.168	117261.29
357.617	58842.29
358.067	65387.19
358.517	61159.89
358.966	71636.33
359.416	80260.13
359.865	86603.07
360.315	103138.89
360.764	48123.76
361.213	26917.38
361.663	25504.18
362.112	31457.56
362.561	50734.75
363.01	38299.36
363.459	32187.11
363.908	34825.97
364.357	29510.15
364.806	49800.88
365.255	34180.61
365.703	31230.19
366.152	31253.79
366.601	25330.11
367.05	20536.86
367.498	18658.56
367.947	19469.37
368.395	20270.26
368.844	17897.42
369.292	21588.17
369.74	14903.16
370.189	22818.29
370.637	26750.57
371.085	23041.28
371.533	27995.49
371.981	26958.86
372.429	25628.09
372.877	26658.58
373.325	22259.6
373.773	22718.23
374.221	20233.91
374.669	25055.31
375.116	21654.63
375.564	21824.59
376.012	24434.47
376.459	20099.76
376.907	23989.93
377.354	29005.35
377.801	27026.45
378.249	31048.97
378.696	39583.14
379.143	47862.76
379.591	51009.02
380.038	86232.2
380.485	62197.27
380.932	67001.89
381.379	61253.16
381.826	45085.31
382.273	32022.72
382.72	27957.17
383.166	27149.64
383.613	17605.16
384.06	15857.15
384.506	18342.56
384.953	13456.39
385.4	13533.29
385.846	11847.73
386.292	11562.78
386.739	11298.61
387.185	11158.35
387.631	11160.65
388.078	10828.95
388.524	11559.91
388.97	10662.59
389.416	8875.45
389.862	9414.95
390.308	8908.41
390.754	9028.03
391.2	9784.59
391.645	10019.44
392.091	9566.91
392.537	9232.06
392.983	9258.89
393.428	9099.72
393.874	9748.01
394.319	9767.08
394.765	9245.04
395.21	9498.52
395.655	8897.44
396.101	8319.48
396.546	7501.06
396.991	7573.63
397.436	7033.58
397.881	6781.89
398.326	6426.74
398.771	6067.22
399.216	5308.1
399.661	4781.02
400.106	4761.91
400.551	4871.94
400.995	4365.39
401.44	4309.31
401.885	4045.86
402.329	4080.76
402.774	3907.53
403.218	3771.78
403.663	3633.94
404.107	3728.48
404.551	3755.67
404.995	3440.21
405.44	3314.33
405.884	3361
406.328	3252.44
406.772	3239.29
407.216	2950.26
407.66	2850.59
408.104	2708.83
408.547	2534.64
408.991	2451.08
409.435	2357.13
409.879	2323.28
410.322	2292.14
410.766	2207
411.209	2095.93
411.653	2009.4
412.096	1962.84
412.54	1962.09
412.983	1946.77
413.426	1949.49
413.869	1949.25
414.312	1911.36
414.756	1840.05
415.199	1752.69
415.642	1707.69
416.085	1710.67
416.527	1698.38
416.97	1727.64
417.413	1638.11
417.856	1621.36
418.298	1602.89
418.741	1592.86
419.184	1588.15
419.626	1652.8
420.069	1651.9
420.511	1659.27
420.953	1622.3
421.396	1606.32
421.838	1562.41
422.28	1600.93
422.722	1606.43
423.164	1632.08
423.606	1602.32
424.048	1600.71
424.49	1519.03
424.932	1514.05
425.374	1493.19
425.816	1516.26
426.258	1543.06
426.699	1560.3
427.141	1533.08
427.582	1557.2
428.024	1549.09
428.465	1541.03
428.907	1501.97
429.348	1485.37
429.789	1483.11
430.231	1450.92
430.672	1472.58
431.113	1439.43
431.554	1419.75
431.995	1384.06
432.436	1335.33
432.877	1303.59
433.318	1277.36
433.759	1271.52
434.2	1272.03
434.64	1258.12
435.081	1260.19
435.522	1193.45
435.962	1149.95
436.403	1124.94
436.843	1141.43
437.284	1115.27
437.724	1084.79
438.164	1088.96
438.604	1064.5
439.045	1021.86
439.485	978.22
439.925	956.63
440.365	931.92
440.805	919.49
441.245	905.5
441.685	870.81
442.125	864.93
442.564	870.49
443.004	850.82
443.444	848.36
443.883	850.58
444.323	845.62
444.762	847.02
445.202	857.1
445.641	873.64
446.081	870.2
446.52	877.86
446.959	867.82
447.398	847.12
447.837	836.56
448.276	820.55
448.716	826.42
449.154	831.81
449.593	813.32
450.032	810.98
450.471	793.45
450.91	792.9
451.349	790.6
451.787	786.48
452.226	798.21
452.664	798.59
453.103	800.37
453.541	800.14
453.98	799.63
454.418	802.9
454.856	790.74
455.295	789.33
455.733	795.7
456.171	800.18
456.609	802.81
457.047	801.82
457.485	813.1
457.923	812.98
458.361	801.6
458.798	802.76
459.236	802.04
459.674	807.57
460.111	810.96
460.549	802.84
460.987	799.49
461.424	795.77
461.862	790.37
462.299	776.96
462.736	776.51
463.173	779.35
463.611	771.68
464.048	769.02
464.485	774.55
464.922	767.95
465.359	762.82
465.796	753.47
466.233	747.96
466.67	742.04
467.106	741.16
467.543	734.69
467.98	725.2
468.416	706.13
468.853	699.64
469.29	678.84
469.726	670.51
470.162	653.6
470.599	644.33
471.035	638.29
471.471	622.77
471.907	618.14
472.344	613.5
472.78	614.53
473.216	621.92
473.652	615.88
474.088	614.04
474.523	611.64
474.959	616.93
475.395	611.31
475.831	607.55
476.266	610.61
476.702	608.95
477.138	601.69
477.573	599.28
478.008	596.05
478.444	597.78
478.879	602.42
479.314	605.34
479.75	604.78
480.185	606.73
480.62	610.45
481.055	612.35
481.49	616.66
481.925	624.77
482.36	636.03
482.795	653.44
483.229	670.01
483.664	683.85
484.099	686.16
484.534	695.65
484.968	701.96
485.403	704.33
485.837	703.57
486.271	701.49
486.706	702.88
487.14	694.54
487.574	683.37
488.009	677.03
488.443	670.03
488.877	675.69
489.311	678.53
489.745	685.76
490.179	692.02
490.613	704.28
491.046	708.83
491.48	712.68
491.914	711.88
492.348	716.5
492.781	719.52
493.215	720.8
493.648	721.34
494.082	725.18
494.515	724.31
494.948	730.9
495.382	734.72
495.815	739.31
496.248	744.15
496.681	757.36
497.114	768.31
497.547	778.37
497.98	791.33
498.413	796.94
498.846	805.67
499.279	814.78
499.711	818.36
500.144	819.73
500.577	829.63
501.009	840.13
501.442	848.22
501.874	849.03
502.306	851.04
502.739	858.05
503.171	872.95
503.603	875.61
504.036	884.6
504.468	890.71
504.9	902.25
505.332	909.45
505.764	914.33
506.196	922.01
506.627	937.07
507.059	950.39
507.491	958.91
507.923	957.08
508.354	973.4
508.786	984.36
509.217	1002.15
509.649	1018.51
510.08	1037.23
510.512	1054.47
510.943	1070.12
511.374	1081.94
511.805	1103.63
512.237	1123.53
512.668	1157.12
513.099	1185.5
513.53	1214.9
513.961	1238.69
514.391	1271.7
514.822	1307.46
515.253	1345.99
515.684	1375.14
516.114	1407.79
516.545	1430.86
516.975	1461.57
517.406	1482.26
517.836	1486.58
518.267	1495.42
518.697	1515.98
519.127	1522.78
519.558	1532.71
519.988	1538.45
520.418	1550.57
520.848	1570.67
521.278	1582.85
521.708	1592.25
522.138	1607.87
522.567	1643.02
522.997	1671.25
523.427	1688.71
523.857	1708.43
524.286	1720.93
524.716	1739.52
525.145	1762.16
525.575	1775.6
526.004	1792.01
526.433	1798.71
526.863	1801.32
527.292	1793.03
527.721	1800.91
528.15	1807.97
528.579	1810.82
529.008	1824.99
529.437	1850.99
529.866	1866.33
530.295	1886.43
530.724	1902.45
531.152	1931.35
531.581	1947.92
532.01	1967.55
532.438	1977.94
532.867	1996.31
533.295	2017.78
533.723	2024.32
534.152	2021.99
534.58	2022.85
535.008	2005.89
535.436	2008.24
535.865	2018.17
536.293	2035.95
536.721	2053.92
537.149	2082.44
537.576	2084.94
538.004	2099.23
538.432	2109.29
538.86	2107.77
539.287	2116.33
539.715	2132.84
540.143	2137.31
540.57	2134.48
540.998	2128.31
541.425	2102.9
541.852	2079.5
542.28	2079.1
542.707	2061.45
543.134	2045.71
543.561	2043.11
543.988	2035.18
544.415	2036.03
544.842	2029.37
545.269	2021.06
545.696	2023.84
546.123	2039.19
546.549	2029.05
546.976	2014.29
547.403	2013.34
547.829	2015.46
548.256	2016.7
548.682	2012.13
549.108	2001.64
549.535	1999.95
549.961	2002.06
550.387	1988.47
550.813	1981.91
551.24	1988.85
551.666	1990.7
552.092	1981.04
552.518	1974.67
552.943	1967.26
553.369	1976.26
553.795	1983.91
554.221	1986.36
554.646	1982.61
555.072	1994.09
555.498	1999.92
555.923	2008.74
556.349	2026.19
556.774	2036.3
557.199	2037.2
557.625	2045.15
558.05	2037.57
558.475	2048.51
558.9	2046.76
559.325	2037.61
559.75	2030.28
560.175	2022.97
560.6	2016.55
561.025	2012.24
561.449	2012.44
561.874	2019.15
562.299	2023.09
562.723	2031.36
563.148	2020.18
563.572	2023.62
563.997	2034.62
564.421	2039.34
564.846	2038.89
565.27	2041.66
565.694	2039.01
566.118	2051.22
566.542	2057.66
566.966	2049.78
567.39	2043.62
567.814	2029.26
568.238	2028.26
568.662	2033.43
569.086	2036.17
569.509	2043.55
569.933	2026.3
570.357	2016.78
570.78	1992.82
571.204	1978.42
571.627	1966.44
572.05	1964
572.474	1963.68
572.897	1950.41
573.32	1940.72
573.743	1929.84
574.166	1909.71
574.589	1908.87
575.012	1900.94
575.435	1898.09
575.858	1887.52
576.281	1874.72
576.704	1856.35
577.126	1841.97
577.549	1829.04
577.972	1817.98
578.394	1805.57
578.817	1796.94
579.239	1776.09
579.661	1760.18
580.084	1743.09
580.506	1727.4
580.928	1722.44
581.35	1710.96
581.772	1707.12
582.194	1691.98
582.616	1677.37
583.038	1660.72
583.46	1648.52
583.882	1645.34
584.303	1650.01
584.725	1644.55
585.147	1646.87
585.568	1657.96
585.99	1670.63
586.411	1676.93
586.833	1692.61
587.254	1692.84
587.675	1709.19
588.096	1722.94
588.518	1716.15
588.939	1697.23
589.36	1695.58
589.781	1684.08
590.202	1652.56
590.623	1643.34
591.043	1640.86
591.464	1625.78
591.885	1623.68
592.305	1616.97
592.726	1601.97
593.147	1603.94
593.567	1598.3
593.987	1588.65
594.408	1583.39
594.828	1581.85
595.248	1575.2
595.669	1554.08
596.089	1546.14
596.509	1537.7
596.929	1522.54
597.349	1522.38
597.769	1511.08
598.189	1504.65
598.608	1506.92
599.028	1508.51
599.448	1508.93
599.867	1493.79
600.287	1489.47
600.706	1485.87
601.126	1474.79
601.545	1473.03
601.965	1471.18
602.384	1464.85
602.803	1467.07
603.222	1461.71
603.641	1454.16
604.061	1449.24
604.48	1444.83
604.898	1452.94
605.317	1457.3
605.736	1459.64
606.155	1456.59
606.574	1446.42
606.992	1451.77
607.411	1446.04
607.829	1436.66
608.248	1432.53
608.666	1429.32
609.085	1429.38
609.503	1418.95
609.921	1412.46
610.339	1413.69
610.758	1411.55
611.176	1406.87
611.594	1396.52
612.012	1392.36
612.43	1394.92
612.847	1401.35
613.265	1401.24
613.683	1403.98
614.101	1405.77
614.518	1400.68
614.936	1389.68
615.353	1374.43
615.771	1369.93
616.188	1369.69
616.606	1364.93
617.023	1357.05
617.44	1342.15
617.857	1334.81
618.274	1325.61
618.691	1319.05
619.108	1308.15
619.525	1301.33
619.942	1308.1
620.359	1311.43
620.776	1306.01
621.192	1302.97
621.609	1300.7
622.026	1306.7
622.442	1312.42
622.859	1315.76
623.275	1307.91
623.691	1313.89
624.108	1326.84
624.524	1341.51
624.94	1341.44
625.356	1352.81
625.772	1366.11
626.188	1379.05
626.604	1381.45
627.02	1377.58
627.436	1375.96
627.852	1382.32
628.268	1395.22
628.683	1384.36
629.099	1374.69
629.514	1368.86
629.93	1371.55
630.345	1375.31
630.761	1369.98
631.176	1371.75
631.591	1364.08
632.007	1357.77
632.422	1355.94
632.837	1343.39
633.252	1340.68
633.667	1329.93
634.082	1321.02
634.497	1307.29
634.911	1286.74
635.326	1283.05
635.741	1266.62
636.155	1257.88
636.57	1258.29
636.984	1257.86
637.399	1259.61
637.813	1259.57
638.228	1259.23
638.642	1263.46
639.056	1252.88
639.47	1252.8
639.884	1244.86
640.298	1237.08
640.712	1235.59
641.126	1222.35
641.54	1213.18
641.954	1206.72
642.368	1194.73
642.781	1185.96
643.195	1167.25
643.609	1168.72
644.022	1163.02
644.436	1157.69
644.849	1144.63
645.262	1132.37
645.676	1134.18
646.089	1129.57
646.502	1114.92
646.915	1108.72
647.328	1091.27
647.741	1088.87
648.154	1073.78
648.567	1071.01
648.98	1056.61
649.393	1056.88
649.805	1051.33
650.218	1042.98
650.631	1026.12
651.043	1018.53
651.456	1012.81
651.868	1012.01
652.28	1028.3
652.693	1041.31
653.105	1046.67
653.517	1056.69
653.929	1057.11
654.341	1062.25
654.753	1049.87
655.165	1055.16
655.577	1052.83
655.989	1046.96
656.401	1037.55
656.813	1000.1
657.224	978.7
657.636	948.7
658.047	930.11
658.459	908.93
658.87	899.02
659.282	885.53
659.693	865.04
660.104	850.28
660.515	834.99
660.926	833.95
661.338	831.41
661.749	825.1
662.159	816.09
662.57	810.54
662.981	806.01
663.392	799.2
663.803	803.7
664.213	800.42
664.624	795.72
665.035	799.25
665.445	784.72
665.855	777.39
666.266	770.59
666.676	769.04
667.086	760.36
667.497	759.63
667.907	754.09
668.317	745.68
668.727	743.37
669.137	744.52
669.547	743.35
669.956	746.48
670.366	748
670.776	749.24
671.186	752.61
671.595	756.31
672.005	759.07
672.414	758.43
672.824	755.95
673.233	759.9
673.642	761.2
674.052	763.22
674.461	765.5
674.87	769.23
675.279	766.24
675.688	766.99
676.097	767.69
676.506	764.65
676.915	778.52
677.323	781.58
677.732	778.41
678.141	779.07
678.549	768.42
678.958	767.41
679.366	767.44
679.775	771.71
680.183	781.16
680.592	786.14
681	792.44
681.408	784.83
681.816	791.78
682.224	799.96
682.632	808.52
683.04	836.99
683.448	860.01
683.856	889.42
684.264	924.18
684.671	955.92
685.079	993.29
685.487	1034.49
685.894	1094.63
686.302	1143.56
686.709	1184.48
687.116	1232.37
687.524	1270.23
687.931	1304.93
688.338	1333.1
688.745	1355.38
689.152	1382.95
689.559	1423.62
689.966	1464.92
690.373	1480.91
690.78	1518.28
691.187	1579.35
691.593	1623.39
692	1665.73
692.407	1724.91
692.813	1800.93
693.22	1862.2
693.626	1926.33
694.032	1977.43
694.439	2054.32
694.845	2117.06
