Data from C_2_DEC_NC_4N_Splice17_12-26-29-644.txt Node
Date: Sat Mar 14 12:26:29 EDT 2020
User: sa697716
Spectrometer: FLMS03696
Trigger mode: 0
Integration Time (sec): 3.180400E-1
Scans to average: 20
Electric dark correction enabled: true
Nonlinearity correction enabled: true
Boxcar width: 5
XAxis mode: Wavelengths
Number of Pixels in Spectrum: 2048
>>>>>Begin Spectral Data<<<<<
187.83	-409977.07
188.298	2859.26
188.766	1498.02
189.233	1322.3
189.701	1811.8
190.169	2430.44
190.636	894.91
191.104	674.62
191.571	49.56
192.039	-116.04
192.506	-192.48
192.974	217.6
193.441	-301.26
193.908	-51.67
194.375	-35.58
194.842	-51.89
195.31	-65.98
195.777	84.66
196.244	290.2
196.711	390.16
197.177	534.19
197.644	787.07
198.111	1390.92
198.578	1938.87
199.045	1583.28
199.511	2618.78
199.978	3085.94
200.445	2643.38
200.911	2939.29
201.378	3271.22
201.844	2953.14
202.31	5026.67
202.777	5207.92
203.243	2893.7
203.709	2741.84
204.176	3257.38
204.642	2663.11
205.108	2489.39
205.574	2025.76
206.04	1831.76
206.506	1722.53
206.972	1625.54
207.438	1560.35
207.903	1760.01
208.369	1526.25
208.835	1535.01
209.301	1614.53
209.766	1652.11
210.232	1635.73
210.697	2010.17
211.163	2493.1
211.628	3761.29
212.094	3145.53
212.559	3838.42
213.024	2412.78
213.49	2971.05
213.955	2865.97
214.42	2785.35
214.885	2590.08
215.35	2476.55
215.815	2384.57
216.28	2517.24
216.745	2047.95
217.21	2205.9
217.675	2014.32
218.14	2231.82
218.604	2450.38
219.069	2783.27
219.534	2877.77
219.998	3302.25
220.463	3966.09
220.927	4823.15
221.392	4513.15
221.856	4534.51
222.32	5677.09
222.785	6983.39
223.249	8763.78
223.713	9761.07
224.177	9758.21
224.642	12521.38
225.106	15390.12
225.57	16802.35
226.034	12529.31
226.497	19100.88
226.961	17291.91
227.425	20141.42
227.889	22397.02
228.353	22385.86
228.816	46168.69
229.28	44177.1
229.744	37253.94
230.207	22710.5
230.671	22348.63
231.134	36880.03
231.597	42521.97
232.061	42484.58
232.524	41492.34
232.987	28569.92
233.45	25742.27
233.914	23103.4
234.377	23712.95
234.84	21769.16
235.303	25665.21
235.766	28660.17
236.229	29676.38
236.691	18689.01
237.154	21020.91
237.617	15831.56
238.08	16218.42
238.542	18992.85
239.005	13618.05
239.468	13520.21
239.93	12744.57
240.393	11604.08
240.855	10211.23
241.317	10449.15
241.78	12718.41
242.242	13168.12
242.704	14241.29
243.166	12424.74
243.629	11324.53
244.091	13045.54
244.553	14290.04
245.015	15373.67
245.477	19900.28
245.939	29154.17
246.4	31032.03
246.862	30224.89
247.324	28499.26
247.786	31881.51
248.247	41767.96
248.709	43081.53
249.17	32270.71
249.632	30508.41
250.093	35407.42
250.555	30563.1
251.016	18655.73
251.477	17691.16
251.939	19090.99
252.4	20034.26
252.861	23830.87
253.322	22198.1
253.783	26409.99
254.244	34263.94
254.705	26965.38
255.166	23943.5
255.627	23603.66
256.088	33309.76
256.549	35410.53
257.009	30518.23
257.47	37100.12
257.931	30249.85
258.391	22711.62
258.852	23445.83
259.312	24583.94
259.773	30423.47
260.233	25768.75
260.694	21748.48
261.154	24679.32
261.614	19826.41
262.074	17740.53
262.534	18420.63
262.994	17359.7
263.455	23111.92
263.915	19467.87
264.374	18345.28
264.834	20023.77
265.294	22188.54
265.754	23007.91
266.214	21798.53
266.673	20427.41
267.133	25783.91
267.593	25602.43
268.052	31342.07
268.512	27269.83
268.971	32942.99
269.431	36160.58
269.89	32421.89
270.349	48654.95
270.809	54249.37
271.268	48798.69
271.727	109606.06
272.186	71016.16
272.645	53274.4
273.104	38458.99
273.563	55738.61
274.022	43767.05
274.481	37234.42
274.94	28694.62
275.399	21341.82
275.857	24883.01
276.316	33676.83
276.775	29965.82
277.233	29547.27
277.692	27703.54
278.15	31381.85
278.609	32319.91
279.067	30001.35
279.525	27915.9
279.984	36064.14
280.442	43384.73
280.9	42815.19
281.358	28171.52
281.816	26309.75
282.274	25801.66
282.732	26672.85
283.19	26838.68
283.648	23201.75
284.106	24733.87
284.564	25188.75
285.021	23412
285.479	17457.7
285.937	15889.64
286.394	13985.57
286.852	14399.99
287.309	15141.57
287.767	14642.33
288.224	13939.96
288.682	15300.65
289.139	16784.39
289.596	15369.32
290.053	15972.37
290.511	20158.37
290.968	24434.85
291.425	33153.28
291.882	27607.26
292.339	24027.06
292.796	23849.01
293.252	22455.94
293.709	17835.94
294.166	16001.36
294.623	17697.27
295.079	16974.75
295.536	17072.01
295.992	15511.2
296.449	15333.95
296.905	15947.17
297.362	15331.41
297.818	16116.59
298.274	16727.03
298.731	17052.17
299.187	16876.28
299.643	18119.85
300.099	21925.64
300.555	24058.22
301.011	20134.57
301.467	19435.86
301.923	22741.18
302.379	22175.31
302.835	21819.31
303.291	21910.63
303.746	24960.33
304.202	31568.48
304.658	31677.16
305.113	21328.18
305.569	20911.88
306.024	22304.97
306.479	21219.83
306.935	17896.04
307.39	19558.1
307.845	18079.66
308.301	18181.58
308.756	17722.47
309.211	17088.44
309.666	17551.66
310.121	21827.05
310.576	22191
311.031	21998.23
311.486	25213.33
311.94	25222.82
312.395	33763.35
312.85	63498.46
313.305	312293.46
313.759	1618083.41
314.214	117263.85
314.668	92856.52
315.123	78029.45
315.577	27948.21
316.032	24879.92
316.486	31233.04
316.94	24675.27
317.394	17188.32
317.849	13355.21
318.303	12610.79
318.757	11906.36
319.211	13187.97
319.665	11553.03
320.119	11718.35
320.572	16801.73
321.026	15698.92
321.48	13066.15
321.934	14225.38
322.387	14257.49
322.841	15395.2
323.295	13862.63
323.748	15953.42
324.202	16177.01
324.655	19413.67
325.108	27091.12
325.562	19157.32
326.015	22759.72
326.468	17203.52
326.921	19293.76
327.374	17981.99
327.827	18753.21
328.28	21239.01
328.733	14255.94
329.186	12523.45
329.639	11952.13
330.092	10073.74
330.545	9603.77
330.997	9709.76
331.45	10622.45
331.903	12431.1
332.355	21347.13
332.808	20743.33
333.26	17118.11
333.713	18606.99
334.165	18799.89
334.617	25113.63
335.069	20333.76
335.522	36753.41
335.974	40705.38
336.426	37285.53
336.878	25851.5
337.33	13177.92
337.782	12869.74
338.234	16163.43
338.686	19283.99
339.137	22824.91
339.589	21501.81
340.041	16850.92
340.493	14482.54
340.944	14822.51
341.396	15925.38
341.847	13416.32
342.299	15852.05
342.75	19408.22
343.201	16927.88
343.653	19492.36
344.104	24002.11
344.555	18899.3
345.006	29404.02
345.457	22565.06
345.908	17904.32
346.359	16853.86
346.81	13730.78
347.261	14459.5
347.712	14211.36
348.163	15229.15
348.613	15427.13
349.064	14395.93
349.515	12620.4
349.965	12958.66
350.416	15607.5
350.866	17173.45
351.317	19427.99
351.767	32148.66
352.217	40666.9
352.668	33798.66
353.118	30974.06
353.568	29915.91
354.018	23661.22
354.468	24961.98
354.918	17894.06
355.368	15657.52
355.818	22150.82
356.268	63821.8
356.718	268129.43
357.168	66668.24
357.617	33439.27
358.067	37307.36
358.517	34924.73
358.966	40984.62
359.416	46039.91
359.865	49778.16
360.315	59381.73
360.764	27763.15
361.213	15590.84
361.663	14747.46
362.112	18229.23
362.561	29498.9
363.01	22260.14
363.459	18787.34
363.908	20312.69
364.357	17237.27
364.806	29159.35
365.255	20018.82
365.703	18346.47
366.152	18314.97
366.601	14852.55
367.05	12061.75
367.498	10952.6
367.947	11457.01
368.395	11907.47
368.844	10567.89
369.292	12745.74
369.74	8830.97
370.189	13585.55
370.637	15946.78
371.085	13756.87
371.533	16759.95
371.981	16157.34
372.429	15413.58
372.877	16047.66
373.325	13460.5
373.773	13704.98
374.221	12205.24
374.669	15132.09
375.116	13049.79
375.564	13118.94
376.012	14708.19
376.459	12154
376.907	14554.45
377.354	17656.5
377.801	16502.85
378.249	18957.7
378.696	24248.93
379.143	29419.48
379.591	31425.57
380.038	53201.83
380.485	38652.6
380.932	41842.85
381.379	38269.97
381.826	28223.75
382.273	20056.66
382.72	17531.41
383.166	17107.47
383.613	11111.29
384.06	10008.6
384.506	11591.73
384.953	8523.73
385.4	8568.37
385.846	7515.37
386.292	7339.47
386.739	7174.43
387.185	7088.8
387.631	7095.22
388.078	6906.17
388.524	7404.78
388.97	6858.23
389.416	5725.35
389.862	6080.32
390.308	5770.83
390.754	5857.02
391.2	6367.92
391.645	6524.93
392.091	6266.93
392.537	6071.17
392.983	6077.67
393.428	5981.73
393.874	6405.78
394.319	6434.41
394.765	6127.53
395.21	6303.36
395.655	5925
396.101	5539.6
396.546	5006.96
396.991	5050.26
397.436	4691.12
397.881	4533.77
398.326	4302.47
398.771	4089.96
399.216	3577.72
399.661	3223.52
400.106	3214.23
400.551	3295.64
400.995	2963.08
401.44	2931.42
401.885	2747.86
402.329	2779.48
402.774	2670.73
403.218	2588.5
403.663	2491.45
404.107	2562.73
404.551	2578.04
404.995	2361.82
405.44	2273.67
405.884	2303.11
406.328	2226.94
406.772	2224.62
407.216	2028.33
407.66	1960.01
408.104	1858.68
408.547	1738.13
408.991	1681.72
409.435	1622.63
409.879	1604.82
410.322	1584.66
410.766	1534.17
411.209	1463.76
411.653	1408.44
412.096	1379.29
412.54	1379.36
412.983	1372.44
413.426	1378.88
413.869	1379.09
414.312	1356.41
414.756	1305.9
415.199	1247.22
415.642	1211.63
416.085	1213.8
416.527	1205.15
416.97	1225.06
417.413	1163.15
417.856	1149.73
418.298	1138.54
418.741	1129.95
419.184	1124.07
419.626	1170.99
420.069	1169.6
420.511	1178.38
420.953	1152.9
421.396	1142.43
421.838	1113.19
422.28	1137.86
422.722	1144.73
423.164	1159.73
423.606	1142.08
424.048	1142.18
424.49	1085.87
424.932	1080.88
425.374	1063.83
425.816	1080.69
426.258	1100.44
426.699	1110.63
427.141	1095.6
427.582	1112.43
428.024	1108.6
428.465	1101.36
428.907	1072.64
429.348	1057.74
429.789	1057.13
430.231	1035.58
430.672	1050.9
431.113	1027.02
431.554	1013.85
431.995	989.38
432.436	954.19
432.877	931.93
433.318	915.87
433.759	914.27
434.2	916.79
434.64	906.7
435.081	910.43
435.522	862.05
435.962	831.86
436.403	814.47
436.843	824.94
437.284	808.91
437.724	787.35
438.164	790.61
438.604	771.57
439.045	744.3
439.485	717.03
439.925	701.29
440.365	686.14
440.805	677.77
441.245	671.49
441.685	650.25
442.125	647
442.564	653.33
443.004	639.17
443.444	640.12
443.883	641.95
444.323	637.85
444.762	640.86
445.202	648.91
445.641	664.54
446.081	659.52
446.52	662.21
446.959	654.02
447.398	638.21
447.837	631.83
448.276	621.06
448.716	626.73
449.154	634.42
449.593	621.2
450.032	621.75
450.471	609.28
450.91	613.3
451.349	615.98
451.787	616.35
452.226	628.34
452.664	630.32
453.103	632.33
453.541	632.76
453.98	631.72
454.418	636.59
454.856	627.8
455.295	627.2
455.733	631.41
456.171	635.11
456.609	637.14
457.047	636.36
457.485	645.03
457.923	647.73
458.361	640.35
458.798	642.09
459.236	640.79
459.674	645.11
460.111	648.39
460.549	642.19
460.987	639.92
461.424	637.51
461.862	634.65
462.299	625.56
462.736	623.82
463.173	625.48
463.611	620.8
464.048	619.39
464.485	625.03
464.922	619.67
465.359	616.38
465.796	609.2
466.233	604.97
466.67	600.12
467.106	599.29
467.543	593.93
467.98	586.75
468.416	570.37
468.853	566.07
469.29	548.83
469.726	544
470.162	530.76
470.599	522.76
471.035	517.77
471.471	506.32
471.907	503.13
472.344	499.86
472.78	501.29
473.216	507.72
473.652	501.93
474.088	500.62
474.523	497.34
474.959	502.33
475.395	498.29
475.831	495.54
476.266	497.02
476.702	495.44
477.138	490.68
477.573	488.6
478.008	487.12
478.444	490.3
478.879	495.93
479.314	499.74
479.75	499.85
480.185	502.03
480.62	507.08
481.055	510.54
481.49	516.06
481.925	523.76
482.36	533.9
482.795	549.13
483.229	563.27
483.664	575.39
484.099	577.48
484.534	586.21
484.968	592.84
485.403	594.58
485.837	594.09
486.271	592.91
486.706	594.86
487.14	588.82
487.574	580.61
488.009	576.64
488.443	571.58
488.877	578.85
489.311	582.15
489.745	591.52
490.179	598.5
490.613	611.39
491.046	617.55
491.48	623.15
491.914	626.35
492.348	632.27
492.781	637.77
493.215	641.77
493.648	644.94
494.082	652.11
494.515	653.59
494.948	663.59
495.382	670.64
495.815	678.3
496.248	686.41
496.681	700.75
497.114	714.36
497.547	727.04
497.98	742.04
498.413	751.14
498.846	763.2
499.279	774.16
499.711	781
500.144	785.99
500.577	798.96
501.009	812.89
501.442	826.32
501.874	831.77
502.306	837.51
502.739	849.93
503.171	868.64
503.603	875.98
504.036	890.22
504.468	899.35
504.9	915.28
505.332	925.42
505.764	933.53
506.196	944.07
506.627	962.64
507.059	979.55
507.491	991.74
507.923	992.28
508.354	1010.53
508.786	1024.76
509.217	1046.93
509.649	1064.78
510.08	1088.15
510.512	1109.52
510.943	1128.47
511.374	1143.72
511.805	1168.53
512.237	1192.22
512.668	1230.21
513.099	1262.12
513.53	1293.83
513.961	1318.84
514.391	1355.17
514.822	1392.52
515.253	1432.38
515.684	1460.95
516.114	1492.85
516.545	1516.22
516.975	1544.75
517.406	1564.08
517.836	1567.14
518.267	1574.17
518.697	1593.21
519.127	1598.76
519.558	1606.12
519.988	1609.73
520.418	1621.65
520.848	1642.09
521.278	1651.84
521.708	1667.1
522.138	1679.97
522.567	1713.36
522.997	1740.67
523.427	1757.33
523.857	1774.38
524.286	1785.93
524.716	1801.68
525.145	1821.34
525.575	1831.91
526.004	1846.79
526.433	1842.2
526.863	1842.04
527.292	1830.94
527.721	1835.71
528.15	1841.58
528.579	1841.96
529.008	1853.69
529.437	1878.74
529.866	1892.91
530.295	1911.56
530.724	1925.08
531.152	1954.57
531.581	1970.15
532.01	1989.05
532.438	1999.62
532.867	2014.81
533.295	2036.2
533.723	2041.65
534.152	2039.32
534.58	2040.64
535.008	2022.97
535.436	2025.32
535.865	2033.45
536.293	2049.59
536.721	2067.81
537.149	2095.83
537.576	2099.78
538.004	2114.4
538.432	2124.92
538.86	2123.37
539.287	2129.91
539.715	2146.57
540.143	2149.77
540.57	2146.33
540.998	2142.58
541.425	2116.5
541.852	2092.87
542.28	2090.89
542.707	2071.45
543.134	2055.36
543.561	2049.99
543.988	2042.87
544.415	2041.33
544.842	2034.61
545.269	2027.07
545.696	2028.89
546.123	2043.39
546.549	2032.06
546.976	2018.35
547.403	2017.81
547.829	2020.42
548.256	2023.07
548.682	2018.35
549.108	2009.56
549.535	2009.91
549.961	2011.58
550.387	1998.13
550.813	1992.16
551.24	1998.92
551.666	2000.08
552.092	1989.26
552.518	1981.68
552.943	1974.59
553.369	1983.07
553.795	1990.44
554.221	1991.27
554.646	1988.65
555.072	2001
555.498	2007.77
555.923	2018.26
556.349	2036.65
556.774	2047
557.199	2049.42
557.625	2057.23
558.05	2051.9
558.475	2063.42
558.9	2063.16
559.325	2053.69
559.75	2046.68
560.175	2039.85
560.6	2033.73
561.025	2031.17
561.449	2034.09
561.874	2041.37
562.299	2048.18
562.723	2056.83
563.148	2046.23
563.572	2052.47
563.997	2065.2
564.421	2072.99
564.846	2075.16
565.27	2081.19
565.694	2079.38
566.118	2093.41
566.542	2103.14
566.966	2097.39
567.39	2092.99
567.814	2083.96
568.238	2084.88
568.662	2092.71
569.086	2096.01
569.509	2105.19
569.933	2088.27
570.357	2081.71
570.78	2059.12
571.204	2044.93
571.627	2033.26
572.05	2032.35
572.474	2031.63
572.897	2018.21
573.32	2010.93
573.743	2001.6
574.166	1981.51
574.589	1982.48
575.012	1975.34
575.435	1975.22
575.858	1966.06
576.281	1954.44
576.704	1938.19
577.126	1926.61
577.549	1915.26
577.972	1904.08
578.394	1892.55
578.817	1884.86
579.239	1864.85
579.661	1849.63
580.084	1831.56
580.506	1816.78
580.928	1812.69
581.35	1799.37
581.772	1793.55
582.194	1778.95
582.616	1765.26
583.038	1750.11
583.46	1738.98
583.882	1734.82
584.303	1739.66
584.725	1736.88
585.147	1740.12
585.568	1751.86
585.99	1766.94
586.411	1775.32
586.833	1793.04
587.254	1794.95
587.675	1811.22
588.096	1824.93
588.518	1819.64
588.939	1800.38
589.36	1797.99
589.781	1785.78
590.202	1754.4
590.623	1744.5
591.043	1742.14
591.464	1726.32
591.885	1721.64
592.305	1714.4
592.726	1699.95
593.147	1701.55
593.567	1696.8
593.987	1687.98
594.408	1682.43
594.828	1680.12
595.248	1673.34
595.669	1651.6
596.089	1644.32
596.509	1637.63
596.929	1622.91
597.349	1624.03
597.769	1612.57
598.189	1604.75
598.608	1604.88
599.028	1606.96
599.448	1606.89
599.867	1591.95
600.287	1587.74
600.706	1582.56
601.126	1570.57
601.545	1568.7
601.965	1566.9
602.384	1561.21
602.803	1565.33
603.222	1560.61
603.641	1552.92
604.061	1549.2
604.48	1545.4
604.898	1554.41
605.317	1560.14
605.736	1562.84
606.155	1560.13
606.574	1550.17
606.992	1556.66
607.411	1550.76
607.829	1541.21
608.248	1538.21
608.666	1535.22
609.085	1533.89
609.503	1524.77
609.921	1518.13
610.339	1521.7
610.758	1521.55
611.176	1515.85
611.594	1505.22
612.012	1501.72
612.43	1505.72
612.847	1513.23
613.265	1514.4
613.683	1520.68
614.101	1522.41
614.518	1517.71
614.936	1505.27
615.353	1488.55
615.771	1485.63
616.188	1486.5
616.606	1481.97
617.023	1474.43
617.44	1457.42
617.857	1449.73
618.274	1438.62
618.691	1431.49
619.108	1421.48
619.525	1415.34
619.942	1422.3
620.359	1425.64
620.776	1420.18
621.192	1416.48
621.609	1414.57
622.026	1422.51
622.442	1428.91
622.859	1433.73
623.275	1425.15
623.691	1431.53
624.108	1443.93
624.524	1459.56
624.94	1457.96
625.356	1468.46
625.772	1482.3
626.188	1494.53
626.604	1496.59
627.02	1492.75
627.436	1490.58
627.852	1499.09
628.268	1511.35
628.683	1502.08
629.099	1492.46
629.514	1488.2
629.93	1492.56
630.345	1498.72
630.761	1494.43
631.176	1499.04
631.591	1491.41
632.007	1484.4
632.422	1481.17
632.837	1469.01
633.252	1465.77
633.667	1453.29
634.082	1441.97
634.497	1425.39
634.911	1401.18
635.326	1395.55
635.741	1372.73
636.155	1359.78
636.57	1359.32
636.984	1357.01
637.399	1355.46
637.813	1351.89
638.228	1351.02
638.642	1352.22
639.056	1340.07
639.47	1337.17
639.884	1326.32
640.298	1317.73
640.712	1314.62
641.126	1298.18
641.54	1285.13
641.954	1278.3
642.368	1261.93
642.781	1249.17
643.195	1228.42
643.609	1226.2
644.022	1216.73
644.436	1208.75
644.849	1192.64
645.262	1176.76
645.676	1175.63
646.089	1167.47
646.502	1147.07
646.915	1139.21
647.328	1118.08
647.741	1113.7
648.154	1096.33
648.567	1091.35
648.98	1075.62
649.393	1074.24
649.805	1069.38
650.218	1059.34
650.631	1042.2
651.043	1035.07
651.456	1026.26
651.868	1026.36
652.28	1042.76
652.693	1054.93
653.105	1060.07
653.517	1068.78
653.929	1068.11
654.341	1071.98
654.753	1057.87
655.165	1062.49
655.577	1058.04
655.989	1052.53
656.401	1040.85
656.813	1001.62
657.224	979.61
657.636	948.39
658.047	928.35
658.459	905.52
658.87	893.18
659.282	878.9
659.693	855.95
660.104	838.69
660.515	821.93
660.926	817.85
661.338	811.64
661.749	801.12
662.159	789.39
662.57	779.79
662.981	771.73
663.392	760.38
663.803	759.3
664.213	752.15
664.624	743.44
665.035	742.06
665.445	724.02
665.855	713.38
666.266	702.83
666.676	696.45
667.086	684.86
667.497	681.21
667.907	672.68
668.317	661.46
668.727	656.42
669.137	653.6
669.547	649.22
669.956	649.33
670.366	648.27
670.776	647.95
671.186	648.42
671.595	650.28
672.005	650.78
672.414	650.26
672.824	647.73
673.233	648.5
673.642	650.98
674.052	653.1
674.461	653.83
674.87	655.55
675.279	652.38
675.688	653.29
676.097	651.98
676.506	648.68
676.915	659.05
677.323	661.75
677.732	661.66
678.141	661.45
678.549	651.56
678.958	651.86
679.366	653.59
679.775	659.32
680.183	671.62
680.592	680.86
681	689.41
681.408	686.94
681.816	697.45
682.224	709.09
682.632	723.73
683.04	756.95
683.448	785.56
683.856	822.34
684.264	863.64
684.671	902.25
685.079	950.78
685.487	1003.43
685.894	1074.87
686.302	1135.35
686.709	1189.55
687.116	1250.74
687.524	1305.41
687.931	1353.59
688.338	1396.2
688.745	1434.11
689.152	1476.02
689.559	1527.72
689.966	1580.81
690.373	1609.61
690.78	1660.02
691.187	1731.88
691.593	1787.52
692	1834.66
692.407	1905.18
692.813	1988.57
693.22	2056.01
693.626	2125.49
694.032	2180.36
694.439	2263.4
694.845	2327.5
695.251	2407.44
695.657	2478.54
696.063	2584.56
696.469	2663.75
