Data from C_2_DIV_OH_2N_Splice17_12-22-42-122.txt Node
Date: Sat Mar 14 12:22:42 EDT 2020
User: sa697716
Spectrometer: FLMS03696
Trigger mode: 0
Integration Time (sec): 3.180400E-1
Scans to average: 20
Electric dark correction enabled: true
Nonlinearity correction enabled: true
Boxcar width: 5
XAxis mode: Wavelengths
Number of Pixels in Spectrum: 2048
>>>>>Begin Spectral Data<<<<<
187.83	-284056.07
188.298	1964.45
188.766	1069.94
189.233	1039.04
189.701	1540.56
190.169	2121.3
190.636	720.03
191.104	583.46
191.571	48.29
192.039	-85.8
192.506	-84.52
192.974	547.21
193.441	-1184.15
193.908	-522.69
194.375	-58.28
194.842	55.4
195.31	119.48
195.777	133.57
196.244	296.09
196.711	377.31
197.177	496.36
197.644	722.86
198.111	1290.6
198.578	1808.37
199.045	1429.78
199.511	2290.65
199.978	2666.84
200.445	2266.57
200.911	2504.61
201.378	2835.06
201.844	2541.69
202.31	4302.43
202.777	4484.86
203.243	2449.37
203.709	2330.86
204.176	2800.2
204.642	2320.9
205.108	2147.79
205.574	1766.04
206.04	1610.8
206.506	1501.57
206.972	1418.98
207.438	1368.79
207.903	1539.75
208.369	1366.38
208.835	1368.66
209.301	1425.75
209.766	1454.16
210.232	1451.96
210.697	1790.15
211.163	2206.56
211.628	3347.64
212.094	2829.48
212.559	3520.51
213.024	2216.69
213.49	2717.27
213.955	2663.09
214.42	2599.68
214.885	2427.06
215.35	2349.62
215.815	2275.01
216.28	2410.42
216.745	1963.05
217.21	2132.24
217.675	1956.08
218.14	2196.73
218.604	2474.16
219.069	2841.38
219.534	3019.87
219.998	3554.29
220.463	4332.79
220.927	5379.02
221.392	5113.55
221.856	5198.56
222.32	6576.7
222.785	8181.56
223.249	10384.06
223.713	11605.39
224.177	11692.91
224.642	15033.22
225.106	18532.06
225.57	20282
226.034	15134.04
226.497	23050.53
226.961	20890.63
227.425	24403.44
227.889	27118.3
228.353	27133.33
228.816	56176.24
229.28	53696.54
229.744	45408.23
230.207	27645.26
230.671	27248.41
231.134	45113.78
231.597	52111.81
232.061	52231.05
232.524	50998.14
232.987	35204.77
233.45	31777.81
233.914	28524.63
234.377	29299.26
234.84	26851.54
235.303	31683.97
235.766	35448.42
236.229	36641.35
236.691	23123.43
237.154	26004.22
237.617	19601.6
238.08	20083.21
238.542	23519.77
239.005	16866.2
239.468	16747.67
239.93	15819.62
240.393	14411.79
240.855	12668.8
241.317	12992.52
241.78	15832.22
242.242	16395.46
242.704	17739.27
243.166	15471.98
243.629	14086.04
244.091	16255.43
244.553	17843.36
245.015	19199.47
245.477	24854.83
245.939	36493.64
246.4	38808.28
246.862	37777.97
247.324	35653.94
247.786	39931.06
248.247	52436.7
248.709	54149.77
249.17	40531
249.632	38285.71
250.093	44413.75
250.555	38425.62
251.016	23457.67
251.477	22287.04
251.939	24057.46
252.4	25281.78
252.861	30109.85
253.322	28027.74
253.783	33379.86
254.244	43313.93
254.705	34150.49
255.166	30402.77
255.627	29950.64
256.088	42250.92
256.549	44887.73
257.009	38670.49
257.47	46953.21
257.931	38178.34
258.391	28640.6
258.852	29537.06
259.312	30967.57
259.773	38262.24
260.233	32362.8
260.694	27297.49
261.154	30996.73
261.614	24887.26
262.074	22291
262.534	23158.33
262.994	21860.95
263.455	29129.04
263.915	24565.98
264.374	23159.8
264.834	25314.97
265.294	28040.37
265.754	29066.14
266.214	27488.55
266.673	25760.43
267.133	32518.66
267.593	32283.91
268.052	39521.21
268.512	34406.75
268.971	41503.07
269.431	45515.26
269.89	40749.76
270.349	61158.51
270.809	68174.07
271.268	61375.97
271.727	137668.86
272.186	89133.05
272.645	66844.58
273.104	48222.18
273.563	69798.9
274.022	54893.18
274.481	46715.45
274.94	35999.05
275.399	26749.94
275.857	31172.07
276.316	42118.47
276.775	37513.86
277.233	36961.11
277.692	34608.52
278.15	39163.8
278.609	40271.15
279.067	37241.38
279.525	34580.08
279.984	44702.73
280.442	53686.3
280.9	52911.92
281.358	34844.39
281.816	32469.54
282.274	31812.26
282.732	32868.68
283.19	33014.29
283.648	28511.54
284.106	30393.68
284.564	30921.95
285.021	28633.57
285.479	21311.32
285.937	19407.03
286.394	17023.59
286.852	17500.43
287.309	18376.83
287.767	17743.86
288.224	16885.66
288.682	18517.03
289.139	20354.27
289.596	18624.31
290.053	19354.89
290.511	24483.41
290.968	29672.09
291.425	40292.26
291.882	33580.12
292.339	29248
292.796	29050.05
293.252	27388.26
293.709	21759.54
294.166	19491.63
294.623	21560.64
295.079	20682.91
295.536	20775.82
295.992	18845.84
296.449	18626.21
296.905	19381.32
297.362	18585.53
297.818	19544.08
298.274	20261.79
298.731	20650.6
299.187	20436.75
299.643	21926.43
300.099	26564.72
300.555	29128.71
301.011	24340.42
301.467	23441.89
301.923	27401.1
302.379	26745.61
302.835	26272.79
303.291	26286.96
303.746	29897.57
304.202	37808.29
304.658	37989.62
305.113	25538.85
305.569	25033.7
306.024	26716.63
306.479	25499.55
306.935	21506.76
307.39	23511
307.845	21722.99
308.301	21911.68
308.756	21365.02
309.211	20570.39
309.666	21056.47
310.121	26137.66
310.576	26530.37
311.031	26356.37
311.486	30163.57
311.94	30128.94
312.395	40259.42
312.85	75716.81
313.305	371466.41
313.759	1926888.12
314.214	139451.44
314.668	110649.37
315.123	93081.82
315.577	33386.09
316.032	29667.16
316.486	37201.91
316.94	29343.79
317.394	20454.02
317.849	15886.49
318.303	15054.29
318.757	14191.87
319.211	15712.71
319.665	13756.59
320.119	13928.77
320.572	20022.91
321.026	18708.8
321.48	15575.95
321.934	17020.59
322.387	17066.83
322.841	18426.37
323.295	16568.59
323.748	19104.79
324.202	19401.38
324.655	23308.13
325.108	32582.8
325.562	22999.41
326.015	27366.78
326.468	20674.48
326.921	23128.83
327.374	21575.81
327.827	22529.92
328.28	25515.32
328.733	17106.69
329.186	15030.71
329.639	14355.01
330.092	12101
330.545	11524.1
330.997	11618.73
331.45	12703.81
331.903	14877.51
332.355	25607.68
332.808	24874.01
333.26	20558.93
333.713	22301.26
334.165	22471.72
334.617	29980.76
335.069	24243.98
335.522	43838.48
335.974	48610.69
336.426	44448.3
336.878	30771.91
337.33	15594.12
337.782	15245.56
338.234	19074.24
338.686	22869.32
339.137	27135.18
339.589	25568.84
340.041	20005.58
340.493	17206
340.944	17622.86
341.396	19010.89
341.847	16047.06
342.299	18966.22
342.75	23140.55
343.201	20245.57
343.653	23262.33
344.104	28605.83
344.555	22537.41
345.006	35211.66
345.457	26996.1
345.908	21475.71
346.359	20210.13
346.81	16453.95
347.261	17337
347.712	17079.46
348.163	18320.85
348.613	18553.81
349.064	17338.16
349.515	15177.69
349.965	15557.88
350.416	18763
350.866	20594.88
351.317	23279.94
351.767	38551.62
352.217	48728.14
352.668	40458.35
353.118	37044.77
353.568	35771.58
354.018	28271.2
354.468	29782.12
354.918	21328.71
355.368	18677.73
355.818	26396.94
356.268	76040.84
356.718	318038.93
357.168	79272.72
357.617	39804.12
358.067	44274.64
358.517	41422.11
358.966	48625.81
359.416	54654.82
359.865	59313.81
360.315	70618.1
360.764	33021.14
361.213	18483.49
361.663	17559.34
362.112	21658.61
362.561	35001.37
363.01	26440.46
363.459	22362.02
363.908	24198.3
364.357	20593.46
364.806	34792.87
365.255	23950.33
365.703	21936.71
366.152	22022.29
366.601	17891.02
367.05	14551.1
367.498	13248.03
367.947	13849.93
368.395	14408.07
368.844	12787.6
369.292	15406.14
369.74	10656.34
370.189	16359.68
370.637	19229.21
371.085	16642.1
371.533	20274.62
371.981	19589.09
372.429	18689.96
372.877	19535.54
373.325	16402.57
373.773	16763.57
374.221	14981.63
374.669	18644.58
375.116	16186.39
375.564	16374.7
376.012	18372.26
376.459	15206.87
376.907	18295.33
377.354	22248.35
377.801	20843.8
378.249	24029.48
378.696	30854.23
379.143	37658.57
379.591	40413.21
380.038	68759.07
380.485	50015.56
380.932	54300.6
381.379	50020.02
381.826	37007.52
382.273	26542.66
382.72	23415.66
383.166	23014.65
383.613	15072.02
384.06	13689.25
384.506	15985.84
384.953	11827.17
385.4	12016.33
385.846	10636.7
386.292	10488.11
386.739	10373.92
387.185	10336.16
387.631	10431.6
388.078	10225.19
388.524	11043.82
388.97	10297.17
389.416	8658.57
389.862	9301.61
390.308	8888.49
390.754	9102.34
391.2	9947.83
391.645	10258.72
392.091	9884.11
392.537	9633.56
392.983	9720.73
393.428	9620.12
393.874	10400.46
394.319	10500.49
394.765	10016.22
395.21	10376.58
395.655	9806.72
396.101	9238.19
396.546	8392.96
396.991	8535.94
397.436	7972.6
397.881	7748.69
398.326	7380.01
398.771	6997.06
399.216	6154.77
399.661	5571.89
400.106	5572.58
400.551	5715.97
400.995	5150.74
401.44	5108.11
401.885	4812.24
402.329	4876.44
402.774	4687.62
403.218	4545.15
403.663	4392.82
404.107	4527.35
404.551	4570.21
404.995	4199.06
405.44	4058.83
405.884	4126.67
406.328	4003.63
406.772	3996.55
407.216	3642.68
407.66	3524.53
408.104	3356.06
408.547	3145.86
408.991	3046.14
409.435	2932.3
409.879	2890.65
410.322	2853.72
410.766	2756.8
411.209	2619.3
411.653	2512.54
412.096	2457.87
412.54	2462.66
412.983	2443.36
413.426	2447.63
413.869	2444.6
414.312	2394.77
414.756	2308.83
415.199	2199.84
415.642	2134.35
416.085	2135.71
416.527	2122.74
416.97	2157.75
417.413	2043.41
417.856	2023.04
418.298	2001.33
418.741	1988.47
419.184	1984.24
419.626	2068.6
420.069	2067.14
420.511	2076.71
420.953	2029.6
421.396	2009.43
421.838	1956.77
422.28	1999.92
422.722	2007.26
423.164	2036.15
423.606	1999.76
424.048	1997.34
424.49	1894.1
424.932	1888
425.374	1861.85
425.816	1895.02
426.258	1931.38
426.699	1950.81
427.141	1920.11
427.582	1951.07
428.024	1939.66
428.465	1928.16
428.907	1879.01
429.348	1858.82
429.789	1852.59
430.231	1810.12
430.672	1832.11
431.113	1785.64
431.554	1759.18
431.995	1713.17
432.436	1648.97
432.877	1608.95
433.318	1577.64
433.759	1570.43
434.2	1565.88
434.64	1549.04
435.081	1553.15
435.522	1471.39
435.962	1417.61
436.403	1386
436.843	1406.94
437.284	1375.59
437.724	1343.51
438.164	1349.1
438.604	1321.19
439.045	1272.64
439.485	1220.27
439.925	1195.96
440.365	1167.55
440.805	1155.38
441.245	1140.72
441.685	1101.16
442.125	1095.91
442.564	1103.43
443.004	1080.55
443.444	1080.07
443.883	1083.36
444.323	1077.63
444.762	1083.39
445.202	1099.71
445.641	1117.82
446.081	1115.84
446.52	1127.57
446.959	1118.32
447.398	1090.26
447.837	1077.94
448.276	1059.43
448.716	1070.46
449.154	1082.64
449.593	1058.14
450.032	1056.34
450.471	1041.35
450.91	1044.01
451.349	1041.51
451.787	1038.55
452.226	1056.57
452.664	1057.62
453.103	1061.07
453.541	1062.4
453.98	1061.51
454.418	1069.94
454.856	1054.07
455.295	1053.26
455.733	1061.01
456.171	1068.51
456.609	1071.59
457.047	1072.9
457.485	1088.52
457.923	1091.62
458.361	1077.1
458.798	1082.99
459.236	1081.76
459.674	1090.03
460.111	1096.32
460.549	1086.95
460.987	1085.22
461.424	1083.03
461.862	1079.14
462.299	1064.65
462.736	1064.14
463.173	1068.36
463.611	1053.85
464.048	1050.48
464.485	1059.36
464.922	1049.68
465.359	1045.46
465.796	1024.79
466.233	1014.84
466.67	1003.73
467.106	1000.98
467.543	991.03
467.98	978.3
468.416	954.8
468.853	948.51
469.29	921.21
469.726	910.12
470.162	886.21
470.599	879.19
471.035	872.2
471.471	851.62
471.907	846.69
472.344	841.33
472.78	843.07
473.216	854.62
473.652	843.84
474.088	840.82
474.523	837.35
474.959	844.74
475.395	836.26
475.831	830.91
476.266	834.66
476.702	832.54
477.138	823.28
477.573	820.43
478.008	816.57
478.444	819.97
478.879	826.85
479.314	830.96
479.75	829.81
480.185	834.96
480.62	842.61
481.055	846.75
481.49	853.3
481.925	866.07
482.36	881.81
482.795	907.94
483.229	934.07
483.664	956.28
484.099	962.43
484.534	980.47
484.968	990.85
485.403	996.76
485.837	999.81
486.271	1001.33
486.706	1005.95
487.14	997.96
487.574	984.35
488.009	977.43
488.443	971.16
488.877	982.07
489.311	986.97
489.745	1001.02
490.179	1012.36
490.613	1032.06
491.046	1044.05
491.48	1053.29
491.914	1057.97
492.348	1068.83
492.781	1078.28
493.215	1084.1
493.648	1090.52
494.082	1102.21
494.515	1106.5
494.948	1121.33
495.382	1132.84
495.815	1142.32
496.248	1153.89
496.681	1176.11
497.114	1196.94
497.547	1215.35
497.98	1237.91
498.413	1248.71
498.846	1266.59
499.279	1283.42
499.711	1292.08
500.144	1297.91
500.577	1315.15
501.009	1335
501.442	1350.8
501.874	1353.63
502.306	1357.78
502.739	1368.56
503.171	1392.36
503.603	1397.19
504.036	1411.38
504.468	1420.27
504.9	1436.74
505.332	1446.13
505.764	1449.72
506.196	1459.71
506.627	1479.37
507.059	1497.45
507.491	1508.42
507.923	1500.85
508.354	1519.76
508.786	1530.61
509.217	1552.39
509.649	1568.04
510.08	1590
510.512	1608.19
510.943	1622.31
511.374	1630.93
511.805	1653.23
512.237	1675.04
512.668	1715.29
513.099	1744.74
513.53	1774.87
513.961	1793.88
514.391	1829.46
514.822	1864.76
515.253	1904.64
515.684	1929.26
516.114	1958.76
516.545	1974.05
516.975	1996.13
517.406	2006.95
517.836	1996.74
518.267	1991.23
518.697	2002.54
519.127	1995.69
519.558	1993.45
519.988	1985.53
520.418	1985.96
520.848	1996.94
521.278	1996.91
521.708	1994.57
522.138	2000.05
522.567	2029.74
522.997	2051.11
523.427	2060.81
523.857	2072.15
524.286	2074.18
524.716	2082.54
525.145	2096.48
525.575	2100.06
526.004	2108.33
526.433	2101.16
526.863	2092.84
527.292	2071.54
527.721	2070.38
528.15	2068.84
528.579	2063.17
529.008	2069.14
529.437	2090.69
529.866	2102.31
530.295	2117.71
530.724	2127.16
531.152	2154.04
531.581	2165.31
532.01	2181.99
532.438	2187.97
532.867	2201.82
533.295	2218.98
533.723	2224.7
534.152	2218.97
534.58	2214.85
535.008	2194.05
535.436	2193.79
535.865	2201.4
536.293	2217.85
536.721	2235.6
537.149	2265.2
537.576	2266.31
538.004	2280.48
538.432	2288.2
538.86	2284.55
539.287	2293.2
539.715	2309.5
540.143	2311.77
540.57	2307.22
540.998	2301.07
541.425	2272.26
541.852	2245.73
542.28	2243.93
542.707	2223.98
543.134	2206.4
543.561	2201.75
543.988	2191.12
544.415	2188.66
544.842	2181.78
545.269	2172.4
545.696	2174.2
546.123	2189.94
546.549	2177.16
546.976	2159.82
547.403	2157.87
547.829	2159.23
548.256	2160.86
548.682	2155.42
549.108	2145.27
549.535	2143.86
549.961	2144.43
550.387	2127.56
550.813	2119.21
551.24	2126.67
551.666	2129.29
552.092	2117.76
552.518	2109.92
552.943	2103.3
553.369	2112.52
553.795	2119.7
554.221	2122.49
554.646	2121
555.072	2135.02
555.498	2143.9
555.923	2155.56
556.349	2175.14
556.774	2188.73
557.199	2194.34
557.625	2205.22
558.05	2201.66
558.475	2217.13
558.9	2218.6
559.325	2211.78
559.75	2208
560.175	2203.78
560.6	2201.96
561.025	2203.49
561.449	2207.49
561.874	2218.68
562.299	2227.65
562.723	2241.39
563.148	2235.36
563.572	2246.34
563.997	2263.9
564.421	2277.08
564.846	2284.77
565.27	2294.72
565.694	2299
566.118	2322.72
566.542	2338.9
566.966	2339.23
567.39	2342.74
567.814	2336.94
568.238	2345.07
568.662	2362.74
569.086	2376.29
569.509	2394.63
569.933	2384.46
570.357	2384.64
570.78	2366.25
571.204	2358.7
571.627	2353.67
572.05	2360
572.474	2368.66
572.897	2359.88
573.32	2356.76
573.743	2351.59
574.166	2334.4
574.589	2342.18
575.012	2339.1
575.435	2344.45
575.858	2338.41
576.281	2330.15
576.704	2314.73
577.126	2305.12
577.549	2297.79
577.972	2291.15
578.394	2283.55
578.817	2278.74
579.239	2259.28
579.661	2246.36
580.084	2229.77
580.506	2217.34
580.928	2217.17
581.35	2207.44
581.772	2207.01
582.194	2193.57
582.616	2179.8
583.038	2163.8
583.46	2154.63
583.882	2153.86
584.303	2166.05
584.725	2164.73
585.147	2168.69
585.568	2188.64
585.99	2210.81
586.411	2223.01
586.833	2247.63
587.254	2254.23
587.675	2278.21
588.096	2299.53
588.518	2295.32
588.939	2272.29
589.36	2273.51
589.781	2266.2
590.202	2225.73
590.623	2215.8
591.043	2216.26
591.464	2199.94
591.885	2196.22
592.305	2190.77
592.726	2173.52
593.147	2178.87
593.567	2173.52
593.987	2164.15
594.408	2157.67
594.828	2158.57
595.248	2150.53
595.669	2124.53
596.089	2116.52
596.509	2110.33
596.929	2092.23
597.349	2095.04
597.769	2081.15
598.189	2074.76
598.608	2079.01
599.028	2083.5
599.448	2085.84
599.867	2070.08
600.287	2066.77
600.706	2061.85
601.126	2048.34
601.545	2047.19
601.965	2047.34
602.384	2041.75
602.803	2048.29
603.222	2042.88
603.641	2036.93
604.061	2033.75
604.48	2031.04
604.898	2046.8
605.317	2058.38
605.736	2066.2
606.155	2066.77
606.574	2058.45
606.992	2072
607.411	2069.72
607.829	2063.38
608.248	2064.46
608.666	2067.24
609.085	2071.87
609.503	2064.06
609.921	2060.71
610.339	2070.24
610.758	2076.12
611.176	2074.23
611.594	2065.85
612.012	2066.07
612.43	2076.6
612.847	2092.71
613.265	2098.38
613.683	2111.57
614.101	2119.77
614.518	2120.34
614.936	2109.84
615.353	2091.44
615.771	2092.88
616.188	2099.52
616.606	2099.85
617.023	2093.21
617.44	2074.16
617.857	2070.22
618.274	2061.39
618.691	2056.17
619.108	2045.22
619.525	2040.35
619.942	2055.29
620.359	2063.37
620.776	2058.1
621.192	2055.12
621.609	2055.26
622.026	2068.99
622.442	2081.02
622.859	2089.91
623.275	2081.27
623.691	2092.72
624.108	2113.61
624.524	2140.58
624.94	2143.9
625.356	2162.83
625.772	2187.09
626.188	2209.72
626.604	2214.23
627.02	2208.68
627.436	2206.08
627.852	2217.62
628.268	2239.37
628.683	2225.94
629.099	2213.08
629.514	2205.19
629.93	2211.01
630.345	2218.09
630.761	2211.66
631.176	2219.17
631.591	2208.39
632.007	2199.06
632.422	2196.67
632.837	2179.68
633.252	2175.57
633.667	2157.8
634.082	2143.23
634.497	2123.9
634.911	2090.84
635.326	2086.12
635.741	2057.62
636.155	2044.23
636.57	2045.97
636.984	2047.07
637.399	2049.5
637.813	2050.37
638.228	2051.4
638.642	2061.55
639.056	2045.46
639.47	2050.15
639.884	2038.37
640.298	2030.85
640.712	2031.43
641.126	2013.3
641.54	2000.39
641.954	1993.97
642.368	1975.21
642.781	1961.33
643.195	1931.22
643.609	1935.35
644.022	1926.45
644.436	1921.79
644.849	1902.87
645.262	1884.78
645.676	1891.15
646.089	1885.57
646.502	1862.36
646.915	1856.13
647.328	1831.95
647.741	1831.23
648.154	1811.03
648.567	1805.45
648.98	1783.64
649.393	1788.57
649.805	1784.17
650.218	1773.39
650.631	1748.03
651.043	1739.63
651.456	1731.17
651.868	1735.91
652.28	1770.25
652.693	1798.25
653.105	1816.71
653.517	1839.3
653.929	1842.92
654.341	1857.84
654.753	1840.39
655.165	1858.93
655.577	1860.61
655.989	1859.62
656.401	1850.93
656.813	1790.12
657.224	1760.16
657.636	1715.51
658.047	1686.25
658.459	1656.62
658.87	1646.69
659.282	1630.89
659.693	1595.98
660.104	1572.12
660.515	1551.38
660.926	1552.61
661.338	1552.43
661.749	1542.94
662.159	1527.61
662.57	1523.75
662.981	1517.03
663.392	1504.41
663.803	1512.62
664.213	1510.63
664.624	1504.21
665.035	1510.51
665.445	1484.57
665.855	1468.38
666.266	1450.92
666.676	1446.57
667.086	1429.15
667.497	1425.7
667.907	1412.99
668.317	1394.81
668.727	1383
669.137	1383.26
669.547	1376.96
669.956	1379.96
670.366	1382.8
670.776	1386.28
671.186	1389.96
671.595	1393.6
672.005	1398.67
672.414	1394.78
672.824	1389.22
673.233	1398.81
673.642	1401.03
674.052	1403.71
674.461	1405.18
674.87	1413.92
675.279	1407.54
675.688	1411.64
676.097	1413.31
676.506	1407.31
676.915	1434.36
677.323	1440.45
677.732	1438.32
678.141	1440.57
678.549	1425.41
678.958	1428.96
679.366	1429.63
679.775	1444.3
680.183	1465.13
680.592	1482.51
681	1500.38
681.408	1494.2
681.816	1516.78
682.224	1541.88
682.632	1566.83
683.04	1630.9
683.448	1685.56
683.856	1752.59
684.264	1828.75
684.671	1903.36
685.079	1986.79
685.487	2078.86
685.894	2205.35
686.302	2307.91
686.709	2387.27
687.116	2479.32
687.524	2547.87
687.931	2599.74
688.338	2641.49
688.745	2667.24
689.152	2695.11
689.559	2743.77
689.966	2782.91
690.373	2777.52
690.78	2804.25
691.187	2870.28
691.593	2904.14
692	2927.48
