Data from C_2_DEC_OH_4N_Splice17_12-05-13-367.txt Node
Date: Sat Mar 14 12:05:13 EDT 2020
User: sa697716
Spectrometer: FLMS03696
Trigger mode: 0
Integration Time (sec): 3.180400E-1
Scans to average: 20
Electric dark correction enabled: true
Nonlinearity correction enabled: true
Boxcar width: 5
XAxis mode: Wavelengths
Number of Pixels in Spectrum: 2048
>>>>>Begin Spectral Data<<<<<
187.83	-275277.65
188.298	2009.8
188.766	1047.94
189.233	973.88
189.701	1395.54
190.169	1976.83
190.636	752.96
191.104	598.18
191.571	76.26
192.039	-89.6
192.506	-116.04
192.974	327.3
193.441	-539.4
193.908	-264.38
194.375	-29.16
194.842	29.52
195.31	80.18
195.777	152.44
196.244	338.98
196.711	336.33
197.177	423.26
197.644	575.03
198.111	990.61
198.578	1394.74
199.045	1117.77
199.511	1798.01
199.978	2127.09
200.445	1835.86
200.911	2020.1
201.378	2212.25
201.844	2033.8
202.31	3423.02
202.777	3599.51
203.243	1997.92
203.709	1908.03
204.176	2289.45
204.642	1897.19
205.108	1723.57
205.574	1406.89
206.04	1278.76
206.506	1201.46
206.972	1130.8
207.438	1099.39
207.903	1235.86
208.369	1107.57
208.835	1111.1
209.301	1166.73
209.766	1182.7
210.232	1190.82
210.697	1464.77
211.163	1794.59
211.628	2704.44
212.094	2286.36
212.559	2840.4
213.024	1755.98
213.49	2113.54
213.955	2024.35
214.42	1940.47
214.885	1823.54
215.35	1749.57
215.815	1689.79
216.28	1787.3
216.745	1439.08
217.21	1538.53
217.675	1367.96
218.14	1522.01
218.604	1666.97
219.069	1877.23
219.534	1976.73
219.998	2247.43
220.463	2687.81
220.927	3238.98
221.392	3013.18
221.856	3048.12
222.32	3782.74
222.785	4643.53
223.249	5816.36
223.713	6467.15
224.177	6466.14
224.642	8235.06
225.106	10090.86
225.57	10958.84
226.034	8153.86
226.497	12413.95
226.961	11182.9
227.425	13048.87
227.889	14437.63
228.353	14405.9
228.816	29688.33
229.28	28369.6
229.744	23840.01
230.207	14541.31
230.671	14305.77
231.134	23619.75
231.597	27213.68
232.061	27164.06
232.524	26408.23
232.987	18237.2
233.45	16447.56
233.914	14718.62
234.377	15002.85
234.84	13738.89
235.303	16165.04
235.766	18040.05
236.229	18608.15
236.691	11706.96
237.154	13159.62
237.617	9931.34
238.08	10134.76
238.542	11847.06
239.005	8485.94
239.468	8459.56
239.93	7982.66
240.393	7260.33
240.855	6389.53
241.317	6548.38
241.78	7971.69
242.242	8258.72
242.704	8946.78
243.166	7815
243.629	7124.15
244.091	8235.11
244.553	9035.64
245.015	9725.71
245.477	12623.6
245.939	18508.62
246.4	19694.2
246.862	19145.71
247.324	18063.15
247.786	20174.69
248.247	26468.71
248.709	27248.97
249.17	20373.69
249.632	19272.08
250.093	22411.17
250.555	19321.56
251.016	11805.44
251.477	11207.86
251.939	12136.61
252.4	12739.66
252.861	15172.97
253.322	14148.29
253.783	16876.38
254.244	21944.7
254.705	17263.02
255.166	15350.93
255.627	15166.56
256.088	21446.94
256.549	22781.72
257.009	19600.21
257.47	23787.67
257.931	19351.37
258.391	14501.48
258.852	14966.57
259.312	15699.87
259.773	19450.32
260.233	16445.72
260.694	13893.01
261.154	15750.96
261.614	12702.05
262.074	11389.03
262.534	11870.93
262.994	11227.6
263.455	14996.59
263.915	12656.11
264.374	11930.93
264.834	13052.98
265.294	14511.98
265.754	15041.46
266.214	14271.12
266.673	13394.69
267.133	16905.92
267.593	16773.92
268.052	20566.87
268.512	17917.7
268.971	21677.87
269.431	23804.58
269.89	21332.94
270.349	32024.74
270.809	35757.53
271.268	32207.37
271.727	72244.59
272.186	46920.19
272.645	35249.3
273.104	25431.98
273.563	36850.25
274.022	28987.59
274.481	24756.48
274.94	19108.15
275.399	14206.86
275.857	16558.97
276.316	22399.8
276.775	19970.08
277.233	19710.76
277.692	18498.48
278.15	20975.48
278.609	21637.52
279.067	20046.93
279.525	18645.38
279.984	24082.92
280.442	29019.65
280.9	28723.09
281.358	18924.8
281.816	17657.43
282.274	17281.91
282.732	17849.99
283.19	17946.94
283.648	15479.79
284.106	16499
284.564	16773.51
285.021	15596.3
285.479	11606.59
285.937	10537.87
286.394	9261.73
286.852	9529.58
287.309	10030.51
287.767	9716.78
288.224	9264.76
288.682	10190.31
289.139	11202.04
289.596	10268.49
290.053	10662.77
290.511	13466.98
290.968	16366.2
291.425	22221.02
291.882	18551.88
292.339	16164.39
292.796	16057.19
293.252	15126.93
293.709	12049.56
294.166	10827.02
294.623	11988.45
295.079	11523.93
295.536	11627.43
295.992	10579.96
296.449	10479.23
296.905	10897.53
297.362	10476.57
297.818	11032.29
298.274	11465.8
298.731	11669.13
299.187	11543.6
299.643	12368.19
300.099	14992.28
300.555	16413.21
301.011	13714.29
301.467	13277.35
301.923	15525.34
302.379	15179.07
302.835	14919.92
303.291	14949.92
303.746	17060.47
304.202	21600.2
304.658	21724.56
305.113	14636.79
305.569	14397.94
306.024	15351.97
306.479	14582.66
306.935	12331.67
307.39	13450.95
307.845	12443.41
308.301	12547.04
308.756	12200.91
309.211	11740.87
309.666	12042.47
310.121	14927.32
310.576	15133.56
311.031	15038.3
311.486	17213.28
311.94	17214.59
312.395	23058.42
312.85	43242.87
313.305	212153.3
313.759	1101139.07
314.214	79912.1
314.668	63351.17
315.123	53420.18
315.577	19175.35
316.032	17059.29
316.486	21411.32
316.94	16887.12
317.394	11771.34
317.849	9167.22
318.303	8686.91
318.757	8208.42
319.211	9084.35
319.665	7956.11
320.119	8043.6
320.572	11529.85
321.026	10787.31
321.48	8981.43
321.934	9808.36
322.387	9856.87
322.841	10689.58
323.295	9643.99
323.748	11087.56
324.202	11267.52
324.655	13572.68
325.108	19023.3
325.562	13470.06
326.015	16032.54
326.468	12121.5
326.921	13568.48
327.374	12640.3
327.827	13135.57
328.28	14856.91
328.733	9978.79
329.186	8774.53
329.639	8357.98
330.092	7055.19
330.545	6729.46
330.997	6792.39
331.45	7444.58
331.903	8747.81
332.355	15045.09
332.808	14663.9
333.26	12113.77
333.713	13192.98
334.165	13314.13
334.617	17770.93
335.069	14288.76
335.522	25789.45
335.974	28547.99
336.426	26120.44
336.878	18040.16
337.33	9161.44
337.782	8927.43
338.234	11191.66
338.686	13335.12
339.137	15808.01
339.589	14912.97
340.041	11735.95
340.493	10082.83
340.944	10331.5
341.396	11134.36
341.847	9389.69
342.299	11108.24
342.75	13599.66
343.201	11861.2
343.653	13663.43
344.104	16806.16
344.555	13258.89
345.006	20639.55
345.457	15892.09
345.908	12632.65
346.359	11912.83
346.81	9723.65
347.261	10239.32
347.712	10047.46
348.163	10791.26
348.613	10967.96
349.064	10241.62
349.515	8961.88
349.965	9194.27
350.416	11071.92
350.866	12193.11
351.317	13770.14
351.767	22742.97
352.217	28785.62
352.668	24028.76
353.118	22071.89
353.568	21228.49
354.018	16805.57
354.468	17739.8
354.918	12761.03
355.368	11148.91
355.818	15686.58
356.268	45011.03
356.718	188848.95
357.168	46840.38
357.617	23443.03
358.067	26037.67
358.517	24394.35
358.966	28628.89
359.416	32197.49
359.865	34780.82
360.315	41322
360.764	19355.78
361.213	10874.49
361.663	10273.06
362.112	12695.34
362.561	20534.26
363.01	15466.72
363.459	13078.05
363.908	14152.88
364.357	12004.74
364.806	20272.29
365.255	13979.89
365.703	12822.91
366.152	12828.74
366.601	10448.03
367.05	8524.2
367.498	7736.39
367.947	8099.16
368.395	8397.54
368.844	7456.17
369.292	8964.45
369.74	6188.44
370.189	9490.55
370.637	11104.83
371.085	9598.39
371.533	11669.99
371.981	11203.45
372.429	10712.29
372.877	11156.6
373.325	9352.06
373.773	9480.21
374.221	8447.82
374.669	10491.69
375.116	9029.47
375.564	9116.07
376.012	10180.91
376.459	8393.44
376.907	10033.25
377.354	12105.8
377.801	11293.15
378.249	12992.64
378.696	16660.12
379.143	20202.99
379.591	21483.43
380.038	36365.57
380.485	26269.15
380.932	28328.31
381.379	25941.52
381.826	19094.65
382.273	13583.62
382.72	11852.55
383.166	11556.37
383.613	7485.73
384.06	6745.89
384.506	7827.11
384.953	5756.12
385.4	5797.18
385.846	5074.9
386.292	4937.11
386.739	4842.21
387.185	4774.98
387.631	4778.63
388.078	4638.99
388.524	4955.8
388.97	4579.59
389.416	3826.66
389.862	4074.41
390.308	3854.87
390.754	3932.36
391.2	4277
391.645	4369.6
392.091	4197.98
392.537	4074.89
392.983	4074.45
393.428	4031.76
393.874	4320.06
394.319	4342.14
394.765	4137.98
395.21	4261.43
395.655	3997.28
396.101	3744.57
396.546	3395.62
396.991	3429.79
397.436	3178.73
397.881	3086.65
398.326	2918.16
398.771	2775.81
399.216	2430.25
399.661	2189.19
400.106	2191.54
400.551	2254.76
400.995	2026.51
401.44	2008.22
401.885	1890.25
402.329	1918.84
402.774	1840.95
403.218	1796.69
403.663	1736.01
404.107	1792.73
404.551	1811.78
404.995	1661.57
405.44	1599.4
405.884	1630.36
406.328	1577.37
406.772	1579.56
407.216	1442.08
407.66	1395.24
408.104	1321.95
408.547	1239.73
408.991	1198.03
409.435	1150.79
409.879	1137.57
410.322	1124.17
410.766	1083.94
411.209	1036.88
411.653	995.45
412.096	976.74
412.54	978.6
412.983	974.63
413.426	978.54
413.869	977.21
414.312	965.03
414.756	931.08
415.199	890.65
415.642	869.71
416.085	870.71
416.527	866.47
416.97	882.05
417.413	837.29
417.856	827.74
418.298	818.55
418.741	815.08
419.184	812.27
419.626	846.59
420.069	850.34
420.511	855.07
420.953	837.4
421.396	830.72
421.838	810.37
422.28	829.84
422.722	836.23
423.164	847.15
423.606	834.97
424.048	831.34
424.49	791
424.932	784.06
425.374	771.21
425.816	783.14
426.258	797.69
426.699	808.36
427.141	798.81
427.582	811.97
428.024	811.71
428.465	803.6
428.907	784.07
429.348	771.52
429.789	771.9
430.231	759.39
430.672	768.32
431.113	748.64
431.554	732.72
431.995	711.75
432.436	684.3
432.877	666.67
433.318	656.79
433.759	653.31
434.2	653.06
434.64	644.24
435.081	642.22
435.522	608.61
435.962	585.64
436.403	575.04
436.843	582.66
437.284	566.96
437.724	549.09
438.164	548.6
438.604	536.23
439.045	518.68
439.485	498.83
439.925	489.33
440.365	477.47
440.805	469.85
441.245	463.46
441.685	447.44
442.125	445.09
442.564	447.16
443.004	437.04
443.444	436.32
443.883	435.96
444.323	430.63
444.762	428.4
445.202	434.13
445.641	443.31
446.081	438.42
446.52	440.69
446.959	437.67
447.398	428.34
447.837	423.31
448.276	413.29
448.716	416.51
449.154	418.55
449.593	410.55
450.032	408
450.471	396.57
450.91	397.63
451.349	397
451.787	392.92
452.226	398.01
452.664	397.07
453.103	399.56
453.541	397.4
453.98	398.54
454.418	399.88
454.856	394.43
455.295	396.28
455.733	398.93
456.171	400.15
456.609	401.77
457.047	402.27
457.485	408.95
457.923	409.79
458.361	404.46
458.798	404.81
459.236	404.28
459.674	405.93
460.111	407.53
460.549	403.47
460.987	401.84
461.424	400.02
461.862	397.48
462.299	391.91
462.736	392.11
463.173	393.11
463.611	391.25
464.048	390.33
464.485	395.1
464.922	392.15
465.359	389.83
465.796	388.98
466.233	387.2
466.67	385.88
467.106	385.45
467.543	381.44
467.98	377.54
468.416	368.05
468.853	363.8
469.29	351.63
469.726	347.36
470.162	338.16
470.599	331.68
471.035	327.7
471.471	318.19
471.907	315.48
472.344	313.37
472.78	314.58
473.216	317.07
473.652	314.7
474.088	314.2
474.523	312.78
474.959	316.76
475.395	313.2
475.831	311.91
476.266	313.91
476.702	312.4
477.138	308.96
477.573	306.5
478.008	305.8
478.444	307.17
478.879	310.81
479.314	313.46
479.75	312.67
480.185	313.65
480.62	316.31
481.055	318.04
481.49	321.07
481.925	325.95
482.36	333.55
482.795	342.06
483.229	351.42
483.664	358.87
484.099	360.03
484.534	366.33
484.968	370.44
485.403	371.57
485.837	371.41
486.271	370.79
486.706	370.69
487.14	366.21
487.574	361.83
488.009	358.74
488.443	355.61
488.877	359.89
489.311	361.11
489.745	366.11
490.179	370.59
490.613	378.68
491.046	382.58
491.48	386.46
491.914	388.36
492.348	391.33
492.781	394.88
493.215	396.78
493.648	397.65
494.082	401.77
494.515	403.19
494.948	409.09
495.382	412.33
495.815	416.74
496.248	421.52
496.681	430.08
497.114	438.7
497.547	446.07
497.98	455.98
498.413	461.8
498.846	469.04
499.279	475.61
499.711	479.83
500.144	482.48
500.577	491.32
501.009	500.02
501.442	508.64
501.874	511.34
502.306	516.02
502.739	524.13
503.171	535.86
503.603	540.15
504.036	548.47
504.468	555
504.9	565.69
505.332	571.83
505.764	578.06
506.196	584.67
506.627	597.17
507.059	607.78
507.491	615.02
507.923	617.25
508.354	630.67
508.786	641.45
509.217	655.99
509.649	669.02
510.08	684.76
510.512	698.74
510.943	712.88
511.374	724.12
511.805	740.97
512.237	757.05
512.668	782.01
513.099	803.98
513.53	825.43
513.961	842.99
514.391	867.94
514.822	894.22
515.253	921.41
515.684	940.65
516.114	962.55
516.545	979.85
516.975	1000.81
517.406	1015.13
517.836	1019.1
518.267	1026.06
518.697	1041.11
519.127	1046.03
519.558	1053.05
519.988	1058.68
520.418	1068.59
520.848	1083.13
521.278	1091.43
521.708	1115.71
522.138	1127.26
522.567	1151.36
522.997	1171.48
523.427	1183.48
523.857	1197.35
524.286	1206.59
524.716	1218.54
525.145	1233.99
525.575	1242.75
526.004	1254.72
526.433	1241.17
526.863	1242.53
527.292	1236.27
527.721	1240.9
528.15	1246.02
528.579	1246.72
529.008	1255.29
529.437	1272.1
529.866	1282.76
530.295	1296.89
530.724	1306.71
531.152	1327.33
531.581	1339
532.01	1352.89
532.438	1359.77
532.867	1371.93
533.295	1387.56
533.723	1392.64
534.152	1392.69
534.58	1392.91
535.008	1382.26
535.436	1384.37
535.865	1391.78
536.293	1403.48
536.721	1416.46
537.149	1436.99
537.576	1439.44
538.004	1450.23
538.432	1456.23
538.86	1455
539.287	1461.44
539.715	1472.43
540.143	1474.74
540.57	1472.94
540.998	1468.43
541.425	1451.43
541.852	1435.64
542.28	1434.76
542.707	1421.75
543.134	1412.29
543.561	1409.63
543.988	1404.36
544.415	1404.39
544.842	1400.83
545.269	1395.29
545.696	1397.63
546.123	1407.15
546.549	1399.24
546.976	1389.26
547.403	1390.04
547.829	1391.78
548.256	1393.45
548.682	1390.49
549.108	1385.07
549.535	1384.61
549.961	1385.19
550.387	1375.59
550.813	1371.82
551.24	1376.14
551.666	1378.3
552.092	1369.6
552.518	1363.89
552.943	1359.96
553.369	1365.35
553.795	1368.88
554.221	1369.14
554.646	1367.34
555.072	1376.02
555.498	1379.11
555.923	1386.31
556.349	1396.23
556.774	1403.26
557.199	1403.89
557.625	1407.17
558.05	1402.49
558.475	1409.62
558.9	1408.94
559.325	1402.2
559.75	1396.9
560.175	1391.99
560.6	1387.1
561.025	1384.16
561.449	1384.07
561.874	1388.85
562.299	1392.31
562.723	1397.83
563.148	1390.34
563.572	1393.47
563.997	1401.13
564.421	1403.74
564.846	1403.46
565.27	1406.01
565.694	1405.54
566.118	1414.82
566.542	1420.72
566.966	1415.38
567.39	1411.3
567.814	1403.34
568.238	1402.86
568.662	1405.97
569.086	1408.66
569.509	1415.22
569.933	1403.99
570.357	1398.62
570.78	1382.42
571.204	1372.48
571.627	1365.54
572.05	1363.54
572.474	1364.07
572.897	1354.96
573.32	1349.45
573.743	1342.14
574.166	1328.35
574.589	1327.6
575.012	1321.45
575.435	1320.26
575.858	1313.23
576.281	1303.54
576.704	1291.31
577.126	1281.54
577.549	1272.49
577.972	1264.76
578.394	1256.63
578.817	1251.15
579.239	1236.2
579.661	1226.46
580.084	1214.54
580.506	1203.51
580.928	1199.95
581.35	1192.12
581.772	1187.24
582.194	1177.05
582.616	1166.95
583.038	1154.93
583.46	1145.42
583.882	1144
584.303	1145.51
584.725	1142.27
585.147	1144.81
585.568	1152.88
585.99	1161.73
586.411	1167.08
586.833	1177.43
587.254	1179.33
587.675	1190.31
588.096	1199.45
588.518	1194.76
588.939	1182.54
589.36	1179.64
589.781	1169.9
590.202	1148.76
590.623	1140.98
591.043	1138.72
591.464	1129.17
591.885	1125.35
592.305	1120.48
592.726	1110.22
593.147	1111.04
593.567	1106.59
593.987	1101.35
594.408	1097.21
594.828	1095.61
595.248	1092.15
595.669	1079.2
596.089	1074.11
596.509	1069.6
596.929	1059.66
597.349	1059.96
597.769	1051.97
598.189	1047.09
598.608	1048.22
599.028	1050.05
599.448	1048.93
599.867	1038.41
600.287	1034.33
600.706	1031.31
601.126	1023.53
601.545	1022.11
601.965	1020.82
602.384	1016.65
602.803	1018.22
603.222	1013.7
603.641	1007.76
604.061	1005.26
604.48	1002.35
604.898	1007.36
605.317	1009.35
605.736	1009.95
606.155	1007.66
606.574	1000.79
606.992	1003.9
607.411	1000.23
607.829	993.38
608.248	990.74
608.666	988.51
609.085	987.97
609.503	981.53
609.921	976.45
610.339	977.21
610.758	975.87
611.176	971.14
611.594	964.43
612.012	961.17
612.43	963.72
612.847	968.08
613.265	967.82
613.683	970.28
614.101	970.45
614.518	967.38
614.936	960.2
615.353	950.58
615.771	948.62
616.188	947.98
616.606	944.84
617.023	938.86
617.44	928.52
617.857	922.71
618.274	915.7
618.691	911.62
619.108	905
619.525	900.11
619.942	903.63
620.359	904.72
620.776	901.02
621.192	898.88
621.609	897.46
622.026	901.44
622.442	906.55
622.859	909.65
623.275	903.62
623.691	907.53
624.108	915.99
624.524	925.83
624.94	926.15
625.356	933.4
625.772	941.37
626.188	948.86
626.604	949.69
627.02	946.07
627.436	943.84
627.852	949.71
628.268	957.81
628.683	951.64
629.099	945.41
629.514	941.51
629.93	943.98
630.345	948.21
630.761	946.15
631.176	948.86
631.591	945.38
632.007	941.89
632.422	939.85
632.837	931.08
633.252	928.66
633.667	921.23
634.082	915.11
634.497	904.8
634.911	889.82
635.326	886.78
635.741	873.9
636.155	864.95
636.57	864.64
636.984	863.95
637.399	865.45
637.813	863.82
638.228	861.42
638.642	862.78
639.056	854.94
639.47	853.58
639.884	846.24
640.298	840.28
640.712	838.18
641.126	827.51
641.54	818.11
641.954	810.32
642.368	800.63
642.781	794.5
643.195	779.45
643.609	777.63
644.022	771.68
644.436	766.63
644.849	756.37
645.262	745.78
645.676	744.71
646.089	739.88
646.502	729.81
646.915	722.99
647.328	709.3
647.741	706.42
648.154	696.26
648.567	693.53
648.98	682.59
649.393	680.98
649.805	678.44
650.218	671.53
650.631	660.7
651.043	654.69
651.456	650.12
651.868	649.46
652.28	659.63
652.693	665.83
653.105	668.46
653.517	675.02
653.929	674.64
654.341	676.4
654.753	667.78
655.165	670.7
655.577	667.82
655.989	664.42
656.401	657.83
656.813	633.55
657.224	620.92
657.636	599.96
658.047	586.72
658.459	572.26
658.87	564.6
659.282	554.64
659.693	539.84
660.104	529.05
660.515	518.06
660.926	514.24
661.338	509.99
661.749	502.62
662.159	496.71
662.57	491.73
662.981	488.05
663.392	482.24
663.803	483.74
664.213	480.01
664.624	476.57
665.035	477.03
665.445	468.03
665.855	464.06
666.266	459.07
666.676	456.21
667.086	449.74
667.497	448.2
667.907	442.72
668.317	436.26
668.727	435.83
669.137	434.31
669.547	431.32
669.956	431.84
670.366	431.99
670.776	432.24
671.186	433.41
671.595	435.12
672.005	436.74
672.414	436.14
672.824	436.26
673.233	437.32
673.642	438.95
674.052	442.12
674.461	444.18
674.87	446.55
675.279	446.46
675.688	447.82
676.097	449.38
676.506	447.53
676.915	456.95
677.323	458.53
677.732	458.46
678.141	458.92
678.549	453.68
678.958	453.41
679.366	453.08
679.775	455.73
680.183	464.71
680.592	469.19
681	474.24
681.408	472.96
681.816	479.12
682.224	485.1
682.632	494.7
683.04	514.91
683.448	532.06
683.856	554.8
684.264	581.5
684.671	602.91
685.079	631.8
685.487	664.03
685.894	707
686.302	744.47
686.709	776.05
687.116	813.41
687.524	845.85
687.931	876.86
688.338	904.21
688.745	926.16
689.152	955.33
689.559	990.15
689.966	1024.35
690.373	1045.31
690.78	1079
691.187	1130.65
691.593	1169.95
692	1204.03
692.407	1251.53
692.813	1310.99
693.22	1359.75
693.626	1407.74
694.032	1449.19
694.439	1509.04
694.845	1556.17
695.251	1615.14
695.657	1666.54
696.063	1741.98
696.469	1800.5
696.875	1854.92
697.281	1884.48
697.687	1922.69
698.093	1954.35
698.498	2011.4
698.904	2056.88
699.31	2125.41
699.715	2174.49
700.12	2244.6
700.526	2259.6
700.931	2313.36
701.337	2353.69
701.742	2381.3
702.147	2445.41
702.552	2470.36
702.957	2516.41
703.362	2531.39
