Data from C_2_DIV_WI_4N_Splice17_12-18-59-503.txt Node
Date: Sat Mar 14 12:18:59 EDT 2020
User: sa697716
Spectrometer: FLMS03696
Trigger mode: 0
Integration Time (sec): 3.180400E-1
Scans to average: 20
Electric dark correction enabled: true
Nonlinearity correction enabled: true
Boxcar width: 5
XAxis mode: Wavelengths
Number of Pixels in Spectrum: 2048
>>>>>Begin Spectral Data<<<<<
187.83	-279377.7
188.298	2157.39
188.766	1164.64
189.233	1027.32
189.701	1374.75
190.169	1854.64
190.636	721.35
191.104	649.78
191.571	120.89
192.039	-55.84
192.506	-72.4
192.974	314.2
193.441	-437.37
193.908	53.18
194.375	18.72
194.842	19.61
195.31	65.92
195.777	184.32
196.244	406.09
196.711	504.6
197.177	613.18
197.644	887.67
198.111	1526.28
198.578	2132.24
199.045	1692.63
199.511	2786.76
199.978	3263.35
200.445	2753.49
200.911	3024
201.378	3424.41
201.844	3111.12
202.31	5277.07
202.777	5463.61
203.243	3027.09
203.709	2890.29
204.176	3466.84
204.642	2855
205.108	2666.87
205.574	2187.24
206.04	2006.16
206.506	1859.71
206.972	1742.76
207.438	1685.27
207.903	1929.1
208.369	1691.45
208.835	1713.95
209.301	1793.71
209.766	1832.41
210.232	1822.12
210.697	2248.19
211.163	2763
211.628	4220.5
212.094	3596.32
212.559	4459.3
213.024	2775.84
213.49	3392.38
213.955	3264.05
214.42	3189.29
214.885	2987.69
215.35	2868.13
215.815	2779.33
216.28	2968.02
216.745	2406.19
217.21	2600.52
217.675	2382.91
218.14	2702.71
218.604	3038.39
219.069	3498.58
219.534	3696.23
219.998	4344.66
220.463	5304.08
220.927	6549.89
221.392	6205.56
221.856	6303.25
222.32	7972.83
222.785	9892.08
223.249	12470.35
223.713	13941.52
224.177	13975.77
224.642	17975.88
225.106	22063.63
225.57	24122.41
226.034	17957.53
226.497	27336.31
226.961	24753.99
227.425	28818.97
227.889	31973.43
228.353	31970
228.816	66053.19
229.28	63162.57
229.744	53201.3
230.207	32379.86
230.671	31872.49
231.134	52715.46
231.597	60784.2
232.061	60796.1
232.524	59315.39
232.987	40841.44
233.45	36787.04
233.914	32989.65
234.377	33846.65
234.84	30980.56
235.303	36473.56
235.766	40665.7
236.229	42047.13
236.691	26446.25
237.154	29669.38
237.617	22302.25
238.08	22801.87
238.542	26655.85
239.005	19047.75
239.468	18865.9
239.93	17778.64
240.393	16176.43
240.855	14206.63
241.317	14548.84
241.78	17704.8
242.242	18303.63
242.704	19731.78
243.166	17191.91
243.629	15588.37
244.091	17943.61
244.553	19659.15
245.015	21102.96
245.477	27263.29
245.939	39906.62
246.4	42289.29
246.862	41030.9
247.324	38629.88
247.786	43198.05
248.247	56620.01
248.709	58479.15
249.17	43687.56
249.632	41144.82
250.093	47623.34
250.555	41077.04
251.016	25029.22
251.477	23716.21
251.939	25580.1
252.4	26812.44
252.861	31873.65
253.322	29619.88
253.783	35214.62
254.244	45655.69
254.705	35950.4
255.166	31941.43
255.627	31436.1
256.088	44264.86
256.549	47009.96
257.009	40489.41
257.47	49158.26
257.931	40046.61
258.391	29990.51
258.852	30876.9
259.312	32346.33
259.773	39909.08
260.233	33737.6
260.694	28434.64
261.154	32250.11
261.614	25850.24
262.074	23092.38
262.534	23952.85
262.994	22542.85
263.455	30033.5
263.915	25311.02
264.374	23840.03
264.834	26035.49
265.294	28840.03
265.754	29843.61
266.214	28236.14
266.673	26461.56
267.133	33369.62
267.593	33142.6
268.052	40548.42
268.512	35227.64
268.971	42453.56
269.431	46536.87
269.89	41655.8
270.349	62461.38
270.809	69677.21
271.268	62606
271.727	140251.3
272.186	90842.21
272.645	68063.1
273.104	49113.51
273.563	71090.23
274.022	55932.77
274.481	47550.92
274.94	36621.52
275.399	27193.33
275.857	31632.68
276.316	42776.4
276.775	38065.51
277.233	37484.21
277.692	35005.62
278.15	39568.77
278.609	40664.8
279.067	37614.66
279.525	34906.18
279.984	45059.38
280.442	54100.5
280.9	53325.91
281.358	35049.63
281.816	32647.9
282.274	31924.08
282.732	33009.31
283.19	33173.16
283.648	28611.63
284.106	30422.39
284.564	30948.76
285.021	28699.92
285.479	21403.61
285.937	19441.85
286.394	17062.82
286.852	17563.07
287.309	18476.97
287.767	17848.57
288.224	16950.51
288.682	18626.12
289.139	20446.95
289.596	18700.56
290.053	19402.19
290.511	24459.92
290.968	29658.77
291.425	40204.29
291.882	33424.51
292.339	29043.83
292.796	28796.29
293.252	27085.12
293.709	21463.56
294.166	19215.37
294.623	21208.11
295.079	20339.68
295.536	20406.51
295.992	18502.15
296.449	18291.87
296.905	18967.8
297.362	18168.19
297.818	19096.4
298.274	19797.91
298.731	20161.43
299.187	19941.39
299.643	21398.48
300.099	25845.2
300.555	28327.81
301.011	23683.88
301.467	22788.23
301.923	26705.71
302.379	26085.14
302.835	25611.91
303.291	25663.77
303.746	29210.17
304.202	36865.8
304.658	36987.59
305.113	24881.22
305.569	24366.13
306.024	25966.15
306.479	24760.66
306.935	20839.23
307.39	22731.56
307.845	20975.32
308.301	21084.78
308.756	20542.07
309.211	19817.79
309.666	20298.33
310.121	25194.85
310.576	25567.65
311.031	25331.83
311.486	28977.26
311.94	28970.87
312.395	38783.85
312.85	72939.93
313.305	358054.46
313.759	1849099.89
314.214	133613.35
314.668	105851.66
315.123	88949.47
315.577	31920.91
316.032	28370.41
316.486	35549.25
316.94	27999.1
317.394	19438.38
317.849	15066.75
318.303	14253.25
318.757	13440.45
319.211	14845.87
319.665	12984.13
320.119	13127.62
320.572	18777.66
321.026	17528.62
321.48	14570.7
321.934	15879.59
322.387	15921.08
322.841	17198.26
323.295	15447.41
323.748	17813.5
324.202	18074.21
324.655	21694.64
325.108	30291.54
325.562	21411.4
326.015	25450.95
326.468	19200.87
326.921	21458.77
327.374	20019.34
327.827	20854.48
328.28	23604.65
328.733	15794.26
329.186	13887.81
329.639	13232.45
330.092	11159.04
330.545	10624.3
330.997	10711.77
331.45	11716.36
331.903	13740.32
332.355	23616.86
332.808	22911.62
333.26	18879.78
333.713	20515.4
334.165	20638.08
334.617	27551.2
335.069	22249.67
335.522	40189.68
335.974	44452.49
336.426	40532
336.878	28081.99
337.33	14231.63
337.782	13894.33
338.234	17417.06
338.686	20791.08
339.137	24586.96
339.589	23140.42
340.041	18129.26
340.493	15570.09
340.944	15946.48
341.396	17173.75
341.847	14437.61
342.299	17049.54
342.75	20778.81
343.201	18145.24
343.653	20889.05
344.104	25718.29
344.555	20224.8
345.006	31403.9
345.457	24013.2
345.908	19075.91
346.359	17973.15
346.81	14615.03
347.261	15397.89
347.712	15167.82
348.163	16239.36
348.613	16423.3
349.064	15312.21
349.515	13406.64
349.965	13748
350.416	16562.1
350.866	18162.78
351.317	20471.2
351.767	33873.37
352.217	42637.12
352.668	35351.3
353.118	32401.6
353.568	31192.42
354.018	24660.82
354.468	26003.47
354.918	18662.3
355.368	16325.68
355.818	23076.24
356.268	66481.65
356.718	278444.26
357.168	69411.29
357.617	34835.48
358.067	38723.14
358.517	36269.8
358.966	42520.36
359.416	47611.25
359.865	51414.88
360.315	61281.41
360.764	28592.1
361.213	16016.13
361.663	15162.43
362.112	18726.26
362.561	30212.99
363.01	22774.89
363.459	19180.41
363.908	20752.64
364.357	17611.85
364.806	29812.15
365.255	20467.95
365.703	18756.82
366.152	18783.23
366.601	15233.39
367.05	12373.74
367.498	11267.83
367.947	11780.02
368.395	12251.51
368.844	10841.08
369.292	13087.84
369.74	9032.21
370.189	13882.6
370.637	16260.78
371.085	14036
371.533	17123.06
371.981	16507.65
372.429	15791
372.877	16516.5
373.325	13867.33
373.773	14190.24
374.221	12659.6
374.669	15764.73
375.116	13660.58
375.564	13831.69
376.012	15511.22
376.459	12846.29
376.907	15415.7
377.354	18648.82
377.801	17409.3
378.249	20106.77
378.696	25777.24
379.143	31354.92
379.591	33505.28
380.038	56758.25
380.485	41225.13
380.932	44733.43
381.379	41030.03
381.826	30275.45
382.273	21631.12
382.72	18997.8
383.166	18559.74
383.613	12075.17
384.06	10916.55
384.506	12704.6
384.953	9370.45
385.4	9449.08
385.846	8303.54
386.292	8113.47
386.739	7962.62
387.185	7907.89
387.631	7930.13
388.078	7723.41
388.524	8297.76
388.97	7693.14
389.416	6426.63
389.862	6849.49
390.308	6506.51
390.754	6619.77
391.2	7204.25
391.645	7386.66
392.091	7070.96
392.537	6850.38
392.983	6867.7
393.428	6767.94
393.874	7265.38
394.319	7306.52
394.765	6933.8
395.21	7134.91
395.655	6688.08
396.101	6266.8
396.546	5664.79
396.991	5708.34
397.436	5298.01
397.881	5110.67
398.326	4833.96
398.771	4572.19
399.216	3981.79
399.661	3580.5
400.106	3558.38
400.551	3643.37
400.995	3261.7
401.44	3214.17
401.885	3012.13
402.329	3035.12
402.774	2907.08
403.218	2800.1
403.663	2686.22
404.107	2756.04
404.551	2767.94
404.995	2533.91
405.44	2432.16
405.884	2460.77
406.328	2377.38
406.772	2364.81
407.216	2143.89
407.66	2063.35
408.104	1956.57
408.547	1823.07
408.991	1755.91
409.435	1683.5
409.879	1652.67
410.322	1627.49
410.766	1566.03
411.209	1482.94
411.653	1421.92
412.096	1391.94
412.54	1390.05
412.983	1376.47
413.426	1380.68
413.869	1381.67
414.312	1353.75
414.756	1302.6
415.199	1236.81
415.642	1198.49
416.085	1199.07
416.527	1186.85
416.97	1204.09
417.413	1138.27
417.856	1122.09
418.298	1107.55
418.741	1094.99
419.184	1088.52
419.626	1129.67
420.069	1131.9
420.511	1136.37
420.953	1110.96
421.396	1095.56
421.838	1065.12
422.28	1089.33
422.722	1097.79
423.164	1111.65
423.606	1093.85
424.048	1092.24
424.49	1036.78
424.932	1027.05
425.374	1011.51
425.816	1025.95
426.258	1044.7
426.699	1055.91
427.141	1038.72
427.582	1051.2
428.024	1043.31
428.465	1034.58
428.907	1007.56
429.348	998.34
429.789	999.51
430.231	978.98
430.672	992.95
431.113	969.55
431.554	953.05
431.995	928.67
432.436	893.74
432.877	874.08
433.318	858.59
433.759	855.66
434.2	852.85
434.64	842.98
435.081	844.44
435.522	800.67
435.962	772.88
436.403	759.49
436.843	769.82
437.284	755.09
437.724	735.34
438.164	738.44
438.604	720.58
439.045	695.03
439.485	668.73
439.925	654.58
440.365	638.81
440.805	629.58
441.245	620.15
441.685	598.65
442.125	593.62
442.564	597.53
443.004	583.78
443.444	584.1
443.883	586.75
444.323	581.06
444.762	581.52
445.202	588.84
445.641	601.17
446.081	597.76
446.52	603.01
446.959	599.73
447.398	586.89
447.837	582.61
448.276	572.65
448.716	576.44
449.154	582.44
449.593	572.46
450.032	570.81
450.471	560.19
450.91	562.58
451.349	563.49
451.787	561.54
452.226	570.12
452.664	570.19
453.103	572.67
453.541	573.2
453.98	572.39
454.418	575.16
454.856	567.99
455.295	569.53
455.733	574.15
456.171	576.42
456.609	579.21
457.047	579.51
457.485	588.46
457.923	588.96
458.361	581.56
458.798	583.15
459.236	582.48
459.674	584.83
460.111	586.79
460.549	580.42
460.987	578.56
461.424	575.24
461.862	572.22
462.299	562.12
462.736	562.69
463.173	564.42
463.611	560.76
464.048	559.27
464.485	565.1
464.922	559.8
465.359	557.03
465.796	551.61
466.233	546.96
466.67	542.23
467.106	542.06
467.543	534.65
467.98	527.4
468.416	513.06
468.853	508.23
469.29	492.74
469.726	487.43
470.162	473.51
470.599	465.01
471.035	460.32
471.471	449.19
471.907	445.15
472.344	443.65
472.78	445.01
473.216	450.03
473.652	445.18
474.088	443.34
474.523	441.4
474.959	446.3
475.395	442.26
475.831	439.27
476.266	441.72
476.702	440.77
477.138	435.84
477.573	433.52
478.008	431.73
478.444	432.54
478.879	437.23
479.314	439.13
479.75	438.3
480.185	440.55
480.62	444.28
481.055	445.92
481.49	449.43
481.925	455.86
482.36	464.66
482.795	476.62
483.229	490.35
483.664	500.33
484.099	502.65
484.534	510.83
484.968	516.53
485.403	518.4
485.837	517.56
486.271	517.18
486.706	517.69
487.14	512.31
487.574	505.28
488.009	501.08
488.443	497.07
488.877	502.81
489.311	505.59
489.745	512.24
490.179	518.29
490.613	530.38
491.046	535.44
491.48	541.61
491.914	543.77
492.348	549.85
492.781	555.11
493.215	558.55
493.648	561.26
494.082	567.74
494.515	569.57
494.948	578.28
495.382	584.28
495.815	591.11
496.248	597.36
496.681	610.88
497.114	622.42
497.547	634.04
497.98	648.81
498.413	657.79
498.846	669.09
499.279	680
499.711	687.6
500.144	693.29
500.577	705.98
501.009	719.76
501.442	732.51
501.874	737.86
502.306	743.69
502.739	754.28
503.171	771.79
503.603	779.25
504.036	792.05
504.468	801.01
504.9	815.44
505.332	826.82
505.764	835.64
506.196	846.14
506.627	865.55
507.059	881.94
507.491	895.13
507.923	898.4
508.354	916.83
508.786	932.64
509.217	954.71
509.649	974.11
510.08	996.89
510.512	1017.45
510.943	1037.01
511.374	1051.89
511.805	1077.11
512.237	1100.38
512.668	1136.82
513.099	1168.96
513.53	1200.61
513.961	1226.14
514.391	1261.83
514.822	1299.24
515.253	1340.3
515.684	1369.6
516.114	1404.43
516.545	1430.01
516.975	1460.7
517.406	1482.29
517.836	1488.49
518.267	1497.71
518.697	1519.36
519.127	1527.54
519.558	1537.62
519.988	1543.1
520.418	1557.29
520.848	1578.15
521.278	1590.48
521.708	1596.86
522.138	1612.06
522.567	1647.14
522.997	1676.14
523.427	1695.55
523.857	1714.49
524.286	1727.73
524.716	1745.86
525.145	1767.92
525.575	1780.86
526.004	1796.8
526.433	1805.76
526.863	1807.26
527.292	1797.03
527.721	1804.29
528.15	1811.21
528.579	1814.08
529.008	1826.07
529.437	1852.64
529.866	1867.52
530.295	1887.15
530.724	1902.39
531.152	1932.55
531.581	1948.87
532.01	1969.15
532.438	1978.44
532.867	1993.82
533.295	2014.31
533.723	2022.44
534.152	2019.12
534.58	2021.25
535.008	2004.36
535.436	2006.31
535.865	2016.46
536.293	2033.83
536.721	2051.77
537.149	2081.59
537.576	2086.1
538.004	2101.08
538.432	2109.92
538.86	2109.16
539.287	2116.41
539.715	2131.98
540.143	2134.49
540.57	2128.45
540.998	2123.57
541.425	2097.81
541.852	2073.68
542.28	2070.69
542.707	2050.97
543.134	2035.45
543.561	2030.76
543.988	2022.28
544.415	2021.34
544.842	2015.92
545.269	2008.48
545.696	2010.07
546.123	2023.31
546.549	2012.09
546.976	1998.12
547.403	1997.58
547.829	1999.3
548.256	2001.08
548.682	1996.31
549.108	1987.57
549.535	1986.71
549.961	1988.99
550.387	1974.7
550.813	1968.46
551.24	1975.34
551.666	1975.62
552.092	1965.27
552.518	1957.81
552.943	1951.16
553.369	1959.5
553.795	1965.08
554.221	1965.29
554.646	1961.53
555.072	1972.04
555.498	1977.16
555.923	1985.28
556.349	2001.74
556.774	2010.22
557.199	2011.77
557.625	2017.97
558.05	2010.04
558.475	2020.26
558.9	2018.94
559.325	2009.04
559.75	2001.75
560.175	1994.4
560.6	1986.99
561.025	1984.06
561.449	1984.39
561.874	1988.08
562.299	1992.88
562.723	2000.93
563.148	1989.02
563.572	1992.37
563.997	2001.92
564.421	2007.51
564.846	2007.61
565.27	2012.48
565.694	2009.45
566.118	2021.86
566.542	2029.89
566.966	2021.13
567.39	2014.22
567.814	2002.13
568.238	1999.97
568.662	2004.68
569.086	2005.13
569.509	2012.72
569.933	1994.11
570.357	1984.21
570.78	1960.2
571.204	1944.49
571.627	1932.32
572.05	1928.74
572.474	1926.69
572.897	1912.8
573.32	1903.9
573.743	1892.84
574.166	1871.24
574.589	1870.01
575.012	1860.61
575.435	1858.26
575.858	1847.66
576.281	1834.59
576.704	1816.33
577.126	1801.57
577.549	1788.49
577.972	1776.29
578.394	1764.29
578.817	1754.81
579.239	1733.09
579.661	1717.99
580.084	1698.92
580.506	1682.41
580.928	1676.06
581.35	1662.83
581.772	1657.88
582.194	1642.82
582.616	1627.8
583.038	1611.21
583.46	1599.68
583.882	1595.78
584.303	1599.46
584.725	1595.09
585.147	1597.38
585.568	1607.94
585.99	1621.09
586.411	1626.94
586.833	1641.61
587.254	1642.54
587.675	1658.53
588.096	1670.62
588.518	1664.23
588.939	1645.12
589.36	1642.14
589.781	1630.22
590.202	1599.13
590.623	1588.61
591.043	1586.31
591.464	1572.44
591.885	1568.79
592.305	1561.48
592.726	1546.36
593.147	1547.08
593.567	1541.76
593.987	1533.08
594.408	1527.29
594.828	1525.19
595.248	1518.23
595.669	1497.68
596.089	1490.46
596.509	1482.74
596.929	1467.45
597.349	1467.54
597.769	1456.17
598.189	1448.78
598.608	1449.96
599.028	1451.12
599.448	1450.7
599.867	1437.41
600.287	1433.03
600.706	1427.52
601.126	1417
601.545	1414.81
601.965	1412.79
602.384	1406.92
602.803	1409.64
603.222	1403.25
603.641	1397.07
604.061	1392.65
604.48	1388.49
604.898	1395.68
605.317	1400.26
605.736	1401.13
606.155	1398.39
606.574	1388.85
606.992	1393.24
607.411	1387.38
607.829	1378.69
608.248	1374.08
608.666	1370.72
609.085	1368.43
609.503	1359.39
609.921	1351.4
610.339	1352.89
610.758	1350.25
611.176	1344.71
611.594	1334.62
612.012	1329.84
612.43	1331.9
612.847	1336.82
613.265	1336.72
613.683	1340.3
614.101	1340.21
614.518	1335.8
614.936	1324.44
615.353	1309.33
615.771	1303.79
616.188	1302.45
616.606	1296.71
617.023	1288.73
617.44	1273.59
617.857	1265.35
618.274	1255.5
618.691	1248.74
619.108	1238.92
619.525	1231.84
619.942	1237.02
620.359	1239.21
620.776	1234.52
621.192	1230.79
621.609	1227.59
622.026	1233.67
622.442	1238.95
622.859	1242.91
623.275	1235
623.691	1239.27
624.108	1250.52
624.524	1263.96
624.94	1263.09
625.356	1271.92
625.772	1284.63
626.188	1295.53
626.604	1295.82
627.02	1290.62
627.436	1286.56
627.852	1292.51
628.268	1304.16
628.683	1294.71
629.099	1286.61
629.514	1282.45
629.93	1285.46
630.345	1289.06
630.761	1285.1
631.176	1288.45
631.591	1282.97
632.007	1276.65
632.422	1274.17
632.837	1262.14
633.252	1258.84
633.667	1247.03
634.082	1237.09
634.497	1223.24
634.911	1202.94
635.326	1198.2
635.741	1180.54
636.155	1168.94
636.57	1168.51
636.984	1166.39
637.399	1164.96
637.813	1161.06
638.228	1157.6
638.642	1157.82
639.056	1145.07
639.47	1142.8
639.884	1131.29
640.298	1121.75
640.712	1117.07
641.126	1102.41
641.54	1090.04
641.954	1082.67
642.368	1068.26
642.781	1057.76
643.195	1038.9
643.609	1036.73
644.022	1027.39
644.436	1021.54
644.849	1005.98
645.262	990.88
645.676	989.65
646.089	981.55
646.502	964.5
646.915	957.98
647.328	940.22
647.741	936.01
648.154	921.83
648.567	916.94
648.98	902.29
649.393	900.97
649.805	896.68
650.218	887.16
650.631	872.19
651.043	865.28
651.456	859.05
651.868	857.48
652.28	870.4
652.693	879.75
653.105	882.75
653.517	889.2
653.929	889.49
654.341	892.34
654.753	881.17
655.165	884.61
655.577	881.14
655.989	874.02
656.401	865.38
656.813	833.19
657.224	813.52
657.636	787.06
658.047	770.23
658.459	750.95
658.87	741.82
659.282	728.17
659.693	709.02
660.104	694.89
660.515	681.07
660.926	676.09
661.338	669.65
661.749	661.47
662.159	652.18
662.57	645.16
662.981	638.06
663.392	628.49
663.803	628.93
664.213	623.97
664.624	616.62
665.035	615.51
665.445	602.52
665.855	596.03
666.266	588.45
666.676	583.79
667.086	574.53
667.497	571.51
667.907	565.23
668.317	556.42
668.727	553.35
669.137	551.82
669.547	549.14
669.956	550.3
670.366	549.97
670.776	549.98
671.186	552.68
671.595	554.34
672.005	556.75
672.414	556.15
672.824	555.69
673.233	557.22
673.642	558.9
674.052	561.24
674.461	563.02
674.87	566.65
675.279	565.09
675.688	565.73
676.097	567.84
676.506	566.66
676.915	577.99
677.323	580.38
677.732	581.11
678.141	582.59
678.549	576.2
678.958	576.44
679.366	577.14
679.775	583.78
680.183	594.62
680.592	602.4
681	609.33
681.408	607.47
681.816	616.94
682.224	628.11
682.632	640.73
683.04	670.05
683.448	695.46
683.856	725.89
684.264	759.38
684.671	792.25
685.079	831.11
685.487	874.83
685.894	934.99
686.302	987.24
686.709	1031.51
687.116	1083.97
687.524	1127.48
687.931	1169.17
688.338	1206.86
688.745	1240.15
689.152	1278.23
689.559	1325.68
689.966	1373.16
690.373	1400.41
690.78	1446.09
691.187	1512.4
691.593	1565.1
692	1613.61
692.407	1681.13
692.813	1761.33
693.22	1827.72
693.626	1895.58
694.032	1952.21
694.439	2034.78
694.845	2100.82
695.251	2184.22
695.657	2259.47
696.063	2366.62
696.469	2446.78
696.875	2521.53
697.281	2567.06
697.687	2622.76
698.093	2669.41
