Data from C_2_DIV_WI_4N_Splice17_12-19-13-323.txt Node
Date: Sat Mar 14 12:19:13 EDT 2020
User: sa697716
Spectrometer: FLMS03696
Trigger mode: 0
Integration Time (sec): 3.180400E-1
Scans to average: 20
Electric dark correction enabled: true
Nonlinearity correction enabled: true
Boxcar width: 5
XAxis mode: Wavelengths
Number of Pixels in Spectrum: 2048
>>>>>Begin Spectral Data<<<<<
187.83	-267369.34
188.298	1858.59
188.766	1082.98
189.233	1008.97
189.701	1467.9
190.169	2023.39
190.636	704.41
191.104	570.61
191.571	71.5
192.039	-33.41
192.506	-52.29
192.974	416.57
193.441	-796.01
193.908	-95.42
194.375	28.66
194.842	94.7
195.31	216.63
195.777	193.98
196.244	401.53
196.711	488.47
197.177	611.79
197.644	869.85
198.111	1520.64
198.578	2124.31
199.045	1689.3
199.511	2756.78
199.978	3216.97
200.445	2708.66
200.911	2964.11
201.378	3331.04
201.844	3008.68
202.31	5174.51
202.777	5361.22
203.243	2940.54
203.709	2801.92
204.176	3346.27
204.642	2755.28
205.108	2581.43
205.574	2102.49
206.04	1915.76
206.506	1803.64
206.972	1707.91
207.438	1648.8
207.903	1893.84
208.369	1678.71
208.835	1663.8
209.301	1745.63
209.766	1790.22
210.232	1773.83
210.697	2209.59
211.163	2748.75
211.628	4166.23
212.094	3487.57
212.559	4261.69
213.024	2653.91
213.49	3255.43
213.955	3202.58
214.42	3146.58
214.885	2931.25
215.35	2813.94
215.815	2702.24
216.28	2874.48
216.745	2343.79
217.21	2558.87
217.675	2390.38
218.14	2692.31
218.604	3015.53
219.069	3466.28
219.534	3650.59
219.998	4285.06
220.463	5227.12
220.927	6484.17
221.392	6139.7
221.856	6231.35
222.32	7881.63
222.785	9708.51
223.249	12264.5
223.713	13705.98
224.177	13731.62
224.642	17646.43
225.106	21725.84
225.57	23799.79
226.034	17711.41
226.497	26998.57
226.961	24360.56
227.425	28369.3
227.889	31557.48
228.353	31547.19
228.816	65245.41
229.28	62452.23
229.744	52763.66
230.207	32082.02
230.671	31570.01
231.134	52229.88
231.597	60153.82
232.061	60177.44
232.524	58743.66
232.987	40408.1
233.45	36366.91
233.914	32605.6
234.377	33335.47
234.84	30461.7
235.303	35911.91
235.766	40038.48
236.229	41407.17
236.691	26102.28
237.154	29353.89
237.617	22057.6
238.08	22580.55
238.542	26418.66
239.005	18881
239.468	18763.62
239.93	17670.19
240.393	16062.05
240.855	14103.29
241.317	14425.68
241.78	17535.12
242.242	18108.35
242.704	19537.44
243.166	17001.97
243.629	15425.1
244.091	17735.51
244.553	19422.64
245.015	20885.47
245.477	26967.39
245.939	39447.15
246.4	41843.42
246.862	40656.82
247.324	38311.42
247.786	42827.46
248.247	56124.4
248.709	57886.83
249.17	43280.36
249.632	40755.04
250.093	47164.7
250.555	40679.63
251.016	24776.02
251.477	23441.94
251.939	25239.35
252.4	26431.93
252.861	31413.73
253.322	29162.48
253.783	34725.71
254.244	45038.52
254.705	35489.37
255.166	31526.46
255.627	31043.96
256.088	43787.44
256.549	46537.61
257.009	40100.58
257.47	48669.8
257.931	39626.41
258.391	29698.28
258.852	30590.15
259.312	32044.85
259.773	39538.22
260.233	33392.59
260.694	28169.59
261.154	31964.45
261.614	25637.51
262.074	22910.12
262.534	23779.43
262.994	22421.54
263.455	29881.5
263.915	25127.32
264.374	23644.94
264.834	25795.94
265.294	28600.04
265.754	29582.45
266.214	27966.12
266.673	26187.94
267.133	33028
267.593	32749.52
268.052	39990.87
268.512	34742.28
268.971	41926.12
269.431	45963.96
269.89	41122.09
270.349	61592.97
270.809	68654.21
271.268	61732.92
271.727	138485.86
272.186	89628.03
272.645	67246.25
273.104	48532.15
273.563	70242.31
274.022	55190.56
274.481	46923.35
274.94	36144.54
275.399	26875.76
275.857	31281.07
276.316	42252.97
276.775	37566.95
277.233	36996.6
277.692	34592.93
278.15	39079.65
278.609	40156.97
279.067	37145.48
279.525	34486.77
279.984	44547.16
280.442	53484.92
280.9	52700.14
281.358	34670.8
281.816	32296.12
282.274	31600.4
282.732	32626.31
283.19	32795.5
283.648	28318.12
284.106	30147.02
284.564	30649.81
285.021	28421.17
285.479	21162.85
285.937	19253.37
286.394	16894.12
286.852	17377.19
287.309	18266.97
287.767	17640.44
288.224	16750.57
288.682	18382.34
289.139	20179.02
289.596	18454.52
290.053	19154.15
290.511	24149.75
290.968	29240.61
291.425	39624.18
291.882	32941.81
292.339	28649.24
292.796	28420.6
293.252	26792.37
293.709	21236.99
294.166	19007.74
294.623	21004.58
295.079	20146.78
295.536	20232.2
295.992	18363.92
296.449	18135.61
296.905	18834.67
297.362	18030.99
297.818	18950.63
298.274	19634.58
298.731	20003.9
299.187	19804.52
299.643	21226.06
300.099	25642.82
300.555	28082.46
301.011	23440.39
301.467	22592.5
301.923	26460.22
302.379	25840.75
302.835	25347.21
303.291	25369.27
303.746	28850.25
304.202	36388.54
304.658	36536.14
305.113	24545.78
305.569	24044.45
306.024	25633.25
306.479	24401.26
306.935	20528.72
307.39	22425.78
307.845	20720.12
308.301	20844.46
308.756	20325.02
309.211	19571.74
309.666	20035.75
310.121	24895.13
310.576	25263.65
311.031	25040.6
311.486	28675.3
311.94	28694.66
312.395	38337.87
312.85	72049.75
313.305	353470.13
313.759	1827864.72
314.214	132467.97
314.668	105079.16
315.123	88333.4
315.577	31634.39
316.032	28118.4
316.486	35233.85
316.94	27750.04
317.394	19295.47
317.849	14972.85
318.303	14171.55
318.757	13359.87
319.211	14762.32
319.665	12911.78
320.119	13032.44
320.572	18682.16
321.026	17431.9
321.48	14476.41
321.934	15770.2
322.387	15791.85
322.841	17034.08
323.295	15296.5
323.748	17594.62
324.202	17840.08
324.655	21372.3
325.108	29898.61
325.562	21111.07
326.015	25078.55
326.468	18966.01
326.921	21200.12
327.374	19749.58
327.827	20570.3
328.28	23284.34
328.733	15612.09
329.186	13705.98
329.639	13067.07
330.092	11009
330.545	10491.77
330.997	10593.65
331.45	11555.4
331.903	13547.18
332.355	23268.04
332.808	22606.82
333.26	18660.5
333.713	20242.51
334.165	20389.01
334.617	27196.71
335.069	21953.12
335.522	39646.76
335.974	43749.63
336.426	39981.62
336.878	27676.69
337.33	14040.26
337.782	13716.85
338.234	17170.5
338.686	20550
339.137	24373.64
339.589	22939.74
340.041	17966.25
340.493	15450.8
340.944	15835
341.396	17040.35
341.847	14315.05
342.299	16919.64
342.75	20612.54
343.201	18004.41
343.653	20657.09
344.104	25338.67
344.555	19943.59
345.006	31003.84
345.457	23720.39
345.908	18849.19
346.359	17732.26
346.81	14423.29
347.261	15169.21
347.712	14927.96
348.163	15975.8
348.613	16155.08
349.064	15087.12
349.515	13213.16
349.965	13548.5
350.416	16304.14
350.866	17870.24
351.317	20171.67
351.767	33358.67
352.217	42078.54
352.668	34895.1
353.118	31964.93
353.568	30841.24
354.018	24348.83
354.468	25639.38
354.918	18385.49
355.368	16069.37
355.818	22717.18
356.268	65345.06
356.718	273930.33
357.168	68236
357.617	34252.81
358.067	38094.41
358.517	35653.54
358.966	41802.07
359.416	46876.28
359.865	50677.26
360.315	60230.67
360.764	28140.14
361.213	15792.87
361.663	14936.89
362.112	18453.37
362.561	29814.54
363.01	22461.44
363.459	18949.54
363.908	20509.61
364.357	17443.13
364.806	29474.41
365.255	20310.11
365.703	18625.83
366.152	18675.34
366.601	15169.52
367.05	12326.56
367.498	11211.37
367.947	11717.77
368.395	12195.59
368.844	10852.02
369.292	13095.66
369.74	9049.57
370.189	13856.26
370.637	16226.31
371.085	14002.1
371.533	17066.84
371.981	16443.64
372.429	15695.98
372.877	16423.62
373.325	13738.01
373.773	13975.37
374.221	12463.46
374.669	15505.87
375.116	13462.86
375.564	13595.83
376.012	15265.41
376.459	12633.72
376.907	15161.23
377.354	18383.74
377.801	17188.21
378.249	19847.14
378.696	25458.44
379.143	30914.39
379.591	33027.73
380.038	56098.59
380.485	40816.49
380.932	44147.76
381.379	40554.64
381.826	29953.12
382.273	21372.11
382.72	18754.55
383.166	18344.71
383.613	11931.94
384.06	10801.21
384.506	12546.28
384.953	9240.48
385.4	9327.23
385.846	8200.42
386.292	7997.32
386.739	7855.1
387.185	7794.12
387.631	7813.4
388.078	7612.28
388.524	8172.05
388.97	7571.01
389.416	6331.31
389.862	6748.11
390.308	6409.61
390.754	6515.54
391.2	7101.69
391.645	7272.4
392.091	6959.18
392.537	6732.26
392.983	6737.38
393.428	6636.19
393.874	7115
394.319	7147.88
394.765	6779.88
395.21	6954.05
395.655	6533.61
396.101	6115.13
396.546	5527.67
396.991	5583.16
397.436	5185.42
397.881	5018.71
398.326	4752.36
398.771	4488.75
399.216	3924.73
399.661	3534.54
400.106	3518.16
400.551	3592.12
400.995	3210.45
401.44	3160.71
401.885	2960.27
402.329	2981.77
402.774	2847.72
403.218	2743.67
403.663	2636.43
404.107	2695.49
404.551	2706.73
404.995	2479.23
405.44	2379.4
405.884	2411.73
406.328	2329.47
406.772	2314.88
407.216	2103.28
407.66	2030.88
408.104	1924.37
408.547	1796.86
408.991	1737.85
409.435	1664.58
409.879	1634.95
410.322	1611.01
410.766	1551.76
411.209	1473.78
411.653	1413.71
412.096	1383.65
412.54	1376.68
412.983	1364.17
413.426	1366.09
413.869	1363.91
414.312	1336.93
414.756	1286.61
415.199	1223.06
415.642	1185.98
416.085	1186.19
416.527	1174.18
416.97	1187.71
417.413	1126.97
417.856	1114.11
418.298	1096.83
418.741	1086.06
419.184	1081.02
419.626	1124.85
420.069	1126.2
420.511	1131.63
420.953	1104.62
421.396	1092.54
421.838	1063.92
422.28	1085.15
422.722	1088.45
423.164	1106.07
423.606	1084.65
424.048	1079.99
424.49	1025.07
424.932	1017.31
425.374	999.51
425.816	1014.15
426.258	1032.49
426.699	1042.05
427.141	1027.2
427.582	1038.92
428.024	1030.39
428.465	1021.24
428.907	997.05
429.348	983.92
429.789	982.44
430.231	961.2
430.672	972.84
431.113	949.32
431.554	935.18
431.995	911.76
432.436	879.96
432.877	860.39
433.318	847.79
433.759	845.74
434.2	846.3
434.64	837.44
435.081	839.53
435.522	796.62
435.962	767.39
436.403	753.04
436.843	763.23
437.284	748.41
437.724	729.13
438.164	730
438.604	713.31
439.045	686.72
439.485	660
439.925	647.66
440.365	632.8
440.805	625.64
441.245	618.25
441.685	594.8
442.125	590.24
442.564	594.45
443.004	583.15
443.444	582.34
443.883	583.07
444.323	578.15
444.762	578.76
445.202	586.63
445.641	598.82
446.081	594.87
446.52	601.3
446.959	598.07
447.398	586.19
447.837	579.95
448.276	571.45
448.716	578.83
449.154	585.97
449.593	573.17
450.032	571.59
450.471	560.97
450.91	562.5
451.349	563.22
451.787	561.06
452.226	569.55
452.664	569.1
453.103	570.64
453.541	569.79
453.98	569.59
454.418	575.45
454.856	568.39
455.295	568.38
455.733	573.99
456.171	577.84
456.609	580.34
457.047	580.76
457.485	591.07
457.923	591.85
458.361	583.57
458.798	585.29
459.236	584.12
459.674	588.24
460.111	591.77
460.549	585.96
460.987	583.55
461.424	581.11
461.862	577.36
462.299	568.57
462.736	567.87
463.173	570.76
463.611	565.6
464.048	564.68
464.485	569.03
464.922	562.92
465.359	559.57
465.796	553.5
466.233	549.09
466.67	546.14
467.106	544.23
467.543	539.13
467.98	532.1
468.416	517.42
468.853	512.21
469.29	496.94
469.726	491.31
470.162	478.59
470.599	470.78
471.035	466.35
471.471	454.88
471.907	452.55
472.344	448.95
472.78	449.77
473.216	454.95
473.652	448.69
474.088	447.29
474.523	445.65
474.959	449.69
475.395	445.37
475.831	442.01
476.266	442.98
476.702	441.01
477.138	435.96
477.573	434.16
478.008	432.88
478.444	436.4
478.879	440.97
479.314	443.33
479.75	442.54
480.185	444.17
480.62	447.95
481.055	450.38
481.49	454.05
481.925	461.44
482.36	470.83
482.795	483.45
483.229	495.4
483.664	505.7
484.099	507.13
484.534	514.43
484.968	519.83
485.403	521.92
485.837	521.49
486.271	519.95
486.706	520.93
487.14	514.82
487.574	507.18
488.009	503.06
488.443	498.32
488.877	504.5
489.311	507.83
489.745	515.45
490.179	521.28
490.613	531.91
491.046	537.38
491.48	541.84
491.914	543.91
492.348	549.75
492.781	554.74
493.215	558.92
493.648	561.67
494.082	567.56
494.515	570.17
494.948	579.09
495.382	585.92
495.815	592.81
496.248	600.9
496.681	614.23
497.114	626.43
497.547	638.13
497.98	651.99
498.413	660.4
498.846	671.98
499.279	682.11
499.711	689.17
500.144	694.83
500.577	708.33
501.009	721.09
501.442	734.14
501.874	739.35
502.306	745.52
502.739	756.52
503.171	773.75
503.603	781.16
504.036	793.81
504.468	803.13
504.9	818.33
505.332	828.95
505.764	837.65
506.196	848.12
506.627	867.12
507.059	884.79
507.491	896.74
507.923	900.33
508.354	919.4
508.786	934.03
509.217	955.65
509.649	974.26
510.08	997.78
510.512	1018.22
510.943	1037.3
511.374	1053.49
511.805	1077.04
512.237	1101.74
512.668	1137.89
513.099	1169.95
513.53	1201.82
513.961	1227.09
514.391	1262.98
514.822	1299.54
515.253	1340.02
515.684	1369.92
516.114	1402.75
516.545	1427.2
516.975	1456.09
517.406	1477.57
517.836	1483.06
518.267	1492.48
518.697	1514.57
519.127	1521.48
519.558	1531.28
519.988	1538.13
520.418	1551.84
520.848	1571.63
521.278	1584.46
521.708	1591.1
522.138	1607.59
522.567	1641.85
522.997	1671.25
523.427	1688.49
523.857	1709.02
524.286	1722.89
524.716	1741.02
525.145	1762.56
525.575	1776.43
526.004	1792.47
526.433	1801.99
526.863	1802.6
527.292	1792.79
527.721	1799.17
528.15	1807.05
528.579	1809.12
529.008	1821.25
529.437	1846.25
529.866	1860.82
530.295	1880.38
530.724	1895.3
531.152	1925.29
531.581	1941.74
532.01	1962.15
532.438	1972.46
532.867	1989.03
533.295	2009.04
533.723	2015.29
534.152	2012.57
534.58	2013.22
535.008	1996.49
535.436	1998.38
535.865	2007.19
536.293	2024.11
536.721	2041.08
537.149	2069.02
537.576	2072.11
538.004	2086.84
538.432	2095.62
538.86	2095.2
539.287	2104.08
539.715	2119.42
540.143	2123.4
540.57	2118.6
540.998	2113.6
541.425	2088.72
541.852	2065.77
542.28	2063.22
542.707	2044.51
543.134	2030.6
543.561	2025.58
543.988	2017.29
544.415	2016.33
544.842	2010.03
545.269	2002.65
545.696	2004.3
546.123	2017.6
546.549	2007.07
546.976	1993.46
547.403	1992.3
547.829	1993.53
548.256	1994.96
548.682	1990.37
549.108	1982.18
549.535	1981.83
549.961	1983.21
550.387	1968.33
550.813	1962.05
551.24	1968.12
551.666	1968.86
552.092	1958.28
552.518	1950.33
552.943	1942.99
553.369	1949.98
553.795	1955.65
554.221	1956.88
554.646	1953.74
555.072	1965.64
555.498	1970.96
555.923	1981.09
556.349	1996.3
556.774	2006.58
557.199	2009.1
557.625	2016.76
558.05	2011.1
558.475	2021.81
558.9	2019.15
559.325	2009.59
559.75	2001.13
560.175	1993.06
560.6	1984.57
561.025	1982.37
561.449	1981.23
561.874	1985.14
562.299	1988.45
562.723	1994.6
563.148	1982.76
563.572	1985.59
563.997	1995.35
564.421	2000.44
564.846	1999.82
565.27	2002.36
565.694	1997.73
566.118	2009.68
566.542	2017.4
566.966	2008.86
567.39	2002.14
567.814	1988.75
568.238	1987.47
568.662	1992.49
569.086	1993.9
569.509	2001.55
569.933	1983.09
570.357	1974.52
570.78	1950.07
571.204	1934.11
571.627	1921.63
572.05	1919.11
572.474	1917.81
572.897	1902.56
573.32	1892.81
573.743	1881.38
574.166	1860.5
574.589	1860.67
575.012	1852
575.435	1850.45
575.858	1840.01
576.281	1826.95
576.704	1808.38
577.126	1794.62
577.549	1782.04
577.972	1771
578.394	1758.59
578.817	1748.91
579.239	1727.37
579.661	1711.19
580.084	1693.31
580.506	1677.75
580.928	1672.31
581.35	1660.36
581.772	1654.35
582.194	1639.27
582.616	1623.36
583.038	1607.71
583.46	1596.15
583.882	1591.95
584.303	1596.55
584.725	1591.32
585.147	1592.99
585.568	1604.01
585.99	1615.32
586.411	1621.76
586.833	1636.27
587.254	1638.54
587.675	1652.81
588.096	1665.23
588.518	1658.11
588.939	1640.48
589.36	1638.85
589.781	1627.32
590.202	1596.34
590.623	1586.29
591.043	1582.53
591.464	1569.75
591.885	1564.45
592.305	1557.1
592.726	1543.22
593.147	1545.69
593.567	1539.09
593.987	1529.06
594.408	1522.94
594.828	1521.32
595.248	1515.5
595.669	1496.03
596.089	1487.15
596.509	1479.95
596.929	1465.3
597.349	1465.39
597.769	1454.44
598.189	1446.5
598.608	1447.93
599.028	1449.18
599.448	1448.26
599.867	1434.63
600.287	1430.43
600.706	1425.93
601.126	1416.23
601.545	1415.17
601.965	1412.83
602.384	1406.03
602.803	1409.33
603.222	1403.36
603.641	1395.58
604.061	1391.06
604.48	1386.36
604.898	1393.41
605.317	1397.73
605.736	1397.47
606.155	1393.45
606.574	1384.23
606.992	1389.18
607.411	1383.31
607.829	1373.9
608.248	1370.27
608.666	1366.98
609.085	1365.69
609.503	1356.9
609.921	1349.45
610.339	1351.89
610.758	1350.23
611.176	1343.72
611.594	1333.69
612.012	1328.3
612.43	1331.56
612.847	1336.99
613.265	1336.93
613.683	1339.88
614.101	1339.06
614.518	1334.28
614.936	1322.12
615.353	1306.09
615.771	1302.28
616.188	1301.35
616.606	1297.35
617.023	1288.51
617.44	1272.99
617.857	1264.83
618.274	1255.23
618.691	1248.13
619.108	1237.71
619.525	1231.34
619.942	1237.77
620.359	1238.75
620.776	1233.4
621.192	1228.85
621.609	1225.47
622.026	1231.78
622.442	1237.21
622.859	1238.77
623.275	1231.36
623.691	1237.15
624.108	1248.09
624.524	1261.75
624.94	1261.98
625.356	1269.92
625.772	1281.78
626.188	1293.61
626.604	1294.88
627.02	1290.16
627.436	1289.07
627.852	1295.86
628.268	1307.38
628.683	1298.06
629.099	1288.72
629.514	1283.89
629.93	1288.18
630.345	1291.85
630.761	1287.57
631.176	1289.73
631.591	1284.15
632.007	1277.91
632.422	1273.81
632.837	1261.07
633.252	1257.35
633.667	1246.89
634.082	1236.03
634.497	1220.65
634.911	1201.47
635.326	1196.88
635.741	1178.98
636.155	1166.36
636.57	1166.3
636.984	1164.24
637.399	1164.12
637.813	1161.29
638.228	1158.18
638.642	1160.23
639.056	1148.94
639.47	1145.16
639.884	1134
640.298	1125.24
640.712	1121.47
641.126	1105.56
641.54	1095.76
641.954	1087.93
642.368	1074.39
642.781	1062.47
643.195	1042.93
643.609	1039.69
644.022	1031.89
644.436	1024.49
644.849	1009.92
645.262	996.68
645.676	994.65
646.089	986.94
646.502	970.33
646.915	961.67
647.328	943.41
647.741	938.55
648.154	925.44
648.567	920.59
648.98	907.24
649.393	905.2
649.805	900.2
650.218	891.38
650.631	874.82
651.043	867.24
651.456	861.54
651.868	861.14
652.28	874.99
652.693	885.01
653.105	888.24
653.517	894.04
653.929	893.21
654.341	896.27
654.753	884.24
655.165	888.28
655.577	884.5
655.989	878.9
656.401	870.35
656.813	838.11
657.224	818.68
657.636	791.8
658.047	775.03
658.459	755.47
658.87	744.2
659.282	731.35
659.693	712
660.104	697.36
660.515	682.52
660.926	677.22
661.338	670.92
661.749	662.68
662.159	653.12
662.57	645.37
662.981	639.9
663.392	631.87
663.803	632.13
664.213	625.66
664.624	618.92
665.035	617.02
665.445	603.93
665.855	596.59
666.266	587.6
666.676	583.27
667.086	573.64
667.497	570.99
667.907	564.64
668.317	556.21
668.727	554.76
669.137	553.71
669.547	551.62
669.956	552.91
670.366	552.49
670.776	553.84
671.186	555.32
671.595	557.9
672.005	559.04
672.414	557.74
672.824	556.97
673.233	557.99
673.642	559.51
674.052	561.7
674.461	565.1
674.87	568.93
675.279	567.43
675.688	569.53
676.097	571.9
676.506	571.44
676.915	583.65
677.323	587.56
677.732	588.52
678.141	589.84
678.549	583.99
678.958	582.92
679.366	584.95
679.775	590.55
680.183	600.99
680.592	607.43
681	614.5
681.408	612.11
681.816	621.24
682.224	631.5
682.632	644.73
683.04	673.69
683.448	699.05
683.856	728.42
684.264	762.46
684.671	795.37
685.079	835.69
685.487	879.17
685.894	938.72
686.302	988.75
686.709	1032.5
687.116	1083.36
687.524	1127.36
687.931	1167.98
688.338	1204.1
688.745	1235.88
689.152	1272.72
689.559	1320.62
689.966	1368.31
690.373	1395.41
690.78	1442.3
691.187	1509.6
691.593	1561.82
692	1607.51
692.407	1674.14
692.813	1755.12
693.22	1822.47
693.626	1889.08
694.032	1942.19
694.439	2023.83
694.845	2090.22
695.251	2171.48
695.657	2244.86
696.063	2350.63
696.469	2434.07
696.875	2509.75
697.281	2555.51
697.687	2610
698.093	2658.06
698.498	2743.62
