Data from C_2_HIR_IL_4N_Splice17_12-11-59-982.txt Node
Date: Sat Mar 14 12:11:59 EDT 2020
User: sa697716
Spectrometer: FLMS03696
Trigger mode: 0
Integration Time (sec): 3.180400E-1
Scans to average: 20
Electric dark correction enabled: true
Nonlinearity correction enabled: true
Boxcar width: 5
XAxis mode: Wavelengths
Number of Pixels in Spectrum: 2048
>>>>>Begin Spectral Data<<<<<
187.83	-343485.3
188.298	2523.76
188.766	1308.73
189.233	1190.95
189.701	1743.98
190.169	2309.02
190.636	907.41
191.104	710
191.571	135.46
192.039	-50.57
192.506	-102.84
192.974	307.12
193.441	-302.52
193.908	37.77
194.375	8.95
194.842	76.11
195.31	150.93
195.777	152.59
196.244	352.99
196.711	398.73
197.177	527.99
197.644	724.26
198.111	1221.4
198.578	1683.98
199.045	1344.81
199.511	2191.7
199.978	2581.98
200.445	2211.19
200.911	2474.44
201.378	2739.05
201.844	2513.53
202.31	4234.99
202.777	4469.71
203.243	2491.3
203.709	2399.32
204.176	2883.92
204.642	2402.57
205.108	2227.91
205.574	1806.6
206.04	1653.26
206.506	1548.82
206.972	1458.31
207.438	1419
207.903	1605.52
208.369	1405.82
208.835	1401.78
209.301	1465.84
209.766	1500.01
210.232	1492.11
210.697	1838.87
211.163	2245
211.628	3405.73
212.094	2874.65
212.559	3498.86
213.024	2163.48
213.49	2680.94
213.955	2615.28
214.42	2559.45
214.885	2368.44
215.35	2288.17
215.815	2203.68
216.28	2346.64
216.745	1907.3
217.21	2056.06
217.675	1888.31
218.14	2118.11
218.604	2330.71
219.069	2634.13
219.534	2750.11
219.998	3187.72
220.463	3851.55
220.927	4714.47
221.392	4434.24
221.856	4463.99
222.32	5593.19
222.785	6881.1
223.249	8657.66
223.713	9681.21
224.177	9673.42
224.642	12384.65
225.106	15200.15
225.57	16608.11
226.034	12376.14
226.497	18808.42
226.961	17030.03
227.425	19854.02
227.889	22033.07
228.353	22032.06
228.816	45396.81
229.28	43498.92
229.744	36742.35
230.207	22430.02
230.671	22028.93
231.134	36467.42
231.597	42129.72
232.061	42097.82
232.524	41087.15
232.987	28350.98
233.45	25568.63
233.914	22991.25
234.377	23564.58
234.84	21583.51
235.303	25441.59
235.766	28450.15
236.229	29420.43
236.691	18530.72
237.154	20859.59
237.617	15704.16
238.08	16105.67
238.542	18877.57
239.005	13495.63
239.468	13391.14
239.93	12625.61
240.393	11489.13
240.855	10101.34
241.317	10338
241.78	12587.77
242.242	13021.08
242.704	14075.76
243.166	12266.18
243.629	11144.22
244.091	12861.28
244.553	14130.88
245.015	15219.29
245.477	19693.21
245.939	28861.72
246.4	30697.36
246.862	29806.16
247.324	28083.12
247.786	31447.33
248.247	41212.86
248.709	42529.13
249.17	31825.3
249.632	30040.79
250.093	34833.19
250.555	30140.67
251.016	18395.36
251.477	17435.23
251.939	18854.04
252.4	19794.38
252.861	23535.48
253.322	21895.51
253.783	26087.82
254.244	33845.69
254.705	26674.89
255.166	23717.9
255.627	23325.06
256.088	32950.98
256.549	35041.21
257.009	30202.97
257.47	36676.96
257.931	29866.63
258.391	22389.65
258.852	23063.01
259.312	24144.81
259.773	29809.1
260.233	25190.45
260.694	21234.48
261.154	24055.04
261.614	19293.78
262.074	17243.79
262.534	17923.65
262.994	16874.37
263.455	22464.72
263.915	18912.23
264.374	17810.31
264.834	19402.89
265.294	21472.92
265.754	22229.05
266.214	21018.7
266.673	19691.14
267.133	24825
267.593	24592.65
268.052	30118.2
268.512	26172
268.971	31565.6
269.431	34578.67
269.89	30946.11
270.349	46348.92
270.809	51619.17
271.268	46329.37
271.727	103703.72
272.186	67105.46
272.645	50277.38
273.104	36178.99
273.563	52298.33
274.022	41059.7
274.481	34930.47
274.94	26909.93
275.399	19978.66
275.857	23248.89
276.316	31404.72
276.775	27920.99
277.233	27439.94
277.692	25672.48
278.15	29037.29
278.609	29892.19
279.067	27635.31
279.525	25652.31
279.984	33094.22
280.442	39760.09
280.9	39161.23
281.358	25755.26
281.816	23978.89
282.274	23470.89
282.732	24222.93
283.19	24315.65
283.648	20947.92
284.106	22295.31
284.564	22649.94
285.021	20993.89
285.479	15642.69
285.937	14216.71
286.394	12470.06
286.852	12842.3
287.309	13508.06
287.767	13049.68
288.224	12413.21
288.682	13627.94
289.139	14961.69
289.596	13687.1
290.053	14221.3
290.511	17938.9
290.968	21759.89
291.425	29527.27
291.882	24573.95
292.339	21374.6
292.796	21187.22
293.252	19942.17
293.709	15838.36
294.166	14186.34
294.623	15694.82
295.079	15053.36
295.536	15100.8
295.992	13707.18
296.449	13556.04
296.905	14112.85
297.362	13541.81
297.818	14227.71
298.274	14779.57
298.731	15073.09
299.187	14923.91
299.643	15992.68
300.099	19340.43
300.555	21206.38
301.011	17723.78
301.467	17091.1
301.923	19945.82
302.379	19457.36
302.835	19137.17
303.291	19147.31
303.746	21746.69
304.202	27469.67
304.658	27577.86
305.113	18565.47
305.569	18213.48
306.024	19415.83
306.479	18491.35
306.935	15624.17
307.39	17069.93
307.845	15754.23
308.301	15858.22
308.756	15464.94
309.211	14885.17
309.666	15251.2
310.121	18921.93
310.576	19204.09
311.031	19042.68
311.486	21797.86
311.94	21755.54
312.395	29112.91
312.85	54785.06
313.305	269162.83
313.759	1394274.42
314.214	101167.29
314.668	80294.12
315.123	67624.48
315.577	24275.36
316.032	21607.42
316.486	27069.07
316.94	21360.36
317.394	14873.22
317.849	11553.18
318.303	10941.86
318.757	10328.91
319.211	11420.3
319.665	9994.88
320.119	10101.6
320.572	14472.85
321.026	13521.39
321.48	11260.99
321.934	12275.71
322.387	12292.72
322.841	13281.78
323.295	11944.51
323.748	13732.44
324.202	13921.69
324.655	16711.52
325.108	23360.41
325.562	16526.41
326.015	19651.27
326.468	14859.23
326.921	16610.87
327.374	15501.08
327.827	16165.68
328.28	18294.31
328.733	12270.29
329.186	10796.37
329.639	10295.68
330.092	8697.15
330.545	8291.54
330.997	8376.61
331.45	9157.32
331.903	10745.21
332.355	18483.14
332.808	17950.51
333.26	14812.45
333.713	16105.7
334.165	16243.14
334.617	21698.39
335.069	17522.18
335.522	31580.12
335.974	34941.24
336.426	31988.72
336.878	22163
337.33	11240.33
337.782	10965.15
338.234	13738.87
338.686	16441.48
339.137	19455.02
339.589	18327.13
340.041	14346.98
340.493	12370.69
340.944	12653.66
341.396	13607.81
341.847	11442.33
342.299	13493.49
342.75	16495.96
343.201	14415.49
343.653	16566.18
344.104	20371.33
344.555	16028.01
345.006	24897.45
345.457	19066.28
345.908	15134.5
346.359	14228.82
346.81	11572.22
347.261	12218.86
347.712	12040.17
348.163	12889.83
348.613	13064.62
349.064	12185.24
349.515	10672.15
349.965	10954.59
350.416	13190.14
350.866	14504.42
351.317	16389.79
351.767	27139.86
352.217	34275.83
352.668	28404.71
353.118	26069.88
353.568	25057.12
354.018	19862.98
354.468	20936.04
354.918	15027.65
355.368	13126.22
355.818	18517.73
356.268	53256.55
356.718	223309.22
357.168	55603.94
357.617	27886.06
358.067	30918.93
358.517	28964.84
358.966	33909.54
359.416	37997.56
359.865	40996.37
360.315	48773.75
360.764	22770.74
361.213	12774.28
361.663	12087.66
362.112	14892.78
362.561	24045.01
363.01	18127.12
363.459	15262.87
363.908	16466.1
364.357	14018.05
364.806	23653.13
365.255	16241.99
365.703	14855.81
366.152	14874.45
366.601	12022.1
367.05	9769.03
367.498	8899.58
367.947	9310.51
368.395	9700.63
368.844	8610.42
369.292	10356.78
369.74	7169.03
370.189	10961.92
370.637	12861.17
371.085	11093.72
371.533	13523.62
371.981	12986.4
372.429	12337.4
372.877	12821.51
373.325	10698.82
373.773	10862.36
374.221	9650.82
374.669	11949.52
375.116	10341.39
375.564	10393.36
376.012	11590.41
376.459	9545.37
376.907	11411.67
377.354	13770.75
377.801	12852.08
378.249	14768.05
378.696	18845.73
379.143	22807.43
379.591	24300.93
380.038	41117.71
380.485	29784.46
380.932	32089.41
381.379	29417.56
381.826	21662.59
382.273	15377.96
382.72	13427.74
383.166	13074.37
383.613	8477.43
384.06	7617.32
384.506	8786.45
384.953	6423.51
385.4	6446.72
385.846	5640.92
386.292	5468.19
386.739	5329.27
387.185	5264.75
387.631	5248.74
388.078	5094.81
388.524	5456.51
388.97	5031.67
389.416	4197.01
389.862	4469.75
390.308	4226.58
390.754	4286.47
391.2	4650.94
391.645	4753.13
392.091	4553.89
392.537	4395.06
392.983	4386.85
393.428	4317.4
393.874	4619.57
394.319	4635.48
394.765	4402.41
395.21	4510.62
395.655	4222.11
396.101	3946.43
396.546	3567.94
396.991	3585.67
397.436	3336.98
397.881	3221.69
398.326	3049.92
398.771	2890.11
399.216	2527.92
399.661	2270.74
400.106	2267.49
400.551	2326.03
400.995	2091.9
401.44	2066.96
401.885	1945.6
402.329	1964.81
402.774	1885.17
403.218	1823.19
403.663	1755.43
404.107	1801.83
404.551	1814.22
404.995	1662.91
405.44	1597.88
405.884	1619.24
406.328	1565.4
406.772	1558.84
407.216	1421.42
407.66	1375.17
408.104	1303.78
408.547	1221.6
408.991	1183.12
409.435	1136.82
409.879	1123.24
410.322	1113.75
410.766	1076.73
411.209	1024.1
411.653	983.43
412.096	963.66
412.54	960.2
412.983	956
413.426	961.89
413.869	960.57
414.312	946.95
414.756	914.05
415.199	872.08
415.642	849.74
416.085	852.73
416.527	847.27
416.97	860.63
417.413	821.41
417.856	810.4
418.298	801.21
418.741	794.98
419.184	790.87
419.626	820.24
420.069	818.2
420.511	821.52
420.953	804.67
421.396	796.53
421.838	775.19
422.28	789.98
422.722	797.1
423.164	806.85
423.606	795.37
424.048	794.28
424.49	756.88
424.932	753.85
425.374	742.61
425.816	753.98
426.258	769.12
426.699	780.8
427.141	772.56
427.582	781.96
428.024	777.39
428.465	771.08
428.907	751.9
429.348	741.44
429.789	741.87
430.231	726.42
430.672	736.47
431.113	717.28
431.554	705.2
431.995	685.82
432.436	664.58
432.877	652.19
433.318	642.11
433.759	638.9
434.2	640.56
434.64	633.81
435.081	636.42
435.522	603.77
435.962	585.44
436.403	574.17
436.843	582.48
437.284	566.97
437.724	549.91
438.164	550.78
438.604	539.83
439.045	519.48
439.485	499.59
439.925	487.84
440.365	475.96
440.805	468.35
441.245	462.85
441.685	447.1
442.125	444.62
442.564	448.07
443.004	439.54
443.444	439.84
443.883	441.94
444.323	436.64
444.762	437.15
445.202	444.38
445.641	454.98
446.081	452.7
446.52	456.25
446.959	453.84
447.398	444.48
447.837	438.36
448.276	431.05
448.716	436.9
449.154	442.46
449.593	434.43
450.032	432.81
450.471	423.03
450.91	423.11
451.349	423.01
451.787	420.14
452.226	425.29
452.664	425.18
453.103	426.38
453.541	423.08
453.98	422.84
454.418	424.9
454.856	418.84
455.295	418.64
455.733	422.03
456.171	424.7
456.609	426.55
457.047	427.3
457.485	434.87
457.923	435.46
458.361	430.57
458.798	431.95
459.236	431.79
459.674	434.1
460.111	436.1
460.549	432.68
460.987	430
461.424	428.04
461.862	424.98
462.299	418.85
462.736	417.98
463.173	419.3
463.611	416.03
464.048	415.46
464.485	418.86
464.922	415.82
465.359	414.14
465.796	413.49
466.233	410.61
466.67	408.82
467.106	408.91
467.543	405.12
467.98	400.31
468.416	389.48
468.853	385.32
469.29	373.96
469.726	370.01
470.162	358.43
470.599	349.82
471.035	345.78
471.471	335.99
471.907	332.54
472.344	330.54
472.78	331.07
473.216	334.88
473.652	331.26
474.088	330.06
474.523	328.68
474.959	332.11
475.395	328.39
475.831	326.77
476.266	329.52
476.702	328.32
477.138	324.89
477.573	323.42
478.008	321.43
478.444	323.04
478.879	326.29
479.314	328.05
479.75	327.08
480.185	328.44
480.62	330.42
481.055	331.09
481.49	333.75
481.925	338.27
482.36	345.65
482.795	355.45
483.229	364.43
483.664	371.45
484.099	372.6
484.534	379.16
484.968	383.64
485.403	385.16
485.837	385.24
486.271	385.42
486.706	386.55
487.14	382.02
487.574	377.09
488.009	374.32
488.443	372.19
488.877	377.29
489.311	379.28
489.745	385.64
490.179	391.12
490.613	400.14
491.046	404.11
491.48	407.7
491.914	409.28
492.348	413.4
492.781	418.07
493.215	421.65
493.648	423.89
494.082	429.87
494.515	432.4
494.948	440.36
495.382	445.85
495.815	451.84
496.248	459.23
496.681	470.82
497.114	481.82
497.547	492.54
497.98	505.22
498.413	513.66
498.846	524.26
499.279	534.23
499.711	541.05
500.144	547.09
500.577	558.79
501.009	570.66
501.442	583.24
501.874	589.07
502.306	595.64
502.739	607.18
503.171	622.89
503.603	631.06
504.036	643.31
504.468	653.89
504.9	668.17
505.332	679.86
505.764	689.46
506.196	700.63
506.627	718.5
507.059	734.51
507.491	746.48
507.923	751.44
508.354	768.97
508.786	783.44
509.217	803.61
509.649	821.99
510.08	843.75
510.512	864.78
510.943	883.56
511.374	898.94
511.805	922.3
512.237	944.92
512.668	978.46
513.099	1007.86
513.53	1037.03
513.961	1060.93
514.391	1093.98
514.822	1128.33
515.253	1165.08
515.684	1193.67
516.114	1225.94
516.545	1250.62
516.975	1278.49
517.406	1299.66
517.836	1306.3
518.267	1317.05
518.697	1338.14
519.127	1346.86
519.558	1358.23
519.988	1364.83
520.418	1377.05
520.848	1396.45
521.278	1406.86
521.708	1426.97
522.138	1442.25
522.567	1474.25
522.997	1500.74
523.427	1517.23
523.857	1535.39
524.286	1547.82
524.716	1565.21
525.145	1585.21
525.575	1597.78
526.004	1613.08
526.433	1608.88
526.863	1610.26
527.292	1602.43
527.721	1609.27
528.15	1616.05
528.579	1617.75
529.008	1627.89
529.437	1649.75
529.866	1663.48
530.295	1680.25
530.724	1694
531.152	1719.95
531.581	1734.51
532.01	1752.42
532.438	1761.43
532.867	1775.67
533.295	1795.53
533.723	1801.67
534.152	1800.34
534.58	1801.24
535.008	1786.89
535.436	1788.94
535.865	1798.2
536.293	1813.5
536.721	1829.75
537.149	1854.92
537.576	1859.75
538.004	1872.08
538.432	1881.31
538.86	1880.34
539.287	1887.49
539.715	1901.6
540.143	1904.49
540.57	1901.44
540.998	1897.58
541.425	1874.92
541.852	1854.46
542.28	1852.1
542.707	1835.62
543.134	1821.87
543.561	1817.59
543.988	1809.74
544.415	1808.7
544.842	1803.23
545.269	1795.09
545.696	1796.24
546.123	1808.36
546.549	1798.03
546.976	1784.92
547.403	1785.17
547.829	1787.39
548.256	1789.09
548.682	1785.71
549.108	1777.76
549.535	1777.17
549.961	1779.42
550.387	1766.05
550.813	1760.23
551.24	1766.01
551.666	1766.3
552.092	1756.15
552.518	1748.81
552.943	1742.43
553.369	1749.45
553.795	1755.1
554.221	1755.18
554.646	1751.24
555.072	1761.42
555.498	1766.76
555.923	1775.87
556.349	1790.94
556.774	1798.95
557.199	1799.62
557.625	1804.59
558.05	1799.17
558.475	1809.11
558.9	1809.05
559.325	1800.62
559.75	1794.36
560.175	1787.67
560.6	1779.68
561.025	1776.5
561.449	1777.2
561.874	1782.49
562.299	1787.54
562.723	1794.88
563.148	1784.31
563.572	1786.54
563.997	1796.42
564.421	1800.28
564.846	1799.34
565.27	1803.3
565.694	1799.78
566.118	1810.46
566.542	1816.79
566.966	1808.83
567.39	1801.69
567.814	1790.3
568.238	1790.3
568.662	1794.58
569.086	1796.23
569.509	1803.57
569.933	1787.19
570.357	1779.81
570.78	1759.03
571.204	1746.37
571.627	1735.65
572.05	1732.67
572.474	1731.99
572.897	1718.71
573.32	1711.03
573.743	1701.85
574.166	1683.07
574.589	1683.34
575.012	1675.2
575.435	1671.98
575.858	1662.23
576.281	1650.33
576.704	1634.64
577.126	1621.19
577.549	1608.82
577.972	1597.94
578.394	1587.08
578.817	1579.07
579.239	1559.8
579.661	1546.7
580.084	1531.22
580.506	1517.17
580.928	1512.2
581.35	1500.84
581.772	1495.89
582.194	1483.06
582.616	1469.84
583.038	1454.05
583.46	1442.25
583.882	1438.34
584.303	1440.86
584.725	1435.48
585.147	1436.3
585.568	1446.36
585.99	1457.72
586.411	1463.27
586.833	1477.6
587.254	1477.74
587.675	1492.16
588.096	1503.84
588.518	1497.86
588.939	1481.51
589.36	1478.9
589.781	1468.45
590.202	1439.88
590.623	1430.98
591.043	1427.02
591.464	1412.93
591.885	1408.45
592.305	1401.53
592.726	1388.64
593.147	1388.5
593.567	1383.01
593.987	1374.48
594.408	1368.98
594.828	1366.52
595.248	1359.23
595.669	1342.81
596.089	1335.93
596.509	1329.91
596.929	1317.31
597.349	1316.72
597.769	1307.74
598.189	1301.53
598.608	1303.26
599.028	1304.18
599.448	1303.46
599.867	1292.1
600.287	1287.64
600.706	1281.93
601.126	1272.39
601.545	1270.37
601.965	1268.7
602.384	1262.59
602.803	1264.95
603.222	1259.05
603.641	1252.75
604.061	1249.42
604.48	1244.98
604.898	1251.36
605.317	1255.93
605.736	1257.27
606.155	1253.96
606.574	1245.04
606.992	1248.87
607.411	1242.88
607.829	1235.36
608.248	1231.24
608.666	1228.91
609.085	1227.88
609.503	1219.37
609.921	1213.11
610.339	1214.67
610.758	1212.76
611.176	1206.8
611.594	1197.96
612.012	1192.85
612.43	1194.82
612.847	1198.67
613.265	1197.92
613.683	1200.09
614.101	1199.63
614.518	1194.86
614.936	1183.24
615.353	1168.48
615.771	1164.8
616.188	1163.53
616.606	1159.92
617.023	1151.47
617.44	1138.83
617.857	1131.33
618.274	1121.85
618.691	1116.1
619.108	1106.37
619.525	1099.71
619.942	1105.08
620.359	1106.52
620.776	1101.48
621.192	1097.66
621.609	1095
622.026	1099.53
622.442	1103.56
622.859	1105.74
623.275	1097.29
623.691	1101.64
624.108	1111.73
624.524	1123.23
624.94	1121.8
625.356	1129.62
625.772	1140.09
626.188	1151.01
626.604	1152.17
627.02	1147.72
627.436	1146.9
627.852	1153.42
628.268	1164.09
628.683	1155.94
629.099	1148.71
629.514	1145.4
629.93	1148.88
630.345	1152.11
630.761	1147.84
631.176	1149.12
631.591	1143.99
632.007	1136.63
632.422	1133.99
632.837	1122.24
633.252	1118.3
633.667	1108
634.082	1098.69
634.497	1084.58
634.911	1066.35
635.326	1060.8
635.741	1043.96
636.155	1032.55
636.57	1030.97
636.984	1027.56
637.399	1026.23
637.813	1022.88
638.228	1017.19
638.642	1016.66
639.056	1003.89
639.47	1000.1
639.884	988.92
640.298	980.15
640.712	975.32
641.126	961.1
641.54	949.8
641.954	939.72
642.368	925.15
642.781	915.3
643.195	897.33
643.609	894.29
644.022	884.71
644.436	876.53
644.849	862.9
645.262	848.58
645.676	845.87
646.089	837.25
646.502	823.82
646.915	815.59
647.328	800.06
647.741	794.12
648.154	781.95
648.567	778.05
648.98	765.88
649.393	763.04
649.805	758.31
650.218	750.36
650.631	737.69
651.043	730.93
651.456	725.67
651.868	724
652.28	734.3
652.693	741.07
653.105	741.86
653.517	747.31
653.929	746.45
654.341	749.19
654.753	738.51
655.165	740.05
655.577	735.87
655.989	729.65
656.401	720.03
656.813	692.81
657.224	676.88
657.636	654.65
658.047	638.89
658.459	621.56
658.87	611.16
659.282	599.23
659.693	581.58
660.104	567.83
660.515	554.81
660.926	549.69
661.338	543.33
661.749	534.89
662.159	525.09
662.57	518.24
662.981	510.89
663.392	502.32
663.803	500.83
664.213	496.26
664.624	489.55
665.035	487.43
665.445	476.16
665.855	469.93
666.266	462.86
666.676	458.69
667.086	450.3
667.497	448.35
667.907	442.9
668.317	435.79
668.727	433.3
669.137	432.25
669.547	429.89
669.956	431.13
670.366	430.3
670.776	429.57
671.186	430.61
671.595	432.46
672.005	432.96
672.414	432.44
672.824	431.29
673.233	431.55
673.642	432.43
674.052	434.3
674.461	435.55
674.87	438.18
675.279	438.48
675.688	439.53
676.097	441.68
676.506	441.36
676.915	450.58
677.323	453.46
677.732	454.46
678.141	456.63
678.549	452.27
678.958	452.71
679.366	455.41
679.775	459.96
680.183	470.7
680.592	476.33
681	483.54
681.408	482.83
681.816	492.12
682.224	502.26
682.632	514.14
683.04	537.01
683.448	558.02
683.856	583.27
684.264	613.92
684.671	642.21
685.079	676.09
685.487	715.78
685.894	767.57
686.302	812.86
686.709	852.38
687.116	898.59
687.524	941.87
687.931	982.6
688.338	1019.61
688.745	1052.16
689.152	1089.48
689.559	1138.17
689.966	1184.42
690.373	1214.99
690.78	1261.55
691.187	1326.29
691.593	1379.78
692	1426.31
692.407	1489.69
692.813	1564.84
693.22	1627.74
693.626	1691.21
694.032	1744.82
694.439	1820.38
694.845	1880.96
695.251	1956.48
695.657	2024.09
696.063	2119.61
696.469	2194.04
696.875	2262.02
697.281	2305.19
697.687	2354.17
698.093	2396.36
698.498	2470.53
698.904	2529.24
699.31	2615.97
699.715	2677.19
700.12	2765.76
