Data from C_2_HIR_WI_4N_Splice17_12-33-24-536.txt Node
Date: Sat Mar 14 12:33:24 EDT 2020
User: sa697716
Spectrometer: FLMS03696
Trigger mode: 0
Integration Time (sec): 3.180400E-1
Scans to average: 20
Electric dark correction enabled: true
Nonlinearity correction enabled: true
Boxcar width: 5
XAxis mode: Wavelengths
Number of Pixels in Spectrum: 2048
>>>>>Begin Spectral Data<<<<<
187.83	-356769.65
188.298	2609.05
188.766	1408.59
189.233	1276.19
189.701	1814.52
190.169	2468.17
190.636	897.65
191.104	711.64
191.571	103.86
192.039	-90.42
192.506	-49.45
192.974	565.79
193.441	-968.71
193.908	-198.74
194.375	-50.23
194.842	54.02
195.31	99.53
195.777	141.74
196.244	387.21
196.711	468.19
197.177	606.6
197.644	862.24
198.111	1521.35
198.578	2111.25
199.045	1664.5
199.511	2717.69
199.978	3119.04
200.445	2645.48
200.911	2940.52
201.378	3273.11
201.844	2978.57
202.31	5032.57
202.777	5267.92
203.243	2871.1
203.709	2736.05
204.176	3270.04
204.642	2674.54
205.108	2514.94
205.574	2048.4
206.04	1860.04
206.506	1751.13
206.972	1647.95
207.438	1581.83
207.903	1778.85
208.369	1582.14
208.835	1589.54
209.301	1662.28
209.766	1716.04
210.232	1710.62
210.697	2132.51
211.163	2637.83
211.628	3963.1
212.094	3338.73
212.559	4150.61
213.024	2599.46
213.49	3178.05
213.955	3121.16
214.42	3068.95
214.885	2890.5
215.35	2758.14
215.815	2675.68
216.28	2851.09
216.745	2343.12
217.21	2555.69
217.675	2374.44
218.14	2725.31
218.604	3092.49
219.069	3583.02
219.534	3831.99
219.998	4509.05
220.463	5548.54
220.927	6905.82
221.392	6571.06
221.856	6716.26
222.32	8550.28
222.785	10603.29
223.249	13407.64
223.713	15029.79
224.177	15076.28
224.642	19405.11
225.106	23974.39
225.57	26252.08
226.034	19585.96
226.497	29899.87
226.961	27054.34
227.425	31528.17
227.889	35033.64
228.353	35057.21
228.816	72490.95
229.28	69350.03
229.744	58442.28
230.207	35513.78
230.671	34944.31
231.134	57818.11
231.597	66602.33
232.061	66469.08
232.524	64817.09
232.987	44664.14
233.45	40169.84
233.914	35959.75
234.377	36861.46
234.84	33729.41
235.303	39725.8
235.766	44285.82
236.229	45742.86
236.691	28813.73
237.154	32377.91
237.617	24330.39
238.08	24892.39
238.542	29142.37
239.005	20831.98
239.468	20670.16
239.93	19446.45
240.393	17674.03
240.855	15531.39
241.317	15888.54
241.78	19314.69
242.242	19963.01
242.704	21535.6
243.166	18741.36
243.629	16983.26
244.091	19543.84
244.553	21394.44
245.015	22996.7
245.477	29724.81
245.939	43541.49
246.4	46196.19
246.862	44879.62
247.324	42261.34
247.786	47255.05
248.247	61975.78
248.709	64074.38
249.17	47957.41
249.632	45170.75
250.093	52338.43
250.555	45133.47
251.016	27472.08
251.477	26031.89
251.939	28078.95
252.4	29429.16
252.861	34998.38
253.322	32507.91
253.783	38636.55
254.244	50046.89
254.705	39435.04
255.166	35038.42
255.627	34479.78
256.088	48597.23
256.549	51548.96
257.009	44310.59
257.47	53725.02
257.931	43694.09
258.391	32706.39
258.852	33671.88
259.312	35242.71
259.773	43513.78
260.233	36762.96
260.694	30988.15
261.154	35145.8
261.614	28204.12
262.074	25216.12
262.534	26198.14
262.994	24674.39
263.455	32872.38
263.915	27675.68
264.374	26096.1
264.834	28459.44
265.294	31531.78
265.754	32645.51
266.214	30897.57
266.673	28933.75
267.133	36501.88
267.593	36187.96
268.052	44273.89
268.512	38467.02
268.971	46385.55
269.431	50839.04
269.89	45477.03
270.349	68153.13
270.809	75949.01
271.268	68230.53
271.727	152919.38
272.186	98960.41
272.645	74233.82
273.104	53522.31
273.563	77465.19
274.022	60871.52
274.481	51746.55
274.94	39867.15
275.399	29616.35
275.857	34454.63
276.316	46533.75
276.775	41364.17
277.233	40720.63
277.692	38087.41
278.15	43060.39
278.609	44262.07
279.067	40960.8
279.525	37998.91
279.984	49016.41
280.442	58789.9
280.9	57897.82
281.358	38114.81
281.816	35524.69
282.274	34780.47
282.732	35886.3
283.19	36036.95
283.648	31093.17
284.106	33062.11
284.564	33596.15
285.021	31157.86
285.479	23207.03
285.937	21126.8
286.394	18509.51
286.852	19037.18
287.309	19976.16
287.767	19269.23
288.224	18306.49
288.682	20046.92
289.139	21996.51
289.596	20107.52
290.053	20868.06
290.511	26296.38
290.968	31829.54
291.425	43142.31
291.882	35880.31
292.339	31207.23
292.796	30994.97
293.252	29184.2
293.709	23175.17
294.166	20763.01
294.623	22940.16
295.079	21994.89
295.536	22093.09
295.992	20037.02
296.449	19794.27
296.905	20561.15
297.362	19722.14
297.818	20724.57
298.274	21473.49
298.731	21877.43
299.187	21602.03
299.643	23184.73
300.099	27999.87
300.555	30704.91
301.011	25626.27
301.467	24681.99
301.923	28860.81
302.379	28116.72
302.835	27546.02
303.291	27535.17
303.746	31277.02
304.202	39512.29
304.658	39640.77
305.113	26656.66
305.569	26040.37
306.024	27742.99
306.479	26399.75
306.935	22208.94
307.39	24249.29
307.845	22409.04
308.301	22548.8
308.756	21976.09
309.211	21139.99
309.666	21618.1
310.121	26817.02
310.576	27222.82
311.031	26995.29
311.486	30879.97
311.94	30860.68
312.395	41221.62
312.85	77381.37
313.305	379962.85
313.759	1964793.06
314.214	142298.69
314.668	112601.15
315.123	94502.79
315.577	33864.37
316.032	30127.2
316.486	37708.29
316.94	29718.41
317.394	20672.61
317.849	16071.52
318.303	15211.21
318.757	14316.06
319.211	15805.27
319.665	13834.01
320.119	13986.7
320.572	20030.94
321.026	18698.6
321.48	15539.77
321.934	16936.95
322.387	16956.38
322.841	18257.61
323.295	16406.44
323.748	18905.28
324.202	19177.64
324.655	23002.12
325.108	32122.56
325.562	22676.22
326.015	26898.69
326.468	20329.46
326.921	22697.64
327.374	21162.42
327.827	22025.67
328.28	24873.09
328.733	16660
329.186	14652.63
329.639	13932.94
330.092	11754.57
330.545	11205.37
330.997	11299.78
331.45	12347.34
331.903	14459.05
332.355	24846.33
332.808	24166.21
333.26	19932.94
333.713	21620.42
334.165	21734.71
334.617	29026.46
335.069	23393.08
335.522	42268.19
335.974	46773.72
336.426	42619.99
336.878	29469.64
337.33	14941.7
337.782	14547.47
338.234	18209.1
338.686	21736.49
339.137	25719.1
339.589	24212.68
340.041	18985.41
340.493	16278.18
340.944	16665.42
341.396	17954.65
341.847	15119.7
342.299	17808.48
342.75	21748.98
343.201	18996.07
343.653	21838.09
344.104	26853.87
344.555	21114.99
345.006	32868.56
345.457	25180.66
345.908	19981.26
346.359	18796.81
346.81	15283.58
347.261	16093.98
347.712	15803.83
348.163	16918.63
348.613	17147.74
349.064	15972.54
349.515	13962.66
349.965	14290.02
350.416	17205.22
350.866	18862.07
351.317	21337.49
351.767	35288.05
352.217	44548.99
352.668	36987.08
353.118	33828.42
353.568	32530.76
354.018	25738.21
354.468	27185.32
354.918	19465.53
355.368	17017.27
355.818	24039.84
356.268	69086.98
356.718	289397.26
357.168	71962.36
357.617	36073.94
358.067	40154.84
358.517	37611.4
358.966	44098.45
359.416	49403.15
359.865	53444.55
360.315	63447.92
360.764	29623.68
361.213	16582.82
361.663	15702.1
362.112	19366.87
362.561	31302.74
363.01	23598.1
363.459	19875.22
363.908	21486.15
364.357	18265.86
364.806	30847.69
365.255	21241.48
365.703	19457.35
366.152	19437.68
366.601	15749.13
367.05	12780.41
367.498	11595.01
367.947	12113.4
368.395	12570.14
368.844	11127.57
369.292	13376.83
369.74	9216.02
370.189	14090.3
370.637	16452.17
371.085	14198.35
371.533	17282.39
371.981	16661.23
372.429	15899.66
372.877	16556.35
373.325	13852.81
373.773	14082.32
374.221	12511.04
374.669	15525.24
375.116	13425.29
375.564	13529.93
376.012	15128.83
376.459	12454.44
376.907	14862.38
377.354	17931.95
377.801	16678.76
378.249	19161.94
378.696	24500.04
379.143	29681.75
379.591	31647.33
380.038	53533.77
380.485	38749.64
380.932	41776.21
381.379	38265.45
381.826	28219.58
382.273	20100.73
382.72	17597.16
383.166	17176.9
383.613	11143.04
384.06	10043.71
384.506	11617.2
384.953	8523.09
385.4	8571.65
385.846	7515.56
386.292	7319.95
386.739	7158.17
387.185	7080.55
387.631	7079.85
388.078	6883.63
388.524	7378.45
388.97	6832.85
389.416	5715.1
389.862	6094.62
390.308	5786.71
390.754	5888.19
391.2	6412.49
391.645	6583.31
392.091	6314.96
392.537	6134.33
392.983	6160.46
393.428	6087.27
393.874	6541.46
394.319	6586.47
394.765	6268.33
395.21	6458.57
395.655	6076.88
396.101	5695.16
396.546	5152.27
396.991	5203.26
397.436	4849.11
397.881	4690.24
398.326	4442.46
398.771	4210.48
399.216	3680.64
399.661	3319.55
400.106	3318.07
400.551	3408
400.995	3063.57
401.44	3036.06
401.885	2860.01
402.329	2892.11
402.774	2779.55
403.218	2698.94
403.663	2603.9
404.107	2687.39
404.551	2709.15
404.995	2482.3
405.44	2391.25
405.884	2429.75
406.328	2356.18
406.772	2347.48
407.216	2136.79
407.66	2067.14
408.104	1956.23
408.547	1828.23
408.991	1765.78
409.435	1699.04
409.879	1678.05
410.322	1655.66
410.766	1599.67
411.209	1518.11
411.653	1458.38
412.096	1430.64
412.54	1430.05
412.983	1422.17
413.426	1431.8
413.869	1431.68
414.312	1405.74
414.756	1355.16
415.199	1291.58
415.642	1255.33
416.085	1257.31
416.527	1248.79
416.97	1265.17
417.413	1200.97
417.856	1188.67
418.298	1172.26
418.741	1164.5
419.184	1162.48
419.626	1211.09
420.069	1214.28
420.511	1220.83
420.953	1196.92
421.396	1186.99
421.838	1159.74
422.28	1185.68
422.722	1194.93
423.164	1214.71
423.606	1195.15
424.048	1191.69
424.49	1131.02
424.932	1123.91
425.374	1107.32
425.816	1122.43
426.258	1142.75
426.699	1152.9
427.141	1134.03
427.582	1149.57
428.024	1143.55
428.465	1132.57
428.907	1101.89
429.348	1085.38
429.789	1085.35
430.231	1059.92
430.672	1074.74
431.113	1046.65
431.554	1030.16
431.995	1003.61
432.436	967.04
432.877	943.1
433.318	927.4
433.759	923.96
434.2	926.44
434.64	914.45
435.081	919.33
435.522	871.76
435.962	841.75
436.403	822.79
436.843	835.41
437.284	816.54
437.724	794.52
438.164	795.9
438.604	778.79
439.045	750.17
439.485	719.71
439.925	704.03
440.365	686.03
440.805	676.35
441.245	669.72
441.685	644.09
442.125	638.69
442.564	643.64
443.004	629.92
443.444	628.98
443.883	630.78
444.323	626.34
444.762	628.13
445.202	636.57
445.641	648.73
446.081	643.93
446.52	650.86
446.959	646.84
447.398	632.12
447.837	625.88
448.276	616.71
448.716	622.74
449.154	629.15
449.593	616.36
450.032	615.29
450.471	604.19
450.91	606.26
451.349	607.05
451.787	606.11
452.226	615.69
452.664	615.88
453.103	618.25
453.541	616.94
453.98	616.18
454.418	620.65
454.856	612.79
455.295	611.93
455.733	617.2
456.171	620.38
456.609	621.99
457.047	622.71
457.485	633.43
457.923	634.34
458.361	627.25
458.798	631.21
459.236	629.32
459.674	633.39
460.111	637.54
460.549	632.31
460.987	629.34
461.424	625.63
461.862	622.07
462.299	611.53
462.736	609.83
463.173	611.29
463.611	604.13
464.048	602.64
464.485	607.91
464.922	601.77
465.359	596.86
465.796	591.68
466.233	588.16
466.67	584.1
467.106	583.71
467.543	577.91
467.98	571.03
468.416	556.39
468.853	552.18
469.29	535.43
469.726	530.16
470.162	516.83
470.599	507.3
471.035	502.18
471.471	489.65
471.907	485.97
472.344	483.56
472.78	484.39
473.216	489.86
473.652	483.95
474.088	480.84
474.523	478.81
474.959	483.1
475.395	479.4
475.831	476.27
476.266	478.2
476.702	476.82
477.138	470.98
477.573	469.51
478.008	467.56
478.444	469.95
478.879	476.3
479.314	478.53
479.75	478.39
480.185	480.94
480.62	485.29
481.055	487.77
481.49	491.81
481.925	499.57
482.36	509.45
482.795	523.71
483.229	537.29
483.664	548.93
484.099	551.57
484.534	560.92
484.968	567.42
485.403	569.59
485.837	569.54
486.271	569.82
486.706	571.12
487.14	564.81
487.574	557.16
488.009	552.53
488.443	547.81
488.877	554.75
489.311	557.28
489.745	563.92
490.179	571.12
490.613	583.93
491.046	589.65
491.48	595.24
491.914	597.3
492.348	603
492.781	609.63
493.215	613.29
493.648	616.62
494.082	623.63
494.515	626.39
494.948	635.15
495.382	641.52
495.815	648.82
496.248	656.9
496.681	671.12
497.114	685.05
497.547	696.89
497.98	712.51
498.413	721.41
498.846	733.35
499.279	744.85
499.711	752.85
500.144	757.97
500.577	771.07
501.009	785.31
501.442	800.01
501.874	806.18
502.306	811.89
502.739	823.32
503.171	841
503.603	848.69
504.036	862.73
504.468	872.52
504.9	889.01
505.332	899.9
505.764	908.73
506.196	919.3
506.627	937.56
507.059	956.48
507.491	970.13
507.923	972.99
508.354	992.84
508.786	1007.94
509.217	1031.32
509.649	1050.84
510.08	1075.82
510.512	1097.82
510.943	1118.28
511.374	1133.82
511.805	1158.18
512.237	1182.56
512.668	1221.43
513.099	1254.37
513.53	1287.66
513.961	1312.42
514.391	1349.46
514.822	1387
515.253	1427.86
515.684	1457.5
516.114	1491.76
516.545	1516.87
516.975	1547.14
517.406	1568.71
517.836	1572.1
518.267	1580.74
518.697	1602.12
519.127	1608.43
519.558	1618.19
519.988	1623.14
520.418	1634.73
520.848	1655.3
521.278	1665.79
521.708	1684.4
522.138	1698.07
522.567	1733.62
522.997	1761.18
523.427	1777.82
523.857	1796.23
524.286	1807.73
524.716	1825.37
525.145	1847.36
525.575	1859.42
526.004	1875.41
526.433	1868.1
526.863	1869.15
527.292	1857.82
527.721	1864.2
528.15	1870.53
528.579	1872.11
529.008	1883.66
529.437	1908.15
529.866	1922.24
530.295	1941.31
530.724	1954.45
531.152	1985.25
531.581	2000.29
532.01	2018.91
532.438	2028.23
532.867	2045.14
533.295	2064.7
533.723	2071.57
534.152	2069.71
534.58	2069.9
535.008	2052.28
535.436	2055.34
535.865	2064.86
536.293	2080.04
536.721	2099.3
537.149	2127.71
537.576	2130.39
538.004	2144.23
538.432	2152.72
538.86	2148.9
539.287	2156.31
539.715	2171.74
540.143	2174.4
540.57	2167.9
540.998	2163.78
541.425	2136.53
541.852	2112.17
542.28	2110.06
542.707	2092.51
543.134	2076.3
543.561	2073.11
543.988	2065.33
544.415	2065.1
544.842	2059.27
545.269	2050.9
545.696	2053.17
546.123	2067.12
546.549	2054.95
546.976	2040.44
547.403	2039.18
547.829	2041.86
548.256	2043.93
548.682	2038.73
549.108	2028.28
549.535	2027.4
549.961	2030.84
550.387	2016.31
550.813	2010.06
551.24	2018.38
551.666	2018.87
552.092	2008.19
552.518	2000.18
552.943	1992.19
553.369	2001.03
553.795	2007.3
554.221	2007.88
554.646	2004.39
555.072	2015.46
555.498	2021.72
555.923	2030.78
556.349	2047.75
556.774	2056.58
557.199	2058.89
557.625	2065.59
558.05	2058.78
558.475	2071.49
558.9	2069.86
559.325	2060.98
559.75	2056.19
560.175	2049.25
560.6	2042.47
561.025	2040.81
561.449	2043.63
561.874	2049.48
562.299	2055.12
562.723	2064.11
563.148	2053.28
563.572	2058.45
563.997	2069.81
564.421	2075.34
564.846	2076.39
565.27	2082
565.694	2080.56
566.118	2093.38
566.542	2102.81
566.966	2096.29
567.39	2091.2
567.814	2078.67
568.238	2079.47
568.662	2086.14
569.086	2089.25
569.509	2098.29
569.933	2080.33
570.357	2072.62
570.78	2049.06
571.204	2034.54
571.627	2023.04
572.05	2020.62
572.474	2021.25
572.897	2006.73
573.32	1997.26
573.743	1985.91
574.166	1964.71
574.589	1965.64
575.012	1956.39
575.435	1955.7
575.858	1944.48
576.281	1932.29
576.704	1915.02
577.126	1900.79
577.549	1888.33
577.972	1877.43
578.394	1866.15
578.817	1857.4
579.239	1835.38
579.661	1819.6
580.084	1801.9
580.506	1786.35
580.928	1780.72
581.35	1768.48
581.772	1762.95
582.194	1747.86
582.616	1733.71
583.038	1717
583.46	1706.52
583.882	1702.98
584.303	1707.99
584.725	1702.55
585.147	1704.83
585.568	1717.52
585.99	1731.31
586.411	1739.01
586.833	1755.6
587.254	1757.29
587.675	1773.99
588.096	1787.83
588.518	1782.03
588.939	1762.32
589.36	1759.7
589.781	1749.35
590.202	1715.9
590.623	1705.57
591.043	1703.36
591.464	1689.53
591.885	1685.85
592.305	1679.03
592.726	1664.56
593.147	1665.9
593.567	1660.47
593.987	1652.55
594.408	1647.56
594.828	1646.84
595.248	1639.85
595.669	1618.83
596.089	1610.36
596.509	1602.65
596.929	1587.69
597.349	1586.72
597.769	1574.47
598.189	1568.06
598.608	1569.59
599.028	1570.52
599.448	1569.61
599.867	1555.63
600.287	1549.7
600.706	1543.96
601.126	1532.66
601.545	1530.82
601.965	1529.31
602.384	1524.09
602.803	1526.78
603.222	1520.39
603.641	1513.31
604.061	1508.66
604.48	1503.27
604.898	1513.34
605.317	1518.86
605.736	1521.29
606.155	1517.27
606.574	1506.74
606.992	1512.32
607.411	1505.53
607.829	1496.54
608.248	1491.77
608.666	1488.25
609.085	1487.25
609.503	1476.72
609.921	1469.17
610.339	1470.11
610.758	1469.45
611.176	1463.71
611.594	1452.64
612.012	1448.36
612.43	1451.1
612.847	1456.91
613.265	1457.59
613.683	1460.16
614.101	1460.51
614.518	1455.92
614.936	1443.16
615.353	1425.85
615.771	1421.67
616.188	1420.27
616.606	1414.83
617.023	1405.93
617.44	1389.75
617.857	1381.75
618.274	1372.73
618.691	1364.96
619.108	1353.92
619.525	1347.22
619.942	1353.83
620.359	1354.69
620.776	1349.02
621.192	1344.63
621.609	1341.64
622.026	1348.89
622.442	1355.06
622.859	1357.91
623.275	1350.78
623.691	1356.26
624.108	1367.83
624.524	1382.14
624.94	1382.77
625.356	1393.41
625.772	1408.13
626.188	1420.19
626.604	1421.32
627.02	1416.34
627.436	1414.82
627.852	1421.37
628.268	1435.49
628.683	1426.62
629.099	1417.73
629.514	1413.01
629.93	1416.23
630.345	1419.84
630.761	1414.93
631.176	1418.66
631.591	1412.35
632.007	1405.25
632.422	1402.58
632.837	1388.9
633.252	1384.99
633.667	1372.83
634.082	1361.71
634.497	1346.79
634.911	1324.54
635.326	1320.33
635.741	1301.12
636.155	1288.94
636.57	1288.88
636.984	1287.3
637.399	1287.29
637.813	1285.74
638.228	1282.82
638.642	1285.41
639.056	1274.03
639.47	1273.84
639.884	1263.28
640.298	1253.93
640.712	1250.31
641.126	1234.89
641.54	1223.44
641.954	1216.02
642.368	1201.48
642.781	1191.6
643.195	1171.68
643.609	1169.46
644.022	1159.89
644.436	1152.81
644.849	1137.57
645.262	1122.68
645.676	1122.79
646.089	1114.91
646.502	1096.96
646.915	1088.7
647.328	1068.22
647.741	1062.39
648.154	1046.29
648.567	1040.51
648.98	1024.4
649.393	1023.16
649.805	1017.74
650.218	1007.36
650.631	989.21
651.043	980.92
651.456	972.23
651.868	970.32
652.28	984.74
652.693	995.94
653.105	1000.55
653.517	1007.77
653.929	1005.46
654.341	1008.48
654.753	993.44
655.165	995.46
655.577	989.45
655.989	983.08
656.401	971.52
656.813	934.66
657.224	912.37
657.636	881.29
658.047	861.19
658.459	838.77
658.87	826.95
659.282	812.31
659.693	790.93
660.104	773.02
660.515	755.37
660.926	751.61
661.338	744.03
661.749	733.44
662.159	721.5
662.57	712.97
662.981	705.14
663.392	692.58
663.803	691.89
664.213	685.43
664.624	678.64
665.035	676.65
665.445	660.19
665.855	650.79
666.266	640.02
666.676	634.52
667.086	623.21
667.497	619.69
667.907	612.79
668.317	602.76
668.727	598.81
669.137	596.63
669.547	592.53
669.956	592.31
670.366	591.97
670.776	593.2
671.186	594.86
671.595	595.71
672.005	595.87
672.414	594.35
672.824	591.18
673.233	591.64
673.642	593
674.052	595.29
674.461	597.56
674.87	600.79
675.279	598.33
675.688	598.6
676.097	600.81
676.506	599.32
676.915	610.66
677.323	613.41
677.732	612.89
678.141	612.51
678.549	605.21
678.958	605.25
679.366	605.36
679.775	609.93
680.183	620.97
680.592	627.88
681	633.7
681.408	631.02
681.816	641.29
682.224	651.67
682.632	665.01
683.04	694.42
683.448	719.54
683.856	750.88
684.264	788.23
684.671	822.16
685.079	864.12
685.487	912.39
685.894	976.33
686.302	1029.89
686.709	1079.58
687.116	1136.03
687.524	1185.85
687.931	1230.14
688.338	1271.86
688.745	1306.92
689.152	1347.32
689.559	1399.6
689.966	1450.96
690.373	1481.09
690.78	1531.01
691.187	1600.47
691.593	1655.8
692	1702.69
692.407	1771.76
692.813	1853.84
693.22	1920.38
693.626	1988.31
694.032	2042.85
694.439	2124.38
694.845	2188.83
695.251	2269.22
695.657	2341.59
696.063	2444.01
696.469	2521.93
