Data from C_2_HIR_WI_4N_Splice17_12-33-43-007.txt Node
Date: Sat Mar 14 12:33:43 EDT 2020
User: sa697716
Spectrometer: FLMS03696
Trigger mode: 0
Integration Time (sec): 3.180400E-1
Scans to average: 20
Electric dark correction enabled: true
Nonlinearity correction enabled: true
Boxcar width: 5
XAxis mode: Wavelengths
Number of Pixels in Spectrum: 2048
>>>>>Begin Spectral Data<<<<<
187.83	-328197.67
188.298	2385.06
188.766	1263.74
189.233	1103.4
189.701	1497.39
190.169	2173.76
190.636	804.06
191.104	588.28
191.571	10.27
192.039	-103.43
192.506	-150.23
192.974	408.12
193.441	-598.21
193.908	-192.08
194.375	-91.91
194.842	-106.98
195.31	-36.56
195.777	117.05
196.244	333.64
196.711	378.5
197.177	502.49
197.644	719.53
198.111	1274.72
198.578	1785.98
199.045	1444.93
199.511	2360.37
199.978	2738.95
200.445	2376.15
200.911	2612.75
201.378	2892.24
201.844	2629.04
202.31	4502.24
202.777	4737.99
203.243	2625.04
203.709	2520.78
204.176	3022.49
204.642	2521.81
205.108	2397.24
205.574	1924.98
206.04	1769.96
206.506	1668.59
206.972	1577.53
207.438	1549.03
207.903	1752.93
208.369	1553.78
208.835	1550.98
209.301	1620.89
209.766	1647.15
210.232	1632.59
210.697	2032.51
211.163	2525.54
211.628	3832.64
212.094	3303.08
212.559	4064.88
213.024	2534.44
213.49	3113.44
213.955	3052.26
214.42	2999.17
214.885	2823.66
215.35	2724.37
215.815	2664
216.28	2854.58
216.745	2353.84
217.21	2543.61
217.675	2368.82
218.14	2719.94
218.604	3094.72
219.069	3619.26
219.534	3880.11
219.998	4615.07
220.463	5701.16
220.927	7137.61
221.392	6804.92
221.856	6954.97
222.32	8853.47
222.785	11016.17
223.249	13988.19
223.713	15687.63
224.177	15754.57
224.642	20293.49
225.106	25055.68
225.57	27457.12
226.034	20475.25
226.497	31248.3
226.961	28294.98
227.425	33061.64
227.889	36758.13
228.353	36784.55
228.816	76100.21
229.28	72862.69
229.744	61530.33
230.207	37398.67
230.671	36770.87
231.134	60851.17
231.597	70041.49
232.061	69956.94
232.524	68156.55
232.987	46884.53
233.45	42197.76
233.914	37787.69
234.377	38690.87
234.84	35378.29
235.303	41636.2
235.766	46434.39
236.229	47926.49
236.691	30172.05
237.154	33873.69
237.617	25462.25
238.08	26078.15
238.542	30468.57
239.005	21757.65
239.468	21569.67
239.93	20306.11
240.393	18459.22
240.855	16189.49
241.317	16557.3
241.78	20132.55
242.242	20786.66
242.704	22401.5
243.166	19470.86
243.629	17666.96
244.091	20345.29
244.553	22263.17
245.015	23892
245.477	30852.37
245.939	45188.4
246.4	47910.22
246.862	46487.84
247.324	43784.59
247.786	48939.59
248.247	64145.14
248.709	66191.58
249.17	49474.5
249.632	46562.29
250.093	53929.61
250.555	46496.08
251.016	28304.02
251.477	26822.5
251.939	28939.96
252.4	30327.8
252.861	36041.81
253.322	33449.98
253.783	39787.55
254.244	51559.11
254.705	40655.49
255.166	36130.86
255.627	35562.92
256.088	50127.18
256.549	53198.54
257.009	45764.47
257.47	55491.13
257.931	45163.42
258.391	33840.11
258.852	34803.37
259.312	36459.13
259.773	45016.23
260.233	38019.92
260.694	32069.2
261.154	36349.35
261.614	29147.71
262.074	26078.13
262.534	27077.47
262.994	25497.12
263.455	33940.3
263.915	28593.02
264.374	26913.25
264.834	29358.54
265.294	32535.72
265.754	33664.3
266.214	31876.16
266.673	29869.71
267.133	37661.82
267.593	37367.97
268.052	45720.17
268.512	39773.02
268.971	47963.17
269.431	52572.92
269.89	47096.16
270.349	70580.05
270.809	78668.54
271.268	70624.11
271.727	158179.08
272.186	102384.53
272.645	76751.61
273.104	55362.61
273.563	80092.04
274.022	62954.83
274.481	53502.99
274.94	41115.28
275.399	30518.02
275.857	35507.98
276.316	48052.74
276.775	42787.6
277.233	42088.24
277.692	39364.7
278.15	44484.54
278.609	45701.41
279.067	42268.89
279.525	39230.99
279.984	50695.87
280.442	60871.06
280.9	59957.4
281.358	39371.63
281.816	36678.83
282.274	35894.08
282.732	37073.74
283.19	37231.3
283.648	32128.41
284.106	34177.58
284.564	34749.22
285.021	32153.97
285.479	23934.53
285.937	21763.45
286.394	19081.31
286.852	19581.02
287.309	20560.59
287.767	19820.57
288.224	18818.72
288.682	20633.79
289.139	22596.52
289.596	20626.85
290.053	21438.78
290.511	27020.42
290.968	32679.57
291.425	44292.66
291.882	36846.25
292.339	32033.88
292.796	31782.59
293.252	29932.37
293.709	23750.91
294.166	21302.25
294.623	23523.32
295.079	22535.51
295.536	22623.33
295.992	20533.4
296.449	20282.72
296.905	21043.57
297.362	20160.26
297.818	21163.01
298.274	21936.25
298.731	22307.47
299.187	22040.13
299.643	23655.97
300.099	28597.81
300.555	31311.59
301.011	26131.03
301.467	25179.79
301.923	29451.9
302.379	28710.27
302.835	28170.1
303.291	28171.71
303.746	32025.24
304.202	40420.32
304.658	40538.1
305.113	27209.95
305.569	26660.47
306.024	28431.78
306.479	27025.48
306.935	22759.08
307.39	24854.33
307.845	22931.56
308.301	23026.85
308.756	22405.69
309.211	21526.49
309.666	22018.35
310.121	27330.28
310.576	27700.08
311.031	27414.49
311.486	31350.96
311.94	31274.86
312.395	41736.41
312.85	78321.81
313.305	384006.2
313.759	1986529.7
314.214	143808.78
314.668	113850.06
315.123	95593.89
315.577	34262.51
316.032	30425.87
316.486	38061.49
316.94	29998.98
317.394	20853.89
317.849	16198.09
318.303	15339.78
318.757	14454.64
319.211	15967.43
319.665	13951.86
320.119	14096
320.572	20158.75
321.026	18791.75
321.48	15636.71
321.934	17010.42
322.387	17016.58
322.841	18355.42
323.295	16482.09
323.748	18974.49
324.202	19223.14
324.655	23074.5
325.108	32187.99
325.562	22709.24
326.015	26996.09
326.468	20389.06
326.921	22832.42
327.374	21336.58
327.827	22191.32
328.28	25096.64
328.733	16800.71
329.186	14768.42
329.639	14060.97
330.092	11838.58
330.545	11283.2
330.997	11374.78
331.45	12391.45
331.903	14482.91
332.355	24816.15
332.808	24079.67
333.26	19826.62
333.713	21475.47
334.165	21623.9
334.617	28834.87
335.069	23290.72
335.522	42015.29
335.974	46515.41
336.426	42504.25
336.878	29427.84
337.33	14932.37
337.782	14546.92
338.234	18185.62
338.686	21717.31
339.137	25730.71
339.589	24234.32
340.041	18953.49
340.493	16281.43
340.944	16611.71
341.396	17879.83
341.847	15012.18
342.299	17698.7
342.75	21625.56
343.201	18900.14
343.653	21742.82
344.104	26656.03
344.555	20949.55
345.006	32561.13
345.457	24897.26
345.908	19807.46
346.359	18615.34
346.81	15140.9
347.261	15912.61
347.712	15657.24
348.163	16779.41
348.613	17022.87
349.064	15855.57
349.515	13854.27
349.965	14216.11
350.416	17100.89
350.866	18747.33
351.317	21190.57
351.767	35114.84
352.217	44384.72
352.668	36807.01
353.118	33688.63
353.568	32410.92
354.018	25685.38
354.468	27102.05
354.918	19412.36
355.368	16966.53
355.818	23935.25
356.268	68712.1
356.718	287448.68
357.168	71390.11
357.617	35771.3
358.067	39710.17
358.517	37126.11
358.966	43405.62
359.416	48667.01
359.865	52641.72
360.315	62701.45
360.764	29267.36
361.213	16397.93
361.663	15510.5
362.112	19156.61
362.561	30914.46
363.01	23309.15
363.459	19599.93
363.908	21199.68
364.357	18019.46
364.806	30398.13
365.255	20897.02
365.703	19094.45
366.152	19120.76
366.601	15526.71
367.05	12600.06
367.498	11452.74
367.947	11973.17
368.395	12424.99
368.844	10991.53
369.292	13196.63
369.74	9088.6
370.189	13872.69
370.637	16270.41
371.085	14006.78
371.533	16948.82
371.981	16323.29
372.429	15545.34
372.877	16142.98
373.325	13536.11
373.773	13784.2
374.221	12247.63
374.669	15192.54
375.116	13120.78
375.564	13201.06
376.012	14748.62
376.459	12173.15
376.907	14502.11
377.354	17509.49
377.801	16335.41
378.249	18723.61
378.696	23899.46
379.143	28992.02
379.591	30921.11
380.038	52473.98
380.485	37895.54
380.932	40941.27
381.379	37559.37
381.826	27648.99
382.273	19635.57
382.72	17156.76
383.166	16704.03
383.613	10845.46
384.06	9759.61
384.506	11283.32
384.953	8270.35
385.4	8333.09
385.846	7296.05
386.292	7095.37
386.739	6942.94
387.185	6857.69
387.631	6872.36
388.078	6687.66
388.524	7168.79
388.97	6631.69
389.416	5542.25
389.862	5900.56
390.308	5593.53
390.754	5691.82
391.2	6186.27
391.645	6339.41
392.091	6096.58
392.537	5908.52
392.983	5926.12
393.428	5845.85
393.874	6277.58
394.319	6319.21
394.765	6018.02
395.21	6206.97
395.655	5831.49
396.101	5478.37
396.546	4970.4
396.991	5016.88
397.436	4668.36
397.881	4522.3
398.326	4280.5
398.771	4064.47
399.216	3559.15
399.661	3208.03
400.106	3202.63
400.551	3295.06
400.995	2963.63
401.44	2932.27
401.885	2764.63
402.329	2794.8
402.774	2682.59
403.218	2604.95
403.663	2504.02
404.107	2576.79
404.551	2598.96
404.995	2381.17
405.44	2286.76
405.884	2322.87
406.328	2253.59
406.772	2248.91
407.216	2050.35
407.66	1986.1
408.104	1887.28
408.547	1774.61
408.991	1716.5
409.435	1649.56
409.879	1631.16
410.322	1615.01
410.766	1559.13
411.209	1481.88
411.653	1421
412.096	1391.57
412.54	1389.82
412.983	1381.31
413.426	1385.14
413.869	1386.13
414.312	1366.24
414.756	1315.32
415.199	1252.72
415.642	1219.9
416.085	1221.8
416.527	1212.49
416.97	1231.28
417.413	1170.57
417.856	1156.16
418.298	1142.55
418.741	1133.24
419.184	1127.24
419.626	1173.34
420.069	1174.68
420.511	1178.84
420.953	1154.9
421.396	1147.34
421.838	1118.77
422.28	1142.55
422.722	1149.44
423.164	1164.39
423.606	1145.3
424.048	1141.7
424.49	1085.52
424.932	1076.98
425.374	1059.56
425.816	1074.64
426.258	1091.02
426.699	1102.85
427.141	1087.59
427.582	1103.23
428.024	1096.58
428.465	1090.38
428.907	1063.35
429.348	1048.93
429.789	1050.01
430.231	1028.59
430.672	1039.74
431.113	1015.71
431.554	999.6
431.995	972.72
432.436	937.49
432.877	915.35
433.318	899.18
433.759	897.72
434.2	896.51
434.64	886.44
435.081	888.26
435.522	845.16
435.962	813.67
436.403	797.17
436.843	807.97
437.284	790.81
437.724	769.35
438.164	768.37
438.604	749.52
439.045	723.81
439.485	696.2
439.925	681.47
440.365	663.64
440.805	656.13
441.245	647.94
441.685	625.67
442.125	620.82
442.564	626.22
443.004	615.4
443.444	614.15
443.883	615.36
444.323	609.02
444.762	610.47
445.202	618.81
445.641	630.89
446.081	627.73
446.52	634.12
446.959	629.33
447.398	615.89
447.837	608.24
448.276	598.62
448.716	605
449.154	612.48
449.593	599.67
450.032	599.56
450.471	589.49
450.91	591.15
451.349	590.9
451.787	589.68
452.226	599.71
452.664	602.75
453.103	604.44
453.541	604.78
453.98	605.92
454.418	611.29
454.856	602.69
455.295	600.15
455.733	604.91
456.171	607.98
456.609	609.34
457.047	609.95
457.485	619.69
457.923	621.85
458.361	614.13
458.798	615.6
459.236	613.56
459.674	618.26
460.111	622.95
460.549	617.76
460.987	615.19
461.424	612.9
461.862	608.87
462.299	599.37
462.736	598.96
463.173	599.9
463.611	594.39
464.048	593.53
464.485	597.89
464.922	592.59
465.359	588.13
465.796	582.79
466.233	578.75
466.67	574.16
467.106	571.49
467.543	564.58
467.98	557.91
468.416	543.04
468.853	537.35
469.29	521.11
469.726	515.86
470.162	502.6
470.599	493.94
471.035	487.85
471.471	475.37
471.907	472.34
472.344	469.42
472.78	471.02
473.216	476.01
473.652	471.06
474.088	469.29
474.523	466.5
474.959	471.84
475.395	468.68
475.831	466.69
476.266	469.67
476.702	468.18
477.138	463.55
477.573	461.51
478.008	460.09
478.444	462.71
478.879	467.78
479.314	470.72
479.75	469.86
480.185	471.39
480.62	475.81
481.055	478.38
481.49	482.49
481.925	489.75
482.36	498.95
482.795	513.3
483.229	526.96
483.664	538.17
484.099	540.57
484.534	550.05
484.968	556.28
485.403	558.82
485.837	558.94
486.271	558.1
486.706	559.22
487.14	553.7
487.574	545.72
488.009	542.25
488.443	537.93
488.877	544.53
489.311	546.98
489.745	554.59
490.179	561.01
490.613	573.2
491.046	579.93
491.48	585.92
491.914	589.24
492.348	595.28
492.781	600.24
493.215	604.1
493.648	606.93
494.082	613.83
494.515	616.77
494.948	625.72
495.382	632.31
495.815	639.19
496.248	646.93
496.681	660.05
497.114	673.71
497.547	686.81
497.98	702.97
498.413	712.47
498.846	724.26
499.279	735.3
499.711	743.57
500.144	749.35
500.577	762.21
501.009	776.26
501.442	789.67
501.874	794.14
502.306	799.32
502.739	810.15
503.171	828.55
503.603	835.8
504.036	848.46
504.468	857.48
504.9	873.08
505.332	884.68
505.764	892.83
506.196	903.67
506.627	922.58
507.059	940.2
507.491	952.72
507.923	955.6
508.354	975.06
508.786	989.76
509.217	1012.36
509.649	1030.3
510.08	1053.39
510.512	1074.86
510.943	1095.13
511.374	1110.37
511.805	1134.34
512.237	1157.29
512.668	1193.05
513.099	1224.71
513.53	1257.13
513.961	1281.2
514.391	1317.17
514.822	1354.08
515.253	1393.45
515.684	1421.79
516.114	1454.53
516.545	1477.93
516.975	1507.14
517.406	1526.07
517.836	1529.71
518.267	1536.51
518.697	1556.24
519.127	1561.07
519.558	1568.44
519.988	1572.88
520.418	1583.28
520.848	1602.52
521.278	1612.56
521.708	1631.35
522.138	1644.88
522.567	1677.61
522.997	1704.78
523.427	1720.79
523.857	1738.6
524.286	1748.97
524.716	1763.54
525.145	1783.64
525.575	1793.69
526.004	1807.63
526.433	1799.63
526.863	1799.62
527.292	1786.62
527.721	1792.27
528.15	1797.35
528.579	1797.53
529.008	1808.21
529.437	1832.34
529.866	1845.29
530.295	1863.53
530.724	1876.8
531.152	1904.42
531.581	1918.76
532.01	1938.01
532.438	1945.8
532.867	1960.88
533.295	1980
533.723	1985.98
534.152	1983.48
534.58	1983.66
535.008	1965.31
535.436	1967.56
535.865	1975.96
536.293	1992.25
536.721	2009.28
537.149	2036.65
537.576	2039.67
538.004	2053.05
538.432	2061.03
538.86	2058.68
539.287	2065.26
539.715	2080.46
540.143	2082.68
540.57	2078.53
540.998	2073.7
541.425	2048.5
541.852	2024.49
542.28	2021.01
542.707	2003.23
543.134	1988.57
543.561	1984.09
543.988	1976.3
544.415	1975.67
544.842	1968.14
545.269	1959.03
545.696	1960.52
546.123	1974.43
546.549	1963.26
546.976	1949.72
547.403	1949.03
547.829	1950.85
548.256	1953.72
548.682	1949.02
549.108	1940.37
549.535	1940.13
549.961	1942.45
550.387	1927.46
550.813	1919.99
551.24	1926.47
551.666	1927.58
552.092	1918.27
552.518	1911.77
552.943	1904.77
553.369	1913.08
553.795	1918.99
554.221	1919.32
554.646	1916.02
555.072	1928.51
555.498	1934.16
555.923	1944.42
556.349	1961.39
556.774	1969.6
557.199	1970.92
557.625	1976.74
558.05	1969.77
558.475	1980.57
558.9	1980.33
559.325	1972.13
559.75	1965.26
560.175	1960.05
560.6	1953.1
561.025	1950.11
561.449	1951.64
561.874	1956.48
562.299	1962.2
562.723	1970.27
563.148	1960.11
563.572	1965.46
563.997	1976.91
564.421	1982.52
564.846	1982.89
565.27	1988.65
565.694	1987.29
566.118	2001.3
566.542	2012
566.966	2005.19
567.39	2001.24
567.814	1990.53
568.238	1991.75
568.662	1998.45
569.086	2002.33
569.509	2011.98
569.933	1995.43
570.357	1988.44
570.78	1965.38
571.204	1951.01
571.627	1940.55
572.05	1939.82
572.474	1941.66
572.897	1928.55
573.32	1921.32
573.743	1911.9
574.166	1891.92
574.589	1893.2
575.012	1886.54
575.435	1886.11
575.858	1877.07
576.281	1865.61
576.704	1848.96
577.126	1835.77
577.549	1823.76
577.972	1812.46
578.394	1800.97
578.817	1794.05
579.239	1772.71
579.661	1756.73
580.084	1739.85
580.506	1724.82
580.928	1720.1
581.35	1708.4
581.772	1703.44
582.194	1689.15
582.616	1675.66
583.038	1660.03
583.46	1648.11
583.882	1645.03
584.303	1650.7
584.725	1646.18
585.147	1649.77
585.568	1661.35
585.99	1675.56
586.411	1681.79
586.833	1697.65
587.254	1699.22
587.675	1716.13
588.096	1731.51
588.518	1727.48
588.939	1709.63
589.36	1707.46
589.781	1695.67
590.202	1665.34
590.623	1654.97
591.043	1653.81
591.464	1640.53
591.885	1637.66
592.305	1631.4
592.726	1615.54
593.147	1615.22
593.567	1608.28
593.987	1600.64
594.408	1594.69
594.828	1593.26
595.248	1586.81
595.669	1565.82
596.089	1558.25
596.509	1550.6
596.929	1535.5
597.349	1536.53
597.769	1525.61
598.189	1518.61
598.608	1519.82
599.028	1522.1
599.448	1521.08
599.867	1506.9
600.287	1502.15
600.706	1497.2
601.126	1485.38
601.545	1483.27
601.965	1481.29
602.384	1476.31
602.803	1479.79
603.222	1474.5
603.641	1467.33
604.061	1463.97
604.48	1459.64
604.898	1468.43
605.317	1473.24
605.736	1475.97
606.155	1472.92
606.574	1461.56
606.992	1466.24
607.411	1460.96
607.829	1452.03
608.248	1447.88
608.666	1444.84
609.085	1443.05
609.503	1433.31
609.921	1426.15
610.339	1428.21
610.758	1427.02
611.176	1422.13
611.594	1411.89
612.012	1406.89
612.43	1408.88
612.847	1415.52
613.265	1415.24
613.683	1420.29
614.101	1420.99
614.518	1416.55
614.936	1404.91
615.353	1389.07
615.771	1384.78
616.188	1384.66
616.606	1379.93
617.023	1372.04
617.44	1355.59
617.857	1347.62
618.274	1337.47
618.691	1330.06
619.108	1320.06
619.525	1312.77
619.942	1319.49
620.359	1322.16
620.776	1315.98
621.192	1311.26
621.609	1307.96
622.026	1314.56
622.442	1319.79
622.859	1323.16
623.275	1314.45
623.691	1318.76
624.108	1330.26
624.524	1344.6
624.94	1344.78
625.356	1355.23
625.772	1370.28
626.188	1383.04
626.604	1384.43
627.02	1380.61
627.436	1379.15
627.852	1387.22
628.268	1400.62
628.683	1390.37
629.099	1381.4
629.514	1375.77
629.93	1378.97
630.345	1381.86
630.761	1377.11
631.176	1381.09
631.591	1374.79
632.007	1367.03
632.422	1364.36
632.837	1351.81
633.252	1349.55
633.667	1337.76
634.082	1328.69
634.497	1314.6
634.911	1294.21
635.326	1289.51
635.741	1270.9
636.155	1259.29
636.57	1258.6
636.984	1257.74
637.399	1257.71
637.813	1255.85
638.228	1252.99
638.642	1255.33
639.056	1243.55
639.47	1242.05
639.884	1232.68
640.298	1223.75
640.712	1219.44
641.126	1205.78
641.54	1193.96
641.954	1187.08
642.368	1172.94
642.781	1163.41
643.195	1142.67
643.609	1141.75
644.022	1133.75
644.436	1126.69
644.849	1112.02
645.262	1098.15
645.676	1097.54
646.089	1091.31
646.502	1074.34
646.915	1066.4
647.328	1046.84
647.741	1042.65
648.154	1026.26
648.567	1020.56
648.98	1004.69
649.393	1002.72
649.805	998.03
650.218	987.77
650.631	969.25
651.043	960.9
651.456	952.26
651.868	949.64
652.28	964.21
652.693	975
653.105	978.59
653.517	985.67
653.929	984.38
654.341	987.43
654.753	974.58
655.165	978.93
655.577	972.89
655.989	967.34
656.401	957.55
656.813	920.4
657.224	898.94
657.636	868.84
658.047	847.48
658.459	825.9
658.87	812.79
659.282	797.03
659.693	773.45
660.104	756.67
660.515	739.28
660.926	733.94
661.338	726.27
661.749	715.73
662.159	703.85
662.57	696.05
662.981	686.79
663.392	675.62
663.803	673.88
664.213	667.29
664.624	658.41
665.035	656.84
665.445	640.3
665.855	630.6
666.266	620.85
666.676	614.04
667.086	602.96
667.497	599.34
667.907	591.39
668.317	582.14
668.727	577.5
669.137	575.51
669.547	570.33
669.956	570.45
670.366	569.88
670.776	569.47
671.186	570.72
671.595	573.11
672.005	573.31
672.414	571.92
672.824	569.42
673.233	570.98
673.642	572.11
674.052	574.16
674.461	576.34
674.87	578.86
675.279	576.75
675.688	577.58
676.097	578.14
676.506	576.16
676.915	587.49
677.323	590.01
677.732	589.18
678.141	590.3
678.549	584
678.958	582.88
679.366	583.31
679.775	587.79
680.183	598.91
680.592	605.95
681	613.57
681.408	611.3
681.816	620.5
682.224	631.72
682.632	643.41
683.04	671.41
683.448	696.72
683.856	729.07
684.264	764.17
684.671	798.13
685.079	840.17
685.487	886.17
685.894	949.22
686.302	1004.18
686.709	1051.75
687.116	1108.98
687.524	1157.83
687.931	1201.05
688.338	1241.53
688.745	1278.24
689.152	1317.25
689.559	1366.68
689.966	1418.78
690.373	1446.78
690.78	1494.4
691.187	1563.16
691.593	1614.33
692	1659.8
692.407	1726.49
692.813	1804.11
693.22	1867.6
693.626	1933.74
694.032	1986.56
694.439	2061.48
694.845	2122.45
695.251	2196.99
695.657	2262.93
696.063	2363.33
696.469	2438.32
696.875	2506.73
