Data from C_2_HIR_WI_4N_Splice17_12-33-22-233.txt Node
Date: Sat Mar 14 12:33:22 EDT 2020
User: sa697716
Spectrometer: FLMS03696
Trigger mode: 0
Integration Time (sec): 3.180400E-1
Scans to average: 20
Electric dark correction enabled: true
Nonlinearity correction enabled: true
Boxcar width: 5
XAxis mode: Wavelengths
Number of Pixels in Spectrum: 2048
>>>>>Begin Spectral Data<<<<<
187.83	-338335.33
188.298	2540.19
188.766	1310.43
189.233	1191.95
189.701	1712.44
190.169	2397.52
190.636	897.65
191.104	735.82
191.571	123.82
192.039	-15.94
192.506	26.03
192.974	808.48
193.441	-1183.44
193.908	-490.51
194.375	-94.29
194.842	0.12
195.31	96.17
195.777	193.15
196.244	427.64
196.711	495.66
197.177	608.63
197.644	870.89
198.111	1506.69
198.578	2106.48
199.045	1648.11
199.511	2661.97
199.978	3112.38
200.445	2652.81
200.911	2923.49
201.378	3285.19
201.844	2995.77
202.31	5138.21
202.777	5350.61
203.243	2966.8
203.709	2790.18
204.176	3344.74
204.642	2748.35
205.108	2556.45
205.574	2077.01
206.04	1879.16
206.506	1753.77
206.972	1645.77
207.438	1591.45
207.903	1791.65
208.369	1586.48
208.835	1609.47
209.301	1681.67
209.766	1718.07
210.232	1704.34
210.697	2109.67
211.163	2629.16
211.628	3991.34
212.094	3371.3
212.559	4170.71
213.024	2609.76
213.49	3170.61
213.955	3093.61
214.42	3041.93
214.885	2861.61
215.35	2767.47
215.815	2688.53
216.28	2855.91
216.745	2341.45
217.21	2557.26
217.675	2365.71
218.14	2694.75
218.604	3061.12
219.069	3526.53
219.534	3751.19
219.998	4418.72
220.463	5397.03
220.927	6694.97
221.392	6336.31
221.856	6448.93
222.32	8143.77
222.785	10103.48
223.249	12740.47
223.713	14230.01
224.177	14253.17
224.642	18285.85
225.106	22464.69
225.57	24559.64
226.034	18289
226.497	27903.08
226.961	25177.95
227.425	29392.69
227.889	32550.01
228.353	32610.09
228.816	67409.04
229.28	64517.09
229.744	54439.99
230.207	33110.74
230.671	32573.82
231.134	53874.56
231.597	62004.12
232.061	62044.92
232.524	60387.44
232.987	41609.05
233.45	37449.02
233.914	33588.49
234.377	34430.92
234.84	31495.24
235.303	37119.12
235.766	41446.8
236.229	42835.76
236.691	26991.55
237.154	30311.28
237.617	22825.72
238.08	23381.35
238.542	27326.12
239.005	19534.93
239.468	19381.32
239.93	18267.27
240.393	16590.82
240.855	14551.04
241.317	14883.75
241.78	18119.73
242.242	18738.51
242.704	20234.13
243.166	17629.58
243.629	15994.96
244.091	18403.51
244.553	20161.02
245.015	21639.04
245.477	27997.88
245.939	41036.35
246.4	43553.21
246.862	42287.11
247.324	39819.98
247.786	44527.16
248.247	58318.21
248.709	60252.41
249.17	45039.42
249.632	42377.85
250.093	49116.46
250.555	42378.4
251.016	25797.3
251.477	24457.3
251.939	26373.15
252.4	27653.5
252.861	32866.83
253.322	30543.89
253.783	36289.03
254.244	47002.18
254.705	37054.71
255.166	32922.91
255.627	32381.45
256.088	45703.46
256.549	48499.29
257.009	41747.41
257.47	50603.01
257.931	41156.87
258.391	30828.49
258.852	31772.91
259.312	33335.46
259.773	41171.23
260.233	34811.84
260.694	29360.33
261.154	33286.66
261.614	26690.48
262.074	23864.67
262.534	24777.06
262.994	23346.6
263.455	31053.95
263.915	26145.01
264.374	24592.16
264.834	26823.57
265.294	29708.3
265.754	30757.11
266.214	29100.6
266.673	27269.37
267.133	34384.42
267.593	34133.74
268.052	41759.99
268.512	36313.97
268.971	43790.47
269.431	48033.64
269.89	43014.75
270.349	64425.89
270.809	71766.74
271.268	64439.56
271.727	144516.91
272.186	93554.38
272.645	70095.81
273.104	50532.97
273.563	73195.92
274.022	57490.21
274.481	48873.32
274.94	37625.5
275.399	27971.79
275.857	32575.34
276.316	44049.81
276.775	39165.41
277.233	38533.83
277.692	36051.91
278.15	40725.64
278.609	41805.24
279.067	38704.37
279.525	35894.2
279.984	46313.53
280.442	55580.77
280.9	54733.42
281.358	35978.82
281.816	33485.45
282.274	32791.91
282.732	33858.67
283.19	34028.41
283.648	29405.16
284.106	31308.07
284.564	31857.27
285.021	29522.14
285.479	21969.39
285.937	19961.28
286.394	17506.98
286.852	17997.46
287.309	18901.67
287.767	18241.81
288.224	17339.79
288.682	18992.65
289.139	20812.77
289.596	19019.13
290.053	19767.95
290.511	24949.08
290.968	30247.17
291.425	41048.3
291.882	34180.59
292.339	29707.73
292.796	29464.11
293.252	27726.83
293.709	22026.67
294.166	19723.89
294.623	21791.75
295.079	20885.05
295.536	20964.83
295.992	19027.19
296.449	18784.53
296.905	19506.48
297.362	18700.28
297.818	19659.76
298.274	20377.54
298.731	20734.8
299.187	20524.36
299.643	22026.93
300.099	26628.12
300.555	29195.39
301.011	24381.38
301.467	23490.99
301.923	27471.52
302.379	26800.19
302.835	26313.88
303.291	26323.81
303.746	29958.56
304.202	37778.95
304.658	37885.93
305.113	25467.94
305.569	24941.02
306.024	26579.05
306.479	25310.83
306.935	21300.74
307.39	23257.51
307.845	21433.81
308.301	21575.77
308.756	20996.59
309.211	20218.19
309.666	20701.21
310.121	25638.4
310.576	26002.82
311.031	25770.77
311.486	29419.4
311.94	29435.95
312.395	39288.72
312.85	73860.68
313.305	362746.26
313.759	1876706.28
314.214	135962.08
314.668	107762.4
315.123	90586.19
315.577	32479.87
316.032	28880.69
316.486	36245.99
316.94	28550.36
317.394	19883.69
317.849	15442.02
318.303	14610.85
318.757	13773.93
319.211	15225.13
319.665	13303.76
320.119	13466.66
320.572	19267.77
321.026	17971.33
321.48	14945.06
321.934	16290.87
322.387	16317.45
322.841	17608.09
323.295	15814.55
323.748	18215.2
324.202	18465.83
324.655	22161.76
325.108	30932.14
325.562	21882.58
326.015	26039.32
326.468	19663.07
326.921	21962.1
327.374	20454.81
327.827	21279.45
328.28	24076.07
328.733	16105.15
329.186	14151.5
329.639	13487.89
330.092	11376.77
330.545	10823.89
330.997	10900.1
331.45	11905.91
331.903	13944.68
332.355	23992.96
332.808	23321.15
333.26	19212.06
333.713	20871.57
334.165	21011.19
334.617	27990.28
335.069	22575.87
335.522	40738.82
335.974	45094.95
336.426	41180.12
336.878	28505.83
337.33	14456.95
337.782	14109.26
338.234	17674.21
338.686	21112.26
339.137	25011.04
339.589	23565.65
340.041	18504.59
340.493	15899.15
340.944	16276.02
341.396	17518.03
341.847	14731.8
342.299	17372.79
342.75	21194
343.201	18489.17
343.653	21269.43
344.104	26136.04
344.555	20559.83
345.006	31855.54
345.457	24404.35
345.908	19374.01
346.359	18227.44
346.81	14830.63
347.261	15622.6
347.712	15380.89
348.163	16486.56
348.613	16696.69
349.064	15582.71
349.515	13649.41
349.965	14006.38
350.416	16831.03
350.866	18446.64
351.317	20843.03
351.767	34500.68
352.217	43488.07
352.668	36049.83
353.118	32953.71
353.568	31706.54
354.018	25091.99
354.468	26435.9
354.918	18963.48
355.368	16599.17
355.818	23439.96
356.268	67332.77
356.718	282332.7
357.168	70275.46
357.617	35238.96
358.067	39262.31
358.517	36761.94
358.966	42949.01
359.416	48106.71
359.865	51948.93
360.315	61819.47
360.764	28839.27
361.213	16142.37
361.663	15247.69
362.112	18836.58
362.561	30432.91
363.01	22885.33
363.459	19243.95
363.908	20818.63
364.357	17665.19
364.806	29819.25
365.255	20494.75
365.703	18759.31
366.152	18783.35
366.601	15224.84
367.05	12345.95
367.498	11214.9
367.947	11741.92
368.395	12204.07
368.844	10797.76
369.292	13004.67
369.74	8988.73
370.189	13750.57
370.637	16111.73
371.085	13904.88
371.533	16922.69
371.981	16280.5
372.429	15493.43
372.877	16093.17
373.325	13465.79
373.773	13731.3
374.221	12240.92
374.669	15146.35
375.116	13072.64
375.564	13165.97
376.012	14692.7
376.459	12120.42
376.907	14491.15
377.354	17506.15
377.801	16386.78
378.249	18811.61
378.696	23961.42
379.143	28972.84
379.591	30864.23
380.038	52283.2
380.485	37835.37
380.932	40943.47
381.379	37380.58
381.826	27532.14
382.273	19625.3
382.72	17142.8
383.166	16746.33
383.613	10875.17
384.06	9807.02
384.506	11392.58
384.953	8381.52
385.4	8462.23
385.846	7416.79
386.292	7246.57
386.739	7097.44
387.185	7017.87
387.631	7013.35
388.078	6828.67
388.524	7335.43
388.97	6801.5
389.416	5682.58
389.862	6056.45
390.308	5749.48
390.754	5851.6
391.2	6372.02
391.645	6541.93
392.091	6280.78
392.537	6099.77
392.983	6114.89
393.428	6028.01
393.874	6480.05
394.319	6534.19
394.765	6210.94
395.21	6395.67
395.655	6014.19
396.101	5646.5
396.546	5115.77
396.991	5169.68
397.436	4814.14
397.881	4671.89
398.326	4438.67
398.771	4203.67
399.216	3669.55
399.661	3312.88
400.106	3310.82
400.551	3401.9
400.995	3052.07
401.44	3013.53
401.885	2832.2
402.329	2863.93
402.774	2745.88
403.218	2664.93
403.663	2572.5
404.107	2652.68
404.551	2676.12
404.995	2450.14
405.44	2358.8
405.884	2394.48
406.328	2321.95
406.772	2319.61
407.216	2113.57
407.66	2041.31
408.104	1935.07
408.547	1809.54
408.991	1748.83
409.435	1680.84
409.879	1661.59
410.322	1638.04
410.766	1582.39
411.209	1505.06
411.653	1440.32
412.096	1410.38
412.54	1411.94
412.983	1402.17
413.426	1406.12
413.869	1405.14
414.312	1381.28
414.756	1326.17
415.199	1266.12
415.642	1228.86
416.085	1228.91
416.527	1223.06
416.97	1241.16
417.413	1178.7
417.856	1165.93
418.298	1154.06
418.741	1144.03
419.184	1139.23
419.626	1186.33
420.069	1186.34
420.511	1194.3
420.953	1170.78
421.396	1160.18
421.838	1130.17
422.28	1154.76
422.722	1160.88
423.164	1174.79
423.606	1156.27
424.048	1153.34
424.49	1100.03
424.932	1096.22
425.374	1079.03
425.816	1095.89
426.258	1113.43
426.699	1125.38
427.141	1107.85
427.582	1123.45
428.024	1117.09
428.465	1107.92
428.907	1078.47
429.348	1061.71
429.789	1058.07
430.231	1035.4
430.672	1048.9
431.113	1025.5
431.554	1009.89
431.995	984.72
432.436	950.91
432.877	931.16
433.318	917.2
433.759	912.91
434.2	913.97
434.64	905.14
435.081	908.75
435.522	861.7
435.962	829.79
436.403	812.45
436.843	820.76
437.284	801.4
437.724	778.34
438.164	777.38
438.604	758.64
439.045	729.89
439.485	699.78
439.925	684.47
440.365	665.66
440.805	655.79
441.245	646.23
441.685	624.65
442.125	618.04
442.564	623.2
443.004	610.1
443.444	611.16
443.883	613.66
444.323	609.08
444.762	610.09
445.202	618.55
445.641	632.71
446.081	629.88
446.52	635.18
446.959	631
447.398	617.08
447.837	610.16
448.276	598.81
448.716	602.29
449.154	606.98
449.593	593.91
450.032	594.71
450.471	582.02
450.91	582.44
451.349	583.03
451.787	581.95
452.226	591.78
452.664	593.59
453.103	595.71
453.541	596.15
453.98	596.84
454.418	600.84
454.856	592.07
455.295	592.94
455.733	598.64
456.171	601.59
456.609	604.76
457.047	603.34
457.485	611.55
457.923	613.03
458.361	605.13
458.798	606.67
459.236	605.69
459.674	609.08
460.111	611.45
460.549	605.53
460.987	601.93
461.424	597.71
461.862	594.48
462.299	585.15
462.736	584.46
463.173	586.41
463.611	582.21
464.048	581.77
464.485	586.89
464.922	581.16
465.359	577.68
465.796	573.79
466.233	569.06
466.67	564.43
467.106	564.28
467.543	557.99
467.98	550.78
468.416	535.3
468.853	529.57
469.29	511.77
469.726	506.34
470.162	493.61
470.599	484.37
471.035	480.67
471.471	469.61
471.907	466.27
472.344	463.19
472.78	464.29
473.216	469.02
473.652	462.79
474.088	462.45
474.523	461.66
474.959	465.47
475.395	461.03
475.831	458.44
476.266	460.54
476.702	459.72
477.138	456.05
477.573	454.64
478.008	453.59
478.444	456.86
478.879	461.62
479.314	463.3
479.75	463.54
480.185	466.01
480.62	469.35
481.055	472
481.49	474.95
481.925	481.47
482.36	490.43
482.795	503.67
483.229	517.6
483.664	528.75
484.099	530.66
484.534	540.12
484.968	546.33
485.403	549.09
485.837	548.33
486.271	548.12
486.706	549.92
487.14	544.17
487.574	536.44
488.009	532.12
488.443	528.24
488.877	535.08
489.311	537.09
489.745	544.3
490.179	550.64
490.613	563.51
491.046	570.24
491.48	576.37
491.914	579.01
492.348	585.01
492.781	591.52
493.215	595.52
493.648	598.9
494.082	606.01
494.515	609.44
494.948	619.18
495.382	625.86
495.815	632.79
496.248	640.8
496.681	655.31
497.114	669.76
497.547	682.1
497.98	698.11
498.413	707.86
498.846	721.2
499.279	732.75
499.711	741.01
500.144	747.03
500.577	762.58
501.009	777.52
501.442	791.76
501.874	797.61
502.306	804.05
502.739	816.87
503.171	836.01
503.603	844.49
504.036	859.14
504.468	870.35
504.9	887.91
505.332	898.63
505.764	906.88
506.196	919.34
506.627	938.69
507.059	957.82
507.491	971.8
507.923	974.89
508.354	994.9
508.786	1010.78
509.217	1033.75
509.649	1053.3
510.08	1078.82
510.512	1102.68
510.943	1123.53
511.374	1141.15
511.805	1166.99
512.237	1191.5
512.668	1230.47
513.099	1263.88
513.53	1297.77
513.961	1325.14
514.391	1363.93
514.822	1403.06
515.253	1444.68
515.684	1475.13
516.114	1509.78
516.545	1535.94
516.975	1567.97
517.406	1591.12
517.836	1596.41
518.267	1605.59
518.697	1626.52
519.127	1632.01
519.558	1641.6
519.988	1648.39
520.418	1662.42
520.848	1683.96
521.278	1694.3
521.708	1713.32
522.138	1728.9
522.567	1764.95
522.997	1794.73
523.427	1813.26
523.857	1834.11
524.286	1846.5
524.716	1862.23
525.145	1883.42
525.575	1896.97
526.004	1915.3
526.433	1909.28
526.863	1909.24
527.292	1897.74
527.721	1903.71
528.15	1910.09
528.579	1910.36
529.008	1922.69
529.437	1950.46
529.866	1966.35
530.295	1985.07
530.724	1999.52
531.152	2032
531.581	2048.36
532.01	2068.77
532.438	2079.07
532.867	2095.87
533.295	2117.51
533.723	2124.55
534.152	2122.19
534.58	2121.5
535.008	2103.56
535.436	2105.05
535.865	2114.09
536.293	2131.51
536.721	2150.39
537.149	2179.63
537.576	2182.15
538.004	2197.11
538.432	2206.59
538.86	2202.92
539.287	2211.74
539.715	2228.14
540.143	2231.87
540.57	2225.23
540.998	2220.48
541.425	2193.86
541.852	2169.53
542.28	2168.38
542.707	2149.27
543.134	2132.72
543.561	2128.97
543.988	2119.17
544.415	2116.82
544.842	2110.63
545.269	2102.48
545.696	2104.08
546.123	2119.27
546.549	2107.21
546.976	2091.12
547.403	2090.08
547.829	2092.65
548.256	2094.71
548.682	2091.53
549.108	2082.38
549.535	2080.71
549.961	2082.87
550.387	2068.45
550.813	2060.78
551.24	2067.93
551.666	2069.61
552.092	2059.28
552.518	2051.83
552.943	2045.1
553.369	2053.28
553.795	2061.35
554.221	2063.11
554.646	2059.53
555.072	2071.21
555.498	2077.02
555.923	2087.57
556.349	2106.36
556.774	2116.01
557.199	2117.13
557.625	2124.21
558.05	2117.84
558.475	2130.9
558.9	2130.09
559.325	2121.87
559.75	2114.56
560.175	2107.49
560.6	2100.09
561.025	2097.75
561.449	2099.89
561.874	2106.9
562.299	2111.17
562.723	2119.58
563.148	2107.64
563.572	2112.24
563.997	2124.85
564.421	2131.53
564.846	2132.77
565.27	2137.43
565.694	2133.62
566.118	2146.52
566.542	2154.3
566.966	2147.76
567.39	2143.02
567.814	2130.94
568.238	2130.03
568.662	2135.24
569.086	2137.69
569.509	2145.98
569.933	2128.1
570.357	2120.69
570.78	2096.94
571.204	2083.78
571.627	2072
572.05	2070.1
572.474	2069.82
572.897	2055.89
573.32	2047.43
573.743	2037.07
574.166	2015.99
574.589	2016.63
575.012	2007.82
575.435	2005.69
575.858	1994.9
576.281	1981.18
576.704	1960.98
577.126	1945.48
577.549	1931.99
577.972	1919.92
578.394	1907.26
578.817	1899.19
579.239	1876.18
579.661	1859.92
580.084	1841.2
580.506	1824.56
580.928	1819.45
581.35	1807.74
581.772	1803.77
582.194	1788.7
582.616	1773.67
583.038	1756.32
583.46	1743.83
583.882	1740.08
584.303	1744.91
584.725	1740.25
585.147	1741.72
585.568	1754.58
585.99	1768.76
586.411	1775.8
586.833	1792.53
587.254	1794.07
587.675	1810.9
588.096	1824.86
588.518	1819.92
588.939	1799.4
589.36	1797.22
589.781	1786.26
590.202	1752.97
590.623	1742.58
591.043	1739.18
591.464	1723.72
591.885	1717.66
592.305	1710.75
592.726	1695.16
593.147	1695.61
593.567	1691.35
593.987	1681.66
594.408	1675.16
594.828	1671.94
595.248	1664.18
595.669	1642.33
596.089	1635.02
596.509	1629.07
596.929	1613.79
597.349	1613.98
597.769	1602.11
598.189	1594.71
598.608	1597.2
599.028	1599.06
599.448	1599.39
599.867	1584.81
600.287	1580.55
600.706	1574.34
601.126	1563.23
601.545	1561.6
601.965	1560.69
602.384	1555.29
602.803	1557.34
603.222	1550.88
603.641	1543.12
604.061	1538.9
604.48	1534.48
604.898	1542.42
605.317	1547.99
605.736	1549.49
606.155	1545.37
606.574	1534.13
606.992	1539.12
607.411	1533.1
607.829	1522.63
608.248	1517.92
608.666	1514.12
609.085	1512.55
609.503	1502.83
609.921	1495.45
610.339	1496.73
610.758	1494.76
611.176	1487.52
611.594	1475.33
612.012	1470.07
612.43	1472.26
612.847	1478.65
613.265	1478.24
613.683	1481.81
614.101	1482.39
614.518	1476.26
614.936	1463.8
615.353	1446.98
615.771	1443.98
616.188	1443.96
616.606	1438.99
617.023	1432.01
617.44	1415.52
617.857	1407.47
618.274	1395.77
618.691	1387.79
619.108	1376.55
619.525	1368.11
619.942	1373.56
620.359	1375.36
620.776	1368.79
621.192	1364.8
621.609	1360.23
622.026	1366.21
622.442	1372.7
622.859	1376.99
623.275	1367.72
623.691	1374.14
624.108	1388.23
624.524	1402.93
624.94	1402.64
625.356	1414.13
625.772	1427.43
626.188	1440.85
626.604	1442.33
627.02	1437.65
627.436	1435.67
627.852	1443.01
628.268	1455.18
628.683	1443.87
629.099	1435.98
629.514	1429.65
629.93	1432.87
630.345	1437.02
630.761	1432.2
631.176	1435.61
631.591	1428.14
632.007	1420.5
632.422	1418.3
632.837	1404.83
633.252	1401.69
633.667	1389.05
634.082	1377.34
634.497	1362.72
634.911	1341.24
635.326	1336.29
635.741	1316.96
636.155	1304.53
636.57	1304.1
636.984	1301.66
637.399	1303.85
637.813	1301.39
638.228	1299.34
638.642	1302.84
639.056	1289.34
639.47	1286.53
639.884	1274.46
640.298	1265.51
640.712	1262.37
641.126	1247.29
641.54	1235.6
641.954	1224.69
642.368	1210.33
642.781	1198.53
643.195	1177.09
643.609	1173.77
644.022	1165.41
644.436	1158.94
644.849	1143.25
645.262	1128.61
645.676	1126.82
646.089	1119.55
646.502	1102.86
646.915	1092.94
647.328	1072.66
647.741	1068.23
648.154	1053.41
648.567	1047.67
648.98	1032.68
649.393	1030.62
649.805	1022.94
650.218	1011.88
650.631	994.84
651.043	986.69
651.456	979.2
651.868	976.83
652.28	991.09
652.693	1002.23
653.105	1005.18
653.517	1011.36
653.929	1009.28
654.341	1013.52
654.753	999.86
655.165	1001.01
655.577	994.16
655.989	985.79
656.401	975.71
656.813	938.37
657.224	913.88
657.636	883.8
658.047	862.52
658.459	839.47
658.87	825.95
659.282	810.73
659.693	787.66
660.104	769.06
660.515	752.96
660.926	747.59
661.338	739.29
661.749	729.16
662.159	715.95
662.57	706.6
662.981	698.38
663.392	686.88
663.803	685.73
664.213	678.08
664.624	670.28
665.035	667.28
665.445	650.08
665.855	640.68
666.266	631.31
666.676	625.94
667.086	615.72
667.497	611.36
667.907	603.43
668.317	592.72
668.727	589.02
669.137	587.34
669.547	583.08
669.956	582.64
670.366	581.37
670.776	580.38
671.186	580.84
671.595	580.91
672.005	581.31
672.414	580.74
672.824	578.86
673.233	580.33
673.642	581.65
674.052	584.31
674.461	586.29
674.87	589.34
675.279	587.71
675.688	588.83
676.097	591.74
676.506	591.08
676.915	601.42
677.323	604.74
677.732	604.1
678.141	604.72
678.549	596.95
678.958	597.18
679.366	597.68
679.775	604.04
680.183	615.62
680.592	622.05
681	628.88
681.408	627.63
681.816	636.86
682.224	647.59
682.632	661.27
683.04	690.21
683.448	716.26
683.856	749.76
684.264	786.22
684.671	821.68
685.079	865.65
685.487	913.35
685.894	978.01
686.302	1034.49
686.709	1086.5
687.116	1144.52
687.524	1197.32
687.931	1243.91
688.338	1286.14
688.745	1324.75
689.152	1366.26
689.559	1418.98
689.966	1473.45
690.373	1504.65
690.78	1555.55
691.187	1626.72
691.593	1683.82
692	1733.77
692.407	1805.67
692.813	1890.69
693.22	1958.92
693.626	2029.74
694.032	2088.41
694.439	2173.26
694.845	2240.48
695.251	2323.83
695.657	2399.11
696.063	2508.41
696.469	2589.85
