Data from C_2_DIV_PA_2N_Splice17_12-40-24-332.txt Node
Date: Sat Mar 14 12:40:24 EDT 2020
User: sa697716
Spectrometer: FLMS03696
Trigger mode: 0
Integration Time (sec): 3.180400E-1
Scans to average: 20
Electric dark correction enabled: true
Nonlinearity correction enabled: true
Boxcar width: 5
XAxis mode: Wavelengths
Number of Pixels in Spectrum: 2048
>>>>>Begin Spectral Data<<<<<
187.83	-318492.69
188.298	2349.39
188.766	1263.97
189.233	1187.55
189.701	1646.08
190.169	2281.54
190.636	905.32
191.104	756.57
191.571	116.72
192.039	-70.4
192.506	-20.13
192.974	688.35
193.441	-1090.93
193.908	-395.59
194.375	-74.42
194.842	16.37
195.31	120.33
195.777	175.87
196.244	386.65
196.711	405.74
197.177	484.29
197.644	673.43
198.111	1155.97
198.578	1593.21
199.045	1267.47
199.511	2064.79
199.978	2365.75
200.445	1997.92
200.911	2236.31
201.378	2459.49
201.844	2236.62
202.31	3821.59
202.777	4002.99
203.243	2249.47
203.709	2117.79
204.176	2508.66
204.642	2077.44
205.108	1961.28
205.574	1598.02
206.04	1422.27
206.506	1344.44
206.972	1251.48
207.438	1218.1
207.903	1375.99
208.369	1209.75
208.835	1220.48
209.301	1282.59
209.766	1293.46
210.232	1265.03
210.697	1560.31
211.163	1961.66
211.628	2933.46
212.094	2501.52
212.559	3122.15
213.024	1959.01
213.49	2415.81
213.955	2364.96
214.42	2308.29
214.885	2184.24
215.35	2111.96
215.815	2094.94
216.28	2224.7
216.745	1812.4
217.21	1975.04
217.675	1806.32
218.14	2047.18
218.604	2277.88
219.069	2656.84
219.534	2850.82
219.998	3336.4
220.463	4096.55
220.927	5061.01
221.392	4825.16
221.856	4964.89
222.32	6309.97
222.785	7851.9
223.249	9945.81
223.713	11164.39
224.177	11204.55
224.642	14420.82
225.106	17817.25
225.57	19535.49
226.034	14634.02
226.497	22297.75
226.961	20158.51
227.425	23509.12
227.889	26153.15
228.353	26217.36
228.816	54321.54
229.28	52154.16
229.744	44094.73
230.207	26866.42
230.671	26511.25
231.134	43811.25
231.597	50732.56
232.061	50827.63
232.524	49710.66
232.987	34294.44
233.45	30935.97
233.914	27838.03
234.377	28566.6
234.84	26207.3
235.303	30960.59
235.766	34577.32
236.229	35825.02
236.691	22576.62
237.154	25399.48
237.617	19137.91
238.08	19648.96
238.542	23013.08
239.005	16486.96
239.468	16376.06
239.93	15435.67
240.393	14051.18
240.855	12365.23
241.317	12682.22
241.78	15449.69
242.242	16025.4
242.704	17333.64
243.166	15131.87
243.629	13798.89
244.091	15912.57
244.553	17493.53
245.015	18867.94
245.477	24476.22
245.939	35948.11
246.4	38262.5
246.862	37265.28
247.324	35162.49
247.786	39461.2
248.247	51729.96
248.709	53364.71
249.17	40008.06
249.632	37747.88
250.093	43840.83
250.555	37914.53
251.016	23166.22
251.477	22006.84
251.939	23803.82
252.4	25011.26
252.861	29766.09
253.322	27745.19
253.783	33095.97
254.244	42932.01
254.705	33899.98
255.166	30168.97
255.627	29731
256.088	41934.06
256.549	44508.82
257.009	38295.73
257.47	46523.89
257.931	37913.36
258.391	28443.25
258.852	29360.32
259.312	30824.42
259.773	38114.03
260.233	32222.13
260.694	27205.66
261.154	30876.06
261.614	24831.3
262.074	22241.1
262.534	23122.25
262.994	21808.43
263.455	29063.28
263.915	24503.78
264.374	23098.55
264.834	25215.54
265.294	27969.42
265.754	28990.68
266.214	27493.69
266.673	25794.17
267.133	32581.24
267.593	32338.9
268.052	39573.87
268.512	34444.77
268.971	41575.42
269.431	45609.01
269.89	40895.7
270.349	61331.04
270.809	68424.82
271.268	61504.4
271.727	138038.15
272.186	89471.43
272.645	67175.8
273.104	48494.71
273.563	70231.23
274.022	55227.78
274.481	47008.85
274.94	36216.72
275.399	26907.28
275.857	31325.02
276.316	42397.22
276.775	37676.52
277.233	37101.08
277.692	34719.71
278.15	39273.69
278.609	40409.57
279.067	37348.62
279.525	34683.03
279.984	44771.75
280.442	53831.28
280.9	53065.42
281.358	34865.89
281.816	32523.53
282.274	31844.36
282.732	32908.11
283.19	33047.27
283.648	28496.61
284.106	30393.11
284.564	30885.56
285.021	28648.29
285.479	21323.32
285.937	19382.38
286.394	17020.93
286.852	17510.38
287.309	18398.98
287.767	17767.76
288.224	16913.69
288.682	18574.08
289.139	20391.05
289.596	18673.38
290.053	19408.6
290.511	24534.84
290.968	29795.48
291.425	40457.25
291.882	33694.41
292.339	29343.76
292.796	29161.23
293.252	27496.01
293.709	21874.54
294.166	19611.15
294.623	21692.18
295.079	20804.3
295.536	20907.68
295.992	18980.66
296.449	18777.22
296.905	19521.33
297.362	18730.07
297.818	19683.64
298.274	20437.2
298.731	20816.9
299.187	20597.8
299.643	22121.25
300.099	26786.82
300.555	29386.35
301.011	24555.81
301.467	23675.28
301.923	27681.09
302.379	27042.97
302.835	26565.44
303.291	26568.47
303.746	30232.9
304.202	38214.78
304.658	38359.9
305.113	25795.48
305.569	25280.67
306.024	26946.57
306.479	25629.71
306.935	21637.74
307.39	23628.04
307.845	21814.37
308.301	21952.97
308.756	21402.78
309.211	20603.26
309.666	21095.6
310.121	26206.82
310.576	26591.72
311.031	26396.91
311.486	30231.7
311.94	30148.47
312.395	40250.83
312.85	75646.33
313.305	371728.82
313.759	1921915.56
314.214	139398.56
314.668	110616.34
315.123	92989.12
315.577	33362.66
316.032	29685.91
316.486	37201.6
316.94	29384
317.394	20516.85
317.849	15968.6
318.303	15113.29
318.757	14288.95
319.211	15811.62
319.665	13837.09
320.119	14028.76
320.572	20122.65
321.026	18825.73
321.48	15681.93
321.934	17117.63
322.387	17139.31
322.841	18519.84
323.295	16686.48
323.748	19226.25
324.202	19490.42
324.655	23448.33
325.108	32741.34
325.562	23111.28
326.015	27475.71
326.468	20774.77
326.921	23256.4
327.374	21691.64
327.827	22591.75
328.28	25581.14
328.733	17158.46
329.186	15117.37
329.639	14407.41
330.092	12160.87
330.545	11600.1
330.997	11697.54
331.45	12796.35
331.903	14993.85
332.355	25786.99
332.808	25094.71
333.26	20709.12
333.713	22481.57
334.165	22650.88
334.617	30205.92
335.069	24377.41
335.522	44108.15
335.974	48829.07
336.426	44640.75
336.878	30918.59
337.33	15697.42
337.782	15282.14
338.234	19147.1
338.686	22905.07
339.137	27145.27
339.589	25618.48
340.041	20082.99
340.493	17257.61
340.944	17658.28
341.396	19016.36
341.847	16009.09
342.299	18910.6
342.75	23162.62
343.201	20250.97
343.653	23312.19
344.104	28671.28
344.555	22548.86
345.006	35175.38
345.457	26994.27
345.908	21499.86
346.359	20260.4
346.81	16520.16
347.261	17438.77
347.712	17175.5
348.163	18403.53
348.613	18659.13
349.064	17443.22
349.515	15287.09
349.965	15667.83
350.416	18868.09
350.866	20707.76
351.317	23416.34
351.767	38810.35
352.217	49005.71
352.668	40671.27
353.118	37370.81
353.568	35993.43
354.018	28443.31
354.468	30019.68
354.918	21527.35
355.368	18829.78
355.818	26609.69
356.268	76643.56
356.718	320921.1
357.168	79941.5
357.617	40138.04
358.067	44589.58
358.517	41723.64
358.966	48906.97
359.416	54854.8
359.865	59368.04
360.315	70747.42
360.764	33073.69
361.213	18539.73
361.663	17573.71
362.112	21731.96
362.561	35128.93
363.01	26514.81
363.459	22385.06
363.908	24288.97
364.357	20653.88
364.806	34891
365.255	24025.79
365.703	21995.5
366.152	21999.65
366.601	17839.13
367.05	14466.51
367.498	13143.96
367.947	13724.61
368.395	14279.22
368.844	12612.48
369.292	15184.99
369.74	10494.12
370.189	16047.76
370.637	18842.34
371.085	16284.34
371.533	19817.9
371.981	19071.27
372.429	18197.11
372.877	18954.71
373.325	15849.78
373.773	16178.44
374.221	14415.87
374.669	17891.12
375.116	15473.16
375.564	15565.09
376.012	17378.1
376.459	14304.38
376.907	17098.04
377.354	20660.14
377.801	19247.82
378.249	22097.02
378.696	28240.97
379.143	34150.34
379.591	36386.3
380.038	61516.98
380.485	44461.13
380.932	47946.95
381.379	43856.39
381.826	32283.11
382.273	22901.44
382.72	19990.8
383.166	19485.72
383.613	12608.09
384.06	11372.79
384.506	13137.75
384.953	9638.09
385.4	9693.34
385.846	8486.73
386.292	8262.56
386.739	8077.14
387.185	7988.01
387.631	7991.33
388.078	7747.04
388.524	8269.62
388.97	7610.05
389.416	6336.77
389.862	6723.27
390.308	6365.67
390.754	6464.03
391.2	7001.82
391.645	7152.05
392.091	6842.52
392.537	6608
392.983	6608.35
393.428	6505.1
393.874	6974.41
394.319	7009.24
394.765	6647.05
395.21	6823.05
395.655	6385.12
396.101	5981.75
396.546	5402.12
396.991	5451.1
397.436	5060.38
397.881	4887.28
398.326	4628.93
398.771	4394.25
399.216	3837.75
399.661	3454.41
400.106	3441.99
400.551	3528.16
400.995	3168.62
401.44	3135.68
401.885	2941.35
402.329	2977.1
402.774	2859.22
403.218	2774.31
403.663	2666.31
404.107	2749.15
404.551	2777.94
404.995	2549.22
405.44	2461.17
405.884	2502.97
406.328	2428.59
406.772	2430.87
407.216	2222.06
407.66	2151.28
408.104	2045.17
408.547	1919.47
408.991	1858.88
409.435	1792.61
409.879	1776.77
410.322	1761.84
410.766	1710.31
411.209	1630.46
411.653	1567.07
412.096	1538.56
412.54	1544.2
412.983	1541.88
413.426	1553.34
413.869	1556.25
414.312	1532.27
414.756	1480.12
415.199	1414.15
415.642	1374.18
416.085	1380.4
416.527	1373.09
416.97	1400.07
417.413	1333.04
417.856	1321.51
418.298	1314.71
418.741	1309.76
419.184	1311.65
419.626	1372.27
420.069	1379.42
420.511	1392.15
420.953	1367.35
421.396	1361.32
421.838	1330.35
422.28	1366.78
422.722	1377.47
423.164	1396.96
423.606	1379.36
424.048	1380.75
424.49	1316.55
424.932	1312.26
425.374	1298.14
425.816	1322.58
426.258	1350.95
426.699	1366.59
427.141	1348.69
427.582	1373.35
428.024	1370.63
428.465	1365.77
428.907	1334.42
429.348	1316.63
429.789	1316.31
430.231	1289.17
430.672	1306.71
431.113	1278.67
431.554	1261.77
431.995	1231.14
432.436	1186.11
432.877	1162.15
433.318	1141.48
433.759	1137.24
434.2	1140.01
434.64	1129.25
435.081	1131.56
435.522	1072.74
435.962	1032.09
436.403	1009.69
436.843	1021.64
437.284	999.11
437.724	970.8
438.164	973.42
438.604	951.6
439.045	914.08
439.485	876
439.925	857.5
440.365	837.81
440.805	826.38
441.245	815.6
441.685	785.96
442.125	779.13
442.564	781.06
443.004	762.02
443.444	757.65
443.883	758.91
444.323	750.84
444.762	748.54
445.202	754.38
445.641	766.18
446.081	758.77
446.52	763.11
446.959	753.83
447.398	734.33
447.837	722.37
448.276	708.28
448.716	711.85
449.154	716.06
449.593	699.62
450.032	696.11
450.471	681.08
450.91	680.03
451.349	676.86
451.787	673.13
452.226	682.68
452.664	683.05
453.103	683.27
453.541	681.31
453.98	680.95
454.418	685.7
454.856	675.7
455.295	674.38
455.733	681.28
456.171	684.99
456.609	687.58
457.047	686.64
457.485	695.71
457.923	697.39
458.361	687.19
458.798	689.19
459.236	685.6
459.674	690.82
460.111	694.42
460.549	686.73
460.987	683.87
461.424	680.5
461.862	677.32
462.299	667.43
462.736	666.72
463.173	669.12
463.611	662.2
464.048	661.22
464.485	665.33
464.922	658.32
465.359	653.96
465.796	648.58
466.233	644.06
466.67	638.69
467.106	637.72
467.543	630.37
467.98	622.13
468.416	605.32
468.853	600.19
469.29	581.58
469.726	575.93
470.162	560.98
470.599	551.31
471.035	545.59
471.471	532.41
471.907	528.1
472.344	525.44
472.78	527.72
473.216	534.98
473.652	529.61
474.088	528.71
474.523	526.7
474.959	531.26
475.395	525.31
475.831	521.83
476.266	524.05
476.702	522.68
477.138	516.62
477.573	513.93
478.008	511.2
478.444	513.82
478.879	518.61
479.314	520.18
479.75	519.64
480.185	522.54
480.62	526.67
481.055	529.65
481.49	533.62
481.925	540.93
482.36	551.32
482.795	566.18
483.229	580.3
483.664	591.87
484.099	594.97
484.534	604.92
484.968	610.09
485.403	611.28
485.837	609.42
486.271	607.33
486.706	606.74
487.14	599.02
487.574	588.8
488.009	582.03
488.443	575.54
488.877	579.84
489.311	579.18
489.745	584.31
490.179	588.43
490.613	598.32
491.046	600.75
491.48	603.3
491.914	600.56
492.348	602.15
492.781	603.73
493.215	602.89
493.648	601.03
494.082	603.7
494.515	601.83
494.948	606.18
495.382	606.18
495.815	607.42
496.248	609.43
496.681	618.03
497.114	623.9
497.547	628.36
497.98	635.35
498.413	636.77
498.846	640.43
499.279	643.09
499.711	640.75
500.144	638.61
500.577	643.48
501.009	646.97
501.442	650.25
501.874	646.93
502.306	644.01
502.739	646.88
503.171	653.73
503.603	651.11
504.036	652.92
504.468	653.54
504.9	655.96
505.332	655.5
505.764	653.95
506.196	652.46
506.627	657.55
507.059	661.63
507.491	660.25
507.923	653.49
508.354	658.53
508.786	660.05
509.217	666.46
509.649	672.74
510.08	679.76
510.512	685.59
510.943	691.06
511.374	693.28
511.805	702.16
512.237	709.52
512.668	725.25
513.099	738.1
513.53	751.89
513.961	761.3
514.391	776.63
514.822	794.02
515.253	813.37
515.684	824.95
516.114	840.49
516.545	849.61
516.975	863.68
517.406	871.58
517.836	869.51
518.267	871.16
518.697	879.48
519.127	879.35
519.558	880.18
519.988	879.36
520.418	883.37
520.848	891.4
521.278	894.87
521.708	926.14
522.138	932.64
522.567	949.84
522.997	963.69
523.427	971.44
523.857	981.28
524.286	986.7
524.716	995.66
525.145	1007.46
525.575	1014.05
526.004	1022.37
526.433	996.01
526.863	995.44
527.292	990.94
527.721	994.15
528.15	997.17
528.579	998.05
529.008	1005.43
529.437	1018.78
529.866	1026.93
530.295	1037.06
530.724	1046.22
531.152	1062.06
531.581	1071.99
532.01	1082.08
532.438	1086.87
532.867	1096.46
533.295	1108.42
533.723	1112.65
534.152	1111.47
534.58	1111.81
535.008	1103.39
535.436	1104.28
535.865	1109.11
536.293	1116.93
536.721	1127.29
537.149	1144.08
537.576	1146.86
538.004	1154.76
538.432	1159.13
538.86	1159.43
539.287	1164.31
539.715	1173.24
540.143	1175.1
540.57	1173.63
540.998	1172.6
541.425	1160.5
541.852	1147.59
542.28	1146.39
542.707	1136.27
543.134	1128.45
543.561	1125.85
543.988	1122.16
544.415	1121.09
544.842	1117.32
545.269	1112.91
545.696	1114.34
546.123	1121.9
546.549	1115.98
546.976	1108.09
547.403	1107.79
547.829	1108.76
548.256	1109.45
548.682	1106.93
549.108	1104.25
549.535	1105.48
549.961	1107.67
550.387	1099.56
550.813	1096.64
551.24	1100.62
551.666	1101.13
552.092	1095.1
552.518	1091.6
552.943	1089.73
553.369	1093.68
553.795	1096.35
554.221	1096.49
554.646	1094.91
555.072	1102.12
555.498	1104.05
555.923	1109.8
556.349	1120.46
556.774	1125.89
557.199	1126.63
557.625	1129.11
558.05	1126.48
558.475	1132.88
558.9	1132.79
559.325	1127.93
559.75	1124.43
560.175	1120.63
560.6	1116.86
561.025	1114.88
561.449	1116.42
561.874	1119.9
562.299	1123.53
562.723	1127.78
563.148	1122.33
563.572	1124.7
563.997	1130.57
564.421	1134.36
564.846	1134.74
565.27	1137.78
565.694	1136.79
566.118	1144.42
566.542	1151.3
566.966	1147.23
567.39	1145.59
567.814	1139.28
568.238	1139.4
568.662	1142.97
569.086	1144.4
569.509	1149.53
569.933	1141.06
570.357	1137.38
570.78	1124.66
571.204	1117.13
571.627	1111.4
572.05	1110.39
572.474	1110.97
572.897	1104.42
573.32	1100.69
573.743	1094.87
574.166	1085.49
574.589	1085.48
575.012	1081.34
575.435	1081.06
575.858	1074.69
576.281	1068.5
576.704	1059.15
577.126	1052.36
577.549	1045.23
577.972	1039.05
578.394	1033.45
578.817	1030.52
579.239	1018.93
579.661	1011.19
580.084	1003.26
580.506	996.59
580.928	994.33
581.35	987.85
581.772	984.59
582.194	977.38
582.616	970.34
583.038	961.03
583.46	952.91
583.882	952.07
584.303	954.66
584.725	951.36
585.147	956.69
585.568	964.86
585.99	973.93
586.411	979.05
586.833	989.65
587.254	991.06
587.675	1001.19
588.096	1009.99
588.518	1006.29
588.939	997.5
589.36	996.74
589.781	985.99
590.202	969.7
590.623	965.29
591.043	963.77
591.464	955.66
591.885	953.68
592.305	951.07
592.726	943.24
593.147	945.69
593.567	942.09
593.987	938.82
594.408	936.51
594.828	934.22
595.248	930.71
595.669	920.39
596.089	916.65
596.509	913.61
596.929	905.62
597.349	907.2
597.769	901.04
598.189	898.47
598.608	898.94
599.028	899.96
599.448	900.17
599.867	892.16
600.287	889.33
600.706	887.03
601.126	881.69
601.545	881.45
601.965	880.27
602.384	877
602.803	878.46
603.222	875.81
603.641	871.79
604.061	870.56
604.48	867.37
604.898	873.63
605.317	876.39
605.736	878.03
606.155	876.67
606.574	870.56
606.992	873.95
607.411	870.92
607.829	866.05
608.248	864.69
608.666	862.25
609.085	863.53
609.503	857.71
609.921	856.18
610.339	858.54
610.758	857.65
611.176	855.41
611.594	850.96
612.012	849.78
612.43	853.79
612.847	858.25
613.265	861.09
613.683	865.15
614.101	867.72
614.518	864.9
614.936	858.44
615.353	851.51
615.771	851.12
616.188	852.7
616.606	851.15
617.023	846.86
617.44	838.1
617.857	833.98
618.274	828.15
618.691	825.54
619.108	820.53
619.525	816.97
619.942	821.18
620.359	823.11
620.776	820.03
621.192	819.31
621.609	819.13
622.026	826.45
622.442	830.63
622.859	833.32
623.275	827.63
623.691	830.76
624.108	839.19
624.524	849.28
624.94	849.99
625.356	857.25
625.772	865.79
626.188	872.74
626.604	872.95
627.02	870.75
627.436	870.18
627.852	876.55
628.268	886.44
628.683	881.18
629.099	875.76
629.514	873.36
629.93	876.22
630.345	878.7
630.761	876.81
631.176	879.63
631.591	878.14
632.007	875.53
632.422	873.73
632.837	866.06
633.252	865.93
633.667	860.82
634.082	856.29
634.497	849.35
634.911	839.45
635.326	838.91
635.741	829.66
636.155	824.09
636.57	827.73
636.984	830.92
637.399	835.98
637.813	837.38
638.228	838.44
638.642	843.62
639.056	839.08
639.47	841.88
639.884	839.94
640.298	838.96
640.712	841.91
641.126	836.26
641.54	833.09
641.954	830.98
642.368	826.52
642.781	827.36
643.195	818.48
643.609	823.15
644.022	823.55
644.436	823.25
644.849	817.17
645.262	810.52
645.676	814.5
646.089	814.93
646.502	808.09
646.915	806.59
647.328	795.83
647.741	797.4
648.154	789.85
648.567	790.29
648.98	783.16
649.393	787.14
649.805	787.03
650.218	783.12
650.631	771.9
651.043	769.13
651.456	766.65
651.868	767.71
652.28	782.1
652.693	793.84
653.105	797.95
653.517	804.91
653.929	805.47
654.341	811.93
654.753	803.83
655.165	810.1
655.577	809.6
655.989	807.5
656.401	802.8
656.813	777.42
657.224	763.5
657.636	743.19
658.047	733.87
658.459	721.88
658.87	716.46
659.282	710.13
659.693	697.96
660.104	689.93
660.515	681.71
660.926	684.71
661.338	684.67
661.749	682.74
662.159	679.61
662.57	678.4
662.981	677.43
663.392	674.83
663.803	682
664.213	682.4
664.624	680.84
665.035	686.48
665.445	677.57
665.855	675.04
666.266	671.39
666.676	671.2
667.086	666.56
667.497	668.27
667.907	664.24
668.317	658.44
668.727	659.18
669.137	661.19
669.547	661.19
669.956	663.3
670.366	666.48
670.776	668.24
671.186	672.33
671.595	675.12
672.005	677.1
672.414	677.77
672.824	675.19
673.233	676.5
673.642	678.59
674.052	680.72
674.461	682.76
674.87	685.12
675.279	683.48
675.688	683.68
676.097	684.2
676.506	680.74
676.915	691.62
677.323	693.24
677.732	690.31
678.141	687.89
678.549	676.34
678.958	672.5
679.366	668.85
679.775	668.33
680.183	677
680.592	678.17
681	680.27
681.408	671.17
681.816	673.23
682.224	677.39
682.632	682.05
683.04	702.28
683.448	717.62
683.856	738.3
684.264	763.31
684.671	780.9
685.079	804.6
685.487	831.44
685.894	869.81
686.302	898.79
686.709	919.59
687.116	943.71
687.524	961.27
687.931	973.4
688.338	980.37
688.745	981.78
689.152	985.46
689.559	998.43
689.966	1011.28
690.373	1010.01
690.78	1020.72
691.187	1044.24
691.593	1060.21
692	1071.31
692.407	1096.59
692.813	1132.97
693.22	1158.77
693.626	1185.83
694.032	1208.2
694.439	1244.75
694.845	1272.52
695.251	1310.68
695.657	1345.7
696.063	1398.11
696.469	1437.45
696.875	1475.32
697.281	1494.73
697.687	1521.23
698.093	1545.75
698.498	1588.97
698.904	1621.42
699.31	1674.11
699.715	1714.9
700.12	1770.9
700.526	1786.9
700.931	1832.23
701.337	1866.85
701.742	1891.05
702.147	1945.78
