Data from C_2_DIV_WI_4N_Splice17_12-19-10-355.txt Node
Date: Sat Mar 14 12:19:10 EDT 2020
User: sa697716
Spectrometer: FLMS03696
Trigger mode: 0
Integration Time (sec): 3.180400E-1
Scans to average: 20
Electric dark correction enabled: true
Nonlinearity correction enabled: true
Boxcar width: 5
XAxis mode: Wavelengths
Number of Pixels in Spectrum: 2048
>>>>>Begin Spectral Data<<<<<
187.83	-244111.96
188.298	1952.16
188.766	1116.67
189.233	971.55
189.701	1322.85
190.169	1860.68
190.636	672.93
191.104	558
191.571	94.27
192.039	-45.54
192.506	-39.74
192.974	518.2
193.441	-543.9
193.908	42.15
194.375	-8.47
194.842	28.8
195.31	118.7
195.777	170.45
196.244	398.72
196.711	485.18
197.177	589.58
197.644	835.27
198.111	1449.14
198.578	2030
199.045	1635.12
199.511	2692.69
199.978	3160.94
200.445	2700.33
200.911	3002.91
201.378	3363.21
201.844	3075.9
202.31	5273.53
202.777	5493.25
203.243	3085.62
203.709	2931.47
204.176	3479.35
204.642	2883.07
205.108	2688.53
205.574	2188.1
206.04	1988.26
206.506	1853.17
206.972	1744.71
207.438	1699.5
207.903	1930.81
208.369	1682.78
208.835	1686.24
209.301	1778.89
209.766	1832.39
210.232	1818.1
210.697	2254.87
211.163	2804.37
211.628	4253.89
212.094	3584.81
212.559	4365.28
213.024	2736.15
213.49	3332.36
213.955	3252.24
214.42	3190.02
214.885	2959.47
215.35	2853.35
215.815	2758.1
216.28	2926.46
216.745	2389.37
217.21	2590.97
217.675	2416.45
218.14	2735.35
218.604	3088.9
219.069	3557.56
219.534	3744.89
219.998	4368.68
220.463	5300.43
220.927	6555.15
221.392	6202.72
221.856	6301.11
222.32	7956.37
222.785	9815.09
223.249	12377.54
223.713	13821.19
224.177	13838.01
224.642	17812.33
225.106	21973.78
225.57	24075.1
226.034	17932.4
226.497	27276.84
226.961	24650.5
227.425	28729.01
227.889	31924.41
228.353	31908.77
228.816	65954.68
229.28	63052.77
229.744	53188.28
230.207	32320.11
230.671	31802.19
231.134	52595.75
231.597	60719.96
232.061	60749.22
232.524	59286.67
232.987	40775.36
233.45	36677.14
233.914	32888.5
234.377	33733.01
234.84	30844.83
235.303	36379.86
235.766	40553.97
236.229	41867.22
236.691	26352.12
237.154	29583.12
237.617	22242.59
238.08	22780.75
238.542	26682.88
239.005	19085.9
239.468	18907.72
239.93	17813.28
240.393	16176.77
240.855	14204.34
241.317	14551.52
241.78	17692.9
242.242	18290.69
242.704	19722.54
243.166	17175.28
243.629	15554.5
244.091	17888.43
244.553	19585.62
245.015	21019.5
245.477	27147.12
245.939	39733.44
246.4	42106.55
246.862	40867.49
247.324	38464.65
247.786	43065.12
248.247	56428.02
248.709	58305.56
249.17	43619.96
249.632	41072.93
250.093	47548.32
250.555	41043.91
251.016	25003.95
251.477	23702.28
251.939	25561.48
252.4	26811.1
252.861	31819.18
253.322	29526.5
253.783	35128.68
254.244	45480.97
254.705	35869.52
255.166	31915.29
255.627	31419.75
256.088	44303.47
256.549	46991.28
257.009	40466.42
257.47	49081.01
257.931	39971.97
258.391	29967.44
258.852	30882.67
259.312	32384.99
259.773	39933.72
260.233	33681.35
260.694	28379.45
261.154	32176.18
261.614	25840.43
262.074	23077.19
262.534	23953.02
262.994	22551.66
263.455	30035.56
263.915	25259.56
264.374	23766.74
264.834	25948.99
265.294	28768.84
265.754	29785.32
266.214	28187.06
266.673	26366.35
267.133	33248.95
267.593	32960.31
268.052	40326.88
268.512	35058.37
268.971	42242.59
269.431	46303.47
269.89	41440.83
270.349	62076.85
270.809	69198.77
271.268	62150.09
271.727	139434.22
272.186	90377.52
272.645	67749.17
273.104	48830.26
273.563	70639.74
274.022	55580.59
274.481	47221.73
274.94	36357.13
275.399	27016.27
275.857	31440.49
276.316	42512.47
276.775	37833.99
277.233	37205.81
277.692	34842.73
278.15	39423.79
278.609	40547.48
279.067	37482.98
279.525	34825.38
279.984	44940.49
280.442	53976.35
280.9	53145.71
281.358	34942.46
281.816	32519.84
282.274	31881.03
282.732	32888.9
283.19	33027.8
283.648	28508.44
284.106	30369.73
284.564	30868.32
285.021	28617.37
285.479	21318.72
285.937	19388.09
286.394	17020.02
286.852	17515.08
287.309	18383
287.767	17765.74
288.224	16865.51
288.682	18479.21
289.139	20289.63
289.596	18547.87
290.053	19272.78
290.511	24323.92
290.968	29477.62
291.425	39907.64
291.882	33152.2
292.339	28804.35
292.796	28564.47
293.252	26918.33
293.709	21356.03
294.166	19096.17
294.623	21067.39
295.079	20198.58
295.536	20261.85
295.992	18381.55
296.449	18178.39
296.905	18897.76
297.362	18107.31
297.818	19021.15
298.274	19723.28
298.731	20085.83
299.187	19885.12
299.643	21354.93
300.099	25810.26
300.555	28286.62
301.011	23643.41
301.467	22770.1
301.923	26606.34
302.379	25960.54
302.835	25496.88
303.291	25496.42
303.746	29025.99
304.202	36613.33
304.658	36718.45
305.113	24675.89
305.569	24177.5
306.024	25743.77
306.479	24509.26
306.935	20677.21
307.39	22575.68
307.845	20831.16
308.301	20970.89
308.756	20413.94
309.211	19672.98
309.666	20164.86
310.121	25054.14
310.576	25388.54
311.031	25179.69
311.486	28815.16
311.94	28776.82
312.395	38510.24
312.85	72440.29
313.305	355616.75
313.759	1840532.59
314.214	133219.57
314.668	105439.13
315.123	88490.87
315.577	31720.51
316.032	28227.07
316.486	35325.52
316.94	27822.22
317.394	19360.78
317.849	15012.35
318.303	14185.73
318.757	13367.33
319.211	14760.71
319.665	12921.25
320.119	13081.02
320.572	18763.9
321.026	17491.7
321.48	14566.74
321.934	15886.59
322.387	15901.12
322.841	17165.18
323.295	15449.18
323.748	17791.3
324.202	18043.15
324.655	21649.97
325.108	30207.23
325.562	21322.57
326.015	25314.54
326.468	19105.12
326.921	21355.82
327.374	19925.68
327.827	20742.1
328.28	23430.27
328.733	15682.81
329.186	13802.29
329.639	13141.47
330.092	11074.75
330.545	10551.99
330.997	10658.66
331.45	11652.76
331.903	13659.26
332.355	23476.13
332.808	22789.52
333.26	18811.51
333.713	20421.07
334.165	20534.76
334.617	27399.16
335.069	22130.3
335.522	40023
335.974	44343.37
336.426	40511.57
336.878	28038.03
337.33	14198.07
337.782	13862.78
338.234	17351.2
338.686	20752.4
339.137	24658.54
339.589	23232.1
340.041	18198.06
340.493	15620.68
340.944	15952.08
341.396	17162.09
341.847	14417.15
342.299	17021.83
342.75	20776.21
343.201	18147.39
343.653	20843.01
344.104	25558.08
344.555	20113.47
345.006	31267.79
345.457	23917.61
345.908	19002.35
346.359	17849.13
346.81	14533.86
347.261	15270.58
347.712	15016.54
348.163	16077.36
348.613	16286.06
349.064	15182.19
349.515	13289.3
349.965	13623.7
350.416	16357.72
350.866	17933.48
351.317	20307.76
351.767	33594.28
352.217	42427.93
352.668	35238.19
353.118	32272.35
353.568	31143.08
354.018	24634.42
354.468	25928.31
354.918	18608.82
355.368	16331.49
355.818	23075.94
356.268	66240.08
356.718	277487.05
357.168	69210.11
357.617	34723.12
358.067	38659.82
358.517	36104.64
358.966	42286.29
359.416	47539.12
359.865	51367.94
360.315	61038.25
360.764	28466.67
361.213	15969.57
361.663	15128.46
362.112	18662.69
362.561	30167.48
363.01	22763.88
363.459	19184.94
363.908	20759.35
364.357	17629.96
364.806	29793.53
365.255	20508.04
365.703	18820.36
366.152	18852.82
366.601	15283.58
367.05	12412.57
367.498	11284.56
367.947	11766.95
368.395	12256.9
368.844	10867.51
369.292	13089.77
369.74	9056.27
370.189	13857.51
370.637	16265.8
371.085	14050.69
371.533	17132.34
371.981	16531.13
372.429	15782.25
372.877	16487.55
373.325	13826.37
373.773	14125.23
374.221	12596.62
374.669	15646.52
375.116	13615.04
375.564	13747.88
376.012	15407.85
376.459	12742.23
376.907	15288.13
377.354	18509.54
377.801	17340.45
378.249	20025.08
378.696	25653.26
379.143	31214.69
379.591	33426.77
380.038	56651
380.485	41125.52
380.932	44503.07
381.379	40794.9
381.826	30115.16
382.273	21449.24
382.72	18808.43
383.166	18329.66
383.613	11947.51
384.06	10815.81
384.506	12547.98
384.953	9243.84
385.4	9343.04
385.846	8227.53
386.292	8056.49
386.739	7910.17
387.185	7858.82
387.631	7884.28
388.078	7689.85
388.524	8252.1
388.97	7627.58
389.416	6374.4
389.862	6789.46
390.308	6442.79
390.754	6552.77
391.2	7134.08
391.645	7316.75
392.091	7005.35
392.537	6789.92
392.983	6807.35
393.428	6699.09
393.874	7188.64
394.319	7230.9
394.765	6866.47
395.21	7057.67
395.655	6622.05
396.101	6192.26
396.546	5586.85
396.991	5643.66
397.436	5239.79
397.881	5060.15
398.326	4790.24
398.771	4528.42
399.216	3948.28
399.661	3550.55
400.106	3537.55
400.551	3617.21
400.995	3239.44
401.44	3198.71
401.885	2996.61
402.329	3012.15
402.774	2876.14
403.218	2773.41
403.663	2666.69
404.107	2742.27
404.551	2754.05
404.995	2513.62
405.44	2413.44
405.884	2441.8
406.328	2356.32
406.772	2344.76
407.216	2135.76
407.66	2064.19
408.104	1956.63
408.547	1826.9
408.991	1758.16
409.435	1687.66
409.879	1661.2
410.322	1634.25
410.766	1575.71
411.209	1492.05
411.653	1429.09
412.096	1394.99
412.54	1389.7
412.983	1376.38
413.426	1378.38
413.869	1374.63
414.312	1344.92
414.756	1291.53
415.199	1230.12
415.642	1192.49
416.085	1192.11
416.527	1180.46
416.97	1194
417.413	1130.91
417.856	1113.84
418.298	1098.97
418.741	1086.78
419.184	1082.41
419.626	1125.64
420.069	1123.67
420.511	1126.11
420.953	1103.33
421.396	1090.63
421.838	1064.4
422.28	1089.03
422.722	1098.6
423.164	1111.57
423.606	1094.83
424.048	1091.33
424.49	1036.48
424.932	1028.58
425.374	1015.65
425.816	1029.22
426.258	1049.79
426.699	1059
427.141	1040.4
427.582	1052.48
428.024	1046.2
428.465	1037.76
428.907	1012.08
429.348	998.32
429.789	999.01
430.231	975.14
430.672	985.79
431.113	961.12
431.554	943.6
431.995	919.41
432.436	886.24
432.877	865.7
433.318	851.37
433.759	847.45
434.2	848.55
434.64	838.98
435.081	843.74
435.522	800.92
435.962	773.03
436.403	759.89
436.843	769.9
437.284	753.46
437.724	735.06
438.164	736.42
438.604	720.74
439.045	694.22
439.485	666.73
439.925	651.02
440.365	635.47
440.805	626.54
441.245	619.85
441.685	597.57
442.125	594.73
442.564	598.36
443.004	587.24
443.444	585.08
443.883	585.42
444.323	582.8
444.762	583.62
445.202	592.71
445.641	606.16
446.081	602.23
446.52	609.17
446.959	604.43
447.398	590.78
447.837	583.86
448.276	576.33
448.716	582.47
449.154	587.91
449.593	577.82
450.032	575.58
450.471	563.2
450.91	564.56
451.349	565.11
451.787	563.5
452.226	571.63
452.664	573.32
453.103	574.29
453.541	574.66
453.98	574.43
454.418	579.44
454.856	573.05
455.295	573.91
455.733	579.73
456.171	582.83
456.609	584.25
457.047	586.15
457.485	594.35
457.923	596.15
458.361	589.45
458.798	590.4
459.236	588.26
459.674	591.36
460.111	593.15
460.549	587.89
460.987	584.9
461.424	582.36
461.862	579.56
462.299	570.12
462.736	568.95
463.173	569.99
463.611	565.27
464.048	562.84
464.485	566.95
464.922	562.24
465.359	558.48
465.796	553.94
466.233	550.25
466.67	544.09
467.106	544.07
467.543	538.28
467.98	532.01
468.416	517.96
468.853	514.17
469.29	499.64
469.726	493.69
470.162	480.43
470.599	472.51
471.035	467.25
471.471	457.08
471.907	453.25
472.344	451.31
472.78	451.29
473.216	457.02
473.652	451.91
474.088	450.16
474.523	449
474.959	452.53
475.395	447.77
475.831	445.53
476.266	447.57
476.702	447.01
477.138	442.42
477.573	441.06
478.008	438.79
478.444	440.27
478.879	443.56
479.314	445.24
479.75	445.21
480.185	446.24
480.62	449.47
481.055	451.14
481.49	453.47
481.925	458.8
482.36	466.48
482.795	478.55
483.229	491.41
483.664	502.05
484.099	504.19
484.534	511.43
484.968	517.13
485.403	519.63
485.837	519.49
486.271	519.39
486.706	520.46
487.14	516.08
487.574	509.22
488.009	505.03
488.443	501.5
488.877	507.56
489.311	510.18
489.745	518.52
490.179	523.66
490.613	534.54
491.046	539.29
491.48	544.17
491.914	545.29
492.348	550.78
492.781	555.46
493.215	558.65
493.648	560.74
494.082	567.29
494.515	568.9
494.948	577.62
495.382	583.83
495.815	590.63
496.248	598.6
496.681	612.52
497.114	624.81
497.547	636.48
497.98	650.4
498.413	659.63
498.846	671.2
499.279	682.49
499.711	690.27
500.144	696.39
500.577	709.98
501.009	724.1
501.442	737.03
501.874	742.55
502.306	749.37
502.739	761.02
503.171	779.42
503.603	787.78
504.036	800
504.468	809.5
504.9	824.08
505.332	834.12
505.764	842.67
506.196	853.33
506.627	871.44
507.059	888.01
507.491	900.49
507.923	902.65
508.354	920.6
508.786	936.23
509.217	957.92
509.649	977.53
510.08	1000.82
510.512	1021.04
510.943	1040.51
511.374	1056.19
511.805	1080.26
512.237	1103.83
512.668	1141.18
513.099	1173.08
513.53	1204.8
513.961	1229.04
514.391	1264.61
514.822	1302.16
515.253	1343.07
515.684	1372.5
516.114	1406.43
516.545	1433.15
516.975	1463.97
517.406	1485.25
517.836	1491.53
518.267	1501.04
518.697	1524.11
519.127	1530.85
519.558	1541.4
519.988	1547.95
520.418	1561.68
520.848	1583.34
521.278	1594.18
521.708	1600.49
522.138	1616.12
522.567	1650.49
522.997	1679.52
523.427	1697.82
523.857	1719.45
524.286	1733.02
524.716	1751.06
525.145	1772.78
525.575	1785.92
526.004	1803.03
526.433	1812.28
526.863	1813.52
527.292	1804.09
527.721	1811.65
528.15	1818.97
528.579	1819.63
529.008	1831.37
529.437	1857.24
529.866	1872.59
530.295	1892.29
530.724	1907.61
531.152	1938.1
531.581	1955.04
532.01	1974.35
532.438	1983.15
532.867	2000.01
533.295	2020.78
533.723	2028.53
534.152	2026.44
534.58	2027.66
535.008	2010.06
535.436	2011.58
535.865	2020.91
536.293	2037.03
536.721	2055.26
537.149	2084.29
537.576	2086.95
538.004	2101.06
538.432	2110.93
538.86	2109.5
539.287	2117.33
539.715	2132.91
540.143	2137.18
540.57	2132.41
540.998	2128.4
541.425	2103.41
541.852	2079.36
542.28	2078.3
542.707	2060.23
543.134	2043.28
543.561	2037.9
543.988	2029.43
544.415	2028.45
544.842	2021.06
545.269	2013.59
545.696	2014.58
546.123	2029.2
546.549	2017.96
546.976	2002.96
547.403	2002.15
547.829	2005.48
548.256	2009.05
548.682	2005.7
549.108	1998.26
549.535	1998.37
549.961	1999.24
550.387	1984.85
550.813	1977.98
551.24	1984.64
551.666	1985.56
552.092	1974.19
552.518	1965.54
552.943	1956.77
553.369	1963.9
553.795	1969.17
554.221	1969.19
554.646	1966.11
555.072	1977.7
555.498	1982.17
555.923	1992.59
556.349	2008.78
556.774	2016.81
557.199	2017.73
557.625	2024.25
558.05	2017.84
558.475	2027.8
558.9	2025.98
559.325	2016.43
559.75	2009.07
560.175	2002.01
560.6	1993.88
561.025	1990.07
561.449	1992.85
561.874	1998.63
562.299	2001.27
562.723	2007.29
563.148	1996.07
563.572	1999.74
563.997	2009.67
564.421	2014.15
564.846	2012.86
565.27	2015.33
565.694	2011.31
566.118	2022.77
566.542	2029.42
566.966	2021.77
567.39	2015.68
567.814	2002.21
568.238	1999.64
568.662	2003.65
569.086	2006.06
569.509	2012.93
569.933	1994.49
570.357	1986.38
570.78	1961.65
571.204	1946.18
571.627	1933.8
572.05	1930.42
572.474	1929.28
572.897	1915.69
573.32	1906.36
573.743	1894.15
574.166	1873.05
574.589	1873.19
575.012	1864.28
575.435	1862.03
575.858	1851.59
576.281	1838.33
576.704	1820.53
577.126	1806.77
577.549	1793.89
577.972	1781.93
578.394	1768.53
578.817	1759.4
579.239	1737.16
579.661	1721.31
580.084	1702.95
580.506	1687.68
580.928	1683.4
581.35	1670.71
581.772	1665.05
582.194	1649.83
582.616	1635.32
583.038	1620.07
583.46	1608.92
583.882	1605.47
584.303	1608.45
584.725	1603.97
585.147	1604.77
585.568	1613.89
585.99	1625.89
586.411	1631.76
586.833	1646.18
587.254	1646.88
587.675	1660.54
588.096	1673.44
588.518	1666.4
588.939	1648.49
589.36	1645.12
589.781	1633.17
590.202	1603.57
590.623	1593.1
591.043	1589.02
591.464	1574.9
591.885	1570.4
592.305	1564.16
592.726	1548.27
593.147	1549.8
593.567	1543.84
593.987	1535.46
594.408	1529.79
594.828	1528.13
595.248	1521.99
595.669	1502.51
596.089	1494.56
596.509	1487.37
596.929	1473.25
597.349	1473.69
597.769	1462.36
598.189	1455.49
598.608	1456.62
599.028	1458.58
599.448	1457.3
599.867	1443.56
600.287	1438.51
600.706	1434.16
601.126	1423.72
601.545	1421.25
601.965	1420.07
602.384	1414.08
602.803	1415.59
603.222	1409.71
603.641	1402.5
604.061	1398.34
604.48	1393.44
604.898	1401.16
605.317	1405.24
605.736	1406.33
606.155	1403.16
606.574	1392.24
606.992	1396.75
607.411	1391.52
607.829	1382.04
608.248	1376.67
608.666	1373.17
609.085	1371.3
609.503	1361.57
609.921	1354.08
610.339	1355.51
610.758	1353.28
611.176	1347.5
611.594	1337.52
612.012	1332.59
612.43	1335.23
612.847	1341.59
613.265	1341.41
613.683	1345.66
614.101	1346.28
614.518	1341.46
614.936	1330.11
615.353	1313.83
615.771	1310.31
616.188	1309.26
616.606	1306.29
617.023	1298.24
617.44	1282.51
617.857	1274.54
618.274	1264.48
618.691	1256.95
619.108	1246.97
619.525	1239.79
619.942	1246.85
620.359	1247.43
620.776	1241.08
621.192	1236.14
621.609	1233.82
622.026	1239.68
622.442	1244.76
622.859	1247.57
623.275	1240.26
623.691	1244.5
624.108	1255.88
624.524	1269.09
624.94	1268.92
625.356	1279.22
625.772	1290.49
626.188	1301.02
626.604	1302.01
627.02	1297.97
627.436	1296.28
627.852	1302.87
628.268	1314.55
628.683	1304.61
629.099	1295.5
629.514	1290.66
629.93	1294.05
630.345	1297.94
630.761	1293.83
631.176	1297.32
631.591	1290.81
632.007	1283.28
632.422	1280.18
632.837	1269.06
633.252	1265.52
633.667	1254.84
634.082	1244.41
634.497	1228.97
634.911	1209.02
635.326	1203
635.741	1184.12
636.155	1171.94
636.57	1171.86
636.984	1169.54
637.399	1168.4
637.813	1166.13
638.228	1161.41
638.642	1163.75
639.056	1151.68
639.47	1149.11
639.884	1138.8
640.298	1129.59
640.712	1125.9
641.126	1109.95
641.54	1098.08
641.954	1089.82
642.368	1075.02
642.781	1064.36
643.195	1043.8
643.609	1041.62
644.022	1032.25
644.436	1026.22
644.849	1012.37
645.262	997.38
645.676	995.41
646.089	988.33
646.502	971.65
646.915	963.2
647.328	945.99
647.741	941.44
648.154	927.57
648.567	922.77
648.98	908.16
649.393	905.95
649.805	901.45
650.218	893.55
650.631	877.57
651.043	869.29
651.456	863.28
651.868	862.51
652.28	876.27
652.693	885.48
653.105	889.01
653.517	894.12
653.929	892.87
654.341	896.22
654.753	883.53
655.165	887.58
655.577	884.35
655.989	879.14
656.401	869.14
656.813	837.12
657.224	818.48
657.636	792.76
658.047	776.87
658.459	758.72
658.87	747.31
659.282	734.23
659.693	714
660.104	699.22
660.515	684.3
660.926	680.01
661.338	673.33
661.749	664.54
662.159	653.25
662.57	645.51
662.981	638.45
663.392	630.23
663.803	631.16
664.213	625.49
664.624	619.96
665.035	619.92
665.445	606.91
665.855	599.64
666.266	591.81
666.676	587.8
667.086	578.77
667.497	576
667.907	569.23
668.317	560.07
668.727	558.01
669.137	555.44
669.547	551.46
669.956	551.56
670.366	551
670.776	551.97
671.186	553.79
671.595	556.41
672.005	558.04
672.414	558.51
672.824	558.89
673.233	561.31
673.642	563.67
674.052	566.06
674.461	569.01
674.87	573.3
675.279	572.03
675.688	574.32
676.097	576.12
676.506	575.2
676.915	585.83
677.323	587.82
677.732	588.05
678.141	590.06
678.549	584.94
678.958	585.7
679.366	586.16
679.775	591.13
680.183	601.64
680.592	608.14
681	615.47
681.408	613.83
681.816	623.06
682.224	633.12
682.632	645.12
683.04	673.05
683.448	697.56
683.856	728.63
684.264	763.47
684.671	795.45
685.079	835.04
685.487	879.18
685.894	939.03
686.302	990.24
686.709	1036.15
687.116	1086.99
687.524	1131.42
687.931	1171.14
688.338	1206.85
688.745	1238.13
689.152	1276.09
689.559	1324.71
689.966	1371.98
690.373	1399.41
690.78	1445.11
691.187	1510.85
691.593	1565.31
692	1613.6
692.407	1680.68
692.813	1762.74
693.22	1830.33
693.626	1898.78
694.032	1953.74
694.439	2035.8
694.845	2101.42
695.251	2183.79
695.657	2256.75
696.063	2364.82
696.469	2445.75
696.875	2523.55
697.281	2569.93
697.687	2625.93
698.093	2673.3
