Data from C_2_DIV_OH_2N_Splice17_12-22-54-843.txt Node
Date: Sat Mar 14 12:22:54 EDT 2020
User: sa697716
Spectrometer: FLMS03696
Trigger mode: 0
Integration Time (sec): 3.180400E-1
Scans to average: 20
Electric dark correction enabled: true
Nonlinearity correction enabled: true
Boxcar width: 5
XAxis mode: Wavelengths
Number of Pixels in Spectrum: 2048
>>>>>Begin Spectral Data<<<<<
187.83	-304641.02
188.298	2323.7
188.766	1252.91
189.233	1161.09
189.701	1598.29
190.169	2242.87
190.636	858.27
191.104	708.08
191.571	177.67
192.039	-6.37
192.506	6.11
192.974	508.36
193.441	-644.92
193.908	-140.49
194.375	18.85
194.842	80.6
195.31	213.86
195.777	189.73
196.244	393.75
196.711	459.61
197.177	555.01
197.644	780.5
198.111	1329.22
198.578	1826.89
199.045	1457.08
199.511	2340.7
199.978	2699.38
200.445	2269.03
200.911	2519.9
201.378	2802.97
201.844	2546.84
202.31	4331.29
202.777	4512.3
203.243	2515.22
203.709	2412.04
204.176	2892.29
204.642	2401.17
205.108	2263.35
205.574	1850.84
206.04	1674.27
206.506	1557.46
206.972	1461.39
207.438	1419.43
207.903	1609.83
208.369	1408.28
208.835	1412.63
209.301	1466.62
209.766	1504.53
210.232	1482.61
210.697	1854.38
211.163	2284.88
211.628	3481.87
212.094	2913.31
212.559	3571.77
213.024	2227.5
213.49	2712.9
213.955	2627.93
214.42	2563.26
214.885	2371.53
215.35	2279.81
215.815	2213.92
216.28	2360.87
216.745	1923.72
217.21	2102.93
217.675	1924.48
218.14	2181.55
218.604	2456.42
219.069	2835.61
219.534	3003.84
219.998	3530.37
220.463	4310.17
220.927	5316.08
221.392	5051.29
221.856	5142.91
222.32	6512.07
222.785	8121.99
223.249	10288.51
223.713	11539.73
224.177	11572.7
224.642	14942.44
225.106	18409.29
225.57	20201.79
226.034	15061.64
226.497	22943.25
226.961	20747.96
227.425	24244.63
227.889	26918.21
228.353	26945.54
228.816	55765.09
229.28	53423.75
229.744	45100.2
230.207	27464.38
230.671	27048.01
231.134	44848.02
231.597	51785.02
232.061	51862
232.524	50565.97
232.987	34906.27
233.45	31479.94
233.914	28243.75
234.377	29001.31
234.84	26596.43
235.303	31401.4
235.766	35104.75
236.229	36305.68
236.691	22942.52
237.154	25832.06
237.617	19486.13
238.08	19973.49
238.542	23404.31
239.005	16752.22
239.468	16645.68
239.93	15684.5
240.393	14280.15
240.855	12543.93
241.317	12866.21
241.78	15654.68
242.242	16195.15
242.704	17499.49
243.166	15265.68
243.629	13873.25
244.091	16007.67
244.553	17566.09
245.015	18919.5
245.477	24492.01
245.939	35948.07
246.4	38230.01
246.862	37248.1
247.324	35172.74
247.786	39432.92
248.247	51704.45
248.709	53377.11
249.17	39983.44
249.632	37729.6
250.093	43800.99
250.555	37913.76
251.016	23172.1
251.477	22017.72
251.939	23785.09
252.4	24994.66
252.861	29764
253.322	27742.64
253.783	33118.15
254.244	42988.16
254.705	33931.37
255.166	30202.17
255.627	29745.14
256.088	41984.69
256.549	44579.69
257.009	38388.2
257.47	46542.81
257.931	37894.86
258.391	28396.72
258.852	29269.56
259.312	30699.08
259.773	37908.37
260.233	32049.8
260.694	27041.36
261.154	30667.62
261.614	24622.11
262.074	22039.27
262.534	22915.28
262.994	21619.7
263.455	28790.25
263.915	24271.81
264.374	22879.86
264.834	25018.2
265.294	27730.86
265.754	28723.27
266.214	27212.62
266.673	25489.72
267.133	32164.99
267.593	31942.85
268.052	39077.08
268.512	34059.64
268.971	41058.77
269.431	45026.04
269.89	40310.04
270.349	60442.3
270.809	67456.48
271.268	60602.77
271.727	135928.19
272.186	87989.56
272.645	65966.41
273.104	47601.49
273.563	68836.14
274.022	54166.21
274.481	46079.22
274.94	35506.93
275.399	26389.55
275.857	30722
276.316	41613.99
276.775	37072.8
277.233	36553.16
277.692	34212.31
278.15	38701.25
278.609	39842.46
279.067	36862.28
279.525	34234.66
279.984	44168.94
280.442	53062.22
280.9	52302.38
281.358	34352.61
281.816	32014.65
282.274	31335.74
282.732	32383.66
283.19	32505.21
283.648	28034.71
284.106	29869.77
284.564	30376.59
285.021	28163.67
285.479	20974.21
285.937	19079.08
286.394	16736.3
286.852	17219.23
287.309	18110.19
287.767	17512.68
288.224	16667.85
288.682	18287.39
289.139	20049.08
289.596	18335.9
290.053	19058.11
290.511	24107.37
290.968	29219.87
291.425	39677.24
291.882	33052.16
292.339	28723.4
292.796	28455.06
293.252	26800.71
293.709	21304.17
294.166	19130.17
294.623	21163.13
295.079	20327.09
295.536	20400.67
295.992	18530.47
296.449	18313.1
296.905	19013.42
297.362	18256.5
297.818	19244.18
298.274	20003.87
298.731	20389.51
299.187	20174.83
299.643	21673.33
300.099	26221.6
300.555	28747.07
301.011	24007.27
301.467	23155.76
301.923	27099.22
302.379	26469.44
302.835	25988.91
303.291	25993.42
303.746	29584.51
304.202	37372.97
304.658	37527.16
305.113	25260.55
305.569	24777.29
306.024	26447.5
306.479	25188.51
306.935	21241.18
307.39	23174.17
307.845	21392.72
308.301	21556.6
308.756	20989.06
309.211	20205.59
309.666	20693.65
310.121	25676.95
310.576	26071.04
311.031	25872.99
311.486	29635.76
311.94	29647.34
312.395	39692
312.85	74603.94
313.305	366380.79
313.759	1898904.65
314.214	137725.12
314.668	109245.24
315.123	91857.26
315.577	32951.29
316.032	29291.5
316.486	36707.3
316.94	28945.3
317.394	20122.07
317.849	15654.08
318.303	14831.09
318.757	13988.39
319.211	15482.11
319.665	13563.02
320.119	13732.43
320.572	19677.11
321.026	18405.19
321.48	15333.62
321.934	16733.72
322.387	16816.78
322.841	18166.8
323.295	16319.32
323.748	18816.32
324.202	19109.89
324.655	22936.23
325.108	32063.58
325.562	22680.51
326.015	26976.75
326.468	20411.45
326.921	22835.88
327.374	21288.02
327.827	22191.27
328.28	25125.86
328.733	16842.45
329.186	14793.32
329.639	14108.83
330.092	11907.69
330.545	11345.48
330.997	11450.44
331.45	12519.41
331.903	14679.66
332.355	25267.1
332.808	24595.6
333.26	20291.93
333.713	22065.06
334.165	22263.55
334.617	29721.21
335.069	24022.38
335.522	43469.72
335.974	48128.92
336.426	43969.95
336.878	30496.93
337.33	15461.66
337.782	15077.87
338.234	18936.92
338.686	22617.75
339.137	26779.43
339.589	25227.08
340.041	19816.61
340.493	17056.62
340.944	17486.67
341.396	18846.85
341.847	15819.96
342.299	18702.73
342.75	22845.75
343.201	19978.87
343.653	22978.6
344.104	28263.4
344.555	22284.15
345.006	34592.92
345.457	26471.69
345.908	21050.3
346.359	19845.81
346.81	16201.07
347.261	17071.45
347.712	16832.03
348.163	18033.97
348.613	18281.57
349.064	17101.54
349.515	14982.16
349.965	15393.71
350.416	18566.23
350.866	20403.23
351.317	23061.57
351.767	38248.6
352.217	48360.64
352.668	40062.6
353.118	36733.18
353.568	35467.35
354.018	28041.14
354.468	29559.42
354.918	21184.54
355.368	18542.63
355.818	26169.13
356.268	75312.88
356.718	314971.06
357.168	78346.52
357.617	39400.37
358.067	43900.52
358.517	41172.03
358.966	48320.13
359.416	54332.76
359.865	58862.7
360.315	70097.52
360.764	32781.32
361.213	18362.7
361.663	17398.89
362.112	21514.88
362.561	34796.9
363.01	26266.83
363.459	22140.95
363.908	24027.17
364.357	20411.32
364.806	34489.74
365.255	23740.53
365.703	21750.44
366.152	21842.65
366.601	17754.73
367.05	14454.39
367.498	13164.76
367.947	13789.3
368.395	14355.12
368.844	12710.52
369.292	15345.17
369.74	10627.27
370.189	16320.44
370.637	19172.66
371.085	16581.2
371.533	20220.33
371.981	19513.16
372.429	18625.73
372.877	19443.39
373.325	16343.26
373.773	16723.82
374.221	14925.99
374.669	18577.53
375.116	16128.2
375.564	16362.21
376.012	18367.08
376.459	15236.07
376.907	18294.13
377.354	22204.31
377.801	20789.32
378.249	23954.07
378.696	30720.53
379.143	37478.42
379.591	40244.06
380.038	68486.7
380.485	49715.8
380.932	54044.85
381.379	49712.51
381.826	36813.4
382.273	26382.83
382.72	23234.56
383.166	22848.01
383.613	14952.48
384.06	13586.98
384.506	15850.13
384.953	11744.71
385.4	11941.76
385.846	10554.96
386.292	10393.75
386.739	10281.92
387.185	10269.26
387.631	10378.21
388.078	10172.96
388.524	10990.32
388.97	10244.71
389.416	8622.98
389.862	9261.95
390.308	8858.05
390.754	9074.94
391.2	9946.89
391.645	10273.46
392.091	9892.7
392.537	9632.64
392.983	9715.84
393.428	9611.96
393.874	10385.08
394.319	10485.41
394.765	10000.89
395.21	10364.01
395.655	9778.4
396.101	9201.39
396.546	8350.07
396.991	8487.93
397.436	7935.48
397.881	7719.98
398.326	7369.72
398.771	6996.31
399.216	6159.62
399.661	5576.92
400.106	5570.52
400.551	5725.83
400.995	5157.36
401.44	5111.56
401.885	4814.86
402.329	4879.33
402.774	4692.11
403.218	4532.68
403.663	4380.51
404.107	4503.27
404.551	4534.3
404.995	4166.29
405.44	4022.37
405.884	4096.06
406.328	3978.41
406.772	3974.16
407.216	3621.53
407.66	3502.91
408.104	3337.33
408.547	3124.05
408.991	3022.15
409.435	2918.09
409.879	2876.17
410.322	2838.92
410.766	2737.27
411.209	2600.49
411.653	2492.41
412.096	2438.32
412.54	2440.27
412.983	2423.84
413.426	2430.48
413.869	2435.7
414.312	2383.41
414.756	2297.04
415.199	2190.24
415.642	2123.93
416.085	2124.01
416.527	2111.39
416.97	2141.91
417.413	2027.26
417.856	2006.56
418.298	1984.09
418.741	1968.54
419.184	1964.87
419.626	2051.21
420.069	2051.51
420.511	2059.99
420.953	2015.46
421.396	1996.16
421.838	1948.78
422.28	1993.33
422.722	1998.55
423.164	2028.85
423.606	1990.74
424.048	1987.03
424.49	1883.2
424.932	1875.49
425.374	1850.28
425.816	1879.23
426.258	1914.1
426.699	1934.8
427.141	1901.79
427.582	1933.11
428.024	1922.85
428.465	1913.73
428.907	1864.62
429.348	1839.45
429.789	1830.24
430.231	1788.74
430.672	1812.57
431.113	1766.94
431.554	1737.99
431.995	1696.09
432.436	1631.29
432.877	1588.36
433.318	1556.28
433.759	1548.05
434.2	1547.44
434.64	1531.72
435.081	1536.89
435.522	1454.45
435.962	1401.14
436.403	1367.74
436.843	1387.26
437.284	1360.22
437.724	1327.23
438.164	1333.91
438.604	1306.67
439.045	1256.32
439.485	1207.42
439.925	1183.29
440.365	1157.83
440.805	1143.42
441.245	1131.7
441.685	1091.1
442.125	1084.75
442.564	1093.56
443.004	1071.61
443.444	1070.03
443.883	1075.29
444.323	1069.94
444.762	1074.44
445.202	1089.01
445.641	1109.13
446.081	1107.15
446.52	1117.35
446.959	1106.32
447.398	1080.3
447.837	1067.1
448.276	1050.14
448.716	1059.73
449.154	1071.95
449.593	1046.88
450.032	1043.46
450.471	1028.03
450.91	1029.26
451.349	1029.42
451.787	1027.83
452.226	1045.03
452.664	1047.56
453.103	1049.37
453.541	1050.84
453.98	1047.88
454.418	1057.18
454.856	1042.86
455.295	1041.38
455.733	1049.44
456.171	1055.59
456.609	1058.73
457.047	1060.27
457.485	1075.99
457.923	1080.39
458.361	1066.22
458.798	1071.53
459.236	1070.09
459.674	1079.39
460.111	1085.78
460.549	1076.65
460.987	1075
461.424	1072.37
461.862	1067.12
462.299	1050.94
462.736	1049.48
463.173	1054.99
463.611	1040.9
464.048	1037.49
464.485	1045.92
464.922	1036.76
465.359	1032.07
465.796	1013.52
466.233	1005.77
466.67	995.78
467.106	991.85
467.543	983.22
467.98	970.25
468.416	947.8
468.853	940.97
469.29	913.26
469.726	903.89
470.162	879.53
470.599	871.88
471.035	863.49
471.471	842.65
471.907	839.64
472.344	832.86
472.78	833.59
473.216	844.55
473.652	834.49
474.088	831.71
474.523	828.16
474.959	835.89
475.395	827.97
475.831	823.02
476.266	827.02
476.702	825.26
477.138	816.57
477.573	814.91
478.008	810.61
478.444	813
478.879	820.35
479.314	823.9
479.75	823.37
480.185	827.99
480.62	835.75
481.055	841.66
481.49	847.98
481.925	861.27
482.36	875.4
482.795	902.07
483.229	928.78
483.664	949.71
484.099	956.09
484.534	972.37
484.968	983.03
485.403	988.94
485.837	991.03
486.271	991.49
486.706	994.52
487.14	987.27
487.574	973.75
488.009	967.67
488.443	961.45
488.877	973.13
489.311	980.51
489.745	995.28
490.179	1005.63
490.613	1024.29
491.046	1035.57
491.48	1047.28
491.914	1052.3
492.348	1063.35
492.781	1072.83
493.215	1079.09
493.648	1085.07
494.082	1096.66
494.515	1099.88
494.948	1116.64
495.382	1129.56
495.815	1140.22
496.248	1151.69
496.681	1174.55
497.114	1195.93
497.547	1215.4
497.98	1238.24
498.413	1249.73
498.846	1266.76
499.279	1283.42
499.711	1292.02
500.144	1296.98
500.577	1315.27
501.009	1334.91
501.442	1350.9
501.874	1352.71
502.306	1355.85
502.739	1367.09
503.171	1391.41
503.603	1395.42
504.036	1409.9
504.468	1418.59
504.9	1436.01
505.332	1445.78
505.764	1449.26
506.196	1458.41
506.627	1479.51
507.059	1497.53
507.491	1509.64
507.923	1501.36
508.354	1520.19
508.786	1530.69
509.217	1551.96
509.649	1568.9
510.08	1590.53
510.512	1608.37
510.943	1623.33
511.374	1633.17
511.805	1655.69
512.237	1676.03
512.668	1715.97
513.099	1746.49
513.53	1778.1
513.961	1798.06
514.391	1832.14
514.822	1868.62
515.253	1909.99
515.684	1935.96
516.114	1964.93
516.545	1981.22
516.975	2006.1
517.406	2017.65
517.836	2008.81
518.267	2004.24
518.697	2015.54
519.127	2009.53
519.558	2006.81
519.988	1999.17
520.418	2000.15
520.848	2011.18
521.278	2011.42
521.708	2008.76
522.138	2013.61
522.567	2044.17
522.997	2065.29
523.427	2073.52
523.857	2083.68
524.286	2087.2
524.716	2096.48
525.145	2110.16
525.575	2113.26
526.004	2122.27
526.433	2114.01
526.863	2106.76
527.292	2084.61
527.721	2084.58
528.15	2084.85
528.579	2079.42
529.008	2084.36
529.437	2106.37
529.866	2116.93
530.295	2132.79
530.724	2141.2
531.152	2169.28
531.581	2180.03
532.01	2196.68
532.438	2202.75
532.867	2216.14
533.295	2235.29
533.723	2239.59
534.152	2232.74
534.58	2230.61
535.008	2210.08
535.436	2211.28
535.865	2219.46
536.293	2237.1
536.721	2255.71
537.149	2285.15
537.576	2287.12
538.004	2301.13
538.432	2311.19
538.86	2308.13
539.287	2315.74
539.715	2331.67
540.143	2333.93
540.57	2327.77
540.998	2321.37
541.425	2291.38
541.852	2264.76
542.28	2262.14
542.707	2240.12
543.134	2220.77
543.561	2216.04
543.988	2205.64
544.415	2203.37
544.842	2196.14
545.269	2186.7
545.696	2188.29
546.123	2204.03
546.549	2189.94
546.976	2173.8
547.403	2173.56
547.829	2175.6
548.256	2176.87
548.682	2172.56
549.108	2162.48
549.535	2161.53
549.961	2163.18
550.387	2146.28
550.813	2139.25
551.24	2147.34
551.666	2148.87
552.092	2137.73
552.518	2130.49
552.943	2123.57
553.369	2132.14
553.795	2139.19
554.221	2141.11
554.646	2138.6
555.072	2153.62
555.498	2160.85
555.923	2172.29
556.349	2192.39
556.774	2204.56
557.199	2209.83
557.625	2220.87
558.05	2216.9
558.475	2233.11
558.9	2236.5
559.325	2229.66
559.75	2225.01
560.175	2220.98
560.6	2218.09
561.025	2220.25
561.449	2226.04
561.874	2236.52
562.299	2244.66
562.723	2258.99
563.148	2252.81
563.572	2261.29
563.997	2282.48
564.421	2296.47
564.846	2304.17
565.27	2316.56
565.694	2319.92
566.118	2342.13
566.542	2359.26
566.966	2359.99
567.39	2362.98
567.814	2357.14
568.238	2366.85
568.662	2380.82
569.086	2392.82
569.509	2412.15
569.933	2400.51
570.357	2401.18
570.78	2383.36
571.204	2374.94
571.627	2371.24
572.05	2376.83
572.474	2384.63
572.897	2374.9
573.32	2371.87
573.743	2366.54
574.166	2348.44
574.589	2356.6
575.012	2353.24
575.435	2359.18
575.858	2354.19
576.281	2344.51
576.704	2330.37
577.126	2321.19
577.549	2314.12
577.972	2306.87
578.394	2298.57
578.817	2294.69
579.239	2275.22
579.661	2261.82
580.084	2243.91
580.506	2230.67
580.928	2230.13
581.35	2218.65
581.772	2217.06
582.194	2202.83
582.616	2190.84
583.038	2175.28
583.46	2165.72
583.882	2164.92
584.303	2175.96
584.725	2175.78
585.147	2180.78
585.568	2201.41
585.99	2223.26
586.411	2236.51
586.833	2261.54
587.254	2267.21
587.675	2292.68
588.096	2314.63
588.518	2309.67
588.939	2288.43
589.36	2287.97
589.781	2279.56
590.202	2237.96
590.623	2228.31
591.043	2228.05
591.464	2212.63
591.885	2210.41
592.305	2202.47
592.726	2185.07
593.147	2189.92
593.567	2185.18
593.987	2176.22
594.408	2169.76
594.828	2171.19
595.248	2163.24
595.669	2137
596.089	2127.53
596.509	2119.11
596.929	2101.54
597.349	2103.34
597.769	2090.31
598.189	2082.59
598.608	2085.94
599.028	2089.58
599.448	2091.3
599.867	2075.29
600.287	2072.29
600.706	2067.67
601.126	2054.9
601.545	2056.38
601.965	2057.14
602.384	2051.32
602.803	2057.2
603.222	2053.03
603.641	2047.17
604.061	2045.4
604.48	2042.52
604.898	2058.03
605.317	2070.75
605.736	2077.41
606.155	2075.68
606.574	2066.81
606.992	2079.63
607.411	2078.2
607.829	2071.65
608.248	2073.73
608.666	2075.19
609.085	2080.65
609.503	2073
609.921	2067.74
610.339	2078.45
610.758	2085.13
611.176	2084.14
611.594	2077.13
612.012	2077.94
612.43	2089
612.847	2103.93
613.265	2111.97
613.683	2124.71
614.101	2132.96
614.518	2134.64
614.936	2124.19
615.353	2106.83
615.771	2106.91
616.188	2112.51
616.606	2112.49
617.023	2105.92
617.44	2087.88
617.857	2082.11
618.274	2073.58
618.691	2067.28
619.108	2056.04
619.525	2049.27
619.942	2064.18
620.359	2072.12
620.776	2068.2
621.192	2063.38
621.609	2062.94
622.026	2076.34
622.442	2088.64
622.859	2098.18
623.275	2090.09
623.691	2101.38
624.108	2123.39
624.524	2148.99
624.94	2151.24
625.356	2169.61
625.772	2194.97
626.188	2216.35
626.604	2221.1
627.02	2215.63
627.436	2212.34
627.852	2224.56
628.268	2246.27
628.683	2233.09
629.099	2220
629.514	2213.77
629.93	2220.58
630.345	2229.37
630.761	2224.36
631.176	2231.37
631.591	2220.11
632.007	2209.94
632.422	2208.85
632.837	2190.61
633.252	2186.24
633.667	2169
634.082	2154
634.497	2131.63
634.911	2097.97
635.326	2092.73
635.741	2064.51
636.155	2051.32
636.57	2054.41
636.984	2054.55
637.399	2057.36
637.813	2058.76
638.228	2059.09
638.642	2068.53
639.056	2055.08
639.47	2057.97
639.884	2045.18
640.298	2036.51
640.712	2033.68
641.126	2013.8
641.54	2000.99
641.954	1997.66
642.368	1977.77
642.781	1963.83
643.195	1934.67
643.609	1936.82
644.022	1929.47
644.436	1925.73
644.849	1907.89
645.262	1893.06
645.676	1899.46
646.089	1893.39
646.502	1867.83
646.915	1862.74
647.328	1838.3
647.741	1838.46
648.154	1817.77
648.567	1811.91
648.98	1790.4
649.393	1792.55
649.805	1787.6
650.218	1776.05
650.631	1750.46
651.043	1741.81
651.456	1733.97
651.868	1738.05
652.28	1771.05
652.693	1799.46
653.105	1816.83
653.517	1838.95
653.929	1844.85
654.341	1858.76
654.753	1842.04
655.165	1859.05
655.577	1859.42
655.989	1856.99
656.401	1848.63
656.813	1787.83
657.224	1757.82
657.636	1713.47
658.047	1684.65
658.459	1653.45
658.87	1643.37
659.282	1627.65
659.693	1593.14
660.104	1569.58
660.515	1549.5
660.926	1551.07
661.338	1549.29
661.749	1541.1
662.159	1525.1
662.57	1519.8
662.981	1513.7
663.392	1500.92
663.803	1510.51
664.213	1507.1
664.624	1500.47
665.035	1505.34
665.445	1478.58
665.855	1463.45
666.266	1445.2
666.676	1439.18
667.086	1422.12
667.497	1419.39
667.907	1406.68
668.317	1385.38
668.727	1374.51
669.137	1374.82
669.547	1367.55
669.956	1370.46
670.366	1372.97
670.776	1373.67
671.186	1379.96
671.595	1384.39
672.005	1389.02
672.414	1384.87
672.824	1381.38
673.233	1392.15
673.642	1395.17
674.052	1398.7
674.461	1400.86
674.87	1407.39
675.279	1401.33
675.688	1404.29
676.097	1404.36
676.506	1398.28
676.915	1427.17
677.323	1431.88
677.732	1429.17
678.141	1430.5
678.549	1415.89
678.958	1418.15
679.366	1422
679.775	1437.1
680.183	1456.52
680.592	1473.98
681	1489.76
681.408	1482.5
681.816	1505.62
682.224	1529.7
682.632	1554.39
683.04	1618.69
683.448	1673.87
683.856	1740.29
684.264	1816.33
684.671	1891.96
685.079	1977.54
685.487	2070.97
685.894	2197.3
686.302	2299.84
686.709	2379.92
687.116	2473.25
687.524	2543.11
687.931	2597.37
688.338	2637.45
688.745	2665.54
689.152	2695.98
689.559	2742.66
689.966	2782.58
690.373	2780.65
690.78	2811.44
691.187	2879.85
691.593	2914.98
692	2937.08
