Data from C_2_DIV_IL_4N_Splice17_12-36-47-020.txt Node
Date: Sat Mar 14 12:36:47 EDT 2020
User: sa697716
Spectrometer: FLMS03696
Trigger mode: 0
Integration Time (sec): 3.180400E-1
Scans to average: 20
Electric dark correction enabled: true
Nonlinearity correction enabled: true
Boxcar width: 5
XAxis mode: Wavelengths
Number of Pixels in Spectrum: 2048
>>>>>Begin Spectral Data<<<<<
187.83	-369378.95
188.298	2754.32
188.766	1451.3
189.233	1255.88
189.701	1645.74
190.169	2345.92
190.636	900.07
191.104	653.54
191.571	95.74
192.039	-69.81
192.506	-70.52
192.974	570.16
193.441	-681.72
193.908	-83.45
194.375	-57.58
194.842	-75.12
195.31	89.93
195.777	179.25
196.244	386.93
196.711	537.46
197.177	679.25
197.644	975.22
198.111	1723.71
198.578	2398.37
199.045	1914.23
199.511	3130.87
199.978	3690.03
200.445	3098.17
200.911	3443.17
201.378	3860.77
201.844	3479.4
202.31	5988.53
202.777	6261.93
203.243	3463.06
203.709	3306.46
204.176	3948.3
204.642	3247.54
205.108	3026.04
205.574	2473.42
206.04	2270.57
206.506	2143.59
206.972	2035.21
207.438	1978.02
207.903	2251.16
208.369	1983.51
208.835	1974.21
209.301	2080.58
209.766	2154.91
210.232	2136.88
210.697	2684.35
211.163	3343.19
211.628	5095.63
212.094	4331.53
212.559	5352.52
213.024	3367.33
213.49	4124.92
213.955	4098.3
214.42	4039.02
214.885	3797.79
215.35	3699.03
215.815	3569.32
216.28	3849.55
216.745	3204.61
217.21	3532.56
217.675	3357.26
218.14	3896.13
218.604	4517.44
219.069	5339.86
219.534	5763.6
219.998	6923.33
220.463	8615.47
220.927	10923.59
221.392	10456.73
221.856	10739.11
222.32	13767.34
222.785	17154.84
223.249	21851.83
223.713	24615.96
224.177	24738.65
224.642	31996.48
225.106	39546.25
225.57	43426.56
226.034	32316.88
226.497	49372.93
226.961	44662.19
227.425	52070.74
227.889	57980.67
228.353	58054.78
228.816	120050.33
229.28	114936.85
229.744	96980.02
230.207	58863.43
230.671	57891.47
231.134	95997.68
231.597	110573.92
232.061	110624.26
232.524	107923.25
232.987	74283.04
233.45	66769.14
233.914	59870.14
234.377	61400.74
234.84	56126.87
235.303	66228.06
235.766	73895.43
236.229	76311.14
236.691	48072.91
237.154	54004.4
237.617	40589.05
238.08	41537.04
238.542	48593.59
239.005	34674.39
239.468	34345.24
239.93	32353.65
240.393	29376.25
240.855	25755.48
241.317	26371.62
241.78	32058.98
242.242	33100.27
242.704	35681.05
243.166	31002.79
243.629	28079.77
244.091	32323.08
244.553	35394.45
245.015	37978.5
245.477	49089.56
245.939	71877.99
246.4	76107.06
246.862	73846.89
247.324	69531.46
247.786	77719.23
248.247	101865.77
248.709	105262.25
249.17	78679.87
249.632	73954.89
250.093	85597.68
250.555	73821.34
251.016	44918.33
251.477	42604.12
251.939	45972.89
252.4	48178.32
252.861	57294.88
253.322	53208.57
253.783	63265.81
254.244	81995.47
254.705	64668.56
255.166	57483.04
255.627	56512.36
256.088	79641.16
256.549	84466.74
257.009	72618.14
257.47	88033.08
257.931	71571.7
258.391	53586.4
258.852	55191.89
259.312	57794.15
259.773	71318.7
260.233	60167.96
260.694	50714.35
261.154	57510.51
261.614	46078.97
262.074	41191.71
262.534	42745.03
262.994	40261.33
263.455	53631.96
263.915	45106.97
264.374	42467.74
264.834	46332.01
265.294	51372.51
265.754	53160.23
266.214	50284.55
266.673	47087.43
267.133	59430.92
267.593	58951.18
268.052	72122
268.512	62696.09
268.971	75528.86
269.431	82724.69
269.89	74054.51
270.349	110961.82
270.809	123659.63
271.268	111096.25
271.727	249235.52
272.186	161230.07
272.645	120884.7
273.104	87175.08
273.563	126213.93
274.022	99315.23
274.481	84439.01
274.94	64943.73
275.399	48254.8
275.857	56183.71
276.316	75967.59
276.775	67560.76
277.233	66487.4
277.692	62150.06
278.15	70196.98
278.609	72061.79
279.067	66617.77
279.525	61832.01
279.984	79892.86
280.442	95904.82
280.9	94340.84
281.358	62043.65
281.816	57738.7
282.274	56520.35
282.732	58356.85
283.19	58618.3
283.648	50575.96
284.106	53872.56
284.564	54753.88
285.021	50736.03
285.479	37745.25
285.937	34355.64
286.394	30063.76
286.852	30923
287.309	32450.26
287.767	31296.52
288.224	29734.2
288.682	32592.95
289.139	35697.8
289.596	32610.55
290.053	33837.71
290.511	42700.28
290.968	51700.5
291.425	70222.57
291.882	58326.86
292.339	50709.98
292.796	50315.3
293.252	47338.56
293.709	37548.59
294.166	33644.7
294.623	37154.81
295.079	35643.64
295.536	35769.36
295.992	32448.52
296.449	32051.11
296.905	33275.22
297.362	31864.29
297.818	33508.99
298.274	34728.77
298.731	35407.72
299.187	34999.6
299.643	37565.43
300.099	45378.44
300.555	49722.61
301.011	41523.48
301.467	39937.36
301.923	46813.24
302.379	45709.18
302.835	44893.08
303.291	44925.85
303.746	51059.52
304.202	64434.82
304.658	64666.76
305.113	43470.02
305.569	42558.53
306.024	45370.32
306.479	43225.34
306.935	36333.92
307.39	39658.55
307.845	36547.96
308.301	36761.51
308.756	35811.4
309.211	34459.35
309.666	35235.54
310.121	43712.21
310.576	44369.94
311.031	43935.59
311.486	50284.13
311.94	50254.51
312.395	67126.33
312.85	126022.29
313.305	618565.04
313.759	3191743.02
314.214	231102.01
314.668	183112.29
315.123	153593.22
315.577	54986.8
316.032	48859.53
316.486	61118.44
316.94	48153.97
317.394	33478.5
317.849	26015.93
318.303	24625.33
318.757	23240.61
319.211	25695.98
319.665	22469.83
320.119	22740.94
320.572	32600.69
321.026	30424.1
321.48	25349.9
321.934	27657.32
322.387	27729.34
322.841	29889.62
323.295	26795.37
323.748	30881.18
324.202	31286.63
324.655	37557.03
325.108	52349.33
325.562	36910.93
326.015	43895.44
326.468	33114.06
326.921	36984.86
327.374	34435.71
327.827	35822.05
328.28	40585.38
328.733	27140.17
329.186	23856.94
329.639	22711.61
330.092	19156.85
330.545	18244.16
330.997	18370.59
331.45	20038.06
331.903	23455.71
332.355	40378.57
332.808	39223.5
333.26	32317.23
333.713	35055.65
334.165	35295.03
334.617	47109.96
335.069	38073.77
335.522	68883.44
335.974	76207.74
336.426	69625.91
336.878	48182.8
337.33	24387.86
337.782	23815.2
338.234	29767.49
338.686	35623.21
339.137	42199.59
339.589	39714.88
340.041	31083.08
340.493	26699.74
340.944	27321.38
341.396	29416.56
341.847	24725.71
342.299	29127.28
342.75	35522.59
343.201	31083.38
343.653	35710.27
344.104	43815.99
344.555	34502.66
345.006	53734.71
345.457	41024.76
345.908	32607.57
346.359	30670.21
346.81	24978.18
347.261	26343.11
347.712	25930.47
348.163	27780.81
348.613	28061.1
349.064	26190.89
349.515	22917.31
349.965	23473.81
350.416	28297.93
350.866	31023.37
351.317	35022.72
351.767	58006.7
352.217	73275.52
352.668	60808.25
353.118	55719.75
353.568	53789.75
354.018	42525.65
354.468	44770.65
354.918	32102.96
355.368	28068.39
355.818	39675.01
356.268	114186
356.718	476611.77
357.168	118399.19
357.617	59376
358.067	66002.16
358.517	61840.05
358.966	72418.12
359.416	81151.58
359.865	87605.51
360.315	104228.67
360.764	48601.63
361.213	27214.89
361.663	25815.25
362.112	31871.13
362.561	51470.49
363.01	38805.04
363.459	32652.19
363.908	35309.48
364.357	29971.84
364.806	50635.23
365.255	34778.69
365.703	31772.56
366.152	31776.75
366.601	25694.62
367.05	20826.32
367.498	18881.34
367.947	19704.76
368.395	20429.81
368.844	18081.58
369.292	21764.63
369.74	15001.44
370.189	22958.14
370.637	26933.89
371.085	23217.6
371.533	28294.93
371.981	27268
372.429	25989.11
372.877	27025.95
373.325	22626.2
373.773	23039.59
374.221	20521.91
374.669	25435.08
375.116	21989.32
375.564	22123.6
376.012	24694.62
376.459	20334.55
376.907	24266.88
377.354	29324.17
377.801	27333.57
378.249	31384.68
378.696	40080.26
379.143	48461.87
379.591	51692.71
380.038	87325.17
380.485	63138.49
380.932	68144.6
381.379	62207.33
381.826	45666.66
382.273	32437.51
382.72	28334.04
383.166	27576.38
383.613	17857.77
384.06	16071.07
384.506	18557.38
384.953	13610.54
385.4	13682.68
385.846	11989.09
386.292	11679.57
386.739	11446.06
387.185	11305.22
387.631	11295.28
388.078	10945.9
388.524	11707.78
388.97	10810.81
389.416	9002.54
389.862	9573.41
390.308	9069.35
390.754	9205.92
391.2	9989.41
391.645	10209.34
392.091	9736.55
392.537	9394.84
392.983	9408.62
393.428	9221.04
393.874	9880.13
394.319	9900.11
394.765	9358.53
395.21	9603.01
395.655	8971.26
396.101	8389.04
396.546	7575.72
396.991	7641.72
397.436	7097.31
397.881	6850.58
398.326	6495.35
398.771	6128.91
399.216	5362.24
399.661	4826.36
400.106	4802.57
400.551	4913.48
400.995	4397.52
401.44	4337.14
401.885	4074.55
402.329	4111.86
402.774	3937.85
403.218	3805.09
403.663	3666.62
404.107	3762
404.551	3777.97
404.995	3462.02
405.44	3332.95
405.884	3387.8
406.328	3277.74
406.772	3268.24
407.216	2977.57
407.66	2876.9
408.104	2729.69
408.547	2553.79
408.991	2473.66
409.435	2383.22
409.879	2347.14
410.322	2314.96
410.766	2230.56
411.209	2118.04
411.653	2027.66
412.096	1982.28
412.54	1982.31
412.983	1970.99
413.426	1974.25
413.869	1968.74
414.312	1930.26
414.756	1860.03
415.199	1772.47
415.642	1719.34
416.085	1721.07
416.527	1710.31
416.97	1734.79
417.413	1645.3
417.856	1626.87
418.298	1607.31
418.741	1595.29
419.184	1592.9
419.626	1659.71
420.069	1663.03
420.511	1671.46
420.953	1634.44
421.396	1619.62
421.838	1578.34
422.28	1612.91
422.722	1619.04
423.164	1644.73
423.606	1616.05
424.048	1612.17
424.49	1531.04
424.932	1521.24
425.374	1500.6
425.816	1528.4
426.258	1556.98
426.699	1574.67
427.141	1551.02
427.582	1575.61
428.024	1567.67
428.465	1558.71
428.907	1520.24
429.348	1501.02
429.789	1500.94
430.231	1469.48
430.672	1486.02
431.113	1449.98
431.554	1429.69
431.995	1393.55
432.436	1341.41
432.877	1310.72
433.318	1288.39
433.759	1281.32
434.2	1280.7
434.64	1267.53
435.081	1269.03
435.522	1201.29
435.962	1157.16
436.403	1128.45
436.843	1145.26
437.284	1120.27
437.724	1089.19
438.164	1091.36
438.604	1068.65
439.045	1027.33
439.485	984.63
439.925	962.9
440.365	939.11
440.805	926.2
441.245	914.59
441.685	879.3
442.125	874.56
442.564	879.38
443.004	859.35
443.444	857.28
443.883	859.4
444.323	851.87
444.762	852.78
445.202	864.28
445.641	879.5
446.081	874.72
446.52	879.9
446.959	869.08
447.398	846.35
447.837	835.69
448.276	818.97
448.716	824.29
449.154	830.47
449.593	810.88
450.032	808.65
450.471	792.09
450.91	792.66
451.349	791.91
451.787	788.15
452.226	801.02
452.664	801.19
453.103	802.29
453.541	800.81
453.98	798.61
454.418	804.6
454.856	790.02
455.295	788.99
455.733	796.03
456.171	800.01
456.609	802.25
457.047	801.97
457.485	812.87
457.923	813.8
458.361	803.92
458.798	807.15
459.236	805.66
459.674	812.55
460.111	816.31
460.549	806.13
460.987	802.83
461.424	798.56
461.862	792.3
462.299	779.92
462.736	778.96
463.173	780.46
463.611	771.94
464.048	768.34
464.485	773.34
464.922	764.84
465.359	760.19
465.796	750.44
466.233	744.93
466.67	738.86
467.106	738.26
467.543	731.35
467.98	720.97
468.416	701.83
468.853	696.66
469.29	675.86
469.726	668.26
470.162	651.2
470.599	642.08
471.035	635.34
471.471	620.48
471.907	614.62
472.344	609.85
472.78	611.75
473.216	619.56
473.652	611.9
474.088	609.1
474.523	608.84
474.959	614.74
475.395	609.27
475.831	605.43
476.266	608.23
476.702	606
477.138	598.61
477.573	596.86
478.008	593.36
478.444	595.33
478.879	601.06
479.314	601.64
479.75	600.7
480.185	603.48
480.62	608.78
481.055	611.31
481.49	615.97
481.925	625.31
482.36	635.77
482.795	652.89
483.229	670.39
483.664	684.6
484.099	687.09
484.534	696.86
484.968	702.71
485.403	704.88
485.837	703.54
486.271	701.83
486.706	701.93
487.14	693.01
487.574	681.09
488.009	674.18
488.443	666.86
488.877	673.19
489.311	674.98
489.745	681.75
490.179	686.25
490.613	697.89
491.046	703.29
491.48	707.73
491.914	708.21
492.348	714.02
492.781	717.38
493.215	718.81
493.648	719.09
494.082	724.02
494.515	723.8
494.948	732.03
495.382	736.44
495.815	740.2
496.248	744.89
496.681	757.09
497.114	767.14
497.547	777.06
497.98	789.59
498.413	795.42
498.846	803.73
499.279	811.3
499.711	814.45
500.144	816.15
500.577	826.28
501.009	836.46
501.442	845.33
501.874	846.08
502.306	847.58
502.739	855.1
503.171	869.92
503.603	872.96
504.036	882.86
504.468	889.08
504.9	900.49
505.332	907.32
505.764	911.72
506.196	919.13
506.627	933.97
507.059	947.37
507.491	956.07
507.923	954.57
508.354	971.11
508.786	982.3
509.217	999.88
509.649	1015.4
510.08	1033.8
510.512	1052.35
510.943	1068.05
511.374	1080.4
511.805	1102.02
512.237	1122.63
512.668	1156.13
513.099	1185.03
513.53	1213.75
513.961	1237.28
514.391	1270.32
514.822	1306.77
515.253	1343.96
515.684	1372.29
516.114	1405.23
516.545	1428.86
516.975	1458.74
517.406	1479.98
517.836	1483.91
518.267	1493.79
518.697	1513.52
519.127	1520.54
519.558	1530.2
519.988	1535.54
520.418	1548.64
520.848	1568.93
521.278	1580.25
521.708	1588.66
522.138	1603.03
522.567	1637.9
522.997	1666.86
523.427	1685.73
523.857	1706.31
524.286	1719.05
524.716	1738.39
525.145	1760.16
525.575	1773.81
526.004	1791.18
526.433	1798.18
526.863	1800.1
527.292	1790.87
527.721	1798.31
528.15	1805.64
528.579	1808.27
529.008	1822.3
529.437	1848.55
529.866	1864.94
530.295	1884.82
530.724	1900.8
531.152	1932.07
531.581	1949.82
532.01	1971.56
532.438	1981.51
532.867	1999.8
533.295	2020.09
533.723	2028.31
534.152	2027.43
534.58	2028.35
535.008	2012.34
535.436	2014.73
535.865	2023.35
536.293	2039.16
536.721	2056.75
537.149	2086.46
537.576	2090.08
538.004	2105.66
538.432	2113.92
538.86	2112.43
539.287	2120.66
539.715	2136.05
540.143	2139.18
540.57	2134.91
540.998	2132.08
541.425	2107.39
541.852	2083.92
542.28	2081.95
542.707	2063.76
543.134	2049.09
543.561	2043.6
543.988	2035.52
544.415	2035.32
544.842	2029.22
545.269	2021.54
545.696	2023.2
546.123	2037.11
546.549	2025.64
546.976	2010.84
547.403	2011.14
547.829	2013.53
548.256	2016.19
548.682	2012.08
549.108	2004.55
549.535	2004.21
549.961	2006.3
550.387	1992.49
550.813	1985.22
551.24	1992.33
551.666	1994.66
552.092	1984.24
552.518	1976.59
552.943	1970.61
553.369	1978.69
553.795	1983.84
554.221	1986.15
554.646	1982.11
555.072	1993.52
555.498	2000.28
555.923	2010.18
556.349	2027.45
556.774	2036.03
557.199	2037.82
557.625	2044.32
558.05	2037.5
558.475	2049.52
558.9	2047.88
559.325	2039.15
559.75	2032.03
560.175	2024.14
560.6	2015.61
561.025	2011.35
561.449	2012.74
561.874	2018.19
562.299	2022.42
562.723	2030.47
563.148	2018.42
563.572	2021.56
563.997	2032.39
564.421	2037.59
564.846	2037.26
565.27	2040.01
565.694	2036.02
566.118	2048.13
566.542	2054.68
566.966	2046.22
567.39	2040.35
567.814	2026.65
568.238	2025.21
568.662	2030.31
569.086	2030.71
569.509	2037.9
569.933	2021.35
570.357	2013.14
570.78	1988.41
571.204	1974.02
571.627	1962.45
572.05	1958.98
572.474	1958.87
572.897	1944.5
573.32	1935.23
573.743	1925.7
574.166	1905.58
574.589	1905.27
575.012	1896.98
575.435	1894.97
575.858	1884.62
576.281	1871.4
576.704	1854.74
577.126	1840.35
577.549	1827.87
577.972	1815.92
578.394	1804.13
578.817	1795.52
579.239	1773.54
579.661	1758.5
580.084	1740.92
580.506	1726.39
580.928	1721.74
581.35	1707.94
581.772	1702.95
582.194	1687.53
582.616	1673.02
583.038	1656.91
583.46	1644.68
583.882	1641.59
584.303	1646
584.725	1641.38
585.147	1642.19
585.568	1652.44
585.99	1665.84
586.411	1671.84
586.833	1688.04
587.254	1689.83
587.675	1705.07
588.096	1718.86
588.518	1713.08
588.939	1692.8
589.36	1691.59
589.781	1680.44
590.202	1650.42
590.623	1641.29
591.043	1639.38
591.464	1624.37
591.885	1621.29
592.305	1613.95
592.726	1598.32
593.147	1599.44
593.567	1593.63
593.987	1584.89
594.408	1579.07
594.828	1576.32
595.248	1569.85
595.669	1549.33
596.089	1543.12
596.509	1535.43
596.929	1521.3
597.349	1521.61
597.769	1510.56
598.189	1504.27
598.608	1504.65
599.028	1506.58
599.448	1506.23
599.867	1491.44
600.287	1487.3
600.706	1482.07
601.126	1471
601.545	1468.21
601.965	1466.44
602.384	1460.51
602.803	1462.95
603.222	1457.13
603.641	1449.85
604.061	1446.32
604.48	1441.98
604.898	1449.86
605.317	1453.87
605.736	1455.6
606.155	1453.3
606.574	1443.77
606.992	1449.04
607.411	1443.54
607.829	1434.94
608.248	1430.43
608.666	1426.66
609.085	1425.49
609.503	1415.82
609.921	1408.95
610.339	1411.31
610.758	1409.46
611.176	1404.3
611.594	1394.49
612.012	1390.91
612.43	1393.78
612.847	1399.99
613.265	1400.79
613.683	1404.61
614.101	1405.28
614.518	1401.82
614.936	1390.67
615.353	1375.45
615.771	1370.34
616.188	1368.88
616.606	1364.39
617.023	1355.45
617.44	1340.18
617.857	1332.44
618.274	1322.76
618.691	1315.46
619.108	1304.82
619.525	1297.34
619.942	1303.51
620.359	1307.28
620.776	1301.68
621.192	1297.07
621.609	1295.73
622.026	1303.19
622.442	1308.07
622.859	1311.25
623.275	1304.01
623.691	1309.52
624.108	1321.61
624.524	1335.83
624.94	1335.51
625.356	1346.05
625.772	1360.04
626.188	1371.94
626.604	1372.65
627.02	1369.15
627.436	1368.27
627.852	1375.27
628.268	1387.43
628.683	1377.54
629.099	1367.76
629.514	1362.77
629.93	1365.95
630.345	1369.81
630.761	1364.67
631.176	1367.54
631.591	1360.99
632.007	1353.76
632.422	1352.31
632.837	1339.21
633.252	1335.69
633.667	1325.38
634.082	1315.72
634.497	1303.39
634.911	1282.89
635.326	1279.48
635.741	1262.42
636.155	1252.07
636.57	1253.36
636.984	1252.95
637.399	1255.85
637.813	1255.71
638.228	1254.99
638.642	1258.34
639.056	1247.12
639.47	1247.45
639.884	1238.48
640.298	1232.43
640.712	1231.15
641.126	1218.28
641.54	1207.68
641.954	1201.01
642.368	1188.63
642.781	1181.23
643.195	1164.04
643.609	1164.98
644.022	1159.05
644.436	1155.26
644.849	1141.13
645.262	1128.5
645.676	1129.85
646.089	1124.99
646.502	1110.33
646.915	1104.46
647.328	1085.64
647.741	1081.61
648.154	1067.33
648.567	1063.77
648.98	1049.33
649.393	1050.22
649.805	1045.15
650.218	1036.26
650.631	1019.82
651.043	1013.34
651.456	1007
651.868	1007.96
652.28	1026.31
652.693	1039.51
653.105	1045.14
653.517	1053.16
653.929	1051.28
654.341	1056.55
654.753	1044.08
655.165	1049.72
655.577	1046.61
655.989	1040.81
656.401	1030.84
656.813	992.95
657.224	972.27
657.636	943.74
658.047	926.4
658.459	907.47
658.87	898.54
659.282	886.69
659.693	866.16
660.104	849.94
660.515	836.97
660.926	836.1
661.338	833.26
661.749	826.38
662.159	815.69
662.57	810.37
662.981	805.67
663.392	797.91
663.803	801.99
664.213	798.83
664.624	795.26
665.035	797.92
665.445	783.07
665.855	775.95
666.266	768.78
666.676	767.17
667.086	758.99
667.497	758.9
667.907	754.01
668.317	744.5
668.727	742.65
669.137	743.31
669.547	740.62
669.956	743.44
670.366	745.2
670.776	747.65
671.186	751.87
671.595	755.61
672.005	758.53
672.414	757.64
672.824	754.99
673.233	757.96
673.642	760
674.052	763.75
674.461	765.77
674.87	770.52
675.279	767.92
675.688	767.93
676.097	769.77
676.506	766.23
676.915	780.02
677.323	783.02
677.732	780.58
678.141	779.77
678.549	768.47
678.958	767.21
679.366	765.28
679.775	768.68
680.183	779.63
680.592	783.6
681	789.14
681.408	782.43
681.816	789.96
682.224	798.56
682.632	808.1
683.04	837.1
683.448	861.1
683.856	891.36
684.264	925.28
684.671	955.54
685.079	993.18
685.487	1036.56
685.894	1095.04
686.302	1144.98
686.709	1184.82
687.116	1232.68
687.524	1270.83
687.931	1304.24
688.338	1331.67
688.745	1355.84
689.152	1384.57
689.559	1425.18
689.966	1463.07
690.373	1480.56
690.78	1518.01
691.187	1578.43
691.593	1624.53
692	1664.24
692.407	1723.6
692.813	1800.31
693.22	1860.73
693.626	1922.27
694.032	1972.58
694.439	2051.55
694.845	2114.92
695.251	2192.32
695.657	2262.28
