Data from C_2_DEC_OH_4N_Splice17_12-05-18-994.txt Node
Date: Sat Mar 14 12:05:18 EDT 2020
User: sa697716
Spectrometer: FLMS03696
Trigger mode: 0
Integration Time (sec): 3.180400E-1
Scans to average: 20
Electric dark correction enabled: true
Nonlinearity correction enabled: true
Boxcar width: 5
XAxis mode: Wavelengths
Number of Pixels in Spectrum: 2048
>>>>>Begin Spectral Data<<<<<
187.83	-342383.13
188.298	2386.06
188.766	1228.85
189.233	1084.95
189.701	1449.08
190.169	2008.93
190.636	753.54
191.104	596.67
191.571	35.47
192.039	-103.55
192.506	-155.68
192.974	165.25
193.441	-510.83
193.908	-219.45
194.375	-75.55
194.842	-65.95
195.31	13.64
195.777	121.28
196.244	301.67
196.711	318.61
197.177	400.74
197.644	536.66
198.111	941.44
198.578	1341.8
199.045	1091.73
199.511	1808.22
199.978	2093.38
200.445	1784.16
200.911	1976.72
201.378	2225.3
201.844	2028.35
202.31	3429.59
202.777	3612.21
203.243	2014.93
203.709	1934.73
204.176	2293.62
204.642	1860.74
205.108	1743.95
205.574	1401.17
206.04	1263.09
206.506	1171.76
206.972	1102.71
207.438	1073.91
207.903	1220.54
208.369	1078.62
208.835	1078.06
209.301	1128.43
209.766	1145.37
210.232	1141.54
210.697	1410.42
211.163	1720.7
211.628	2574.6
212.094	2151.68
212.559	2657.97
213.024	1636.73
213.49	1991.04
213.955	1907.89
214.42	1849.14
214.885	1737.79
215.35	1656.93
215.815	1621.81
216.28	1730.16
216.745	1394.82
217.21	1494.23
217.675	1332.02
218.14	1481.59
218.604	1618.94
219.069	1823.24
219.534	1911.33
219.998	2186.38
220.463	2609.47
220.927	3134.23
221.392	2944.78
221.856	2985.75
222.32	3698.91
222.785	4558.45
223.249	5702.2
223.713	6336.14
224.177	6344.66
224.642	8075.45
225.106	9906.73
225.57	10787.59
226.034	8037.55
226.497	12138.8
226.961	10959.82
227.425	12831.15
227.889	14247.81
228.353	14217.81
228.816	29343.3
229.28	27989.35
229.744	23610.19
230.207	14382.25
230.671	14140.71
231.134	23325.88
231.597	26941.2
232.061	26821.52
232.524	26168.49
232.987	18015.39
233.45	16310.6
233.914	14652.61
234.377	15021.42
234.84	13770.98
235.303	16218.65
235.766	18128.01
236.229	18731.27
236.691	11801.49
237.154	13286.93
237.617	9987.43
238.08	10214.72
238.542	11924.85
239.005	8524.18
239.468	8475.68
239.93	7981.98
240.393	7262.91
240.855	6379.95
241.317	6541.59
241.78	7949.95
242.242	8232.54
242.704	8927.88
243.166	7787.7
243.629	7109.64
244.091	8204.2
244.553	9000.6
245.015	9706.09
245.477	12555.67
245.939	18409.57
246.4	19572.52
246.862	19060.34
247.324	17997.42
247.786	20126.67
248.247	26389.17
248.709	27201.11
249.17	20365.64
249.632	19278.03
250.093	22416.96
250.555	19408.78
251.016	11879.05
251.477	11299.42
251.939	12223.45
252.4	12818.09
252.861	15264.16
253.322	14274.92
253.783	17024.76
254.244	22119.08
254.705	17427.08
255.166	15479.82
255.627	15268.4
256.088	21573.72
256.549	22905.2
257.009	19731.54
257.47	24000.89
257.931	19562.47
258.391	14666.4
258.852	15088.85
259.312	15827.68
259.773	19570.76
260.233	16607.27
260.694	14040.82
261.154	15934.91
261.614	12852.97
262.074	11531.88
262.534	12006.98
262.994	11349
263.455	15125.7
263.915	12796.03
264.374	12091.69
264.834	13222.83
265.294	14647.29
265.754	15206.45
266.214	14449.16
266.673	13557.52
267.133	17122.17
267.593	17021.94
268.052	20857.55
268.512	18177.18
268.971	21967.23
269.431	24092.73
269.89	21592.6
270.349	32458.78
270.809	36259.55
271.268	32599.77
271.727	73164.06
272.186	47482.73
272.645	35651.09
273.104	25718.61
273.563	37258.16
274.022	29316.34
274.481	25004.13
274.94	19320.24
275.399	14387.04
275.857	16743.4
276.316	22680.85
276.775	20205.02
277.233	19922.47
277.692	18693.49
278.15	21218.24
278.609	21893.66
279.067	20284.92
279.525	18882.92
279.984	24406.53
280.442	29321.99
280.9	28984.48
281.358	19089.89
281.816	17805.58
282.274	17463.63
282.732	18022.38
283.19	18091.15
283.648	15601.78
284.106	16652.33
284.564	16921.19
285.021	15708.84
285.479	11722.47
285.937	10671.98
286.394	9379.5
286.852	9674.97
287.309	10174.98
287.767	9864.82
288.224	9424.52
288.682	10369.99
289.139	11389.17
289.596	10461.32
290.053	10875.74
290.511	13719.79
290.968	16683.29
291.425	22653.79
291.882	18903.95
292.339	16474.67
292.796	16368.6
293.252	15424.02
293.709	12276.83
294.166	11021.98
294.623	12181.67
295.079	11715.38
295.536	11799.6
295.992	10696.89
296.449	10569.82
296.905	10995.01
297.362	10564.14
297.818	11115.31
298.274	11546.55
298.731	11776.57
299.187	11661.16
299.643	12544.88
300.099	15178.34
300.555	16653.37
301.011	13949.73
301.467	13492.71
301.923	15763.66
302.379	15398.52
302.835	15133.04
303.291	15165.24
303.746	17252.26
304.202	21803.21
304.658	21883.59
305.113	14731.44
305.569	14445.23
306.024	15372.6
306.479	14648.58
306.935	12373.43
307.39	13514.18
307.845	12490.97
308.301	12567.53
308.756	12245.33
309.211	11821.14
309.666	12098.6
310.121	15049.15
310.576	15282.36
311.031	15175.95
311.486	17372.36
311.94	17380.07
312.395	23251.58
312.85	43785.83
313.305	215227.19
313.759	1119820.35
314.214	81039.55
314.668	64417
315.123	54191.05
315.577	19460.67
316.032	17393.51
316.486	21790.93
316.94	17221.63
317.394	12031.43
317.849	9341.56
318.303	8836.18
318.757	8341.61
319.211	9238.69
319.665	8088
320.119	8183.5
320.572	11730.72
321.026	10944.03
321.48	9115.55
321.934	9927.51
322.387	9961.59
322.841	10782.1
323.295	9742.65
323.748	11213.39
324.202	11389.51
324.655	13691.67
325.108	19169.52
325.562	13588.83
326.015	16152.22
326.468	12250.28
326.921	13721.46
327.374	12798.28
327.827	13328.7
328.28	15072.24
328.733	10100.76
329.186	8890.11
329.639	8479.89
330.092	7152.14
330.545	6804.83
330.997	6859.3
331.45	7503.63
331.903	8804.18
332.355	15119.25
332.808	14702.88
333.26	12166.34
333.713	13201.37
334.165	13276.28
334.617	17724.17
335.069	14314.04
335.522	25857.16
335.974	28695.62
336.426	26213.5
336.878	18160.48
337.33	9218.14
337.782	9004.2
338.234	11253.83
338.686	13478.02
339.137	15994
339.589	15062.71
340.041	11823.85
340.493	10172.78
340.944	10431.42
341.396	11233.51
341.847	9470.89
342.299	11194.14
342.75	13693.05
343.201	11960.5
343.653	13752.74
344.104	16917.13
344.555	13331.91
345.006	20706.03
345.457	15937.11
345.908	12681.23
346.359	11942.3
346.81	9722.08
347.261	10253.45
347.712	10093.41
348.163	10837.56
348.613	11012.34
349.064	10299.15
349.515	9032.37
349.965	9294.6
350.416	11189.1
350.866	12276
351.317	13887.81
351.767	23019.13
352.217	29049.6
352.668	24103.8
353.118	22045.22
353.568	21203.64
354.018	16837
354.468	17763.83
354.918	12748.44
355.368	11139.99
355.818	15714.38
356.268	45116.43
356.718	188913.83
357.168	47057.46
357.617	23628.3
358.067	26310.63
358.517	24709.6
358.966	28920.19
359.416	32450.7
359.865	35047.01
360.315	41782.36
360.764	19571.38
361.213	11009.99
361.663	10427.99
362.112	12885.01
362.561	20788.26
363.01	15660.35
363.459	13197.77
363.908	14285.66
364.357	12142.82
364.806	20509.63
365.255	14076.84
365.703	12892.88
366.152	12891.19
366.601	10440.19
367.05	8508.2
367.498	7750.47
367.947	8118.49
368.395	8410.53
368.844	7460.25
369.292	8981.54
369.74	6212.72
370.189	9520.45
370.637	11170.53
371.085	9633.54
371.533	11725.89
371.981	11273.74
372.429	10766.14
372.877	11207.56
373.325	9410.41
373.773	9555.74
374.221	8494.37
374.669	10528.58
375.116	9111.33
375.564	9172.04
376.012	10260.84
376.459	8481.62
376.907	10129.09
377.354	12220.5
377.801	11408.46
378.249	13110.43
378.696	16728.75
379.143	20253.75
379.591	21618.52
380.038	36557.81
380.485	26468.8
380.932	28561.11
381.379	26084.57
381.826	19233.74
382.273	13668.94
382.72	11925.9
383.166	11635.32
383.613	7562.36
384.06	6825.47
384.506	7884.4
384.953	5777.04
385.4	5817.59
385.846	5068.97
386.292	4943.09
386.739	4825.5
387.185	4771.56
387.631	4776.84
388.078	4642.57
388.524	4966.46
388.97	4594.96
389.416	3836.2
389.862	4085.72
390.308	3864.01
390.754	3950.53
391.2	4286
391.645	4391.81
392.091	4218.11
392.537	4084.64
392.983	4090.83
393.428	4053.74
393.874	4346.08
394.319	4374.46
394.765	4169.38
395.21	4289.81
395.655	4037.47
396.101	3797.38
396.546	3436.55
396.991	3471.22
397.436	3241.91
397.881	3128.92
398.326	2958.73
398.771	2807.29
399.216	2456.95
399.661	2215.9
400.106	2214.31
400.551	2269.02
400.995	2036.49
401.44	2021.09
401.885	1902.46
402.329	1920.35
402.774	1849.35
403.218	1798
403.663	1737.47
404.107	1790.56
404.551	1809.77
404.995	1665.56
405.44	1609.61
405.884	1637.85
406.328	1584.51
406.772	1578.32
407.216	1442.81
407.66	1396.91
408.104	1325.3
408.547	1240.84
408.991	1203.45
409.435	1154.37
409.879	1137.13
410.322	1122.37
410.766	1088.11
411.209	1039.32
411.653	1001.13
412.096	981.92
412.54	984.2
412.983	978.86
413.426	985.18
413.869	984.69
414.312	969.26
414.756	937.29
415.199	896.68
415.642	871.98
416.085	872.65
416.527	867.12
416.97	879.32
417.413	836
417.856	826.44
418.298	817.99
418.741	812.04
419.184	811.92
419.626	844.67
420.069	847.49
420.511	853.34
420.953	838.28
421.396	833.11
421.838	813.36
422.28	831.32
422.722	837.31
423.164	848.27
423.606	836.7
424.048	834.95
424.49	794.52
424.932	787.8
425.374	773.76
425.816	783.82
426.258	796.47
426.699	806.33
427.141	796.98
427.582	808.89
428.024	803.39
428.465	797.1
428.907	778.96
429.348	767.88
429.789	768.6
430.231	753.84
430.672	765.42
431.113	746.71
431.554	736.13
431.995	716
432.436	690.38
432.877	675.61
433.318	666.88
433.759	661.35
434.2	662.87
434.64	654.23
435.081	656.4
435.522	621.19
435.962	598.82
436.403	585.18
436.843	590.39
437.284	577.06
437.724	560.99
438.164	558.58
438.604	546.35
439.045	526.38
439.485	504.88
439.925	493.48
440.365	481.19
440.805	473.6
441.245	466.42
441.685	450.67
442.125	446.39
442.564	448.46
443.004	437.37
443.444	435.82
443.883	436.32
444.323	432.3
444.762	429.7
445.202	432.3
445.641	440.62
446.081	437.07
446.52	439.73
446.959	435.65
447.398	425.59
447.837	420.61
448.276	412.29
448.716	415.95
449.154	418.21
449.593	410.67
450.032	409.99
450.471	400.23
450.91	400.38
451.349	399.98
451.787	397.94
452.226	402.15
452.664	402.6
453.103	401.9
453.541	397.93
453.98	397.76
454.418	399.19
454.856	393.65
455.295	394.62
455.733	397.64
456.171	398.15
456.609	400.32
457.047	401.23
457.485	407.12
457.923	409.51
458.361	404.3
458.798	405.7
459.236	404.92
459.674	406.81
460.111	407.2
460.549	403.51
460.987	403.1
461.424	399.68
461.862	398.11
462.299	391.57
462.736	392.22
463.173	393.72
463.611	390.88
464.048	390.81
464.485	395.1
464.922	392.22
465.359	389.2
465.796	387.79
466.233	385.84
466.67	383.7
467.106	384.25
467.543	379.05
467.98	375.98
468.416	365.37
468.853	361.23
469.29	350.15
469.726	346.86
470.162	338.98
470.599	332.07
471.035	328.41
471.471	320.49
471.907	317.78
472.344	315.77
472.78	316.72
473.216	320.11
473.652	317.15
474.088	316.05
474.523	315
474.959	317.88
475.395	314.45
475.831	313.8
476.266	314.7
476.702	313.37
477.138	309.97
477.573	309.01
478.008	308.57
478.444	310.36
478.879	313.62
479.314	315.51
479.75	315.16
480.185	316.55
480.62	317.7
481.055	318.8
481.49	321.19
481.925	326.05
482.36	331.44
482.795	340.35
483.229	349.02
483.664	356.51
484.099	358.4
484.534	365.11
484.968	369.03
485.403	370.54
485.837	370.67
486.271	370.94
486.706	371.39
487.14	367.16
487.574	361.69
488.009	358.69
488.443	355.26
488.877	358.65
489.311	359.32
489.745	364.11
490.179	368.59
490.613	377.35
491.046	380.84
491.48	384.7
491.914	386.22
492.348	389.85
492.781	393.38
493.215	395.44
493.648	397.21
494.082	401.05
494.515	402.79
494.948	408.93
495.382	411.14
495.815	414.93
496.248	419.76
496.681	428.39
497.114	436.16
497.547	443.9
497.98	453.5
498.413	459.3
498.846	467.25
499.279	473.37
499.711	477.26
500.144	480.96
500.577	489.72
501.009	497.62
501.442	506.45
501.874	510.01
502.306	513.18
502.739	521.64
503.171	533
503.603	537.1
504.036	545.84
504.468	552.11
504.9	562.04
505.332	568.69
505.764	574.77
506.196	581.53
506.627	593.35
507.059	604.38
507.491	611.3
507.923	612.04
508.354	624.78
508.786	634.22
509.217	648.77
509.649	661.06
510.08	675.79
510.512	690.1
510.943	702.3
511.374	713.28
511.805	729.88
512.237	746.24
512.668	770.99
513.099	791.54
513.53	812.76
513.961	829.14
514.391	853.14
514.822	878.89
515.253	906.19
515.684	925.59
516.114	947.62
516.545	965.33
516.975	985.01
517.406	999.79
517.836	1002.67
518.267	1008.4
518.697	1024.38
519.127	1029.39
519.558	1036.08
519.988	1039.19
520.418	1049.2
520.848	1062.87
521.278	1069.86
521.708	1093.15
522.138	1102.98
522.567	1127.47
522.997	1147.38
523.427	1158.29
523.857	1171.5
524.286	1179.67
524.716	1191.86
525.145	1206.01
525.575	1214.57
526.004	1225.84
526.433	1212.73
526.863	1213.94
527.292	1207.65
527.721	1212.96
528.15	1218.17
528.579	1219.9
529.008	1228.81
529.437	1245.41
529.866	1255.18
530.295	1268.68
530.724	1277.83
531.152	1297.55
531.581	1309.02
532.01	1323.01
532.438	1329.76
532.867	1340.5
533.295	1354.81
533.723	1359.5
534.152	1358.24
534.58	1360.54
535.008	1349.46
535.436	1352.17
535.865	1359.26
536.293	1370.06
536.721	1381.74
537.149	1400.2
537.576	1403.76
538.004	1413.35
538.432	1419.87
538.86	1420.97
539.287	1425.7
539.715	1437.41
540.143	1439.81
540.57	1438.11
540.998	1435.62
541.425	1419.89
541.852	1405.3
542.28	1404.06
542.707	1392.73
543.134	1383.71
543.561	1380.12
543.988	1375.44
544.415	1374.52
544.842	1370.31
545.269	1365.07
545.696	1367.58
546.123	1376.92
546.549	1369.51
546.976	1359.71
547.403	1358.53
547.829	1359.44
548.256	1361.2
548.682	1358.46
549.108	1353.15
549.535	1352.87
549.961	1354.08
550.387	1343.34
550.813	1339.35
551.24	1344.39
551.666	1345.17
552.092	1338.63
552.518	1333.92
552.943	1328.81
553.369	1334.43
553.795	1338.76
554.221	1340.28
554.646	1337.01
555.072	1345.2
555.498	1348.08
555.923	1353.89
556.349	1365.59
556.774	1371.92
557.199	1371.93
557.625	1375.97
558.05	1370.45
558.475	1377.18
558.9	1375.51
559.325	1369.5
559.75	1364.96
560.175	1360.19
560.6	1356.01
561.025	1353.81
561.449	1354.22
561.874	1358.94
562.299	1363.29
562.723	1369.41
563.148	1362.81
563.572	1365.79
563.997	1373.32
564.421	1377.23
564.846	1377.89
565.27	1380.68
565.694	1379.4
566.118	1388.16
566.542	1393.19
566.966	1387.97
567.39	1383.79
567.814	1375.08
568.238	1374.92
568.662	1379.37
569.086	1381.88
569.509	1387.04
569.933	1376.05
570.357	1370.91
570.78	1355.41
571.204	1346.41
571.627	1338.64
572.05	1338.51
572.474	1338.78
572.897	1328.85
573.32	1323
573.743	1314.35
574.166	1301.35
574.589	1301.14
575.012	1294.79
575.435	1293.66
575.858	1285.61
576.281	1277.55
576.704	1264.85
577.126	1255.61
577.549	1248.01
577.972	1240.64
578.394	1234.2
578.817	1228.16
579.239	1213.13
579.661	1202.78
580.084	1191.06
580.506	1181.84
580.928	1177.37
581.35	1168.53
581.772	1164.24
582.194	1153.58
582.616	1143.43
583.038	1130.8
583.46	1122.45
583.882	1120.17
584.303	1122.8
584.725	1119.01
585.147	1121.49
585.568	1128.68
585.99	1138.06
586.411	1142.34
586.833	1153.55
587.254	1154.64
587.675	1165.64
588.096	1174.68
588.518	1170.2
588.939	1157.18
589.36	1155.22
589.781	1145.97
590.202	1127.34
590.623	1120.83
591.043	1118.95
591.464	1108.98
591.885	1106.79
592.305	1102.53
592.726	1093.46
593.147	1093.94
593.567	1090.69
593.987	1084.8
594.408	1080.44
594.828	1077.66
595.248	1073.48
595.669	1060.29
596.089	1054.5
596.509	1049.37
596.929	1039.02
597.349	1038.77
597.769	1031.13
598.189	1025.92
598.608	1026.58
599.028	1028.26
599.448	1027.19
599.867	1016.89
600.287	1012.8
600.706	1010.05
601.126	1002.99
601.545	1002.26
601.965	1000.65
602.384	997.51
602.803	999.59
603.222	995.16
603.641	988.81
604.061	986.61
604.48	984.23
604.898	989.97
605.317	993.86
605.736	993.84
606.155	991.37
606.574	984.15
606.992	987.16
607.411	983.38
607.829	977.48
608.248	975.05
608.666	972.28
609.085	971.42
609.503	965.08
609.921	959.67
610.339	960.72
610.758	959.6
611.176	955.51
611.594	947.91
612.012	944.7
612.43	947.72
612.847	952.03
613.265	953.53
613.683	955.22
614.101	955.76
614.518	951.84
614.936	944.58
615.353	934.06
615.771	932.55
616.188	932.95
616.606	930.39
617.023	924.77
617.44	914.01
617.857	907.78
618.274	901.32
618.691	897.01
619.108	890.83
619.525	885.98
619.942	890.07
620.359	890.62
620.776	886.55
621.192	883.02
621.609	880.69
622.026	886.76
622.442	891.08
622.859	893.56
623.275	887.37
623.691	890.99
624.108	898.85
624.524	908.89
624.94	909.58
625.356	915.82
625.772	925.5
626.188	934.63
626.604	935.32
627.02	932.04
627.436	930.27
627.852	937.19
628.268	946.11
628.683	940.53
629.099	934.27
629.514	930.5
629.93	933.98
630.345	936.42
630.761	932.87
631.176	935.01
631.591	931.61
632.007	927.56
632.422	924.05
632.837	914.95
633.252	912.54
633.667	905.14
634.082	898.17
634.497	889.55
634.911	875.94
635.326	873.62
635.741	861.18
636.155	852.46
636.57	853.26
636.984	853.54
637.399	854.66
637.813	852.98
638.228	851.24
638.642	854.36
639.056	844.26
639.47	843.54
639.884	835.11
640.298	828.22
640.712	826.18
641.126	814.98
641.54	806.62
641.954	799.6
642.368	790.87
642.781	784.6
643.195	769.2
643.609	768.9
644.022	761.25
644.436	756.5
644.849	746.27
645.262	736.58
645.676	735.78
646.089	730.84
646.502	720.5
646.915	714.08
647.328	700.45
647.741	698.55
648.154	687.7
648.567	686.72
648.98	677.17
649.393	676.69
649.805	672.57
650.218	666.53
650.631	654.96
651.043	649.75
651.456	645.53
651.868	644.24
652.28	653.47
652.693	661.24
653.105	663.57
653.517	668.62
653.929	667.38
654.341	670.54
654.753	661.86
655.165	663.74
655.577	659.55
655.989	656.01
656.401	649.95
656.813	625.6
657.224	612.01
657.636	591.93
658.047	579.51
658.459	567.32
658.87	559.23
659.282	550.83
659.693	538.39
660.104	528.76
660.515	518.07
660.926	515.01
661.338	511.8
661.749	505.86
662.159	498.99
662.57	494.16
662.981	488.66
663.392	482.86
663.803	482.91
664.213	479.44
664.624	475.35
665.035	473.75
665.445	464.83
665.855	459.87
666.266	454.87
666.676	452.74
667.086	447.52
667.497	446.88
667.907	443.11
668.317	436.72
668.727	435.51
669.137	435.06
669.547	434.23
669.956	435.32
670.366	436.35
670.776	436.58
671.186	437.39
671.595	438.68
672.005	439.93
672.414	439.54
672.824	438.72
673.233	438.73
673.642	438.92
674.052	441.22
674.461	442.84
674.87	445.5
675.279	444.56
675.688	444.71
676.097	445.98
676.506	444.18
676.915	452.79
677.323	455.86
677.732	456.06
678.141	458.78
678.549	452.75
678.958	452.43
679.366	452.4
679.775	455.7
680.183	465.14
680.592	469.51
681	474.8
681.408	471.83
681.816	477.05
682.224	483.32
682.632	491.05
683.04	511.35
683.448	529.16
683.856	551.05
684.264	577.01
684.671	598.11
685.079	626.33
685.487	656.94
685.894	700.08
686.302	736.71
686.709	769.72
687.116	806.02
687.524	838.74
687.931	867.27
688.338	893.47
688.745	915.88
689.152	943.24
689.559	976.91
689.966	1011.25
690.373	1031.63
690.78	1065.13
691.187	1112.14
691.593	1150.91
692	1184.14
692.407	1231.9
692.813	1290.09
693.22	1335.68
693.626	1382.58
694.032	1421.56
694.439	1478.86
694.845	1522.32
695.251	1578.75
695.657	1630.2
696.063	1704.34
696.469	1758.96
696.875	1809.49
697.281	1838.21
697.687	1873.11
698.093	1904.65
698.498	1962.47
698.904	2005.75
699.31	2072.89
699.715	2120.05
700.12	2186.34
700.526	2199.35
700.931	2252.62
701.337	2293.51
701.742	2316.39
702.147	2380.91
702.552	2402.66
702.957	2445.99
703.362	2462.42
703.767	2483.36
