Data from C_2_DEC_ON_6N_Splice17_12-16-00-387.txt Node
Date: Sat Mar 14 12:16:00 EDT 2020
User: sa697716
Spectrometer: FLMS03696
Trigger mode: 0
Integration Time (sec): 3.180400E-1
Scans to average: 20
Electric dark correction enabled: true
Nonlinearity correction enabled: true
Boxcar width: 5
XAxis mode: Wavelengths
Number of Pixels in Spectrum: 2048
>>>>>Begin Spectral Data<<<<<
187.83	-307704.53
188.298	2335.88
188.766	1241.91
189.233	1152.73
189.701	1617.64
190.169	2205.52
190.636	846.8
191.104	729.57
191.571	148.48
192.039	-9.67
192.506	14.07
192.974	638.34
193.441	-662.06
193.908	-90.47
194.375	3.41
194.842	53.93
195.31	119.14
195.777	163.92
196.244	380.66
196.711	395.97
197.177	506.51
197.644	728.07
198.111	1251.67
198.578	1736.05
199.045	1401.18
199.511	2276.25
199.978	2639.83
200.445	2233.44
200.911	2468.62
201.378	2745.41
201.844	2542.82
202.31	4400.05
202.777	4605.02
203.243	2578.43
203.709	2438.94
204.176	2886.3
204.642	2420.52
205.108	2261.43
205.574	1848.12
206.04	1686.56
206.506	1592.26
206.972	1485.68
207.438	1418.81
207.903	1600.85
208.369	1403.31
208.835	1418.74
209.301	1498.75
209.766	1532.55
210.232	1542.49
210.697	1927.15
211.163	2391.07
211.628	3602.93
212.094	3067.48
212.559	3800.92
213.024	2389.81
213.49	2949.66
213.955	2906.49
214.42	2842.11
214.885	2655.29
215.35	2537.45
215.815	2465.37
216.28	2633.16
216.745	2169.76
217.21	2389.79
217.675	2232.38
218.14	2579.22
218.604	2963.13
219.069	3447.77
219.534	3721.61
219.998	4427.1
220.463	5488.16
220.927	6910.62
221.392	6629.13
221.856	6828.18
222.32	8721.67
222.785	10881.44
223.249	13800.51
223.713	15507.63
224.177	15624.53
224.642	20192.67
225.106	24966.73
225.57	27450.33
226.034	20490.74
226.497	31279.8
226.961	28258.66
227.425	32980.4
227.889	36721.57
228.353	36842.34
228.816	76170.58
229.28	72891.94
229.744	61515.28
230.207	37432.23
230.671	36852.98
231.134	61025.35
231.597	70351.67
232.061	70400.18
232.524	68770.59
232.987	47405.9
233.45	42635.45
233.914	38260.27
234.377	39297.34
234.84	35988.58
235.303	42459.3
235.766	47422.34
236.229	49072.71
236.691	30958.4
237.154	34844.36
237.617	26188.21
238.08	26830.26
238.542	31439.64
239.005	22474.27
239.468	22305.54
239.93	21011.74
240.393	19101.42
240.855	16745.24
241.317	17155.66
241.78	20880.12
242.242	21580.56
242.704	23326.83
243.166	20330.83
243.629	18469.16
244.091	21305.57
244.553	23360.08
245.015	25117.42
245.477	32535.86
245.939	47824.39
246.4	50762.65
246.862	49365.99
247.324	46567.09
247.786	52122.48
248.247	68392.63
248.709	70750.69
249.17	52938.04
249.632	49894.8
250.093	57885.42
250.555	50011.73
251.016	30496.3
251.477	28946.91
251.939	31245.58
252.4	32835.15
252.861	39119.01
253.322	36369.16
253.783	43280
254.244	56166.64
254.705	44316.76
255.166	39432.24
255.627	38799.57
256.088	54693.25
256.549	58084.94
257.009	50073.37
257.47	60733.04
257.931	49410.71
258.391	37029.02
258.852	38151.21
259.312	40015.83
259.773	49445.02
260.233	41777.89
260.694	35264.94
261.154	40003.66
261.614	32093.09
262.074	28708.21
262.534	29825.95
262.994	28097.48
263.455	37439.24
263.915	31551.56
264.374	29757.03
264.834	32512.25
265.294	36073.15
265.754	37359.3
266.214	35418.81
266.673	33196.42
267.133	41917.12
267.593	41601.28
268.052	50974.61
268.512	44341.45
268.971	53460.57
269.431	58562.28
269.89	52433.61
270.349	78636.11
270.809	87676.24
271.268	78775.6
271.727	176751.14
272.186	114382.61
272.645	85775.52
273.104	61883.97
273.563	89649.02
274.022	70546.63
274.481	59998.59
274.94	46182.03
275.399	34316.56
275.857	39981.67
276.316	54058.49
276.775	48105.28
277.233	47401.06
277.692	44346.88
278.15	50117.22
278.609	51518.45
279.067	47670.24
279.525	44250.68
279.984	57180.93
280.442	68585.73
280.9	67538.07
281.358	44415.27
281.816	41367
282.274	40460.36
282.732	41809.09
283.19	42000.79
283.648	36233.26
284.106	38558.94
284.564	39238.9
285.021	36313.83
285.479	27070.08
285.937	24610.91
286.394	21586.36
286.852	22221.46
287.309	23341.56
287.767	22536.49
288.224	21426.52
288.682	23523.56
289.139	25854.28
289.596	23677.55
290.053	24666.2
290.511	31200.6
290.968	37923.45
291.425	51563.14
291.882	42978.3
292.339	37513.42
292.796	37329.18
293.252	35246.15
293.709	28007.85
294.166	25135.12
294.623	27800.16
295.079	26710.07
295.536	26844.58
295.992	24382.51
296.449	24125.29
296.905	25078.05
297.362	24065.56
297.818	25340.14
298.274	26291.37
298.731	26844.48
299.187	26571.52
299.643	28566.36
300.099	34593.17
300.555	37978.12
301.011	31769.12
301.467	30625.93
301.923	35909.82
302.379	35076.41
302.835	34451.95
303.291	34536.03
303.746	39353.84
304.202	49771.08
304.658	50005.09
305.113	33656.58
305.569	33006.53
306.024	35235.94
306.479	33639.09
306.935	28376.98
307.39	31038.13
307.845	28702.01
308.301	28908.87
308.756	28186.54
309.211	27175.81
309.666	27870.37
310.121	34623.71
310.576	35195.2
311.031	34973
311.486	40108.15
311.94	40138.31
312.395	53730.51
312.85	101075.14
313.305	497564.95
313.759	2574184.18
314.214	186730.26
314.668	148135.86
315.123	124644.34
315.577	44729.97
316.032	39824.02
316.486	49951.4
316.94	39438.99
317.394	27480.29
317.849	21392.84
318.303	20293.86
318.757	19205.65
319.211	21282.18
319.665	18682.41
320.119	18946.59
320.572	27262.31
321.026	25506.83
321.48	21260.62
321.934	23216.6
322.387	23290.59
322.841	25170.91
323.295	22608.18
323.748	26071.14
324.202	26439.79
324.655	31746.45
325.108	44288.24
325.562	31258.27
326.015	37138.77
326.468	28065.6
326.921	31418.73
327.374	29303.54
327.827	30507.49
328.28	34595.55
328.733	23193.65
329.186	20419.94
329.639	19458.06
330.092	16437.36
330.545	15649.35
330.997	15795.82
331.45	17262.99
331.903	20210.64
332.355	34859.01
332.808	33914.47
333.26	27982.51
333.713	30387.15
334.165	30643.99
334.617	40937.49
335.069	33072.82
335.522	59828.95
335.974	66257.86
336.426	60565.75
336.878	42064.9
337.33	21278.52
337.782	20762.09
338.234	25937.53
338.686	31030.69
339.137	36705.38
339.589	34564.84
340.041	27103.26
340.493	23312.64
340.944	23869.71
341.396	25725.25
341.847	21594.53
342.299	25489.82
342.75	31162.62
343.201	27347.11
343.653	31503.82
344.104	38829.54
344.555	30599.52
345.006	47789.88
345.457	36622.7
345.908	29169.34
346.359	27449.77
346.81	22388.7
347.261	23639.8
347.712	23328.01
348.163	25036.69
348.613	25327.69
349.064	23673.64
349.515	20765.81
349.965	21283.61
350.416	25652.2
350.866	28155.2
351.317	31871.37
351.767	52756.33
352.217	66647.89
352.668	55275.04
353.118	50653.56
353.568	48990.75
354.018	38703.35
354.468	40782.92
354.918	29242.78
355.368	25611.59
355.818	36191.3
356.268	104300.53
356.718	437321.41
357.168	108928.7
357.617	54735.98
358.067	60993.4
358.517	57040.41
358.966	66907.37
359.416	75027.16
359.865	81224.86
360.315	96817.02
360.764	45244.92
361.213	25324.63
361.663	24034.32
362.112	29756.32
362.561	48088.77
363.01	36232.22
363.459	30554.37
363.908	33109.83
364.357	28146.85
364.806	47586.6
365.255	32679.24
365.703	29944.43
366.152	29971.52
366.601	24301.34
367.05	19697.7
367.498	17882.03
367.947	18702.11
368.395	19437.85
368.844	17204.75
369.292	20767.77
369.74	14343.39
370.189	21985.62
370.637	25767.8
371.085	22294.27
371.533	27167.82
371.981	26196.45
372.429	24941.7
372.877	25966.07
373.325	21734.52
373.773	22156.76
374.221	19724.56
374.669	24473.98
375.116	21187.54
375.564	21361.95
376.012	23859.51
376.459	19643.33
376.907	23523.53
377.354	28485.13
377.801	26546.14
378.249	30510.65
378.696	39022.56
379.143	47299.22
379.591	50449.47
380.038	85257.56
380.485	61574.75
380.932	66449.14
381.379	60702.12
381.826	44551.5
382.273	31711.26
382.72	27777.03
383.166	27052.99
383.613	17535.13
384.06	15800.25
384.506	18267.28
384.953	13406.67
385.4	13512.61
385.846	11847.85
386.292	11568.01
386.739	11339.95
387.185	11205.57
387.631	11197.52
388.078	10849.92
388.524	11620.49
388.97	10715.2
389.416	8926.81
389.862	9500.55
390.308	8993.67
390.754	9128.35
391.2	9900.5
391.645	10119.77
392.091	9654.21
392.537	9318.19
392.983	9345.44
393.428	9156.36
393.874	9811.23
394.319	9827.24
394.765	9300.42
395.21	9562.89
395.655	8963.94
396.101	8386.71
396.546	7564.05
396.991	7636.22
397.436	7096.54
397.881	6855.6
398.326	6501.17
398.771	6145.43
399.216	5377.08
399.661	4838.65
400.106	4817.4
400.551	4927.83
400.995	4428.67
401.44	4379.04
401.885	4115.81
402.329	4155.61
402.774	3987.35
403.218	3850.29
403.663	3712.24
404.107	3816.79
404.551	3845.47
404.995	3524.99
405.44	3397.19
405.884	3446.02
406.328	3337.47
406.772	3329.75
407.216	3031.14
407.66	2928.05
408.104	2787.25
408.547	2606.68
408.991	2521.21
409.435	2427.65
409.879	2392.7
410.322	2359.75
410.766	2276.33
411.209	2162.01
411.653	2073.11
412.096	2030.07
412.54	2031.28
412.983	2015.81
413.426	2019.47
413.869	2019.17
414.312	1978.9
414.756	1905.72
415.199	1817.31
415.642	1762.75
416.085	1766.55
416.527	1755.53
416.97	1784.51
417.413	1692.8
417.856	1676.62
418.298	1661.14
418.741	1651.22
419.184	1649.6
419.626	1719.8
420.069	1721.13
420.511	1728.42
420.953	1690.58
421.396	1671.52
421.838	1628.64
422.28	1665.27
422.722	1671.54
423.164	1694.87
423.606	1664.55
424.048	1663.03
424.49	1579
424.932	1571.29
425.374	1550.37
425.816	1577.48
426.258	1608.46
426.699	1625.8
427.141	1600.87
427.582	1624.6
428.024	1616.83
428.465	1603.86
428.907	1559.57
429.348	1540.9
429.789	1538.13
430.231	1503.99
430.672	1520.25
431.113	1483.95
431.554	1459.13
431.995	1419.59
432.436	1364.26
432.877	1329.05
433.318	1307.03
433.759	1301.97
434.2	1298.27
434.64	1282.83
435.081	1282.07
435.522	1213.65
435.962	1166.14
436.403	1139.18
436.843	1154.85
437.284	1130.41
437.724	1100.48
438.164	1100.95
438.604	1074.22
439.045	1033.62
439.485	988.92
439.925	968.88
440.365	942.63
440.805	930.38
441.245	916.49
441.685	881.15
442.125	872.67
442.564	876.98
443.004	857.55
443.444	854.77
443.883	855.53
444.323	847.61
444.762	848.77
445.202	860.67
445.641	874.64
446.081	869.86
446.52	876.31
446.959	866.98
447.398	845.36
447.837	833.28
448.276	816.93
448.716	824.04
449.154	831.63
449.593	812.69
450.032	808.9
450.471	793.64
450.91	794.52
451.349	790.72
451.787	788.89
452.226	800.22
452.664	800.72
453.103	801.67
453.541	799.22
453.98	797.02
454.418	801.46
454.856	788.95
455.295	787.37
455.733	793.4
456.171	798.67
456.609	800.34
457.047	800.58
457.485	811.82
457.923	813.43
458.361	801.71
458.798	804.98
459.236	803.7
459.674	807.83
460.111	811.49
460.549	804.21
460.987	802.19
461.424	797.99
461.862	793.38
462.299	781.16
462.736	781.01
463.173	784.89
463.611	775
464.048	772.43
464.485	780.34
464.922	773.24
465.359	768.35
465.796	756.6
466.233	751.67
466.67	744.27
467.106	741.56
467.543	734.57
467.98	725.7
468.416	708.98
468.853	702.34
469.29	680.65
469.726	673.32
470.162	656.1
470.599	648.74
471.035	642.92
471.471	628.76
471.907	624.95
472.344	619.37
472.78	619.86
473.216	626.98
473.652	620.59
474.088	619.29
474.523	617.54
474.959	621.66
475.395	614.78
475.831	611.31
476.266	614.07
476.702	612
477.138	605.3
477.573	603.75
478.008	601.05
478.444	602.98
478.879	608.15
479.314	610.16
479.75	610.12
480.185	613.29
480.62	618.24
481.055	620.41
481.49	625.23
481.925	635.13
482.36	646.07
482.795	664.22
483.229	683.05
483.664	697.04
484.099	700.59
484.534	711.95
484.968	719.02
485.403	722.1
485.837	721.99
486.271	721.93
486.706	722.25
487.14	714.53
487.574	703.62
488.009	697.24
488.443	692.33
488.877	698.96
489.311	702.26
489.745	711.82
490.179	717.6
490.613	731.12
491.046	737.17
491.48	743.45
491.914	744.4
492.348	749.92
492.781	754.49
493.215	755.32
493.648	757.12
494.082	762.13
494.515	761.41
494.948	770.96
495.382	776.35
495.815	781.98
496.248	788.71
496.681	802.31
497.114	815
497.547	826.2
497.98	841.5
498.413	848.39
498.846	859.21
499.279	869.95
499.711	873.3
500.144	876.49
500.577	887.19
501.009	898.01
501.442	908.47
501.874	909.19
502.306	910.99
502.739	919.05
503.171	933.91
503.603	937.13
504.036	945.56
504.468	951.32
504.9	962.24
505.332	968.52
505.764	972.13
506.196	978.53
506.627	993.21
507.059	1005.91
507.491	1013.67
507.923	1010.56
508.354	1024.7
508.786	1034.35
509.217	1052.13
509.649	1066.38
510.08	1084.89
510.512	1100.94
510.943	1114.4
511.374	1124.47
511.805	1143.47
512.237	1160.89
512.668	1192.46
513.099	1219.01
513.53	1245.22
513.961	1262.77
514.391	1292.31
514.822	1322.67
515.253	1356.57
515.684	1379.93
516.114	1406.76
516.545	1424.02
516.975	1447.46
517.406	1462.14
517.836	1460.1
518.267	1463.08
518.697	1478.2
519.127	1478.77
519.558	1482.24
519.988	1481.18
520.418	1487.03
520.848	1499.83
521.278	1505.66
521.708	1518.85
522.138	1528.24
522.567	1555.28
522.997	1576.2
523.427	1588.37
523.857	1602.24
524.286	1608.4
524.716	1620.32
525.145	1636.54
525.575	1645.14
526.004	1656.42
526.433	1647.08
526.863	1644.62
527.292	1632.75
527.721	1634.89
528.15	1638.07
528.579	1635.5
529.008	1644.7
529.437	1664.23
529.866	1674.83
530.295	1689.74
530.724	1700.91
531.152	1725.08
531.581	1736.31
532.01	1751.94
532.438	1760.25
532.867	1773.26
533.295	1790.08
533.723	1795.39
534.152	1792.84
534.58	1792.91
535.008	1775.78
535.436	1776.04
535.865	1783.4
536.293	1797.22
536.721	1812.21
537.149	1835.77
537.576	1836.75
538.004	1849.73
538.432	1856.75
538.86	1855.4
539.287	1860.68
539.715	1874.71
540.143	1877.78
540.57	1873
540.998	1868.17
541.425	1844.11
541.852	1823.87
542.28	1821.96
542.707	1805.18
543.134	1791.64
543.561	1786.61
543.988	1779.53
544.415	1778.33
544.842	1771.78
545.269	1764.9
545.696	1766.49
546.123	1779.29
546.549	1768.09
546.976	1755.74
547.403	1754.82
547.829	1755.23
548.256	1756.48
548.682	1752.5
549.108	1743.61
549.535	1741.91
549.961	1742.39
550.387	1729.08
550.813	1723.68
551.24	1728.62
551.666	1728.88
552.092	1718.51
552.518	1711.71
552.943	1706.03
553.369	1712.62
553.795	1718.61
554.221	1719.57
554.646	1716.76
555.072	1727.36
555.498	1732.21
555.923	1742.58
556.349	1757.2
556.774	1766.07
557.199	1767.78
557.625	1772.69
558.05	1766.99
558.475	1777.29
558.9	1777.48
559.325	1768.89
559.75	1764.07
560.175	1757.21
560.6	1749.88
561.025	1748.05
561.449	1748.91
561.874	1754
562.299	1759.2
562.723	1768
563.148	1758.97
563.572	1763.39
563.997	1774.78
564.421	1779.83
564.846	1781.84
565.27	1787.36
565.694	1787.28
566.118	1799.91
566.542	1810.14
566.966	1805.29
567.39	1800.72
567.814	1790.21
568.238	1791.33
568.662	1798.41
569.086	1802.19
569.509	1810.98
569.933	1797.17
570.357	1790.39
570.78	1771.88
571.204	1759.59
571.627	1750.23
572.05	1750.13
572.474	1752.25
572.897	1740.42
573.32	1733.71
573.743	1726.43
574.166	1709.36
574.589	1710.63
575.012	1704.3
575.435	1704.02
575.858	1695.53
576.281	1686.63
576.704	1671.31
577.126	1660.56
577.549	1650.98
577.972	1641.89
578.394	1631.39
578.817	1625.1
579.239	1607.45
579.661	1594.98
580.084	1580.52
580.506	1568.22
580.928	1564.48
581.35	1554.96
581.772	1551.3
582.194	1539.49
582.616	1527.14
583.038	1514.49
583.46	1505.88
583.882	1503.42
584.303	1508.09
584.725	1503.32
585.147	1506.49
585.568	1517.5
585.99	1531.08
586.411	1537.67
586.833	1551.8
587.254	1554.17
587.675	1568.41
588.096	1580.16
588.518	1574.86
588.939	1559.31
589.36	1558.81
589.781	1547.64
590.202	1520.13
590.623	1510.54
591.043	1509.35
591.464	1497.4
591.885	1493.88
592.305	1488.07
592.726	1474.74
593.147	1476.6
593.567	1472.03
593.987	1464.2
594.408	1460.53
594.828	1458.35
595.248	1453.11
595.669	1433.98
596.089	1427.96
596.509	1421.05
596.929	1407.05
597.349	1407.9
597.769	1398.44
598.189	1391.45
598.608	1392.9
599.028	1394.6
599.448	1394.28
599.867	1381.51
600.287	1377.59
600.706	1372.71
601.126	1362.93
601.545	1362.92
601.965	1361.44
602.384	1356.43
602.803	1359.56
603.222	1355.37
603.641	1349.6
604.061	1346.2
604.48	1342.77
604.898	1351.49
605.317	1357.15
605.736	1361.5
606.155	1359.6
606.574	1351.83
606.992	1357.62
607.411	1354.47
607.829	1347.42
608.248	1344.9
608.666	1344.16
609.085	1345.43
609.503	1338.7
609.921	1333.7
610.339	1337.18
610.758	1337.01
611.176	1333.2
611.594	1326.69
612.012	1324.11
612.43	1328.04
612.847	1335.9
613.265	1338.24
613.683	1343.25
614.101	1345.5
614.518	1342.42
614.936	1332.16
615.353	1318.53
615.771	1316.28
616.188	1316.82
616.606	1314.39
617.023	1308.49
617.44	1294.82
617.857	1288.09
618.274	1280.57
618.691	1275.48
619.108	1267.21
619.525	1261.92
619.942	1269.61
620.359	1272.65
620.776	1267.58
621.192	1263.21
621.609	1262.69
622.026	1270.59
622.442	1277.7
622.859	1282.05
623.275	1274.72
623.691	1280.68
624.108	1293.21
624.524	1308.06
624.94	1309.11
625.356	1320.48
625.772	1335.4
626.188	1346.85
626.604	1349.01
627.02	1346.68
627.436	1344.68
627.852	1351.83
628.268	1364.88
628.683	1355.44
629.099	1347.4
629.514	1342.68
629.93	1345.17
630.345	1349.5
630.761	1345.41
631.176	1347.1
631.591	1339.76
632.007	1332.93
632.422	1329.83
632.837	1317.69
633.252	1315.16
633.667	1304.22
634.082	1295.58
634.497	1282.28
634.911	1262.25
635.326	1258.49
635.741	1241.17
636.155	1231.09
636.57	1232.01
636.984	1232.08
637.399	1233.57
637.813	1232.38
638.228	1229.95
638.642	1233.68
639.056	1223.07
639.47	1221.86
639.884	1212.69
640.298	1206.85
640.712	1204.99
641.126	1192.27
641.54	1183.46
641.954	1177.82
642.368	1165.77
642.781	1158.89
643.195	1140.54
643.609	1141.44
644.022	1137.17
644.436	1132.7
644.849	1121.83
645.262	1110.29
645.676	1112.81
646.089	1108.54
646.502	1095.02
646.915	1090.92
647.328	1073.76
647.741	1073.42
648.154	1061.7
648.567	1059.5
648.98	1047.71
649.393	1047.74
649.805	1045.1
650.218	1037.96
650.631	1022.92
651.043	1017.34
651.456	1012.08
651.868	1014.66
652.28	1031.75
652.693	1047.16
653.105	1054.22
653.517	1065.09
653.929	1067.56
654.341	1075.19
654.753	1065
655.165	1073.46
655.577	1071.76
655.989	1069.89
656.401	1063.58
656.813	1028.25
657.224	1009.74
657.636	983.04
658.047	965.53
658.459	946.03
658.87	938.47
659.282	927.67
659.693	908.11
660.104	894.85
660.515	882.28
660.926	880.82
661.338	880.37
661.749	874.58
662.159	866.06
662.57	864.46
662.981	862.66
663.392	856.82
663.803	862.82
664.213	861.71
664.624	858.89
665.035	862.88
665.445	851.51
665.855	845.03
666.266	837.98
666.676	837.24
667.086	829.16
667.497	830.13
667.907	824.49
668.317	816.24
668.727	814.31
669.137	816.98
669.547	815.67
669.956	820.1
670.366	823.21
670.776	826.25
671.186	831.95
671.595	836.44
672.005	840.1
672.414	840.46
672.824	839.43
673.233	844.98
673.642	848.08
674.052	852.61
674.461	855.03
674.87	861
675.279	859.29
675.688	862.89
676.097	865.3
676.506	862.67
676.915	879.56
677.323	883.79
677.732	882.35
678.141	882.46
678.549	872.42
678.958	873.87
679.366	873.93
679.775	880.44
680.183	891.16
680.592	897.69
681	904.63
681.408	897.09
681.816	905.68
682.224	915.54
682.632	927.09
683.04	958.85
683.448	983.92
683.856	1017
684.264	1054.02
684.671	1087.34
685.079	1130.08
685.487	1175.46
685.894	1240.65
686.302	1292.35
686.709	1333.51
687.116	1380.14
687.524	1417.25
687.931	1446.13
688.338	1468.1
688.745	1486.36
689.152	1509.33
689.559	1541.71
689.966	1574.01
690.373	1582.38
690.78	1611.61
691.187	1663.53
691.593	1698.44
692	1726.91
692.407	1777.68
692.813	1843.29
693.22	1890.16
693.626	1939.78
694.032	1978.02
694.439	2041.26
694.845	2087.82
695.251	2149.95
695.657	2202.98
696.063	2290.46
