Data from C_2_DIV_IL_4N_Splice17_12-36-35-148.txt Node
Date: Sat Mar 14 12:36:35 EDT 2020
User: sa697716
Spectrometer: FLMS03696
Trigger mode: 0
Integration Time (sec): 3.180400E-1
Scans to average: 20
Electric dark correction enabled: true
Nonlinearity correction enabled: true
Boxcar width: 5
XAxis mode: Wavelengths
Number of Pixels in Spectrum: 2048
>>>>>Begin Spectral Data<<<<<
187.83	-360018.3
188.298	2481.88
188.766	1354.36
189.233	1199.82
189.701	1569.79
190.169	2175.55
190.636	817.27
191.104	637.09
191.571	49.33
192.039	-147.71
192.506	-136.33
192.974	526.74
193.441	-1129.54
193.908	-357.61
194.375	-136.49
194.842	-122.28
195.31	-51.46
195.777	125.01
196.244	399.73
196.711	513.04
197.177	668.38
197.644	988.2
198.111	1716.98
198.578	2408.13
199.045	1927.88
199.511	3165.23
199.978	3694.05
200.445	3116.53
200.911	3456.55
201.378	3837.12
201.844	3470.7
202.31	5911.79
202.777	6135.19
203.243	3412.49
203.709	3243.89
204.176	3865.76
204.642	3200.36
205.108	2976.87
205.574	2430.99
206.04	2229.23
206.506	2105.17
206.972	2008.58
207.438	1944.04
207.903	2225.23
208.369	1966.7
208.835	1969.59
209.301	2074.99
209.766	2130.36
210.232	2133.43
210.697	2665.79
211.163	3316.34
211.628	5059.96
212.094	4249.86
212.559	5274.29
213.024	3317.44
213.49	4076.1
213.955	4033.04
214.42	4009.58
214.885	3764.42
215.35	3628.55
215.815	3521.68
216.28	3785.84
216.745	3154.47
217.21	3498.73
217.675	3312.3
218.14	3854.86
218.604	4473.19
219.069	5273.17
219.534	5684.14
219.998	6834.89
220.463	8525.43
220.927	10813.93
221.392	10389.79
221.856	10684.98
222.32	13721.08
222.785	17158.25
223.249	21841.04
223.713	24598.11
224.177	24813.98
224.642	32122.2
225.106	39706.47
225.57	43582.55
226.034	32466.98
226.497	49579.26
226.961	44826.04
227.425	52271.75
227.889	58129.16
228.353	58192.9
228.816	120376.3
229.28	115082.28
229.744	97130.17
230.207	58988.99
230.671	58068.12
231.134	96287.58
231.597	110987.53
232.061	111157.99
232.524	108517.48
232.987	74693.65
233.45	67139.14
233.914	60181.53
234.377	61734.93
234.84	56456.5
235.303	66591.62
235.766	74274.55
236.229	76707.82
236.691	48290.11
237.154	54147.68
237.617	40666.27
238.08	41634.47
238.542	48712.7
239.005	34765.05
239.468	34452.84
239.93	32415.25
240.393	29427.47
240.855	25785.53
241.317	26393.44
241.78	32106.74
242.242	33181.62
242.704	35709.54
243.166	31037.32
243.629	28103.12
244.091	32354.28
244.553	35403.9
245.015	38014.34
245.477	49121.8
245.939	71981.25
246.4	76242.79
246.862	74005.42
247.324	69668.57
247.786	77973.52
248.247	102194.21
248.709	105708.19
249.17	78965.7
249.632	74249.33
250.093	85898.26
250.555	74067.54
251.016	45079
251.477	42678.01
251.939	45965.53
252.4	48148.67
252.861	57254.6
253.322	53138.46
253.783	63144.28
254.244	81791.85
254.705	64468.04
255.166	57284.86
255.627	56354.16
256.088	79313.2
256.549	84110.2
257.009	72337.48
257.47	87737.21
257.931	71298.67
258.391	53349.06
258.852	54925
259.312	57543.7
259.773	71022.98
260.233	59899.36
260.694	50448.2
261.154	57184.66
261.614	45823.53
262.074	40966.95
262.534	42470.72
262.994	39990.07
263.455	53281.3
263.915	44810.17
264.374	42141.89
264.834	45971.07
265.294	50970.76
265.754	52737.79
266.214	49903.96
266.673	46753.65
267.133	58957.31
267.593	58503.89
268.052	71498.28
268.512	62124.94
268.971	74785.43
269.431	81963.99
269.89	73304.88
270.349	109744.27
270.809	122264.85
271.268	109869.23
271.727	246365.2
272.186	159536.45
272.645	119578.12
273.104	86262.17
273.563	124820.08
274.022	98229.36
274.481	83475.23
274.94	64261.51
275.399	47772.39
275.857	55613.41
276.316	75156.43
276.775	66806.3
277.233	65704.74
277.692	61401.55
278.15	69389.07
278.609	71281.78
279.067	65875.46
279.525	61108.53
279.984	78917.71
280.442	94668.42
280.9	93171.98
281.358	61257.04
281.816	57056.22
282.274	55854.34
282.732	57703.45
283.19	57965.48
283.648	50013.37
284.106	53252.96
284.564	54148.47
285.021	50135.52
285.479	37334.15
285.937	33974.92
286.394	29747.52
286.852	30575.48
287.309	32056.97
287.767	30912.67
288.224	29334.25
288.682	32147.62
289.139	35195.52
289.596	32129.89
290.053	33381
290.511	42086.26
290.968	50956.12
291.425	69116.92
291.882	57389.17
292.339	49932.35
292.796	49516.88
293.252	46660.37
293.709	36997.04
294.166	33157.25
294.623	36651.06
295.079	35115.26
295.536	35244.22
295.992	31956.9
296.449	31574.01
296.905	32785.95
297.362	31374.36
297.818	32982.89
298.274	34151.49
298.731	34801.91
299.187	34435.28
299.643	36986.23
300.099	44735.83
300.555	48996.86
301.011	40915.85
301.467	39383.73
301.923	46160.03
302.379	45070.8
302.835	44234.41
303.291	44245.35
303.746	50284.62
304.202	63420.96
304.658	63548.69
305.113	42662.97
305.569	41797.89
306.024	44537.67
306.479	42415.71
306.935	35683.54
307.39	38953.85
307.845	35960.52
308.301	36152.84
308.756	35221.54
309.211	33900.58
309.666	34722.72
310.121	43025.19
310.576	43645.82
311.031	43294.64
311.486	49536.4
311.94	49491.49
312.395	66167.8
312.85	124021.42
313.305	609786.99
313.759	3148700.79
314.214	227918.4
314.668	180363.71
315.123	151640.38
315.577	54309.06
316.032	48229.42
316.486	60370.95
316.94	47496.83
317.394	33002.72
317.849	25658.63
318.303	24279.86
318.757	22907.39
319.211	25327.45
319.665	22155.05
320.119	22430.25
320.572	32141.04
321.026	29978.83
321.48	24944.16
321.934	27212.02
322.387	27276.68
322.841	29439.13
323.295	26410.56
323.748	30426.17
324.202	30817.62
324.655	36944.4
325.108	51458.8
325.562	36314.49
326.015	43162.35
326.468	32572.28
326.921	36438.29
327.374	33924.8
327.827	35241.19
328.28	39856.78
328.733	26659.52
329.186	23456.15
329.639	22370.05
330.092	18873.81
330.545	17978.76
330.997	18117.44
331.45	19778.31
331.903	23142.59
332.355	39794.02
332.808	38712.63
333.26	31947.63
333.713	34691.88
334.165	34923.44
334.617	46565.14
335.069	37614.48
335.522	67944.66
335.974	75156.96
336.426	68655.68
336.878	47573.4
337.33	24092.91
337.782	23498.68
338.234	29378.45
338.686	35119.5
339.137	41590.01
339.589	39136.61
340.041	30645.43
340.493	26332.1
340.944	26945.82
341.396	29026.61
341.847	24384.25
342.299	28756.13
342.75	35064.69
343.201	30663.86
343.653	35205.54
344.104	43242.38
344.555	34065.16
345.006	53013.02
345.457	40504.39
345.908	32202.62
346.359	30274.68
346.81	24630.9
347.261	25948.81
347.712	25545.4
348.163	27318.57
348.613	27657.32
349.064	25802.03
349.515	22559.38
349.965	23109.3
350.416	27862.14
350.866	30556.78
351.317	34512.4
351.767	57112.99
352.217	72217.19
352.668	59962.62
353.118	55008.84
353.568	53066.48
354.018	41908.1
354.468	44184.67
354.918	31681.88
355.368	27687.12
355.818	39087.75
356.268	112542.56
356.718	470276.18
357.168	116828.93
357.617	58517.14
358.067	64972.91
358.517	60835
358.966	71269.81
359.416	79781.41
359.865	86195.23
360.315	102572.87
360.764	47841.95
361.213	26761.72
361.663	25370.58
362.112	31315.86
362.561	50587.95
363.01	38171.62
363.459	32098.44
363.908	34721.95
364.357	29463.66
364.806	49760.89
365.255	34175.68
365.703	31242.8
366.152	31219.77
366.601	25278.35
367.05	20500.81
367.498	18614.56
367.947	19427.12
368.395	20206.69
368.844	17878.57
369.292	21561.42
369.74	14890.23
370.189	22787.14
370.637	26688.19
371.085	23053.16
371.533	28073.81
371.981	27042.13
372.429	25731.38
372.877	26760.3
373.325	22375.69
373.773	22803.66
374.221	20262.76
374.669	25096.59
375.116	21712.51
375.564	21911.32
376.012	24469.3
376.459	20128.15
376.907	24033.5
377.354	29072.78
377.801	27081.92
378.249	31069.32
378.696	39606.96
379.143	47955.69
379.591	51042.73
380.038	86194.92
380.485	62237.33
380.932	67207.71
381.379	61370.62
381.826	45165.99
382.273	32056.57
382.72	28062.02
383.166	27301.38
383.613	17695.81
384.06	15923.39
384.506	18413.63
384.953	13507.16
385.4	13581.82
385.846	11875.17
386.292	11589.73
386.739	11325.49
387.185	11198.41
387.631	11182.65
388.078	10839.11
388.524	11588.83
388.97	10701.15
389.416	8917.61
389.862	9462.29
390.308	8950.47
390.754	9084.21
391.2	9858.46
391.645	10088.49
392.091	9621.88
392.537	9290.15
392.983	9308.8
393.428	9153.12
393.874	9820.18
394.319	9853.47
394.765	9330.63
395.21	9586.88
395.655	8977.44
396.101	8391.33
396.546	7553.33
396.991	7618.06
397.436	7073.18
397.881	6825.14
398.326	6455.32
398.771	6090.9
399.216	5312.53
399.661	4783.53
400.106	4754.95
400.551	4861.35
400.995	4351.73
401.44	4304.22
401.885	4036.71
402.329	4072.38
402.774	3901.37
403.218	3770.31
403.663	3630.18
404.107	3734.97
404.551	3760.2
404.995	3447.33
405.44	3317.13
405.884	3368.15
406.328	3259.67
406.772	3250.55
407.216	2958.99
407.66	2861.44
408.104	2717.08
408.547	2542.71
408.991	2454.59
409.435	2360.07
409.879	2327.7
410.322	2298.98
410.766	2218.62
411.209	2105.63
411.653	2022.12
412.096	1977.67
412.54	1976.39
412.983	1963.13
413.426	1967.13
413.869	1966.94
414.312	1929.41
414.756	1860.62
415.199	1771.62
415.642	1719.21
416.085	1719.51
416.527	1705.29
416.97	1732.46
417.413	1641.09
417.856	1623.38
418.298	1605.14
418.741	1591.06
419.184	1587.07
419.626	1653.59
420.069	1655.06
420.511	1663.33
420.953	1627.55
421.396	1612.79
421.838	1571.43
422.28	1607.13
422.722	1615.49
423.164	1639.59
423.606	1613.74
424.048	1610.08
424.49	1527.21
424.932	1517.44
425.374	1495.87
425.816	1521.79
426.258	1549.59
426.699	1566.05
427.141	1541.33
427.582	1563.34
428.024	1554.3
428.465	1546.92
428.907	1511.59
429.348	1494.28
429.789	1497.18
430.231	1463.47
430.672	1481.74
431.113	1446.11
431.554	1424.43
431.995	1390.09
432.436	1342.18
432.877	1311.73
433.318	1286.81
433.759	1280.6
434.2	1278.55
434.64	1263.35
435.081	1268.28
435.522	1201.81
435.962	1159.03
436.403	1136.67
436.843	1153.81
437.284	1128.49
437.724	1098.74
438.164	1103.43
438.604	1077.12
439.045	1036.03
439.485	994.41
439.925	971.75
440.365	949.26
440.805	936.94
441.245	922.85
441.685	887.34
442.125	880.51
442.564	886.34
443.004	864.76
443.444	863.29
443.883	864.31
444.323	858.39
444.762	860.25
445.202	871.71
445.641	886.08
446.081	881.23
446.52	889.29
446.959	879.12
447.398	856.92
447.837	845.03
448.276	830.76
448.716	838.07
449.154	844.53
449.593	825.97
450.032	823.27
450.471	808.71
450.91	807.91
451.349	805.07
451.787	801.66
452.226	812.89
452.664	814.31
453.103	814.29
453.541	813.37
453.98	810.64
454.418	816.68
454.856	803.27
455.295	801.75
455.733	808.31
456.171	812.56
456.609	814.36
457.047	814.75
457.485	825.21
457.923	826.48
458.361	815.75
458.798	818.92
459.236	815.26
459.674	820.85
460.111	823.77
460.549	815.42
460.987	812.38
461.424	808.45
461.862	803.72
462.299	791.64
462.736	790.33
463.173	792.42
463.611	781.57
464.048	779.08
464.485	784.69
464.922	777.54
465.359	773.96
465.796	763.01
466.233	758.35
466.67	750.99
467.106	749.03
467.543	741.1
467.98	731.54
468.416	713.52
468.853	708.26
469.29	686.65
469.726	678.96
470.162	660.74
470.599	652.04
471.035	646.14
471.471	630.14
471.907	627.22
472.344	623.8
472.78	624.68
473.216	632.78
473.652	625.3
474.088	623.82
474.523	622.01
474.959	626.8
475.395	621.75
475.831	616.41
476.266	619.39
476.702	617.64
477.138	610.83
477.573	608
478.008	605.38
478.444	606.79
478.879	611.85
479.314	613.86
479.75	613.89
480.185	615.55
480.62	621.24
481.055	624.91
481.49	627.98
481.925	636.63
482.36	648.71
482.795	666
483.229	684.83
483.664	699.13
484.099	702.78
484.534	713.36
484.968	719.93
485.403	721.67
485.837	719.84
486.271	718.22
486.706	718.53
487.14	709.25
487.574	697.37
488.009	690.13
488.443	683.11
488.877	688.71
489.311	689.68
489.745	697.2
490.179	702.71
490.613	715.06
491.046	720.67
491.48	725.53
491.914	725.14
492.348	729.64
492.781	732.69
493.215	733.65
493.648	733.75
494.082	739.24
494.515	738.62
494.948	745.72
495.382	748.69
495.815	752.91
496.248	757.75
496.681	770.16
497.114	781.01
497.547	791.07
497.98	804.18
498.413	809.59
498.846	817.45
499.279	825.87
499.711	829.67
500.144	832.46
500.577	842.14
501.009	852.13
501.442	862.56
501.874	863.71
502.306	865.52
502.739	873.12
503.171	888.62
503.603	892.53
504.036	901.49
504.468	906.84
504.9	918.36
505.332	924.76
505.764	930.15
506.196	936.98
506.627	952.8
507.059	966.19
507.491	974.79
507.923	972.65
508.354	988.95
508.786	1001.07
509.217	1020.36
509.649	1035.92
510.08	1056.71
510.512	1073.4
510.943	1089.87
511.374	1101.28
511.805	1122.71
512.237	1143.09
512.668	1176.19
513.099	1204.94
513.53	1234.05
513.961	1255.69
514.391	1289.62
514.822	1325.03
515.253	1363.95
515.684	1391.21
516.114	1423.82
516.545	1448.54
516.975	1477.91
517.406	1500.14
517.836	1504.43
518.267	1512.57
518.697	1534.31
519.127	1541.04
519.558	1550
519.988	1554.56
520.418	1567.63
520.848	1587.77
521.278	1598.94
521.708	1606.76
522.138	1621.73
522.567	1656.76
522.997	1685.71
523.427	1703.18
523.857	1722.67
524.286	1734.83
524.716	1754.32
525.145	1775.45
525.575	1789.9
526.004	1805.78
526.433	1813.55
526.863	1815.78
527.292	1806.66
527.721	1814.21
528.15	1821.58
528.579	1824.36
529.008	1838.55
529.437	1864.61
529.866	1881.63
530.295	1900.67
530.724	1916.91
531.152	1947.07
531.581	1962.5
532.01	1981.94
532.438	1991.91
532.867	2010.71
533.295	2031.99
533.723	2040.04
534.152	2038.85
534.58	2039.09
535.008	2023.97
535.436	2026.52
535.865	2036.49
536.293	2054.57
536.721	2074.64
537.149	2104.49
537.576	2108.4
538.004	2123.39
538.432	2131.43
538.86	2129.97
539.287	2139.34
539.715	2154.32
540.143	2156.93
540.57	2153.21
540.998	2148.42
541.425	2122.02
541.852	2098.1
542.28	2095.24
542.707	2077.27
543.134	2062.35
543.561	2058.03
543.988	2049.55
544.415	2048.97
544.842	2044.34
545.269	2035.81
545.696	2038.4
546.123	2052.44
546.549	2041.32
546.976	2027.17
547.403	2027.07
547.829	2030.69
548.256	2033.58
548.682	2030.25
549.108	2021.52
549.535	2021.47
549.961	2024.92
550.387	2010.19
550.813	2004.69
551.24	2012.11
551.666	2013.39
552.092	2002.48
552.518	1993.85
552.943	1985.32
553.369	1992.83
553.795	1999.52
554.221	1999.58
554.646	1994.68
555.072	2006.19
555.498	2012.43
555.923	2023.29
556.349	2040.29
556.774	2049.43
557.199	2051.48
557.625	2059.42
558.05	2051.71
558.475	2062.7
558.9	2061.67
559.325	2053.18
559.75	2047.04
560.175	2038.29
560.6	2029.36
561.025	2026.66
561.449	2027.62
561.874	2033.17
562.299	2037.03
562.723	2046.12
563.148	2034.14
563.572	2038.3
563.997	2048.64
564.421	2053.42
564.846	2053.15
565.27	2056.65
565.694	2052.82
566.118	2066.44
566.542	2074.39
566.966	2066.68
567.39	2060.62
567.814	2048.35
568.238	2046.49
568.662	2052.43
569.086	2055.1
569.509	2063.6
569.933	2046.15
570.357	2037.93
570.78	2012.93
571.204	1998.26
571.627	1985.79
572.05	1982.91
572.474	1981.49
572.897	1966.94
573.32	1957.39
573.743	1945.86
574.166	1924.85
574.589	1925.6
575.012	1917.4
575.435	1915.42
575.858	1904.21
576.281	1891.77
576.704	1873.15
577.126	1860.5
577.549	1849.02
577.972	1837.79
578.394	1825.16
578.817	1816.73
579.239	1794.53
579.661	1778.86
580.084	1760.86
580.506	1745.7
580.928	1741.32
581.35	1729.95
581.772	1724.79
582.194	1709.21
582.616	1694.44
583.038	1679.61
583.46	1666.91
583.882	1663.35
584.303	1666.64
584.725	1661.48
585.147	1663.28
585.568	1674.42
585.99	1687.54
586.411	1692.93
586.833	1709.78
587.254	1711.65
587.675	1726.81
588.096	1741.82
588.518	1735.01
588.939	1717.88
589.36	1716.04
589.781	1704.23
590.202	1672.43
590.623	1662.88
591.043	1661.33
591.464	1646.71
591.885	1642.28
592.305	1635.32
592.726	1619.64
593.147	1621.78
593.567	1614.9
593.987	1607.13
594.408	1602.2
594.828	1600.21
595.248	1592.74
595.669	1572.71
596.089	1563.82
596.509	1556.61
596.929	1542.12
597.349	1542.63
597.769	1530.61
598.189	1523.79
598.608	1524.02
599.028	1525.39
599.448	1525.23
599.867	1511.82
600.287	1505.91
600.706	1501.75
601.126	1490.9
601.545	1488.53
601.965	1486.39
602.384	1480.98
602.803	1483.08
603.222	1478.51
603.641	1471.23
604.061	1466.83
604.48	1462.21
604.898	1471.21
605.317	1476.6
605.736	1478.5
606.155	1475.66
606.574	1465.83
606.992	1471.37
607.411	1466.38
607.829	1456.42
608.248	1453.54
608.666	1450.54
609.085	1448.57
609.503	1438.88
609.921	1431.47
610.339	1433.15
610.758	1432.22
611.176	1426.19
611.594	1415.05
612.012	1410.82
612.43	1413.8
612.847	1418.58
613.265	1418.56
613.683	1424.14
614.101	1425.42
614.518	1420.56
614.936	1409.59
615.353	1392.47
615.771	1388.84
616.188	1389.87
616.606	1384.67
617.023	1376.56
617.44	1362.32
617.857	1354.5
618.274	1344.37
618.691	1335.94
619.108	1326.09
619.525	1319.44
619.942	1326.01
620.359	1329.15
620.776	1323.22
621.192	1319.7
621.609	1317.13
622.026	1323.58
622.442	1330.51
622.859	1334
623.275	1327.46
623.691	1332.11
624.108	1343.62
624.524	1359.48
624.94	1358.94
625.356	1369.26
625.772	1383.08
626.188	1395.46
626.604	1395.75
627.02	1391.04
627.436	1388.9
627.852	1396.27
628.268	1409.55
628.683	1401.02
629.099	1391.45
629.514	1386.12
629.93	1389.1
630.345	1393.1
630.761	1389.16
631.176	1393.49
631.591	1387.11
632.007	1379.65
632.422	1376.37
632.837	1364.63
633.252	1360.98
633.667	1349.76
634.082	1339.51
634.497	1326.17
634.911	1305.87
635.326	1301.94
635.741	1284.2
636.155	1273.52
636.57	1275.63
636.984	1275.46
637.399	1277.47
637.813	1276.33
638.228	1274.86
638.642	1279.74
639.056	1269.37
639.47	1270.07
639.884	1261.6
640.298	1254.79
640.712	1253.33
641.126	1239.5
641.54	1230.15
641.954	1223.68
642.368	1211.23
642.781	1203.84
643.195	1185.03
643.609	1185.58
644.022	1179.26
644.436	1174.35
644.849	1161.54
645.262	1149.42
645.676	1151.71
646.089	1147.5
646.502	1131.63
646.915	1125.74
647.328	1108.14
647.741	1106.43
648.154	1092.6
648.567	1090.45
648.98	1075.57
649.393	1076.09
649.805	1071.11
650.218	1062.97
650.631	1045.69
651.043	1039.12
651.456	1032.17
651.868	1031.45
652.28	1048.8
652.693	1062.04
653.105	1066.04
653.517	1074.98
653.929	1074.22
654.341	1080
654.753	1065.76
655.165	1071.59
655.577	1068.57
655.989	1063.67
656.401	1053.96
656.813	1015.77
657.224	994.32
657.636	964.63
658.047	946.77
658.459	925.38
658.87	914.81
659.282	902.6
659.693	881.42
660.104	866.03
660.515	851.57
660.926	851.17
661.338	847.61
661.749	840.38
662.159	830.86
662.57	826.17
662.981	821.76
663.392	814.71
663.803	818.2
664.213	815.78
664.624	811.55
665.035	814.1
665.445	799.9
665.855	793.01
666.266	786.3
666.676	784.69
667.086	774.95
667.497	773.86
667.907	767.3
668.317	758.74
668.727	755.85
669.137	755.83
669.547	754.12
669.956	756.4
670.366	757.94
670.776	758.91
671.186	761.62
671.595	765.36
672.005	768.93
672.414	769.03
672.824	767.47
673.233	771.1
673.642	773.72
674.052	776.41
674.461	778.75
674.87	784.4
675.279	782.14
675.688	784.83
676.097	786.23
676.506	782.72
676.915	796.2
677.323	798.86
677.732	796.98
678.141	795.79
678.549	785.15
678.958	783.16
679.366	781.22
679.775	785.49
680.183	794.97
680.592	800.56
681	806.34
681.408	799.2
681.816	806.01
682.224	813.77
682.632	823.53
683.04	853.37
683.448	877.98
683.856	908.21
684.264	943.1
684.671	974.41
685.079	1013.84
685.487	1056.77
685.894	1118.82
686.302	1168.52
686.709	1208.52
687.116	1256.31
687.524	1294.45
687.931	1327.94
688.338	1355.82
688.745	1378.66
689.152	1406.59
689.559	1446.76
689.966	1487.5
690.373	1504.88
690.78	1543.68
691.187	1605.28
691.593	1651.27
692	1691.62
692.407	1752.8
692.813	1829.02
693.22	1890.13
693.626	1953.63
694.032	2003.88
694.439	2080.92
694.845	2141.19
695.251	2217.42
