Data from C_2_DEC_CT_2N_Splice17_12-29-12-906.txt Node
Date: Sat Mar 14 12:29:12 EDT 2020
User: sa697716
Spectrometer: FLMS03696
Trigger mode: 0
Integration Time (sec): 3.180400E-1
Scans to average: 20
Electric dark correction enabled: true
Nonlinearity correction enabled: true
Boxcar width: 5
XAxis mode: Wavelengths
Number of Pixels in Spectrum: 2048
>>>>>Begin Spectral Data<<<<<
187.83	-294072.93
188.298	2072.59
188.766	1133.83
189.233	1047.3
189.701	1484.76
190.169	1985.97
190.636	756.78
191.104	665.65
191.571	136.76
192.039	-42.91
192.506	-42.29
192.974	454.53
193.441	-836.8
193.908	-260.82
194.375	-47.58
194.842	41.37
195.31	121.47
195.777	180.67
196.244	406.78
196.711	460.44
197.177	542.16
197.644	733.74
198.111	1261.74
198.578	1749.01
199.045	1405.56
199.511	2289.95
199.978	2629.25
200.445	2226.59
200.911	2468.62
201.378	2725.22
201.844	2475.03
202.31	4201.15
202.777	4404.39
203.243	2475.74
203.709	2358.67
204.176	2809.73
204.642	2296.21
205.108	2173.19
205.574	1772.13
206.04	1609.26
206.506	1507.63
206.972	1408.16
207.438	1382.47
207.903	1559.64
208.369	1363.65
208.835	1364.68
209.301	1427.85
209.766	1492.32
210.232	1478.65
210.697	1815.48
211.163	2234.17
211.628	3392.31
212.094	2907.12
212.559	3598.32
213.024	2241.63
213.49	2737.08
213.955	2685
214.42	2630.17
214.885	2450.16
215.35	2343.95
215.815	2301.49
216.28	2481.41
216.745	2045.9
217.21	2216.44
217.675	2048.5
218.14	2346.07
218.604	2670.72
219.069	3099.66
219.534	3322.67
219.998	3925.47
220.463	4840.37
220.927	6053.28
221.392	5754.65
221.856	5896.35
222.32	7525.51
222.785	9399.87
223.249	11954.6
223.713	13441.43
224.177	13529.76
224.642	17464.51
225.106	21607.48
225.57	23755.06
226.034	17723.89
226.497	27110.55
226.961	24593.86
227.425	28735.6
227.889	32004.54
228.353	32073.93
228.816	66507.47
229.28	63851.09
229.744	53909.73
230.207	32825.78
230.671	32381.29
231.134	53646.01
231.597	61985.36
232.061	62062.15
232.524	60645.97
232.987	41815.16
233.45	37713.66
233.914	33864.52
234.377	34790.19
234.84	31936.15
235.303	37719.64
235.766	42140.09
236.229	43633.71
236.691	27531.94
237.154	30990.67
237.617	23342.44
238.08	23968.75
238.542	28107.87
239.005	20090.09
239.468	19934.79
239.93	18807.22
240.393	17098.98
240.855	15019.14
241.317	15399.25
241.78	18725.62
242.242	19363.78
242.704	20908.46
243.166	18184.68
243.629	16508.44
244.091	19049.21
244.553	20897.07
245.015	22475.51
245.477	29107.81
245.939	42735.83
246.4	45390.15
246.862	44211.49
247.324	41706.66
247.786	46779.37
248.247	61435.88
248.709	63465.43
249.17	47516.69
249.632	44845.2
250.093	51995.68
250.555	44973.51
251.016	27421.65
251.477	26036.6
251.939	28130.17
252.4	29560.26
252.861	35163.65
253.322	32729.18
253.783	38993.71
254.244	50595.36
254.705	39864.72
255.166	35466.03
255.627	34939.34
256.088	49292.06
256.549	52410.66
257.009	45133.11
257.47	54843.29
257.931	44731.75
258.391	33549.56
258.852	34664.42
259.312	36394.7
259.773	45110.16
260.233	38212.51
260.694	32272.69
261.154	36698.82
261.614	29494.61
262.074	26428.04
262.534	27500.44
262.994	25942.39
263.455	34605.55
263.915	29195.06
264.374	27550.49
264.834	30115.54
265.294	33427.55
265.754	34661.13
266.214	32871.65
266.673	30854.48
267.133	39035.22
267.593	38784.35
268.052	47573.36
268.512	41482.84
268.971	50109.95
269.431	55071.5
269.89	49422.77
270.349	74263.92
270.809	83013.07
271.268	74773.58
271.727	168080.26
272.186	109000.79
272.645	81897.52
273.104	59128.38
273.563	85687.42
274.022	67553.02
274.481	57524.28
274.94	44383.72
275.399	33036.39
275.857	38503.63
276.316	52113.85
276.775	46397.19
277.233	45726.47
277.692	42828.41
278.15	48497.23
278.609	49929.13
279.067	46175.06
279.525	42916.47
279.984	55417.09
280.442	66589.94
280.9	65665.49
281.358	43245.44
281.816	40361.23
282.274	39570.85
282.732	40933.98
283.19	41201.43
283.648	35627.35
284.106	38039.59
284.564	38743.36
285.021	35959.4
285.479	26847.18
285.937	24455.11
286.394	21482.54
286.852	22121.43
287.309	23269.1
287.767	22482.09
288.224	21394.49
288.682	23487.67
289.139	25786.65
289.596	23619.73
290.053	24599.32
290.511	31067.89
290.968	37729.74
291.425	51256.22
291.882	42746.1
292.339	37241.51
292.796	37019.91
293.252	34921.22
293.709	27775.95
294.166	24908.28
294.623	27540.44
295.079	26429.99
295.536	26556.12
295.992	24150.56
296.449	23914.21
296.905	24832.24
297.362	23833.71
297.818	25098.85
298.274	26042.87
298.731	26579.41
299.187	26331.58
299.643	28298.46
300.099	34278.21
300.555	37654.08
301.011	31503.6
301.467	30345.22
301.923	35607.18
302.379	34812.61
302.835	34197.51
303.291	34292.46
303.746	39040.7
304.202	49332.77
304.658	49595.97
305.113	33354.21
305.569	32666.56
306.024	34811.79
306.479	33184.93
306.935	27945.48
307.39	30501.87
307.845	28169.77
308.301	28346.43
308.756	27615.17
309.211	26627.73
309.666	27283.39
310.121	33871.49
310.576	34437.08
311.031	34187.67
311.486	39187.56
311.94	39227.06
312.395	52553.9
312.85	98966.15
313.305	486647.39
313.759	2517960.2
314.214	182432
314.668	144624.84
315.123	121608.1
315.577	43613.81
316.032	38828.67
316.486	48689.07
316.94	38381.24
317.394	26704.87
317.849	20749.88
318.303	19666.98
318.757	18575.37
319.211	20587.56
319.665	18038.82
320.119	18280.05
320.572	26219.4
321.026	24490.44
321.48	20399.6
321.934	22307.01
322.387	22394.61
322.841	24202.41
323.295	21761.79
323.748	25114.9
324.202	25473.68
324.655	30603.57
325.108	42761.97
325.562	30253.15
326.015	35990.84
326.468	27230.09
326.921	30453.97
327.374	28383.98
327.827	29553.75
328.28	33484.35
328.733	22441.96
329.186	19759.95
329.639	18865.34
330.092	15919.73
330.545	15169.11
330.997	15305.37
331.45	16733
331.903	19608.83
332.355	33798.16
332.808	32920.59
333.26	27181.6
333.713	29515.56
334.165	29736.65
334.617	39711.41
335.069	32119.26
335.522	58083.79
335.974	64376.05
336.426	58806.26
336.878	40783.36
337.33	20674
337.782	20176.83
338.234	25220.91
338.686	30208.6
339.137	35778.64
339.589	33668.31
340.041	26416.21
340.493	22701.77
340.944	23223.36
341.396	25036.65
341.847	21047.79
342.299	24835.16
342.75	30324.71
343.201	26550.37
343.653	30541.04
344.104	37578.08
344.555	29601.61
345.006	46198.77
345.457	35407.28
345.908	28240.94
346.359	26569.48
346.81	21662.08
347.261	22863.11
347.712	22557.33
348.163	24216.29
348.613	24515.77
349.064	22922.26
349.515	20092.58
349.965	20571.77
350.416	24803.06
350.866	27211.79
351.317	30812.24
351.767	51026.67
352.217	64522.2
352.668	53572.3
353.118	49084.3
353.568	47402.74
354.018	37473.54
354.468	39553.05
354.918	28382.64
355.368	24855.29
355.818	35052.13
356.268	101008.39
356.718	423091.78
357.168	105242.45
357.617	52756.22
358.067	58710.39
358.517	54983.15
358.966	64492.51
359.416	72265.66
359.865	78160.89
360.315	93088.3
360.764	43565.7
361.213	24370.22
361.663	23099.78
362.112	28553.79
362.561	46175.3
363.01	34871.17
363.459	29403.33
363.908	31841.8
364.357	27035.5
364.806	45714.53
365.255	31429.28
365.703	28749.5
366.152	28785.79
366.601	23317.38
367.05	18892.39
367.498	17157.03
367.947	17932.64
368.395	18639.43
368.844	16504.78
369.292	19914.29
369.74	13733.64
370.189	21025.54
370.637	24640.35
371.085	21279.7
371.533	25918.08
371.981	25018.57
372.429	23854.04
372.877	24842.99
373.325	20773.07
373.773	21167.12
374.221	18840.51
374.669	23355.27
375.116	20183.96
375.564	20349.37
376.012	22729.3
376.459	18722.58
376.907	22332.92
377.354	26990.27
377.801	25092.31
378.249	28805.99
378.696	36791.33
379.143	44540.83
379.591	47513.49
380.038	80377.58
380.485	57989.5
380.932	62576.28
381.379	57197.66
381.826	42124.47
382.273	29910.94
382.72	26166.38
383.166	25488.87
383.613	16503.21
384.06	14847.9
384.506	17171.91
384.953	12609.62
385.4	12700.57
385.846	11138.43
386.292	10856.9
386.739	10595.09
387.185	10486.58
387.631	10480.55
388.078	10152.46
388.524	10849.63
388.97	10023.93
389.416	8352.25
389.862	8865.68
390.308	8401.02
390.754	8507.75
391.2	9230.82
391.645	9450.52
392.091	9007.12
392.537	8703.36
392.983	8721.75
393.428	8569.56
393.874	9176.27
394.319	9188.16
394.765	8708.07
395.21	8946.51
395.655	8401.97
396.101	7867.98
396.546	7103.2
396.991	7175.53
397.436	6663.15
397.881	6449.91
398.326	6116.43
398.771	5789.45
399.216	5072.44
399.661	4571.54
400.106	4559.75
400.551	4662.37
400.995	4187.65
401.44	4146.53
401.885	3904.99
402.329	3948.32
402.774	3786.28
403.218	3666.26
403.663	3541.49
404.107	3644.19
404.551	3677.54
404.995	3376.66
405.44	3256.96
405.884	3313.81
406.328	3214.21
406.772	3204.65
407.216	2924.56
407.66	2829.07
408.104	2695.22
408.547	2525.23
408.991	2447.8
409.435	2360.93
409.879	2328.79
410.322	2302.58
410.766	2225.99
411.209	2120.52
411.653	2042.77
412.096	2003.98
412.54	2008.11
412.983	1993.66
413.426	1997.67
413.869	1999.13
414.312	1956.16
414.756	1888.15
415.199	1802.1
415.642	1747.02
416.085	1748.18
416.527	1734.85
416.97	1761.32
417.413	1672.79
417.856	1658.34
418.298	1645.45
418.741	1635.45
419.184	1638.83
419.626	1707.37
420.069	1713.46
420.511	1724.42
420.953	1689.42
421.396	1674.17
421.838	1634.76
422.28	1671.69
422.722	1678.91
423.164	1703.88
423.606	1674.82
424.048	1670.2
424.49	1584.88
424.932	1572.92
425.374	1550.9
425.816	1578.28
426.258	1605.3
426.699	1621.01
427.141	1595.68
427.582	1622.1
428.024	1612.53
428.465	1603.55
428.907	1561.25
429.348	1542.87
429.789	1541.48
430.231	1507.9
430.672	1525.51
431.113	1488.98
431.554	1466.93
431.995	1430.74
432.436	1374.16
432.877	1339.25
433.318	1311.33
433.759	1306.56
434.2	1304.27
434.64	1288.61
435.081	1291.13
435.522	1221.24
435.962	1175.71
436.403	1147.35
436.843	1159.78
437.284	1135.5
437.724	1105.05
438.164	1108.8
438.604	1082.01
439.045	1039.98
439.485	996.22
439.925	972.96
440.365	949.03
440.805	936.26
441.245	922.39
441.685	887.13
442.125	878.5
442.564	881.21
443.004	859.01
443.444	855.9
443.883	855.29
444.323	848.93
444.762	849.16
445.202	858.55
445.641	871.17
446.081	864.8
446.52	870.81
446.959	861.44
447.398	838.92
447.837	826.69
448.276	810.21
448.716	817.69
449.154	821.29
449.593	802.18
450.032	796.55
450.471	781.15
450.91	780.76
451.349	778.4
451.787	773.79
452.226	785.31
452.664	785.92
453.103	787.69
453.541	786.1
453.98	785.73
454.418	790.91
454.856	778.41
455.295	775.94
455.733	782.48
456.171	786.51
456.609	788.82
457.047	789.07
457.485	799.51
457.923	800.33
458.361	789.87
458.798	791.47
459.236	788.3
459.674	795.25
460.111	798.79
460.549	791.66
460.987	789.69
461.424	787.59
461.862	784.17
462.299	772.53
462.736	771.07
463.173	772.16
463.611	763.76
464.048	762.95
464.485	767.97
464.922	761.15
465.359	754.38
465.796	742.23
466.233	735.8
466.67	727.61
467.106	725.87
467.543	718.84
467.98	709.39
468.416	690.83
468.853	683.56
469.29	662.81
469.726	655.51
470.162	639.62
470.599	631.94
471.035	626.27
471.471	611.5
471.907	607.69
472.344	603.71
472.78	605.5
473.216	613.52
473.652	606.9
474.088	604.74
474.523	603.9
474.959	610
475.395	604.71
475.831	600.96
476.266	603.73
476.702	603.05
477.138	596.14
477.573	594.45
478.008	591.53
478.444	593.76
478.879	599.3
479.314	600.98
479.75	599.94
480.185	602.92
480.62	607.56
481.055	610.66
481.49	613.91
481.925	622.46
482.36	633.13
482.795	651.07
483.229	669.55
483.664	683.49
484.099	685.9
484.534	697.11
484.968	703.22
485.403	705.05
485.837	704.8
486.271	704.88
486.706	706.28
487.14	698.21
487.574	686.43
488.009	679.09
488.443	673.42
488.877	680.22
489.311	681.94
489.745	690.31
490.179	697.2
490.613	710.27
491.046	714.89
491.48	720.38
491.914	721.45
492.348	727.17
492.781	732.26
493.215	733.67
493.648	734.8
494.082	740.03
494.515	739.46
494.948	746.81
495.382	750.87
495.815	755.39
496.248	760.46
496.681	774.09
497.114	785.2
497.547	794.66
497.98	808.17
498.413	813.88
498.846	824.01
499.279	832.21
499.711	835.81
500.144	837.55
500.577	847.43
501.009	857.43
501.442	865.63
501.874	866.03
502.306	867.22
502.739	873.72
503.171	888.13
503.603	889.38
504.036	898.71
504.468	904.28
504.9	914.46
505.332	919.87
505.764	923.32
506.196	928.29
506.627	942.35
507.059	954.1
507.491	960.82
507.923	958.2
508.354	972.38
508.786	980.52
509.217	996.05
509.649	1008.63
510.08	1025.17
510.512	1039.2
510.943	1052.42
511.374	1061.33
511.805	1079.47
512.237	1096.86
512.668	1125.28
513.099	1149.13
513.53	1173.97
513.961	1190.79
514.391	1219.6
514.822	1251.02
515.253	1283.22
515.684	1304.38
516.114	1329.12
516.545	1346.17
516.975	1367.79
517.406	1381.5
517.836	1380.17
518.267	1382.42
518.697	1397.16
519.127	1397.49
519.558	1399.43
519.988	1399.62
520.418	1407.33
520.848	1420.29
521.278	1424.92
521.708	1442.63
522.138	1452.32
522.567	1479.69
522.997	1501.35
523.427	1513.33
523.857	1527.39
524.286	1534.64
524.716	1546.17
525.145	1561.16
525.575	1570.11
526.004	1582.04
526.433	1569.31
526.863	1566.08
527.292	1554.81
527.721	1558.52
528.15	1561.55
528.579	1559.84
529.008	1568.48
529.437	1588.04
529.866	1598.99
530.295	1613.46
530.724	1623.36
531.152	1646.8
531.581	1659.79
532.01	1674
532.438	1679.56
532.867	1692.04
533.295	1709.21
533.723	1713.64
534.152	1710.18
534.58	1710.13
535.008	1694.02
535.436	1694.24
535.865	1700.73
536.293	1712.8
536.721	1727.7
537.149	1751.72
537.576	1753.71
538.004	1764.02
538.432	1771.07
538.86	1770.05
539.287	1775.31
539.715	1788.65
540.143	1792.44
540.57	1788.47
540.998	1785.26
541.425	1763.77
541.852	1743.74
542.28	1742.78
542.707	1726.64
543.134	1713.73
543.561	1709.09
543.988	1702.65
544.415	1701.51
544.842	1695.08
545.269	1688.91
545.696	1690.68
546.123	1701.93
546.549	1692.25
546.976	1678.95
547.403	1678.58
547.829	1679.45
548.256	1680.19
548.682	1676.35
549.108	1668.33
549.535	1668.27
549.961	1669.58
550.387	1656.99
550.813	1651.56
551.24	1656.83
551.666	1658.28
552.092	1649.56
552.518	1643.6
552.943	1638.61
553.369	1645.79
553.795	1651.03
554.221	1651.88
554.646	1649.07
555.072	1658.64
555.498	1663.26
555.923	1671.52
556.349	1685.82
556.774	1693.98
557.199	1696.47
557.625	1702.94
558.05	1697.18
558.475	1708.26
558.9	1708.12
559.325	1702.31
559.75	1698.17
560.175	1692.83
560.6	1688.27
561.025	1687.89
561.449	1689.91
561.874	1695.23
562.299	1700.72
562.723	1708.6
563.148	1700.58
563.572	1705.59
563.997	1714.79
564.421	1721.1
564.846	1724.05
565.27	1730.19
565.694	1727.6
566.118	1741.26
566.542	1750.78
566.966	1746.81
567.39	1744.17
567.814	1735.88
568.238	1736.22
568.662	1742.86
569.086	1746.98
569.509	1754.84
569.933	1740.42
570.357	1736.75
570.78	1718.13
571.204	1707.8
571.627	1699.6
572.05	1700.46
572.474	1702.49
572.897	1693.7
573.32	1688.12
573.743	1680.37
574.166	1664.64
574.589	1667.14
575.012	1660.88
575.435	1661.01
575.858	1653.19
576.281	1643.47
576.704	1628.8
577.126	1617.32
577.549	1607.11
577.972	1599.1
578.394	1590.4
578.817	1585.7
579.239	1567.35
579.661	1555.39
580.084	1541.92
580.506	1530.23
580.928	1527.65
581.35	1517.81
581.772	1514.3
582.194	1503.17
582.616	1492.01
583.038	1479.01
583.46	1469.17
583.882	1468.33
584.303	1473.74
584.725	1470.2
585.147	1472.6
585.568	1483.9
585.99	1497.05
586.411	1504.72
586.833	1518.8
587.254	1520.53
587.675	1535.3
588.096	1547.86
588.518	1543.77
588.939	1528.04
589.36	1526.98
589.781	1516.5
590.202	1488.73
590.623	1480.58
591.043	1477.87
591.464	1466.8
591.885	1464.24
592.305	1458.17
592.726	1445.13
593.147	1446.18
593.567	1440.71
593.987	1432.61
594.408	1427.9
594.828	1427.22
595.248	1422.07
595.669	1404.95
596.089	1398.11
596.509	1391.42
596.929	1379.45
597.349	1380.21
597.769	1370.52
598.189	1365.73
598.608	1368.09
599.028	1370.72
599.448	1369.62
599.867	1357.55
600.287	1353.61
600.706	1350.01
601.126	1341.78
601.545	1341.01
601.965	1340.36
602.384	1335.81
602.803	1338.4
603.222	1333.61
603.641	1328.39
604.061	1326.45
604.48	1323.27
604.898	1332.7
605.317	1339
605.736	1341.79
606.155	1338.99
606.574	1331.05
606.992	1337.01
607.411	1333.23
607.829	1326.01
608.248	1324.15
608.666	1321.88
609.085	1322.67
609.503	1314.78
609.921	1308.96
610.339	1310.8
610.758	1311.87
611.176	1308.2
611.594	1300.24
612.012	1298.3
612.43	1303.27
612.847	1309.74
613.265	1312.34
613.683	1317.61
614.101	1319.82
614.518	1317.26
614.936	1309.22
615.353	1295.73
615.771	1293.23
616.188	1294.76
616.606	1291.72
617.023	1285.14
617.44	1272.11
617.857	1266.43
618.274	1258.72
618.691	1253.47
619.108	1245.62
619.525	1239.31
619.942	1246.24
620.359	1249.41
620.776	1245.75
621.192	1242.97
621.609	1241.05
622.026	1248.31
622.442	1254.61
622.859	1257.18
623.275	1250.17
623.691	1255.32
624.108	1267.95
624.524	1282.7
624.94	1282.52
625.356	1291.83
625.772	1304.35
626.188	1316.46
626.604	1317.9
627.02	1313.05
627.436	1311.52
627.852	1319.67
628.268	1332.02
628.683	1322.73
629.099	1315.15
629.514	1311.25
629.93	1315.06
630.345	1319.51
630.761	1317.07
631.176	1321.72
631.591	1316.84
632.007	1311.94
632.422	1310.09
632.837	1299.4
633.252	1298.29
633.667	1288.36
634.082	1279.81
634.497	1267.66
634.911	1249.13
635.326	1245.18
635.741	1228.81
636.155	1220.15
636.57	1222.78
636.984	1223.31
637.399	1225.62
637.813	1226.04
638.228	1225.64
638.642	1231.22
639.056	1222.14
639.47	1223.9
639.884	1216.86
640.298	1211.48
640.712	1210.85
641.126	1199.5
641.54	1191.82
641.954	1187.37
642.368	1176.48
642.781	1170.07
643.195	1153.86
643.609	1155.32
644.022	1150.81
644.436	1148.53
644.849	1137.4
645.262	1126.98
645.676	1128.55
646.089	1125.37
646.502	1111.4
646.915	1105.99
647.328	1089.11
647.741	1087.42
648.154	1074.49
648.567	1071.02
648.98	1057.06
649.393	1057.2
649.805	1054.12
650.218	1047.65
650.631	1030.94
651.043	1025.03
651.456	1019.82
651.868	1019.91
652.28	1037.68
652.693	1052.45
653.105	1060.05
653.517	1071.74
653.929	1073.13
654.341	1079.11
654.753	1066.85
655.165	1073.72
655.577	1072.08
655.989	1068.08
656.401	1062.43
656.813	1026.37
657.224	1006.68
657.636	978.48
658.047	960.89
658.459	942.14
658.87	933.13
659.282	921.66
659.693	900.91
660.104	886.49
660.515	873.15
660.926	871.74
661.338	869.49
661.749	862.55
662.159	853.23
662.57	848.73
662.981	843.9
663.392	837.8
663.803	842.99
664.213	841.79
664.624	837.56
665.035	841.46
665.445	826.79
665.855	818.97
666.266	811.58
666.676	809
667.086	800.56
667.497	800.53
667.907	792.52
668.317	781.41
668.727	776.83
669.137	777.06
669.547	773.14
669.956	774.97
670.366	776.62
670.776	778.6
671.186	781.68
671.595	783.14
672.005	785.61
672.414	784.89
672.824	783.63
673.233	787.63
673.642	788.44
674.052	790.82
674.461	793.35
674.87	797.27
675.279	793.7
675.688	795.38
676.097	796.96
676.506	792.02
676.915	806.26
677.323	807.54
677.732	805.19
678.141	805.09
678.549	794.66
678.958	792.78
679.366	791.7
679.775	796.47
680.183	806.51
680.592	810.97
681	816.31
681.408	808.8
681.816	815.89
682.224	824.5
682.632	833.72
683.04	863.34
683.448	888.43
683.856	918.85
684.264	953.48
684.671	984.68
685.079	1022.73
685.487	1066.18
685.894	1128.21
686.302	1178.14
686.709	1217.2
687.116	1264.13
687.524	1299.37
687.931	1327.32
688.338	1351.25
688.745	1369.82
689.152	1392.35
689.559	1427.83
689.966	1461.44
690.373	1471.15
690.78	1500.17
691.187	1550.09
691.593	1583.18
692	1612.92
692.407	1662.59
692.813	1725.22
693.22	1771.48
693.626	1819.88
694.032	1855.69
694.439	1915.7
694.845	1960.96
695.251	2021.1
695.657	2074
696.063	2158.92
