Data from C_2_DEC_OH_4N_Splice17_12-05-25-355.txt Node
Date: Sat Mar 14 12:05:25 EDT 2020
User: sa697716
Spectrometer: FLMS03696
Trigger mode: 0
Integration Time (sec): 3.180400E-1
Scans to average: 20
Electric dark correction enabled: true
Nonlinearity correction enabled: true
Boxcar width: 5
XAxis mode: Wavelengths
Number of Pixels in Spectrum: 2048
>>>>>Begin Spectral Data<<<<<
187.83	-227808.36
188.298	1725.23
188.766	1006.25
189.233	839.27
189.701	1179.3
190.169	1690.74
190.636	605.6
191.104	480.74
191.571	65.67
192.039	-120.53
192.506	-197.3
192.974	281.73
193.441	-681.9
193.908	-23.61
194.375	-57.09
194.842	-18.91
195.31	62.62
195.777	95.26
196.244	260.21
196.711	293.46
197.177	353.28
197.644	517.72
198.111	938.81
198.578	1377.1
199.045	1083.69
199.511	1765.88
199.978	2057.52
200.445	1790.92
200.911	1997.42
201.378	2222.82
201.844	2048.84
202.31	3498.26
202.777	3641.88
203.243	2030.74
203.709	1909.89
204.176	2291.3
204.642	1915.49
205.108	1783.22
205.574	1441.65
206.04	1297.54
206.506	1217.17
206.972	1132.43
207.438	1095.6
207.903	1243.25
208.369	1084.54
208.835	1093.1
209.301	1152.77
209.766	1161.39
210.232	1147.97
210.697	1403.65
211.163	1735.48
211.628	2581.13
212.094	2204.06
212.559	2712.8
213.024	1673.45
213.49	2042.27
213.955	1992.38
214.42	1916.06
214.885	1795.49
215.35	1728.92
215.815	1679.25
216.28	1773.52
216.745	1428.92
217.21	1525.46
217.675	1349.88
218.14	1493.05
218.604	1615.66
219.069	1802.07
219.534	1854.37
219.998	2088.71
220.463	2475.26
220.927	2961.17
221.392	2750.72
221.856	2755.33
222.32	3394.49
222.785	4205.27
223.249	5259.37
223.713	5832.56
224.177	5808.13
224.642	7396.78
225.106	9069.92
225.57	9878.35
226.034	7369.93
226.497	11153.75
226.961	10098.24
227.425	11757.74
227.889	13011.32
228.353	12960.24
228.816	26740.09
229.28	25530.07
229.744	21526.94
230.207	13116.27
230.671	12929.62
231.134	21285.52
231.597	24627.89
232.061	24576.49
232.524	23995.57
232.987	16519.56
233.45	14955.05
233.914	13421.3
234.377	13750.33
234.84	12594.46
235.303	14835.51
235.766	16544.51
236.229	17063.61
236.691	10719.53
237.154	12045.94
237.617	9067.49
238.08	9291.74
238.542	10819.73
239.005	7734.75
239.468	7680.17
239.93	7244.16
240.393	6613.28
240.855	5812.63
241.317	5963.78
241.78	7259.13
242.242	7503.56
242.704	8135.35
243.166	7092.73
243.629	6484.93
244.091	7489.98
244.553	8209.15
245.015	8833.68
245.477	11413.9
245.939	16723.97
246.4	17791.56
246.862	17318.86
247.324	16375.57
247.786	18300.69
248.247	23985.67
248.709	24707.34
249.17	18521.68
249.632	17561.61
250.093	20446.16
250.555	17655.6
251.016	10796.62
251.477	10247.36
251.939	11081.27
252.4	11628.29
252.861	13847.22
253.322	12944.75
253.783	15393.75
254.244	19952.14
254.705	15717.18
255.166	13928.67
255.627	13720.54
256.088	19391.14
256.549	20603.8
257.009	17716.09
257.47	21487.65
257.931	17471.75
258.391	13073.15
258.852	13485.94
259.312	14155.33
259.773	17466.3
260.233	14841.17
260.694	12568.38
261.154	14250.4
261.614	11494.68
262.074	10290.74
262.534	10718.25
262.994	10127.72
263.455	13478.57
263.915	11372.61
264.374	10714.1
264.834	11711.36
265.294	12951.91
265.754	13426.31
266.214	12696.99
266.673	11873.23
267.133	15006.06
267.593	14878.38
268.052	18219.21
268.512	15851.37
268.971	19164.87
269.431	21040.44
269.89	18841.53
270.349	28283.16
270.809	31538.09
271.268	28378.37
271.727	63614.19
272.186	41238.52
272.645	30952.44
273.104	22312.54
273.563	32352.6
274.022	25401.57
274.481	21650.3
274.94	16720
275.399	12424.46
275.857	14464.59
276.316	19568.96
276.775	17435.37
277.233	17204.74
277.692	16160.18
278.15	18318.64
278.609	18872.53
279.067	17500.29
279.525	16280.25
279.984	21035.9
280.442	25337.93
280.9	25062.1
281.358	16523.27
281.816	15428.87
282.274	15098.43
282.732	15585.74
283.19	15656.95
283.648	13533.67
284.106	14403.42
284.564	14610.96
285.021	13548.46
285.479	10108.97
285.937	9170.16
286.394	8075.58
286.852	8317.02
287.309	8748.25
287.767	8475.75
288.224	8084.95
288.682	8861.82
289.139	9762.09
289.596	8957.73
290.053	9311.62
290.511	11740.71
290.968	14261.32
291.425	19324.37
291.882	16128.8
292.339	14083.85
292.796	13966.1
293.252	13169.8
293.709	10510.21
294.166	9422.46
294.623	10431.97
295.079	10013.15
295.536	10090.45
295.992	9168.46
296.449	9079.79
296.905	9433.94
297.362	9072.73
297.818	9529
298.274	9899.64
298.731	10065.59
299.187	9960.8
299.643	10698.9
300.099	12963.68
300.555	14212.03
301.011	11880.19
301.467	11509.19
301.923	13452.15
302.379	13112.2
302.835	12927.27
303.291	12947.32
303.746	14784.88
304.202	18695.75
304.658	18795.96
305.113	12645.31
305.569	12416.63
306.024	13272.71
306.479	12586.86
306.935	10652.19
307.39	11641.15
307.845	10760.09
308.301	10822.23
308.756	10520.68
309.211	10161.24
309.666	10423.33
310.121	12968.04
310.576	13150.98
311.031	13040.48
311.486	14946.34
311.94	14930.11
312.395	19959.32
312.85	37465.9
313.305	183835.49
313.759	957387.74
314.214	69392.74
314.668	55104.69
315.123	46398.53
315.577	16725.36
316.032	14918.71
316.486	18717.28
316.94	14826.37
317.394	10360.63
317.849	8070.51
318.303	7670.15
318.757	7223.53
319.211	7986.71
319.665	6972.99
320.119	7075.44
320.572	10131.07
321.026	9457
321.48	7885.88
321.934	8574.3
322.387	8577.92
322.841	9293.48
323.295	8387.6
323.748	9642.15
324.202	9804.7
324.655	11793.04
325.108	16532.8
325.562	11711.83
326.015	13933.71
326.468	10545.22
326.921	11829.45
327.374	11068.89
327.827	11529.52
328.28	13052.12
328.733	8775.1
329.186	7728.49
329.639	7372.74
330.092	6202.23
330.545	5897.62
330.997	5960.04
331.45	6532.59
331.903	7669.16
332.355	13161.11
332.808	12762.06
333.26	10531.48
333.713	11476.56
334.165	11548.48
334.617	15458.63
335.069	12443.82
335.522	22428.37
335.974	24842
336.426	22604.21
336.878	15596.37
337.33	7934.39
337.782	7773.31
338.234	9731.56
338.686	11608.48
339.137	13745.46
339.589	12905.03
340.041	10168.52
340.493	8744.84
340.944	8964.97
341.396	9668.01
341.847	8175.16
342.299	9667.74
342.75	11824.07
343.201	10336.69
343.653	11892.1
344.104	14632.67
344.555	11544.35
345.006	17923.75
345.457	13827.48
345.908	10974.22
346.359	10354.29
346.81	8428.36
347.261	8864.43
347.712	8711.4
348.163	9353.91
348.613	9501.37
349.064	8879.94
349.515	7776.95
349.965	7972.08
350.416	9574.78
350.866	10534.03
351.317	11896.34
351.767	19710.57
352.217	24918.46
352.668	20700.04
353.118	18986.73
353.568	18308.73
354.018	14500.93
354.468	15340.96
354.918	11030.79
355.368	9653.77
355.818	13632.5
356.268	39157.28
356.718	164152.05
357.168	40878.28
357.617	20517.63
358.067	22739.62
358.517	21265.68
358.966	25004.34
359.416	28082.34
359.865	30334.22
360.315	36168.63
360.764	16920.99
361.213	9520.32
361.663	8994.06
362.112	11112.46
362.561	17955.07
363.01	13565.43
363.459	11388.32
363.908	12316.07
364.357	10435.33
364.806	17675.09
365.255	12135.32
365.703	11121.22
366.152	11120.56
366.601	9040.18
367.05	7348.15
367.498	6709.98
367.947	7022.09
368.395	7328.45
368.844	6497.33
369.292	7839.73
369.74	5416.08
370.189	8270.43
370.637	9659.16
371.085	8334.06
371.533	10150.9
371.981	9759.53
372.429	9280
372.877	9677.22
373.325	8101.07
373.773	8255.49
374.221	7341.84
374.669	9092.43
375.116	7873.01
375.564	7951.36
376.012	8882.57
376.459	7304.17
376.907	8748.24
377.354	10552.21
377.801	9828.76
378.249	11301.2
378.696	14415.68
379.143	17417.16
379.591	18582.73
380.038	31539.41
380.485	22801.43
380.932	24653.59
381.379	22700.37
381.826	16750.33
382.273	11906.97
382.72	10383.21
383.166	10108.11
383.613	6553.76
384.06	5926.94
384.506	6856.55
384.953	5018.93
385.4	5055.52
385.846	4431.64
386.292	4310.08
386.739	4202.62
387.185	4165.99
387.631	4176.63
388.078	4066.27
388.524	4355.7
388.97	4023.58
389.416	3363.48
389.862	3596.33
390.308	3414.08
390.754	3474.93
391.2	3780.89
391.645	3879.25
392.091	3737.9
392.537	3635.11
392.983	3653.46
393.428	3622.11
393.874	3887.13
394.319	3930.6
394.765	3743.28
395.21	3865.15
395.655	3635.43
396.101	3405.93
396.546	3087.08
396.991	3108.12
397.436	2888.57
397.881	2797.74
398.326	2644.81
398.771	2516.15
399.216	2203.6
399.661	1984.25
400.106	1988.68
400.551	2046.02
400.995	1840.27
401.44	1826.05
401.885	1724.11
402.329	1748.18
402.774	1678.66
403.218	1637.3
403.663	1584.98
404.107	1632.69
404.551	1652.38
404.995	1513.4
405.44	1465.15
405.884	1491.56
406.328	1446.81
406.772	1446.88
407.216	1322.48
407.66	1284.38
408.104	1217.07
408.547	1140.72
408.991	1108.2
409.435	1068.23
409.879	1058.43
410.322	1043.03
410.766	1011.42
411.209	963.07
411.653	924.03
412.096	907.85
412.54	907.45
412.983	905.58
413.426	910.09
413.869	905.07
414.312	892.16
414.756	859.22
415.199	821.89
415.642	799.05
416.085	801.79
416.527	797.29
416.97	806.73
417.413	768.61
417.856	759.4
418.298	752.58
418.741	751.04
419.184	749.3
419.626	779.37
420.069	780.5
420.511	784.98
420.953	772.48
421.396	766.04
421.838	747.94
422.28	766.08
422.722	771.84
423.164	781.33
423.606	770.1
424.048	767.74
424.49	732.77
424.932	726.51
425.374	717.2
425.816	727.1
426.258	741.99
426.699	751.62
427.141	739.76
427.582	750.73
428.024	747.49
428.465	740.11
428.907	721.96
429.348	712.8
429.789	714.61
430.231	700.08
430.672	708.94
431.113	692.12
431.554	680.73
431.995	662.74
432.436	638.91
432.877	624.69
433.318	616.58
433.759	612.33
434.2	610.43
434.64	603.32
435.081	604.25
435.522	572
435.962	549.4
436.403	538.11
436.843	544.91
437.284	533.31
437.724	516.76
438.164	514.41
438.604	503.43
439.045	486.83
439.485	469.24
439.925	458.28
440.365	446.3
440.805	441.91
441.245	437.41
441.685	421.52
442.125	417.48
442.564	421.25
443.004	413.34
443.444	412.9
443.883	411.94
444.323	405.43
444.762	404.73
445.202	410.16
445.641	419.28
446.081	416.5
446.52	420.07
446.959	415.32
447.398	406.38
447.837	401.99
448.276	394.07
448.716	398.4
449.154	402.25
449.593	394.43
450.032	393.12
450.471	382.25
450.91	382.32
451.349	383.3
451.787	382.86
452.226	388.29
452.664	387.61
453.103	388.32
453.541	387.75
453.98	388.44
454.418	391.18
454.856	385.6
455.295	385.89
455.733	388.89
456.171	389.66
456.609	390.97
457.047	390.7
457.485	398.46
457.923	400.4
458.361	394.62
458.798	395.14
459.236	394.26
459.674	397.34
460.111	399.27
460.549	395.35
460.987	393.85
461.424	391.41
461.862	390.6
462.299	383.71
462.736	382.99
463.173	384.1
463.611	383.41
464.048	383.48
464.485	386.76
464.922	384.27
465.359	382.16
465.796	381.74
466.233	379.7
466.67	377.07
467.106	376.23
467.543	373.08
467.98	368.21
468.416	356.49
468.853	352.35
469.29	342.1
469.726	337.38
470.162	328.77
470.599	320.87
471.035	318.03
471.471	309.69
471.907	307.11
472.344	304.49
472.78	306.24
473.216	309.27
473.652	306.3
474.088	304.97
474.523	304.7
474.959	307.36
475.395	303.94
475.831	301.36
476.266	302.95
476.702	301.61
477.138	298.74
477.573	297.63
478.008	296.68
478.444	298.57
478.879	302.03
479.314	304.01
479.75	303.43
480.185	304.71
480.62	308.32
481.055	309.68
481.49	312.94
481.925	317.32
482.36	323.57
482.795	332.2
483.229	340.44
483.664	346.89
484.099	347.61
484.534	353.52
484.968	357.12
485.403	358.51
485.837	357.61
486.271	356.61
486.706	357.61
487.14	353.47
487.574	349.28
488.009	346.5
488.443	344.47
488.877	349.15
489.311	351.06
489.745	356.69
490.179	359.95
490.613	369.12
491.046	373.22
491.48	376.08
491.914	377.31
492.348	380.33
492.781	383.73
493.215	385.5
493.648	386.84
494.082	390.94
494.515	392.31
494.948	398.34
495.382	400.41
495.815	403.61
496.248	409.24
496.681	417.87
497.114	425.62
497.547	433.31
497.98	443.13
498.413	449.05
498.846	456.53
499.279	462.77
499.711	466.91
500.144	471.6
500.577	481.38
501.009	489.4
501.442	498.25
501.874	502.33
502.306	505.83
502.739	514.2
503.171	525.79
503.603	530.54
504.036	539.54
504.468	546.35
504.9	555.73
505.332	562.74
505.764	569.26
506.196	576.12
506.627	589.33
507.059	600.6
507.491	607.99
507.923	609.86
508.354	623.36
508.786	633.28
509.217	648.35
509.649	661.89
510.08	676.82
510.512	691.23
510.943	704.73
511.374	715.08
511.805	730.99
512.237	747.07
512.668	772.42
513.099	793.67
513.53	815.61
513.961	832.4
514.391	856.61
514.822	883.94
515.253	911.02
515.684	932.54
516.114	955.7
516.545	975.09
516.975	995.83
517.406	1010.47
517.836	1014.13
518.267	1021.47
518.697	1037.46
519.127	1042.66
519.558	1049.32
519.988	1054.46
520.418	1062.91
520.848	1077.87
521.278	1084.92
521.708	1108.59
522.138	1119.27
522.567	1144.06
522.997	1163.5
523.427	1175.56
523.857	1189.23
524.286	1197.71
524.716	1208.97
525.145	1224.41
525.575	1232.89
526.004	1244.21
526.433	1231.55
526.863	1232.13
527.292	1225.52
527.721	1231.43
528.15	1236.13
528.579	1237.54
529.008	1246.04
529.437	1262.87
529.866	1273.07
530.295	1285.18
530.724	1295.94
531.152	1315.88
531.581	1326.86
532.01	1340.08
532.438	1346.44
532.867	1357.84
533.295	1372.73
533.723	1377.77
534.152	1377.27
534.58	1377.59
535.008	1366.18
535.436	1368.17
535.865	1375.77
536.293	1388
536.721	1400.62
537.149	1419.26
537.576	1421.49
538.004	1431.34
538.432	1437.91
538.86	1438.25
539.287	1444.06
539.715	1456.15
540.143	1459.42
540.57	1456.54
540.998	1453.92
541.425	1437.41
541.852	1423.61
542.28	1423.53
542.707	1411.48
543.134	1401.85
543.561	1398.53
543.988	1393.7
544.415	1393.55
544.842	1388.98
545.269	1384.28
545.696	1386.54
546.123	1396.61
546.549	1387.29
546.976	1376.92
547.403	1377.13
547.829	1378.43
548.256	1379.63
548.682	1376.67
549.108	1371
549.535	1371.1
549.961	1371.95
550.387	1360.9
550.813	1357.49
551.24	1363.1
551.666	1364.84
552.092	1356.81
552.518	1352.44
552.943	1348.86
553.369	1354.11
553.795	1358.58
554.221	1359.3
554.646	1357
555.072	1364.88
555.498	1366.5
555.923	1372.92
556.349	1384.01
556.774	1390.56
557.199	1390.15
557.625	1393.81
558.05	1389.7
558.475	1396.39
558.9	1394.66
559.325	1388.21
559.75	1383.82
560.175	1379.49
560.6	1374.34
561.025	1371.78
561.449	1372.45
561.874	1376.7
562.299	1381.17
562.723	1385.7
563.148	1378.78
563.572	1381.44
563.997	1389.57
564.421	1393.45
564.846	1393.78
565.27	1396.28
565.694	1394.98
566.118	1403.29
566.542	1408.64
566.966	1402.67
567.39	1399.13
567.814	1390.77
568.238	1390.96
568.662	1393.84
569.086	1395.59
569.509	1400.34
569.933	1388.83
570.357	1382.78
570.78	1367.34
571.204	1358.08
571.627	1350.44
572.05	1349.47
572.474	1350.01
572.897	1340.27
573.32	1334.59
573.743	1327.9
574.166	1313.68
574.589	1313.17
575.012	1308.37
575.435	1306.94
575.858	1299.11
576.281	1289.61
576.704	1277.4
577.126	1267.43
577.549	1258.96
577.972	1251.67
578.394	1242.9
578.817	1238.26
579.239	1224.08
579.661	1212.74
580.084	1201.09
580.506	1191.5
580.928	1187.21
581.35	1178.06
581.772	1174.15
582.194	1163.78
582.616	1152.78
583.038	1140.54
583.46	1132.25
583.882	1129.8
584.303	1131.96
584.725	1127.56
585.147	1128.8
585.568	1138.04
585.99	1148.14
586.411	1151.59
586.833	1162.01
587.254	1163.25
587.675	1173.84
588.096	1182.87
588.518	1178.61
588.939	1166.88
589.36	1165.18
589.781	1156.86
590.202	1135.44
590.623	1126.78
591.043	1125.19
591.464	1116.04
591.885	1114.17
592.305	1110.91
592.726	1100.5
593.147	1101.44
593.567	1097.04
593.987	1091.77
594.408	1087.22
594.828	1085.34
595.248	1081.25
595.669	1068.63
596.089	1062.36
596.509	1057.31
596.929	1046.84
597.349	1047.51
597.769	1039.07
598.189	1033.61
598.608	1033.68
599.028	1035.15
599.448	1033.98
599.867	1024.82
600.287	1020.72
600.706	1018.22
601.126	1010.18
601.545	1008.68
601.965	1006.65
602.384	1003.05
602.803	1004.87
603.222	1001.74
603.641	995.84
604.061	993.57
604.48	989.98
604.898	995.63
605.317	997.65
605.736	997.66
606.155	995.82
606.574	989.16
606.992	992.75
607.411	988.87
607.829	981.5
608.248	978.43
608.666	975.74
609.085	975.42
609.503	968.05
609.921	963.46
610.339	965.34
610.758	963.58
611.176	958.77
611.594	951.31
612.012	948.55
612.43	950.85
612.847	955.42
613.265	955.17
613.683	956.68
614.101	957.88
614.518	954.2
614.936	945.97
615.353	934.88
615.771	932.52
616.188	932.29
616.606	929.17
617.023	923.24
617.44	912.6
617.857	907.77
618.274	901.19
618.691	895.73
619.108	889.29
619.525	884.59
619.942	889.2
620.359	890.27
620.776	885.41
621.192	882.52
621.609	881.1
622.026	885.3
622.442	888.88
622.859	890.55
623.275	885.44
623.691	888.64
624.108	896.87
624.524	906.55
624.94	907.25
625.356	914.6
625.772	924.28
626.188	932.5
626.604	933.99
627.02	931.38
627.436	930.85
627.852	936.36
628.268	945.68
628.683	938.41
629.099	932.95
629.514	929.76
629.93	932.06
630.345	933.92
630.761	931.24
631.176	934.89
631.591	931.4
632.007	927.48
632.422	925.4
632.837	916.67
633.252	915.58
633.667	908.03
634.082	901.58
634.497	893.13
634.911	880.3
635.326	877.17
635.741	863.24
636.155	854.69
636.57	855.6
636.984	854.17
637.399	855.43
637.813	853.5
638.228	851.44
638.642	852.09
639.056	842.89
639.47	840.16
639.884	832.33
640.298	825.83
640.712	822.66
641.126	810.66
641.54	802.38
641.954	795.33
642.368	784.8
642.781	777.7
643.195	763.49
643.609	761.2
644.022	755.61
644.436	750.14
644.849	739.97
645.262	730.12
645.676	728.18
646.089	723.33
646.502	712.5
646.915	707.54
647.328	692.93
647.741	690.11
648.154	679.94
648.567	675.96
648.98	666.69
649.393	665.74
649.805	662.99
650.218	657.65
650.631	645.42
651.043	639.9
651.456	634.7
651.868	633.91
652.28	643.41
652.693	650.65
653.105	653
653.517	656.99
653.929	655.79
654.341	656.85
654.753	646.92
655.165	650.26
655.577	646.68
655.989	642.99
656.401	637.3
656.813	614.53
657.224	600.2
657.636	581.58
658.047	569.24
658.459	555.81
658.87	548.67
659.282	539.9
659.693	525.56
660.104	514.84
660.515	504.72
660.926	500.63
661.338	495.77
661.749	490.22
662.159	483.12
662.57	478.41
662.981	473.21
663.392	467.22
663.803	467.36
664.213	463.57
664.624	459.75
665.035	458.55
665.445	449.55
665.855	444.49
666.266	439.43
666.676	436.37
667.086	429.25
667.497	429.46
667.907	424.54
668.317	419.24
668.727	418.02
669.137	415.8
669.547	414.42
669.956	415.21
670.366	414.49
670.776	415.1
671.186	416.59
671.595	418.92
672.005	418.87
672.414	419.02
672.824	417.86
673.233	419.85
673.642	422.28
674.052	423.62
674.461	425.13
674.87	429.08
675.279	428
675.688	427.7
676.097	429.47
676.506	428.08
676.915	435.85
677.323	437.85
677.732	437.54
678.141	438.63
678.549	433.86
678.958	433.92
679.366	434.38
679.775	437.17
680.183	445.99
680.592	450.75
681	456.91
681.408	454.58
681.816	461.26
682.224	467.52
682.632	475.5
683.04	495.74
683.448	513.58
683.856	534.42
684.264	560.33
684.671	583.72
685.079	610.82
685.487	640.09
685.894	683.17
686.302	719.87
686.709	751.78
687.116	789.59
687.524	821.75
687.931	853.19
688.338	880.07
688.745	904.1
689.152	930.68
689.559	965.89
689.966	1002.38
690.373	1023.63
690.78	1057.1
691.187	1107.41
691.593	1146.53
692	1181.33
692.407	1228.43
692.813	1288.44
693.22	1336.6
693.626	1385.84
694.032	1426.15
694.439	1484.01
694.845	1530.05
695.251	1588.71
695.657	1639.6
696.063	1715.46
696.469	1772.1
696.875	1826.04
697.281	1856.04
697.687	1892.4
698.093	1923.09
698.498	1980.56
698.904	2025.07
699.31	2091.46
699.715	2140.02
700.12	2208.6
700.526	2223.16
700.931	2276.31
701.337	2315.1
701.742	2339.19
702.147	2400.42
702.552	2424.13
702.957	2470.7
703.362	2486.71
703.767	2510.63
704.172	2540
704.577	2505.84
704.981	2540.69
