Data from C_2_DIV_OH_2N_Splice17_12-22-32-186.txt Node
Date: Sat Mar 14 12:22:32 EDT 2020
User: sa697716
Spectrometer: FLMS03696
Trigger mode: 0
Integration Time (sec): 3.180400E-1
Scans to average: 20
Electric dark correction enabled: true
Nonlinearity correction enabled: true
Boxcar width: 5
XAxis mode: Wavelengths
Number of Pixels in Spectrum: 2048
>>>>>Begin Spectral Data<<<<<
187.83	-249544.31
188.298	1855.17
188.766	1045.72
189.233	913.07
189.701	1384.55
190.169	1936.79
190.636	773.74
191.104	666.1
191.571	133.81
192.039	-20.83
192.506	-33.41
192.974	522.93
193.441	-864.36
193.908	-298.53
194.375	-59.84
194.842	73.65
195.31	174.29
195.777	204.22
196.244	402.78
196.711	467.56
197.177	572.34
197.644	808.68
198.111	1410.55
198.578	1976.97
199.045	1585.92
199.511	2579.02
199.978	2972.63
200.445	2517.14
200.911	2800.9
201.378	3138.14
201.844	2866.14
202.31	4922.64
202.777	5089.83
203.243	2804.72
203.709	2688.43
204.176	3219.56
204.642	2661.9
205.108	2525.13
205.574	2069.68
206.04	1881.35
206.506	1762.33
206.972	1646.69
207.438	1591.97
207.903	1828.31
208.369	1614.58
208.835	1603.71
209.301	1673.27
209.766	1701.83
210.232	1675.4
210.697	2063.11
211.163	2545.09
211.628	3833.17
212.094	3223.96
212.559	3939.69
213.024	2441.46
213.49	2969.44
213.955	2896.6
214.42	2830.2
214.885	2640.91
215.35	2528.09
215.815	2445.76
216.28	2591.08
216.745	2118.39
217.21	2292.92
217.675	2093.77
218.14	2359.47
218.604	2636.68
219.069	3016.53
219.534	3184.11
219.998	3717.31
220.463	4517.37
220.927	5569.33
221.392	5268.59
221.856	5350.49
222.32	6747.95
222.785	8374.22
223.249	10533.98
223.713	11759.68
224.177	11780.46
224.642	15096.42
225.106	18533.83
225.57	20294.58
226.034	15095.26
226.497	22968.42
226.961	20736.86
227.425	24157.02
227.889	26894.43
228.353	26990.68
228.816	55817.01
229.28	53418.45
229.744	45090.4
230.207	27531.34
230.671	27102.99
231.134	44943.31
231.597	51920.6
232.061	52033.03
232.524	50887.28
232.987	35079.09
233.45	31607.87
233.914	28413.22
234.377	29139.52
234.84	26739.94
235.303	31501.04
235.766	35221.1
236.229	36427.14
236.691	22930.72
237.154	25786.95
237.617	19428.32
238.08	19889.92
238.542	23284.39
239.005	16660.54
239.468	16566.06
239.93	15615.69
240.393	14209.96
240.855	12478.49
241.317	12786.76
241.78	15618.53
242.242	16157.16
242.704	17465.81
243.166	15215.21
243.629	13838.03
244.091	15964.54
244.553	17512.61
245.015	18881.06
245.477	24472.53
245.939	35914
246.4	38193.52
246.862	37117.65
247.324	35058.49
247.786	39253.51
248.247	51528.47
248.709	53213.2
249.17	39838.62
249.632	37608.65
250.093	43570.3
250.555	37667.2
251.016	22989.23
251.477	21801.54
251.939	23548.09
252.4	24729.13
252.861	29440.03
253.322	27439.21
253.783	32696
254.244	42447.89
254.705	33456.41
255.166	29763.5
255.627	29296.12
256.088	41354.43
256.549	43978.57
257.009	37890.05
257.47	45969.61
257.931	37434.37
258.391	28029.15
258.852	28899.32
259.312	30295.04
259.773	37458.24
260.233	31673.89
260.694	26741.77
261.154	30344.74
261.614	24383.48
262.074	21810.37
262.534	22665.74
262.994	21383.64
263.455	28537.02
263.915	24049.52
264.374	22662.09
264.834	24744.57
265.294	27445.12
265.754	28430.21
266.214	26934.2
266.673	25206
267.133	31806.32
267.593	31573.42
268.052	38609.69
268.512	33580.64
268.971	40494.02
269.431	44456.73
269.89	39805.23
270.349	59632.33
270.809	66494.74
271.268	59703.24
271.727	133884.03
272.186	86793.98
272.645	65079.24
273.104	46972.34
273.563	67947.78
274.022	53462.92
274.481	45428.15
274.94	34975.7
275.399	26015.34
275.857	30282.03
276.316	40990.6
276.775	36513.18
277.233	35938.07
277.692	33642.84
278.15	38047.03
278.609	39156.13
279.067	36223.43
279.525	33631.96
279.984	43486.52
280.442	52256.51
280.9	51518.09
281.358	33887.18
281.816	31580.4
282.274	30919.3
282.732	31970.76
283.19	32150.2
283.648	27755.59
284.106	29560.99
284.564	30059.06
285.021	27861.33
285.479	20733.71
285.937	18857.94
286.394	16547.29
286.852	17030.04
287.309	17896.5
287.767	17286.27
288.224	16427.07
288.682	18025.98
289.139	19796.74
289.596	18130.01
290.053	18843.28
290.511	23793.14
290.968	28882.09
291.425	39196.04
291.882	32631.25
292.339	28411.64
292.796	28173.68
293.252	26547.8
293.709	21078.96
294.166	18904.43
294.623	20876.18
295.079	20043.69
295.536	20143.55
295.992	18296.43
296.449	18110.73
296.905	18806.02
297.362	18059.99
297.818	19007.52
298.274	19716.11
298.731	20107.27
299.187	19893.78
299.643	21394.65
300.099	25859.89
300.555	28391.09
301.011	23736.46
301.467	22864.47
301.923	26798.18
302.379	26155.86
302.835	25702.86
303.291	25768.95
303.746	29328.98
304.202	37089.14
304.658	37246.87
305.113	25093.4
305.569	24580.94
306.024	26204.96
306.479	24968.75
306.935	21033.03
307.39	22970.35
307.845	21208.87
308.301	21372.79
308.756	20830.92
309.211	20069.18
309.666	20560.76
310.121	25482.76
310.576	25886.35
311.031	25663.97
311.486	29373.07
311.94	29355.94
312.395	39248.22
312.85	73803.1
313.305	362485.27
313.759	1876641.96
314.214	136008.81
314.668	107789.25
315.123	90788.94
315.577	32568.96
316.032	28997.28
316.486	36402.23
316.94	28755.66
317.394	20081.21
317.849	15587.1
318.303	14744.37
318.757	13916.25
319.211	15389.71
319.665	13487.22
320.119	13655.84
320.572	19579.08
321.026	18317.61
321.48	15228.01
321.934	16633.62
322.387	16645.18
322.841	18008.14
323.295	16194.8
323.748	18673.58
324.202	18944.31
324.655	22762.11
325.108	31808.53
325.562	22493.46
326.015	26703.16
326.468	20245.48
326.921	22613.21
327.374	21101.76
327.827	21977.58
328.28	24886.55
328.733	16683.01
329.186	14681.86
329.639	13984.96
330.092	11794.97
330.545	11245.95
330.997	11343.42
331.45	12384.28
331.903	14532.89
332.355	25019.25
332.808	24361.85
333.26	20096.45
333.713	21798.13
334.165	21967.74
334.617	29349.11
335.069	23736.4
335.522	42939.31
335.974	47619.56
336.426	43518.19
336.878	30174.55
337.33	15321.92
337.782	14928.14
338.234	18716.42
338.686	22393.85
339.137	26552.02
339.589	25020.64
340.041	19601.17
340.493	16831.41
340.944	17245.82
341.396	18580.99
341.847	15619.8
342.299	18376
342.75	22498.74
343.201	19697.21
343.653	22684.18
344.104	27875.8
344.555	21958.19
345.006	34175.28
345.457	26196.74
345.908	20808.22
346.359	19590.62
346.81	15964.34
347.261	16823.65
347.712	16550.25
348.163	17729.99
348.613	17963.23
349.064	16776.02
349.515	14680.47
349.965	15051.18
350.416	18115.9
350.866	19871.22
351.317	22444.6
351.767	37182.47
352.217	47041.23
352.668	39077.71
353.118	35824.14
353.568	34540.04
354.018	27352.5
354.468	28912.8
354.918	20817.43
355.368	18236.62
355.818	25785.46
356.268	74297.8
356.718	310889.9
357.168	77493.61
357.617	38907.42
358.067	43274.66
358.517	40608.02
358.966	47547.05
359.416	53318.54
359.865	57519
360.315	68459.15
360.764	32029.76
361.213	17958.89
361.663	17033.66
362.112	21063.22
362.561	34044.49
363.01	25711.76
363.459	21661.49
363.908	23469.13
364.357	19929.82
364.806	33679.82
365.255	23190.94
365.703	21212.17
366.152	21250.12
366.601	17219.53
367.05	13986.05
367.498	12717.61
367.947	13303.32
368.395	13827.45
368.844	12277.75
369.292	14811.68
369.74	10262.09
370.189	15737.22
370.637	18497.3
371.085	15961.3
371.533	19470.06
371.981	18748.88
372.429	17877.74
372.877	18664.46
373.325	15669.58
373.773	15984.34
374.221	14270.17
374.669	17733.28
375.116	15373.31
375.564	15540.42
376.012	17460
376.459	14475.77
376.907	17390.22
377.354	21174.21
377.801	19817.06
378.249	22863.3
378.696	29349.09
379.143	35745.96
379.591	38373.78
380.038	65373.11
380.485	47534.77
380.932	51640.47
381.379	47483.02
381.826	35204.11
382.273	25197.68
382.72	22217.35
383.166	21842.42
383.613	14289.36
384.06	13002.89
384.506	15185.68
384.953	11265.91
385.4	11469.08
385.846	10157.03
386.292	10019.34
386.739	9918.08
387.185	9908.23
387.631	10014.81
388.078	9818.15
388.524	10635.69
388.97	9932.51
389.416	8372.31
389.862	9005.23
390.308	8628.43
390.754	8865.6
391.2	9723.75
391.645	10061.81
392.091	9703.49
392.537	9462.37
392.983	9566.5
393.428	9468.54
393.874	10241.8
394.319	10349.93
394.765	9878.52
395.21	10227.91
395.655	9650.23
396.101	9091.95
396.546	8255.18
396.991	8393.78
397.436	7848.53
397.881	7630.74
398.326	7272.22
398.771	6894.13
399.216	6063.27
399.661	5484.62
400.106	5485.45
400.551	5633.44
400.995	5071.19
401.44	5026.91
401.885	4735.34
402.329	4794.05
402.774	4604.27
403.218	4456.01
403.663	4307.44
404.107	4428.35
404.551	4461.71
404.995	4098.05
405.44	3954.35
405.884	4017.22
406.328	3890.52
406.772	3881.12
407.216	3530.95
407.66	3417.67
408.104	3253.23
408.547	3040.17
408.991	2941.49
409.435	2834.1
409.879	2789.61
410.322	2751.45
410.766	2654.03
411.209	2520.28
411.653	2414.68
412.096	2361.32
412.54	2359.01
412.983	2339.35
413.426	2345.33
413.869	2345.09
414.312	2295.3
414.756	2210.81
415.199	2105.12
415.642	2043.74
416.085	2047.61
416.527	2032.43
416.97	2066.19
417.413	1956.89
417.856	1935.73
418.298	1915.49
418.741	1901.33
419.184	1898.13
419.626	1978.61
420.069	1978.06
420.511	1981.83
420.953	1933.87
421.396	1915.14
421.838	1864.78
422.28	1905.63
422.722	1911.18
423.164	1937.64
423.606	1901.18
424.048	1894.91
424.49	1796.18
424.932	1784.6
425.374	1763.87
425.816	1793.99
426.258	1826.61
426.699	1844.37
427.141	1813.78
427.582	1843.57
428.024	1831.56
428.465	1820.42
428.907	1771.17
429.348	1747.97
429.789	1744.96
430.231	1701.16
430.672	1719.55
431.113	1677.46
431.554	1652.79
431.995	1611.98
432.436	1548.74
432.877	1509.98
433.318	1479.26
433.759	1473.63
434.2	1474.92
434.64	1460.63
435.081	1466.73
435.522	1391.66
435.962	1340.79
436.403	1310.06
436.843	1328.8
437.284	1303.87
437.724	1272.43
438.164	1280.14
438.604	1254.15
439.045	1205.48
439.485	1155.66
439.925	1132.55
440.365	1105.07
440.805	1092.06
441.245	1079.9
441.685	1041.86
442.125	1036.67
442.564	1044.74
443.004	1023
443.444	1020.84
443.883	1024.95
444.323	1019.86
444.762	1025.91
445.202	1042.35
445.641	1062.58
446.081	1059.85
446.52	1069.14
446.959	1059.84
447.398	1035.46
447.837	1025.28
448.276	1011.3
448.716	1022.41
449.154	1035.39
449.593	1012.25
450.032	1010.61
450.471	993.44
450.91	996.21
451.349	995.75
451.787	993.56
452.226	1010.14
452.664	1010.27
453.103	1013.82
453.541	1013.87
453.98	1009.98
454.418	1016.89
454.856	1001.88
455.295	1001.85
455.733	1009.96
456.171	1018.99
456.609	1022.58
457.047	1024.57
457.485	1040.28
457.923	1042.55
458.361	1030.65
458.798	1037.24
459.236	1035.94
459.674	1045.43
460.111	1051.25
460.549	1042.55
460.987	1038.92
461.424	1037.04
461.862	1032.46
462.299	1015.91
462.736	1014.03
463.173	1018.22
463.611	1006.03
464.048	1004.43
464.485	1012.26
464.922	1003.31
465.359	997.54
465.796	979.93
466.233	970.93
466.67	960.64
467.106	959.95
467.543	951.86
467.98	940.21
468.416	917.16
468.853	910.09
469.29	884.07
469.726	874.9
470.162	851.48
470.599	843.17
471.035	836.62
471.471	816.17
471.907	810.69
472.344	804.98
472.78	805.43
473.216	815.61
473.652	805.08
474.088	801.81
474.523	797.98
474.959	805.49
475.395	798.23
475.831	792.05
476.266	795.96
476.702	794.73
477.138	785.39
477.573	782.69
478.008	779.65
478.444	783.78
478.879	789.91
479.314	792.81
479.75	792.07
480.185	797.38
480.62	805.69
481.055	810.81
481.49	817.49
481.925	831.02
482.36	846.19
482.795	870.33
483.229	894.32
483.664	915.29
484.099	921.87
484.534	939.13
484.968	949.58
485.403	955.35
485.837	957.25
486.271	959.35
486.706	963.55
487.14	956.14
487.574	944.85
488.009	940.19
488.443	935.99
488.877	948.12
489.311	954.75
489.745	969.84
490.179	981.64
490.613	1003.26
491.046	1015
491.48	1027.34
491.914	1033.37
492.348	1046.03
492.781	1057.28
493.215	1064.3
493.648	1072.22
494.082	1085.79
494.515	1090.77
494.948	1107.51
495.382	1121.21
495.815	1133.69
496.248	1147.2
496.681	1172.15
497.114	1196.17
497.547	1216.97
497.98	1242.25
498.413	1256.31
498.846	1276.23
499.279	1296.54
499.711	1309.16
500.144	1318.22
500.577	1338.8
501.009	1361.15
501.442	1381.08
501.874	1385.07
502.306	1392.52
502.739	1406.63
503.171	1434.63
503.603	1442.64
504.036	1460.25
504.468	1471.46
504.9	1491.49
505.332	1504.09
505.764	1511.59
506.196	1523.41
506.627	1548.93
507.059	1570.7
507.491	1586.37
507.923	1581.8
508.354	1605.18
508.786	1620.97
509.217	1647.62
509.649	1667.93
510.08	1695.49
510.512	1717.47
510.943	1737.79
511.374	1750.86
511.805	1778.52
512.237	1804.47
512.668	1850.69
513.099	1887.79
513.53	1922.51
513.961	1947.87
514.391	1991.14
514.822	2032.9
515.253	2080.59
515.684	2110.6
516.114	2145.29
516.545	2165.71
516.975	2196.12
517.406	2211.95
517.836	2204.48
518.267	2203.58
518.697	2218.32
519.127	2212.11
519.558	2211.82
519.988	2204.65
520.418	2209.62
520.848	2226.29
521.278	2227.94
521.708	2222.21
522.138	2229.92
522.567	2264
522.997	2289.71
523.427	2300.94
523.857	2315.25
524.286	2320.58
524.716	2333.86
525.145	2349.07
525.575	2353.84
526.004	2366.23
526.433	2364.54
526.863	2355.04
527.292	2332.41
527.721	2333.26
528.15	2334.31
528.579	2328.71
529.008	2337.3
529.437	2362.3
529.866	2376.7
530.295	2394.05
530.724	2405.34
531.152	2436.97
531.581	2452.63
532.01	2472.42
532.438	2479.55
532.867	2496.32
533.295	2517.8
533.723	2522.69
534.152	2516.9
534.58	2514.13
535.008	2491.26
535.436	2490.77
535.865	2499.98
536.293	2518.56
536.721	2539.98
537.149	2573.05
537.576	2574.76
538.004	2591.04
538.432	2602.67
538.86	2599.83
539.287	2608.73
539.715	2626.86
540.143	2632.59
540.57	2626.05
540.998	2619.32
541.425	2585.92
541.852	2556.53
542.28	2553.89
542.707	2530.82
543.134	2509.88
543.561	2503.5
543.988	2492.34
544.415	2489.6
544.842	2480.22
545.269	2470.1
545.696	2471.88
546.123	2487.83
546.549	2473.1
546.976	2453.96
547.403	2452.22
547.829	2455
548.256	2456.74
548.682	2450.14
549.108	2438.9
549.535	2437.39
549.961	2438.42
550.387	2420.7
550.813	2413.54
551.24	2421.49
551.666	2424.03
552.092	2410.6
552.518	2401.61
552.943	2393.86
553.369	2405.69
553.795	2414.15
554.221	2417.81
554.646	2414.49
555.072	2430.02
555.498	2438.93
555.923	2454.09
556.349	2477.15
556.774	2492.73
557.199	2497.2
557.625	2508.18
558.05	2502.85
558.475	2520.54
558.9	2521.53
559.325	2515.04
559.75	2510.55
560.175	2505.31
560.6	2500.26
561.025	2501.95
561.449	2506.97
561.874	2518.36
562.299	2528.59
562.723	2544.09
563.148	2536.4
563.572	2547.71
563.997	2567.7
564.421	2582.5
564.846	2590.43
565.27	2602.01
565.694	2605.46
566.118	2629.56
566.542	2647.39
566.966	2646.64
567.39	2647.99
567.814	2641.23
568.238	2649.73
568.662	2667.05
569.086	2678.95
569.509	2698.91
569.933	2684.89
570.357	2682.93
570.78	2661.68
571.204	2651.64
571.627	2645.47
572.05	2651.97
572.474	2659.2
572.897	2647.77
573.32	2643.98
573.743	2637.55
574.166	2616.8
574.589	2626.53
575.012	2622.79
575.435	2628.61
575.858	2623.24
576.281	2612.32
576.704	2595.63
577.126	2584.63
577.549	2575.72
577.972	2567.27
578.394	2558.81
578.817	2553.37
579.239	2529.32
579.661	2514.06
580.084	2493.64
580.506	2477.28
580.928	2477.83
581.35	2464.16
581.772	2461.99
582.194	2445.57
582.616	2429.93
583.038	2411.19
583.46	2400.59
583.882	2399.36
584.303	2410.43
584.725	2409.36
585.147	2413
585.568	2431.71
585.99	2455.34
586.411	2468.87
586.833	2495.35
587.254	2501.38
587.675	2527.45
588.096	2549.6
588.518	2544.77
588.939	2521.94
589.36	2520.6
589.781	2511.45
590.202	2466.65
590.623	2455
591.043	2454.47
591.464	2435.89
591.885	2431.21
592.305	2423.84
592.726	2405.25
593.147	2409.33
593.567	2401.7
593.987	2392.18
594.408	2385.72
594.828	2387.78
595.248	2378.91
595.669	2349.73
596.089	2338.45
596.509	2329.43
596.929	2309
597.349	2309.86
597.769	2295.09
598.189	2286.11
598.608	2289.18
599.028	2294.12
599.448	2294.74
599.867	2276.29
600.287	2272.51
600.706	2268.51
601.126	2255.33
601.545	2255.85
601.965	2256.1
602.384	2250.61
602.803	2259.11
603.222	2253.2
603.641	2245.93
604.061	2243.29
604.48	2241.28
604.898	2257.87
605.317	2270.58
605.736	2277.73
606.155	2277.84
606.574	2269.11
606.992	2282.18
607.411	2278.98
607.829	2272.52
608.248	2271.44
608.666	2272.97
609.085	2276.78
609.503	2268.27
609.921	2263.56
610.339	2273.63
610.758	2278.59
611.176	2277.44
611.594	2267.67
612.012	2267.33
612.43	2277.73
612.847	2296.17
613.265	2303.23
613.683	2318.61
614.101	2327.5
614.518	2326.56
614.936	2314.89
615.353	2294.49
615.771	2292.4
616.188	2298.25
616.606	2297.41
617.023	2291.57
617.44	2270.31
617.857	2264.96
618.274	2253.72
618.691	2246.39
619.108	2235.24
619.525	2227.71
619.942	2243.43
620.359	2252.04
620.776	2246.8
621.192	2242.75
621.609	2240.31
622.026	2255.03
622.442	2267.8
622.859	2276.18
623.275	2265.57
623.691	2277.47
624.108	2301.25
624.524	2329.54
624.94	2332.14
625.356	2353.25
625.772	2380.54
626.188	2405.31
626.604	2409.27
627.02	2402.19
627.436	2399.08
627.852	2412.52
628.268	2435.79
628.683	2420.9
629.099	2406.47
629.514	2398.29
629.93	2404.55
630.345	2412.23
630.761	2405.46
631.176	2412.48
631.591	2402.61
632.007	2391.24
632.422	2388.03
632.837	2367.59
633.252	2362.26
633.667	2343.53
634.082	2327.67
634.497	2303.23
634.911	2264.82
635.326	2257.04
635.741	2225.22
636.155	2207.45
636.57	2209.78
636.984	2209.86
637.399	2211.33
637.813	2210.36
638.228	2207.45
638.642	2214.64
639.056	2196.31
639.47	2198.52
639.884	2182.65
640.298	2171.98
640.712	2168.8
641.126	2144.82
641.54	2128.76
641.954	2119.77
642.368	2097.03
642.781	2078.47
643.195	2045.5
643.609	2045.9
644.022	2033.78
644.436	2027.28
644.849	2005.02
645.262	1982.77
645.676	1987.55
646.089	1979.1
646.502	1952.03
646.915	1943.25
647.328	1916.57
647.741	1913.24
648.154	1891.1
648.567	1885.21
648.98	1860.17
649.393	1861.8
649.805	1857.2
650.218	1844.98
650.631	1816.63
651.043	1807.23
651.456	1797.3
651.868	1801.34
652.28	1836.6
652.693	1866.3
653.105	1883.94
653.517	1907.89
653.929	1914.75
654.341	1930.05
654.753	1910.76
655.165	1927.76
655.577	1928.98
655.989	1927.31
656.401	1918.41
656.813	1856.03
657.224	1820.91
657.636	1772.63
658.047	1741.93
658.459	1708.16
658.87	1696.22
659.282	1679.02
659.693	1643.65
660.104	1618.98
660.515	1596.26
660.926	1595.53
661.338	1592.33
661.749	1583.29
662.159	1565.35
662.57	1558.73
662.981	1548.87
663.392	1534.02
663.803	1540.83
664.213	1535.85
664.624	1526.77
665.035	1530.53
665.445	1503.65
665.855	1486.17
666.266	1468.51
666.676	1463.52
667.086	1445.32
667.497	1442.04
667.907	1428.69
668.317	1409.66
668.727	1397.14
669.137	1396.43
669.547	1389.17
669.956	1390.54
670.366	1392.17
670.776	1393.55
671.186	1398.16
671.595	1401.2
672.005	1406.9
672.414	1403.51
672.824	1398.76
673.233	1409.22
673.642	1410.63
674.052	1415.05
674.461	1416.73
674.87	1426.35
675.279	1420
675.688	1425.45
676.097	1428.04
676.506	1422.8
676.915	1451.33
677.323	1460.86
677.732	1460.19
678.141	1464.89
678.549	1451.16
678.958	1457.59
679.366	1462.16
679.775	1479.9
680.183	1503.37
680.592	1524.84
681	1547.07
681.408	1544.75
681.816	1569.25
682.224	1600.55
682.632	1629.23
683.04	1701.58
683.448	1762.96
683.856	1837.69
684.264	1923.81
684.671	2006.48
685.079	2103.66
685.487	2207.22
685.894	2347.7
686.302	2465.71
686.709	2555.17
687.116	2662.45
687.524	2743.6
687.931	2808.51
688.338	2860.57
688.745	2895.92
689.152	2936.1
689.559	2993.03
689.966	3043.53
690.373	3048.05
690.78	3087.12
691.187	3169.14
691.593	3215.79
692	3247.47
692.407	3312.88
