Data from C_2_DEC_VA_2N_Splice17_12-08-11-443.txt Node
Date: Sat Mar 14 12:08:11 EDT 2020
User: sa697716
Spectrometer: FLMS03696
Trigger mode: 0
Integration Time (sec): 3.180400E-1
Scans to average: 20
Electric dark correction enabled: true
Nonlinearity correction enabled: true
Boxcar width: 5
XAxis mode: Wavelengths
Number of Pixels in Spectrum: 2048
>>>>>Begin Spectral Data<<<<<
187.83	-266040.32
188.298	2118.95
188.766	1130.76
189.233	1047.43
189.701	1513.47
190.169	2135.77
190.636	832.17
191.104	655.01
191.571	137.4
192.039	-14.34
192.506	-39.15
192.974	557.31
193.441	-692.2
193.908	-328.19
194.375	-20.28
194.842	68.04
195.31	200.07
195.777	218.03
196.244	411.72
196.711	525.34
197.177	638.79
197.644	894.22
198.111	1548.08
198.578	2167.01
199.045	1770.77
199.511	2868.91
199.978	3328.35
200.445	2822.12
200.911	3100.13
201.378	3473.37
201.844	3115.34
202.31	5331.66
202.777	5552.87
203.243	3061.21
203.709	2934.07
204.176	3424.89
204.642	2818.51
205.108	2634.65
205.574	2155.24
206.04	1975.44
206.506	1858.36
206.972	1751
207.438	1703.82
207.903	1928.8
208.369	1701.16
208.835	1686.64
209.301	1797.08
209.766	1834.67
210.232	1811.52
210.697	2222.95
211.163	2732.62
211.628	4089.31
212.094	3427.66
212.559	4160.34
213.024	2597
213.49	3145.88
213.955	3051.55
214.42	2983.27
214.885	2770.69
215.35	2652.01
215.815	2524.32
216.28	2651.41
216.745	2133.88
217.21	2275.74
217.675	2052.25
218.14	2263.28
218.604	2475
219.069	2776.42
219.534	2847.35
219.998	3244.41
220.463	3878.85
220.927	4710.28
221.392	4369.18
221.856	4386.09
222.32	5474.67
222.785	6726.92
223.249	8414.6
223.713	9353.61
224.177	9299.84
224.642	11866.32
225.106	14555.28
225.57	15813.01
226.034	11761.54
226.497	17899.05
226.961	16141.07
227.425	18780.57
227.889	20819.7
228.353	20777.57
228.816	42738.38
229.28	40792.88
229.744	34321.41
230.207	20835.43
230.671	20445.44
231.134	33712.3
231.597	38849.85
232.061	38806.09
232.524	37869.99
232.987	26052.02
233.45	23459.87
233.914	21042.27
234.377	21573.11
234.84	19750.87
235.303	23280.78
235.766	26039.89
236.229	26888.52
236.691	16915.98
237.154	18977.45
237.617	14235.27
238.08	14548.53
238.542	17019.6
239.005	12180.8
239.468	12091.5
239.93	11393.55
240.393	10360.94
240.855	9098.12
241.317	9311.69
241.78	11307.37
242.242	11710.19
242.704	12661.46
243.166	11047.55
243.629	10037.58
244.091	11557.89
244.553	12645.21
245.015	13599.52
245.477	17573.21
245.939	25736.91
246.4	27288.92
246.862	26583.5
247.324	25031.26
247.786	27994.03
248.247	36663.92
248.709	37820.49
249.17	28302.7
249.632	26707.76
250.093	30974.03
250.555	26748.44
251.016	16306.22
251.477	15475.11
251.939	16689.67
252.4	17509.03
252.861	20811.61
253.322	19353.45
253.783	22981.99
254.244	29759.27
254.705	23436.79
255.166	20796.82
255.627	20496.57
256.088	28913.31
256.549	30723.93
257.009	26406.69
257.47	32029.22
257.931	26076.24
258.391	19514.81
258.852	20127.78
259.312	21089.51
259.773	26014.11
260.233	21995.91
260.694	18518.51
261.154	20957.86
261.614	16802.13
262.074	14999.82
262.534	15538.78
262.994	14614.19
263.455	19432.29
263.915	16339.12
264.374	15348.96
264.834	16723.29
265.294	18498.39
265.754	19128.69
266.214	18082.96
266.673	16930.01
267.133	21351.71
267.593	21181.1
268.052	25909.45
268.512	22514.23
268.971	27132.69
269.431	29744.96
269.89	26605.83
270.349	39821.2
270.809	44340.65
271.268	39840.49
271.727	89117.95
272.186	57722.24
272.645	43233.14
273.104	31150.15
273.563	45076.26
274.022	35417.07
274.481	30106.26
274.94	23200.94
275.399	17227.7
275.857	20063.4
276.316	27135.14
276.775	24157.56
277.233	23782.7
277.692	22277.71
278.15	25182.8
278.609	25925.88
279.067	24004.43
279.525	22320.15
279.984	28808.36
280.442	34648.16
280.9	34170.87
281.358	22464.23
281.816	20966.17
282.274	20539.71
282.732	21217.88
283.19	21336.28
283.648	18427.98
284.106	19617.14
284.564	19979.3
285.021	18563.81
285.479	13840.56
285.937	12584.42
286.394	11069.47
286.852	11394.61
287.309	11982.76
287.767	11597.04
288.224	11037.32
288.682	12096.99
289.139	13291.89
289.596	12156.87
290.053	12627.01
290.511	15924.22
290.968	19304.15
291.425	26131.69
291.882	21746.63
292.339	18914.17
292.796	18716.21
293.252	17617.27
293.709	13992.61
294.166	12530.66
294.623	13820.44
295.079	13247.16
295.536	13322.36
295.992	12098.08
296.449	11966.39
296.905	12412.35
297.362	11899.05
297.818	12530.24
298.274	13032.11
298.731	13280.96
299.187	13142
299.643	14120.71
300.099	17102.05
300.555	18744.06
301.011	15687.73
301.467	15158.03
301.923	17756.33
302.379	17348.99
302.835	17028.87
303.291	17024.49
303.746	19396.43
304.202	24531.39
304.658	24672
305.113	16589.61
305.569	16299.02
306.024	17349.42
306.479	16499.07
306.935	13945.74
307.39	15254.3
307.845	14122.96
308.301	14228.74
308.756	13852.15
309.211	13354.73
309.666	13679.86
310.121	17001.7
310.576	17238.38
311.031	17092.77
311.486	19580.11
311.94	19532.26
312.395	26111.93
312.85	49128.67
313.305	241638.9
313.759	1256636.84
314.214	91256.14
314.668	72455.94
315.123	60905.85
315.577	21907.41
316.032	19533.36
316.486	24515.23
316.94	19370.7
317.394	13482.48
317.849	10457.48
318.303	9903.01
318.757	9339.78
319.211	10299.24
319.665	9006.35
320.119	9127.08
320.572	13042.76
321.026	12202.98
321.48	10144.02
321.934	11053.3
322.387	11068.75
322.841	11967.74
323.295	10754.56
323.748	12347.66
324.202	12547.12
324.655	15061.36
325.108	21058.14
325.562	14907.67
326.015	17710.49
326.468	13406.18
326.921	14994.2
327.374	14000.49
327.827	14573.07
328.28	16495.56
328.733	11071.55
329.186	9724.74
329.639	9276.58
330.092	7813.75
330.545	7436.09
330.997	7501.46
331.45	8201.21
331.903	9626.97
332.355	16564.17
332.808	16135.29
333.26	13309.28
333.713	14472
334.165	14597.09
334.617	19481.7
335.069	15739.76
335.522	28426.56
335.974	31481.92
336.426	28721.58
336.878	19895.23
337.33	10101.54
337.782	9873.61
338.234	12379.25
338.686	14812.69
339.137	17590.84
339.589	16597.09
340.041	13042.23
340.493	11231.54
340.944	11511.85
341.396	12448.84
341.847	10468.79
342.299	12377.59
342.75	15097.98
343.201	13189.64
343.653	15145.6
344.104	18537.82
344.555	14561.89
345.006	22613.63
345.457	17333.76
345.908	13762.42
346.359	12887.03
346.81	10485.2
347.261	11009.8
347.712	10817.27
348.163	11583.05
348.613	11766.22
349.064	11000.77
349.515	9617.77
349.965	9878.81
350.416	11903.22
350.866	13027.7
351.317	14751.97
351.767	24420.9
352.217	30885.92
352.668	25630.87
353.118	23504.1
353.568	22577.72
354.018	17852.32
354.468	18833.17
354.918	13508.41
355.368	11791.79
355.818	16718.78
356.268	48054.73
356.718	201316.56
357.168	50081.45
357.617	25188.33
358.067	27979.91
358.517	26199.91
358.966	30801.99
359.416	34715.64
359.865	37463.42
360.315	44634.14
360.764	20826.82
361.213	11686.77
361.663	11073.9
362.112	13685.15
362.561	22092.71
363.01	16678.23
363.459	14069.3
363.908	15236.63
364.357	12941.93
364.806	21916.89
365.255	15086.8
365.703	13832.78
366.152	13909.91
366.601	11282.07
367.05	9185.4
367.498	8361.88
367.947	8739.64
368.395	9108.65
368.844	8084.8
369.292	9722.76
369.74	6720.35
370.189	10295.82
370.637	12081.46
371.085	10393.75
371.533	12683.2
371.981	12206.64
372.429	11664.12
372.877	12197.1
373.325	10203.96
373.773	10387.87
374.221	9264.38
374.669	11517.7
375.116	9978.73
375.564	10084.73
376.012	11306.07
376.459	9358.42
376.907	11233.05
377.354	13604.48
377.801	12721.43
378.249	14694.56
378.696	18828.7
379.143	22927.87
379.591	24484.53
380.038	41624.55
380.485	30229.91
380.932	32775.46
381.379	30113.07
381.826	22284.11
382.273	15922.7
382.72	14004.46
383.166	13710.14
383.613	8938.67
384.06	8105.54
384.506	9448.92
384.953	6955.04
385.4	7049.95
385.846	6216.87
386.292	6075.53
386.739	5981.23
387.185	5944.47
387.631	5985.93
388.078	5856.09
388.524	6312.65
388.97	5867.31
389.416	4937.26
389.862	5301.87
390.308	5061.09
390.754	5179.31
391.2	5680.07
391.645	5865.5
392.091	5677.86
392.537	5528.19
392.983	5578.43
393.428	5541.35
393.874	5994.2
394.319	6072.99
394.765	5816.13
395.21	6033.55
395.655	5707.69
396.101	5388.79
396.546	4910.24
396.991	4989.44
397.436	4675.62
397.881	4556.46
398.326	4348.3
398.771	4149.2
399.216	3660.22
399.661	3326.1
400.106	3343.37
400.551	3459.09
400.995	3128.84
401.44	3113.28
401.885	2945.45
402.329	2997.82
402.774	2898.84
403.218	2825.34
403.663	2740.49
404.107	2832.54
404.551	2863.7
404.995	2639.18
405.44	2556.41
405.884	2612.35
406.328	2542.29
406.772	2548.52
407.216	2333.14
407.66	2265.51
408.104	2166
408.547	2037.06
408.991	1977.82
409.435	1915.48
409.879	1895.59
410.322	1879.08
410.766	1820.3
411.209	1739.61
411.653	1678.04
412.096	1655.83
412.54	1664.48
412.983	1658.69
413.426	1669.68
413.869	1674.84
414.312	1651.3
414.756	1600
415.199	1529.32
415.642	1489.87
416.085	1494.5
416.527	1485.99
416.97	1509.13
417.413	1436.34
417.856	1423.81
418.298	1412.82
418.741	1407.5
419.184	1408.18
419.626	1469.71
420.069	1472.54
420.511	1483.68
420.953	1453.82
421.396	1443.62
421.838	1409.52
422.28	1441.3
422.722	1451.5
423.164	1473.91
423.606	1448.31
424.048	1446.13
424.49	1371.38
424.932	1365.04
425.374	1346.15
425.816	1371.23
426.258	1397.68
426.699	1410.18
427.141	1386.88
427.582	1406.47
428.024	1397.31
428.465	1389.16
428.907	1349.34
429.348	1333.76
429.789	1330.7
430.231	1300.74
430.672	1313.3
431.113	1279.8
431.554	1260.95
431.995	1231.2
432.436	1186.7
432.877	1159.03
433.318	1138.3
433.759	1135.62
434.2	1134.1
434.64	1125.11
435.081	1127.11
435.522	1070.09
435.962	1032.82
436.403	1012.12
436.843	1025.98
437.284	1004.54
437.724	979.3
438.164	986.39
438.604	969.21
439.045	936.98
439.485	901.29
439.925	886.74
440.365	867.83
440.805	860.13
441.245	852.36
441.685	825.69
442.125	825.8
442.564	837.54
443.004	822.28
443.444	825.07
443.883	831.36
444.323	831.98
444.762	841.63
445.202	861.49
445.641	882.51
446.081	886.17
446.52	899.55
446.959	897.44
447.398	881.42
447.837	880.23
448.276	870.85
448.716	889.09
449.154	904.06
449.593	889.49
450.032	894.95
450.471	887.32
450.91	894.99
451.349	901.03
451.787	903.91
452.226	923.28
452.664	928.67
453.103	935.67
453.541	937.47
453.98	938.07
454.418	948.6
454.856	934.28
455.295	935.14
455.733	944.16
456.171	951.76
456.609	955.48
457.047	958.51
457.485	971.69
457.923	974.49
458.361	966.08
458.798	973
459.236	972.14
459.674	981.01
460.111	985.4
460.549	977.29
460.987	975.74
461.424	973.68
461.862	968.55
462.299	955.9
462.736	954.97
463.173	956.07
463.611	943.24
464.048	940.93
464.485	949.38
464.922	942.9
465.359	937.83
465.796	918.82
466.233	909.55
466.67	901.74
467.106	899.39
467.543	891.91
467.98	880.05
468.416	859.44
468.853	853.02
469.29	827.12
469.726	817.77
470.162	797.31
470.599	792.35
471.035	786.84
471.471	768.47
471.907	764.35
472.344	761.22
472.78	765.23
473.216	776.42
473.652	767.99
474.088	767.93
474.523	766.93
474.959	774.69
475.395	767.89
475.831	765.13
476.266	769.58
476.702	769.34
477.138	761.22
477.573	758.56
478.008	756.06
478.444	760.51
478.879	767.65
479.314	772.35
479.75	773.37
480.185	778.03
480.62	786.41
481.055	792.27
481.49	798.89
481.925	812.51
482.36	827.54
482.795	853.36
483.229	879.04
483.664	900.05
484.099	905.05
484.534	921.38
484.968	934.03
485.403	939.76
485.837	942.88
486.271	945.35
486.706	949.79
487.14	945.1
487.574	933.87
488.009	929.75
488.443	926.44
488.877	940.11
489.311	948.06
489.745	964.36
490.179	978.43
490.613	1001.38
491.046	1014.49
491.48	1027.45
491.914	1033.55
492.348	1047.58
492.781	1060.23
493.215	1069.72
493.648	1080.2
494.082	1096.36
494.515	1103.34
494.948	1122.35
495.382	1137.68
495.815	1153.89
496.248	1170.03
496.681	1199.69
497.114	1226.23
497.547	1250.2
497.98	1278.87
498.413	1295.21
498.846	1318.26
499.279	1341.36
499.711	1357.12
500.144	1369.47
500.577	1393.76
501.009	1422.04
501.442	1445.14
501.874	1454.19
502.306	1465.36
502.739	1482.81
503.171	1515.53
503.603	1528.6
504.036	1551.34
504.468	1565.78
504.9	1590.85
505.332	1607.62
505.764	1618.15
506.196	1633.69
506.627	1663.37
507.059	1689.68
507.491	1711.2
507.923	1709.07
508.354	1734.96
508.786	1753.98
509.217	1786.96
509.649	1811.8
510.08	1845.23
510.512	1872.82
510.943	1897.74
511.374	1914.67
511.805	1946.54
512.237	1976.06
512.668	2029.56
513.099	2072.39
513.53	2114.31
513.961	2142.13
514.391	2190.48
514.822	2237.55
515.253	2290.54
515.684	2326.07
516.114	2366.34
516.545	2391.93
516.975	2426.1
517.406	2444.67
517.836	2439.56
518.267	2439.05
518.697	2457.32
519.127	2453.7
519.558	2456
519.988	2451.91
520.418	2457.84
520.848	2474.98
521.278	2477.85
521.708	2466.18
522.138	2476.68
522.567	2515.28
522.997	2545.25
523.427	2560.98
523.857	2577.24
524.286	2582.46
524.716	2594.04
525.145	2612.28
525.575	2619.64
526.004	2633.18
526.433	2637.59
526.863	2627.48
527.292	2602.17
527.721	2600.96
528.15	2601.69
528.579	2593.17
529.008	2602.23
529.437	2631.28
529.866	2645.83
530.295	2666.27
530.724	2677.97
531.152	2714.28
531.581	2729.8
532.01	2751.55
532.438	2761.21
532.867	2778.61
533.295	2803.37
533.723	2809.31
534.152	2801.56
534.58	2796.92
535.008	2769.79
535.436	2769.9
535.865	2778.11
536.293	2799.39
536.721	2822.76
537.149	2858.96
537.576	2859.68
538.004	2877.23
538.432	2887.99
538.86	2884.91
539.287	2896.64
539.715	2915.32
540.143	2918.95
540.57	2912.16
540.998	2905.44
541.425	2868.02
541.852	2834.01
542.28	2830.92
542.707	2804.27
543.134	2780.72
543.561	2772.39
543.988	2758.76
544.415	2758.23
544.842	2747.68
545.269	2735.41
545.696	2736.58
546.123	2754.3
546.549	2737.81
546.976	2716.71
547.403	2715.76
547.829	2717.36
548.256	2720.26
548.682	2713.95
549.108	2699.97
549.535	2699.12
549.961	2702.34
550.387	2680.9
550.813	2669.95
551.24	2676.97
551.666	2678.82
552.092	2663.38
552.518	2653.61
552.943	2643.48
553.369	2652.74
553.795	2660.35
554.221	2663.14
554.646	2657.01
555.072	2673.06
555.498	2683.16
555.923	2700.8
556.349	2725.03
556.774	2740.94
557.199	2745.26
557.625	2756.84
558.05	2751.33
558.475	2770.41
558.9	2770.23
559.325	2761.29
559.75	2754.99
560.175	2749.58
560.6	2743.2
561.025	2743.51
561.449	2748.11
561.874	2761.41
562.299	2772.99
562.723	2790.66
563.148	2781.05
563.572	2793.84
563.997	2815.68
564.421	2831.14
564.846	2838.26
565.27	2850.99
565.694	2854.34
566.118	2881.03
566.542	2899.24
566.966	2896.9
567.39	2897.1
567.814	2888.3
568.238	2894.06
568.662	2911.6
569.086	2924
569.509	2944.76
569.933	2928.13
570.357	2925.47
570.78	2899.21
571.204	2886.27
571.627	2877.92
572.05	2882.24
572.474	2890.42
572.897	2880.62
573.32	2875.52
573.743	2868.57
574.166	2845.75
574.589	2854.36
575.012	2848.68
575.435	2853.22
575.858	2844.34
576.281	2832.18
576.704	2813.43
577.126	2798.89
577.549	2785.18
577.972	2775.05
578.394	2761.9
578.817	2753.92
579.239	2726.11
579.661	2709.07
580.084	2687.01
580.506	2670.57
580.928	2668.48
581.35	2652.97
581.772	2649.58
582.194	2631.46
582.616	2614.31
583.038	2594.06
583.46	2580.88
583.882	2579.7
584.303	2590.99
584.725	2588.11
585.147	2590.85
585.568	2611.53
585.99	2636.52
586.411	2649.93
586.833	2677.62
587.254	2683.08
587.675	2712.17
588.096	2737.27
588.518	2731.46
588.939	2703.58
589.36	2703.75
589.781	2692.4
590.202	2643.62
590.623	2629.22
591.043	2628.69
591.464	2608.29
591.885	2603.79
592.305	2595.15
592.726	2572.27
593.147	2577.18
593.567	2569.72
593.987	2558.54
594.408	2552.38
594.828	2554.26
595.248	2546.33
595.669	2515.17
596.089	2505.76
596.509	2494.78
596.929	2472.27
597.349	2475.45
597.769	2458.92
598.189	2450.71
598.608	2454.15
599.028	2459.71
599.448	2461.52
599.867	2442.22
600.287	2437.18
600.706	2431.69
601.126	2416.92
601.545	2416.27
601.965	2416.54
602.384	2409.08
602.803	2417.06
603.222	2410.88
603.641	2401.72
604.061	2397.11
604.48	2392.57
604.898	2409.27
605.317	2420.77
605.736	2428.77
606.155	2426.72
606.574	2412.11
606.992	2425.71
607.411	2420.53
607.829	2411.08
608.248	2408.79
608.666	2408.62
609.085	2410.84
609.503	2399.6
609.921	2391.15
610.339	2397.36
610.758	2400.75
611.176	2397.21
611.594	2382.33
612.012	2379.01
612.43	2386.19
612.847	2401.43
613.265	2406.2
613.683	2417.69
614.101	2423.78
614.518	2422.36
614.936	2408.68
615.353	2385.12
615.771	2383.9
616.188	2389.55
616.606	2387.4
617.023	2379.26
617.44	2356.99
617.857	2348.54
618.274	2336.2
618.691	2327.85
619.108	2313.36
619.525	2304.77
619.942	2320.42
620.359	2327.43
620.776	2321.17
621.192	2314.52
621.609	2311.3
622.026	2324.73
622.442	2335.59
622.859	2343.4
623.275	2331.3
623.691	2342.91
624.108	2364.95
624.524	2391.88
624.94	2392.75
625.356	2412.56
625.772	2438.87
626.188	2462.73
626.604	2466.99
627.02	2460.73
627.436	2457.91
627.852	2469.81
628.268	2492.27
628.683	2475.85
629.099	2461.1
629.514	2453.19
629.93	2459.26
630.345	2468.4
630.761	2460.77
631.176	2467.14
631.591	2456.01
632.007	2444.02
632.422	2443.19
632.837	2424.49
633.252	2421.59
633.667	2402.62
634.082	2386.49
634.497	2363.4
634.911	2326.44
635.326	2322.33
635.741	2291.19
636.155	2275.08
636.57	2278.97
636.984	2279.63
637.399	2281.33
637.813	2282.12
638.228	2282.35
638.642	2292.48
639.056	2275.22
639.47	2278.14
639.884	2262.39
640.298	2251.24
640.712	2248.83
641.126	2226.14
641.54	2210.51
641.954	2203.23
642.368	2178.15
642.781	2159.5
643.195	2125.79
643.609	2124.94
644.022	2113.39
644.436	2103.95
644.849	2081.41
645.262	2058.78
645.676	2060.92
646.089	2051.45
646.502	2020.1
646.915	2009.59
647.328	1979.38
647.741	1972.12
648.154	1946.06
648.567	1934.93
648.98	1908.69
649.393	1907.58
649.805	1899.47
650.218	1884.88
650.631	1853.85
651.043	1842.69
651.456	1831.49
651.868	1831.55
652.28	1864.48
652.693	1891.23
653.105	1905.23
653.517	1923.46
653.929	1923.91
654.341	1933.78
654.753	1909.12
655.165	1919.25
655.577	1912.71
655.989	1902.8
656.401	1887.92
656.813	1817.99
657.224	1777.57
657.636	1722.88
658.047	1686.55
658.459	1647.5
658.87	1627.52
659.282	1602.25
659.693	1558.12
660.104	1526.75
660.515	1498.01
660.926	1487.65
661.338	1476.49
661.749	1457.26
662.159	1431.81
662.57	1416.48
662.981	1399.56
663.392	1377.59
663.803	1375.77
664.213	1363.09
664.624	1346.03
665.035	1340.11
665.445	1306.95
665.855	1284.01
666.266	1260.43
666.676	1246.79
667.086	1222.82
667.497	1211.33
667.907	1192.51
668.317	1167.98
668.727	1151.09
669.137	1144.23
669.547	1130.98
669.956	1127.43
670.366	1122.16
670.776	1117.63
671.186	1116.94
671.595	1115.76
672.005	1114.26
672.414	1106.9
672.824	1098.97
673.233	1103.85
673.642	1101.49
674.052	1101.24
674.461	1099.99
674.87	1103.72
675.279	1097.68
675.688	1099.44
676.097	1097.38
676.506	1091.63
676.915	1112.27
677.323	1117.2
677.732	1115.42
678.141	1116.96
678.549	1107.25
678.958	1109.79
679.366	1113.81
679.775	1127.02
680.183	1146.42
680.592	1163.49
681	1182.29
681.408	1183.45
681.816	1207.84
682.224	1235.89
682.632	1265.97
683.04	1327.78
683.448	1385.71
683.856	1453.23
684.264	1531.53
684.671	1609.86
685.079	1703.66
685.487	1802.61
685.894	1934.34
686.302	2048.77
686.709	2144.39
687.116	2253.97
687.524	2340.95
687.931	2419.04
688.338	2485.46
688.745	2540.83
689.152	2598.16
689.559	2670.19
689.966	2739.9
690.373	2763.39
690.78	2819.36
691.187	2914.45
691.593	2978.37
692	3028.88
692.407	3108.67
692.813	3207.77
693.22	3278.06
693.626	3351.11
694.032	3398.26
694.439	3487.18
694.845	3546.86
