Data from C_2_DEC_CT_2N_Splice17_12-29-16-475.txt Node
Date: Sat Mar 14 12:29:16 EDT 2020
User: sa697716
Spectrometer: FLMS03696
Trigger mode: 0
Integration Time (sec): 3.180400E-1
Scans to average: 20
Electric dark correction enabled: true
Nonlinearity correction enabled: true
Boxcar width: 5
XAxis mode: Wavelengths
Number of Pixels in Spectrum: 2048
>>>>>Begin Spectral Data<<<<<
187.83	-308768.7
188.298	2205.16
188.766	1238.74
189.233	1125.59
189.701	1635.88
190.169	2148.53
190.636	829.76
191.104	692.45
191.571	138.64
192.039	5.48
192.506	45.58
192.974	590.48
193.441	-1040.42
193.908	-285.44
194.375	-51.16
194.842	68.09
195.31	63.72
195.777	188.17
196.244	404.38
196.711	435.67
197.177	524.86
197.644	715.23
198.111	1187.8
198.578	1689.57
199.045	1347.88
199.511	2207.61
199.978	2539.06
200.445	2142.23
200.911	2341.75
201.378	2589.55
201.844	2390.46
202.31	4150.77
202.777	4300.16
203.243	2401.86
203.709	2272.11
204.176	2735.17
204.642	2263.83
205.108	2141.58
205.574	1775.64
206.04	1604.99
206.506	1525.73
206.972	1417.57
207.438	1356.97
207.903	1557.75
208.369	1386.05
208.835	1385.65
209.301	1432.8
209.766	1465.22
210.232	1437.05
210.697	1770.47
211.163	2210.02
211.628	3309.07
212.094	2822.1
212.559	3514.75
213.024	2210.25
213.49	2702.72
213.955	2641.21
214.42	2607.31
214.885	2430.85
215.35	2336.01
215.815	2283.9
216.28	2444.37
216.745	2016.86
217.21	2196.23
217.675	2038.97
218.14	2318.24
218.604	2629.91
219.069	3058.58
219.534	3279.05
219.998	3866.29
220.463	4780.86
220.927	5952.23
221.392	5682.4
221.856	5817.67
222.32	7417.28
222.785	9219.33
223.249	11696.94
223.713	13154.67
224.177	13258.36
224.642	17097.01
225.106	21189.06
225.57	23281.45
226.034	17379.26
226.497	26543.71
226.961	24027.16
227.425	28110.49
227.889	31321.38
228.353	31400.1
228.816	64977.29
229.28	62416.96
229.744	52791.95
230.207	32162.78
230.671	31720.42
231.134	52701.97
231.597	60908.32
232.061	61016.9
232.524	59613.59
232.987	41136.59
233.45	37149.38
233.914	33390.29
234.377	34248.03
234.84	31363.44
235.303	37036.9
235.766	41378.5
236.229	42727.55
236.691	26936.63
237.154	30293.76
237.617	22809.12
238.08	23369.27
238.542	27384.76
239.005	19593.46
239.468	19455.82
239.93	18373.93
240.393	16688.42
240.855	14659.33
241.317	15044.12
241.78	18326.24
242.242	18979.53
242.704	20482.58
243.166	17860.57
243.629	16231.73
244.091	18738.69
244.553	20545.28
245.015	22088.57
245.477	28637.79
245.939	42074.06
246.4	44714.84
246.862	43508.2
247.324	41090.86
247.786	46122.46
248.247	60550.88
248.709	62568.38
249.17	46800.2
249.632	44189.54
250.093	51280.08
250.555	44335.5
251.016	27012.89
251.477	25652.64
251.939	27720.55
252.4	29082.55
252.861	34608.03
253.322	32211.86
253.783	38384.33
254.244	49817.6
254.705	39280.44
255.166	34950.53
255.627	34450.03
256.088	48654.8
256.549	51744.76
257.009	44607.12
257.47	54233.68
257.931	44243.8
258.391	33234.84
258.852	34294.51
259.312	36061.47
259.773	44698.09
260.233	37872.98
260.694	32020.88
261.154	36394.87
261.614	29244.56
262.074	26216.26
262.534	27281.89
262.994	25737.59
263.455	34357.44
263.915	29005.55
264.374	27371.72
264.834	29907.2
265.294	33221.13
265.754	34445.26
266.214	32701.02
266.673	30727.33
267.133	38837.39
267.593	38630.85
268.052	47424.37
268.512	41322.63
268.971	49948.59
269.431	54853.43
269.89	49204.96
270.349	73899.02
270.809	82617.21
271.268	74454.62
271.727	167303.96
272.186	108597.72
272.645	81612.57
273.104	58990.53
273.563	85500.22
274.022	67386.12
274.481	57471.89
274.94	44343.68
275.399	33025.23
275.857	38513.27
276.316	52122.6
276.775	46412.83
277.233	45782.3
277.692	42913.4
278.15	48537.62
278.609	49999.89
279.067	46296.23
279.525	42994.4
279.984	55624.88
280.442	66874.23
280.9	65921.41
281.358	43396.18
281.816	40487.55
282.274	39671.86
282.732	41016.43
283.19	41264.55
283.648	35639.01
284.106	38007.32
284.564	38702.36
285.021	35920.9
285.479	26774.87
285.937	24391.21
286.394	21433.45
286.852	22088.78
287.309	23228.75
287.767	22438.42
288.224	21364.02
288.682	23480.02
289.139	25772.66
289.596	23609.69
290.053	24559.66
290.511	31072.19
290.968	37747.37
291.425	51321.15
291.882	42770.2
292.339	37285.64
292.796	37072.05
293.252	34989.54
293.709	27803.31
294.166	24950.77
294.623	27611.87
295.079	26524.36
295.536	26663.97
295.992	24226.34
296.449	23951.57
296.905	24872.07
297.362	23851.58
297.818	25102.65
298.274	26058.44
298.731	26588.76
299.187	26340.86
299.643	28293.91
300.099	34271.27
300.555	37612.27
301.011	31448.69
301.467	30304.65
301.923	35551.57
302.379	34750.07
302.835	34167.82
303.291	34242.13
303.746	39022.64
304.202	49351.64
304.658	49597.48
305.113	33355.37
305.569	32697.17
306.024	34862.47
306.479	33279.42
306.935	28063.14
307.39	30677.58
307.845	28360.92
308.301	28527.65
308.756	27785.95
309.211	26764.96
309.666	27404.12
310.121	33999.78
310.576	34494.16
311.031	34249.12
311.486	39225.94
311.94	39225.67
312.395	52448.45
312.85	98569.62
313.305	484537.73
313.759	2509697.16
314.214	182009.52
314.668	144394.33
315.123	121575.47
315.577	43660.67
316.032	38833.91
316.486	48648.21
316.94	38409.26
317.394	26748.69
317.849	20801.72
318.303	19726.11
318.757	18611.19
319.211	20606.01
319.665	18078.46
320.119	18332.73
320.572	26332.86
321.026	24654.56
321.48	20571.09
321.934	22469.59
322.387	22567.77
322.841	24406.79
323.295	21942.94
323.748	25359.39
324.202	25731.32
324.655	30909.53
325.108	43189.06
325.562	30514.94
326.015	36304.9
326.468	27466.96
326.921	30755.59
327.374	28636.71
327.827	29802.49
328.28	33759.83
328.733	22602.89
329.186	19910.9
329.639	18992.15
330.092	16021.15
330.545	15276.03
330.997	15408.27
331.45	16807.56
331.903	19682.3
332.355	33952.84
332.808	33021.84
333.26	27236.1
333.713	29554.48
334.165	29746.79
334.617	39739.18
335.069	32162.79
335.522	58181.72
335.974	64421.37
336.426	58850.92
336.878	40820.58
337.33	20692.08
337.782	20212.38
338.234	25313.93
338.686	30327.48
339.137	35954.37
339.589	33859.05
340.041	26528.7
340.493	22798.87
340.944	23368.66
341.396	25240.49
341.847	21209.04
342.299	25016.63
342.75	30540.57
343.201	26752.6
343.653	30798.06
344.104	37913.35
344.555	29886.25
345.006	46565.05
345.457	35675.78
345.908	28389.51
346.359	26740.77
346.81	21813.39
347.261	23049.73
347.712	22743.93
348.163	24413.11
348.613	24705.05
349.064	23088.34
349.515	20217.34
349.965	20757.15
350.416	25012.69
350.866	27451
351.317	31014.41
351.767	51334.14
352.217	64809.34
352.668	53770.11
353.118	49284.03
353.568	47615.64
354.018	37609.88
354.468	39652.41
354.918	28404.64
355.368	24851.71
355.818	35062.76
356.268	101006.44
356.718	422572.01
357.168	105160.73
357.617	52815.38
358.067	58795.78
358.517	55121.46
358.966	64677.58
359.416	72602.6
359.865	78505.95
360.315	93582.7
360.764	43774.94
361.213	24560.7
361.663	23300.4
362.112	28819.12
362.561	46556.43
363.01	35066.18
363.459	29475.08
363.908	31907.19
364.357	27079.94
364.806	45795.02
365.255	31510.72
365.703	28862.11
366.152	28869.26
366.601	23406.14
367.05	18985.08
367.498	17243.03
367.947	18029.78
368.395	18768.89
368.844	16621.59
369.292	20052.96
369.74	13845.06
370.189	21196.17
370.637	24833
371.085	21413.08
371.533	26084.38
371.981	25148.1
372.429	23935.58
372.877	24908.43
373.325	20836.06
373.773	21227.27
374.221	18886.74
374.669	23429.13
375.116	20242.69
375.564	20400.07
376.012	22797.4
376.459	18790.45
376.907	22421.93
377.354	27156.13
377.801	25314.41
378.249	29057.95
378.696	37081.15
379.143	44873.03
379.591	47816.85
380.038	80816.57
380.485	58351.01
380.932	62899.46
381.379	57298.76
381.826	42143.16
382.273	29929.11
382.72	26177.03
383.166	25489.58
383.613	16523.93
384.06	14878.95
384.506	17213.16
384.953	12622.11
385.4	12698.97
385.846	11124.19
386.292	10854.23
386.739	10612.49
387.185	10470.95
387.631	10452.56
388.078	10140.28
388.524	10845.16
388.97	10016.83
389.416	8339.57
389.862	8857.73
390.308	8392.9
390.754	8529.26
391.2	9260.27
391.645	9477.07
392.091	9059.34
392.537	8753.66
392.983	8758.93
393.428	8601.17
393.874	9213.52
394.319	9241.38
394.765	8768.34
395.21	8999.29
395.655	8432.24
396.101	7900.73
396.546	7126.98
396.991	7202.37
397.436	6700.06
397.881	6476.36
398.326	6138.15
398.771	5805.52
399.216	5074.79
399.661	4574.74
400.106	4567.9
400.551	4678.96
400.995	4196.1
401.44	4158.68
401.885	3908.1
402.329	3953.75
402.774	3801.9
403.218	3683.63
403.663	3561.15
404.107	3669.17
404.551	3698.71
404.995	3397.7
405.44	3279.48
405.884	3338.6
406.328	3238.13
406.772	3235.25
407.216	2947.87
407.66	2848.45
408.104	2711.73
408.547	2536.39
408.991	2456.76
409.435	2368.91
409.879	2332.89
410.322	2302.92
410.766	2223.7
411.209	2116.53
411.653	2032.68
412.096	1992.49
412.54	1993.15
412.983	1982.14
413.426	1989.44
413.869	1989.01
414.312	1952.59
414.756	1884.87
415.199	1799.83
415.642	1750.3
416.085	1753.23
416.527	1743.95
416.97	1771.64
417.413	1683.67
417.856	1668.04
418.298	1651.97
418.741	1641.65
419.184	1640.35
419.626	1714.47
420.069	1717.72
420.511	1725.24
420.953	1688.92
421.396	1672.43
421.838	1632.4
422.28	1671.57
422.722	1679.92
423.164	1706.11
423.606	1679.75
424.048	1675.88
424.49	1590.41
424.932	1582.7
425.374	1563.41
425.816	1591.97
426.258	1620.94
426.699	1636.43
427.141	1611.29
427.582	1636.09
428.024	1624.75
428.465	1614.61
428.907	1574.01
429.348	1552.74
429.789	1550.25
430.231	1513.44
430.672	1531.07
431.113	1496.71
431.554	1474.32
431.995	1437.57
432.436	1382.72
432.877	1351.02
433.318	1323.96
433.759	1317.95
434.2	1316.3
434.64	1297.73
435.081	1300.29
435.522	1228.26
435.962	1181.29
436.403	1152.95
436.843	1166.95
437.284	1140.89
437.724	1107.89
438.164	1111.36
438.604	1085.04
439.045	1043.76
439.485	1001.76
439.925	981.38
440.365	955.74
440.805	940.87
441.245	928.57
441.685	891.61
442.125	884.43
442.564	890.62
443.004	868.96
443.444	864.15
443.883	864.02
444.323	855.32
444.762	855.17
445.202	866.76
445.641	880.29
446.081	872.51
446.52	879.49
446.959	866.99
447.398	843.22
447.837	832.07
448.276	816.42
448.716	821.32
449.154	828.73
449.593	807.9
450.032	803.02
450.471	788.09
450.91	789.88
451.349	788.51
451.787	785.13
452.226	797.52
452.664	796.55
453.103	798.6
453.541	798
453.98	795.19
454.418	799.99
454.856	787.5
455.295	784.61
455.733	790.79
456.171	795.21
456.609	796.73
457.047	796.08
457.485	807.26
457.923	808.37
458.361	797.91
458.798	801.36
459.236	798.89
459.674	805.42
460.111	809.96
460.549	800.88
460.987	797
461.424	794.05
461.862	790.25
462.299	777.61
462.736	774.65
463.173	776.49
463.611	767.82
464.048	767.07
464.485	772.94
464.922	766.77
465.359	762.41
465.796	752.44
466.233	746.28
466.67	738.94
467.106	736.88
467.543	731.15
467.98	722.18
468.416	704.27
468.853	697.78
469.29	676.62
469.726	668.95
470.162	652.08
470.599	643.75
471.035	638.45
471.471	623.65
471.907	621.1
472.344	617.81
472.78	618.2
473.216	625.12
473.652	617.77
474.088	615.83
474.523	613.43
474.959	617.94
475.395	610.81
475.831	608.48
476.266	611.19
476.702	609.31
477.138	601.79
477.573	601.1
478.008	597.88
478.444	601.05
478.879	606.59
479.314	609.99
479.75	610.31
480.185	613.71
480.62	617.98
481.055	620.93
481.49	625.29
481.925	634.84
482.36	644.96
482.795	663.36
483.229	680.78
483.664	695.76
484.099	697.79
484.534	708.39
484.968	716.13
485.403	718.87
485.837	718.69
486.271	717.51
486.706	718.06
487.14	710.39
487.574	699.3
488.009	692.31
488.443	685.63
488.877	692.58
489.311	694.99
489.745	702.31
490.179	708.8
490.613	721.73
491.046	727.59
491.48	732.97
491.914	733.83
492.348	739.35
492.781	744.18
493.215	745.84
493.648	747.17
494.082	752.16
494.515	752.82
494.948	760.3
495.382	764.72
495.815	768.81
496.248	774.26
496.681	786.64
497.114	797.96
497.547	808.45
497.98	821.61
498.413	826.75
498.846	836.13
499.279	844.4
499.711	847.64
500.144	849.46
500.577	859.62
501.009	870.61
501.442	880.39
501.874	880.8
502.306	882.28
502.739	889.54
503.171	904.53
503.603	907.57
504.036	916.06
504.468	920.76
504.9	930.69
505.332	937.28
505.764	939.7
506.196	945.7
506.627	958.86
507.059	970.8
507.491	978.51
507.923	974.23
508.354	987.45
508.786	995.76
509.217	1012.27
509.649	1025.44
510.08	1041.84
510.512	1057.37
510.943	1070.09
511.374	1079.98
511.805	1098.07
512.237	1114.79
512.668	1145.19
513.099	1169.26
513.53	1195.04
513.961	1212.62
514.391	1241.35
514.822	1272.02
515.253	1303.74
515.684	1325.7
516.114	1350.91
516.545	1366.79
516.975	1388.59
517.406	1402.38
517.836	1401.93
518.267	1404.38
518.697	1418.73
519.127	1419.88
519.558	1423.44
519.988	1423.39
520.418	1430.89
520.848	1444.57
521.278	1450.42
521.708	1467.52
522.138	1476.59
522.567	1503.63
522.997	1525.1
523.427	1536.9
523.857	1550.03
524.286	1555.8
524.716	1567.68
525.145	1582.62
525.575	1589.85
526.004	1602.17
526.433	1589
526.863	1587.69
527.292	1576.57
527.721	1579.45
528.15	1583.04
528.579	1582.26
529.008	1591
529.437	1609.93
529.866	1620.85
530.295	1636.45
530.724	1645.56
531.152	1670.38
531.581	1681.27
532.01	1696.36
532.438	1703.88
532.867	1716.57
533.295	1732.94
533.723	1738.36
534.152	1736.63
534.58	1735.7
535.008	1719
535.436	1720.15
535.865	1726.09
536.293	1739.35
536.721	1753.93
537.149	1777.21
537.576	1779.31
538.004	1789.97
538.432	1796.45
538.86	1794.5
539.287	1799.87
539.715	1813.46
540.143	1815.63
540.57	1812.43
540.998	1808.83
541.425	1786.34
541.852	1765.76
542.28	1763.76
542.707	1747.54
543.134	1733.6
543.561	1729.31
543.988	1722
544.415	1721.28
544.842	1716.21
545.269	1708.77
545.696	1709.71
546.123	1721.45
546.549	1711.69
546.976	1699.58
547.403	1699.48
547.829	1702.07
548.256	1703.15
548.682	1700.41
549.108	1693.77
549.535	1693.33
549.961	1695.24
550.387	1682.83
550.813	1677.69
551.24	1682.7
551.666	1683.49
552.092	1674.68
552.518	1667.73
552.943	1662.82
553.369	1669.73
553.795	1674.54
554.221	1675.51
554.646	1671.96
555.072	1683.4
555.498	1687.89
555.923	1697.17
556.349	1710.78
556.774	1719.64
557.199	1721.64
557.625	1726.91
558.05	1722.63
558.475	1732.97
558.9	1732.17
559.325	1726.17
559.75	1720.49
560.175	1715.34
560.6	1709.74
561.025	1708.46
561.449	1710.23
561.874	1716.09
562.299	1721.6
562.723	1729.13
563.148	1720.79
563.572	1725.94
563.997	1736.7
564.421	1743.58
564.846	1744.09
565.27	1748.78
565.694	1748.67
566.118	1761.21
566.542	1770.84
566.966	1766.31
567.39	1764.13
567.814	1755.09
568.238	1757.18
568.662	1764.32
569.086	1767.58
569.509	1777.09
569.933	1764.43
570.357	1759.38
570.78	1741.11
571.204	1729.86
571.627	1721.87
572.05	1720.64
572.474	1722.86
572.897	1712.03
573.32	1705.28
573.743	1698.69
574.166	1682.87
574.589	1685.24
575.012	1680.68
575.435	1681.52
575.858	1674.37
576.281	1664.54
576.704	1651.47
577.126	1638.9
577.549	1629.87
577.972	1620.65
578.394	1610.17
578.817	1605.5
579.239	1588.34
579.661	1575.81
580.084	1562.34
580.506	1550.78
580.928	1548.32
581.35	1538.71
581.772	1536.51
582.194	1524.65
582.616	1514.01
583.038	1501.69
583.46	1491.87
583.882	1489.52
584.303	1493.29
584.725	1488.77
585.147	1491.86
585.568	1504.19
585.99	1517.04
586.411	1525.46
586.833	1540.98
587.254	1543.62
587.675	1558.93
588.096	1572.7
588.518	1568.12
588.939	1553.54
589.36	1553.12
589.781	1543.51
590.202	1515.9
590.623	1507.78
591.043	1505.32
591.464	1492.43
591.885	1489.67
592.305	1484.25
592.726	1470.99
593.147	1472.82
593.567	1467.3
593.987	1459.43
594.408	1453.77
594.828	1451.2
595.248	1446.02
595.669	1428.34
596.089	1421.95
596.509	1415.2
596.929	1402.12
597.349	1402.3
597.769	1392.56
598.189	1387.58
598.608	1388.94
599.028	1392.18
599.448	1392.75
599.867	1379.85
600.287	1376.04
600.706	1372.52
601.126	1363.62
601.545	1362.51
601.965	1362.74
602.384	1358.55
602.803	1362.23
603.222	1358.33
603.641	1351.9
604.061	1348.92
604.48	1345.07
604.898	1353.48
605.317	1358.54
605.736	1360.93
606.155	1358.76
606.574	1349.77
606.992	1355.49
607.411	1351.1
607.829	1343.66
608.248	1341.22
608.666	1339.12
609.085	1340.14
609.503	1333.52
609.921	1328.34
610.339	1331.45
610.758	1331.91
611.176	1328.18
611.594	1320.52
612.012	1316.78
612.43	1321.52
612.847	1328.93
613.265	1330.68
613.683	1336.46
614.101	1336.37
614.518	1333.49
614.936	1324.57
615.353	1310.58
615.771	1308.92
616.188	1309.43
616.606	1307.4
617.023	1300.61
617.44	1287.29
617.857	1282.12
618.274	1274.4
618.691	1270.14
619.108	1260.94
619.525	1254.82
619.942	1263.54
620.359	1266
620.776	1261.79
621.192	1257.89
621.609	1256.13
622.026	1263.35
622.442	1268.35
622.859	1271.18
623.275	1265.18
623.691	1272.15
624.108	1285.04
624.524	1299.75
624.94	1300.92
625.356	1310.27
625.772	1324.62
626.188	1337.53
626.604	1338.69
627.02	1335.74
627.436	1333.67
627.852	1340.37
628.268	1351.39
628.683	1343.11
629.099	1333.72
629.514	1328.14
629.93	1332.83
630.345	1336.58
630.761	1332.06
631.176	1336.82
631.591	1331.96
632.007	1327.41
632.422	1326.01
632.837	1316.23
633.252	1312.99
633.667	1302.76
634.082	1295.35
634.497	1283.34
634.911	1265.1
635.326	1262.65
635.741	1245.43
636.155	1235.74
636.57	1237.97
636.984	1238.73
637.399	1242.02
637.813	1242.02
638.228	1242.59
638.642	1247.32
639.056	1237.6
639.47	1240.05
639.884	1234.15
640.298	1229.21
640.712	1230.12
641.126	1218.34
641.54	1210.74
641.954	1205.04
642.368	1195.25
642.781	1189.34
643.195	1171.85
643.609	1174.51
644.022	1168.97
644.436	1164.53
644.849	1153.29
645.262	1140.99
645.676	1142.72
646.089	1139.18
646.502	1126.07
646.915	1121.39
647.328	1103.95
647.741	1103.29
648.154	1090.35
648.567	1088.63
648.98	1074.98
649.393	1075.84
649.805	1072.45
650.218	1066.07
650.631	1048.7
651.043	1042.38
651.456	1036
651.868	1037
652.28	1054.59
652.693	1068.5
653.105	1074.52
653.517	1084.92
653.929	1085.51
654.341	1091.55
654.753	1079.62
655.165	1087.49
655.577	1085.4
655.989	1082.39
656.401	1075.26
656.813	1038.62
657.224	1018.25
657.636	988.76
658.047	971.79
658.459	952.62
658.87	944.7
659.282	932.17
659.693	911.86
660.104	898.13
660.515	884.47
660.926	883.78
661.338	882.79
661.749	877.22
662.159	868.35
662.57	863.55
662.981	860.09
663.392	852.12
663.803	857.14
664.213	853.64
664.624	848.69
665.035	851.16
665.445	835.61
665.855	826.41
666.266	819.09
666.676	817.85
667.086	807.79
667.497	804.92
667.907	798.46
668.317	788.83
668.727	786.63
669.137	787.41
669.547	785.9
669.956	789.24
670.366	791.39
670.776	791.38
671.186	794.54
671.595	798.94
672.005	802.94
672.414	802.39
672.824	800.38
673.233	803.3
673.642	804.46
674.052	806.31
674.461	807.43
674.87	811.66
675.279	809.58
675.688	810.05
676.097	809.86
676.506	805.53
676.915	819.53
677.323	822.34
677.732	820.24
678.141	818.64
678.549	806.03
678.958	804.43
679.366	803.23
679.775	807.13
680.183	817.72
680.592	823.44
681	829.54
681.408	821.07
681.816	827.2
682.224	835.51
682.632	846.28
683.04	876.61
683.448	900.31
683.856	930.43
684.264	964.77
684.671	996.46
685.079	1035.87
685.487	1078.46
685.894	1141.53
686.302	1191.19
686.709	1230.35
687.116	1277.13
687.524	1315.65
687.931	1347.53
688.338	1371.66
688.745	1391.27
689.152	1413.85
689.559	1448.82
689.966	1483.21
690.373	1492.73
690.78	1521.86
691.187	1573.98
691.593	1609.78
692	1638.25
692.407	1686.13
692.813	1749.52
693.22	1798.08
693.626	1846.74
694.032	1883.37
694.439	1944.65
694.845	1990.39
695.251	2054.23
695.657	2106.6
