Data from C_2_DIV_PA_2N_Splice17_12-40-08-846.txt Node
Date: Sat Mar 14 12:40:08 EDT 2020
User: sa697716
Spectrometer: FLMS03696
Trigger mode: 0
Integration Time (sec): 3.180400E-1
Scans to average: 20
Electric dark correction enabled: true
Nonlinearity correction enabled: true
Boxcar width: 5
XAxis mode: Wavelengths
Number of Pixels in Spectrum: 2048
>>>>>Begin Spectral Data<<<<<
187.83	-452850.31
188.298	3224.35
188.766	1718.08
189.233	1527.04
189.701	1982.78
190.169	2806.88
190.636	1012.35
191.104	797.64
191.571	109.5
192.039	-94.58
192.506	-93.24
192.974	565.96
193.441	-1002.15
193.908	-216.95
194.375	-90.14
194.842	-98.01
195.31	-31.55
195.777	125.97
196.244	352.94
196.711	365.53
197.177	465.06
197.644	645.85
198.111	1101.02
198.578	1539.82
199.045	1232.68
199.511	2003.21
199.978	2253.09
200.445	1970.11
200.911	2119.94
201.378	2313.88
201.844	2140.49
202.31	3671.43
202.777	3816.06
203.243	2148
203.709	2055.1
204.176	2441.13
204.642	2018.81
205.108	1922.08
205.574	1552.61
206.04	1420.27
206.506	1351.26
206.972	1256.88
207.438	1203.48
207.903	1387.08
208.369	1224.02
208.835	1231.9
209.301	1287.66
209.766	1311.93
210.232	1306.36
210.697	1612.05
211.163	1990.34
211.628	2969.83
212.094	2530.44
212.559	3171.44
213.024	1973.24
213.49	2414.66
213.955	2359.05
214.42	2287.39
214.885	2126.06
215.35	2045.34
215.815	2006.99
216.28	2151.34
216.745	1758.39
217.21	1907.64
217.675	1729.1
218.14	1971.32
218.604	2217.37
219.069	2563.07
219.534	2761.24
219.998	3252.77
220.463	3996.93
220.927	4930.86
221.392	4681.36
221.856	4791.39
222.32	6066
222.785	7566
223.249	9582.4
223.713	10728.06
224.177	10765.47
224.642	13815.91
225.106	17048.46
225.57	18615.46
226.034	13914.09
226.497	21229.04
226.961	19209.59
227.425	22475.92
227.889	25013.94
228.353	25032.05
228.816	51766.04
229.28	49656.75
229.744	41967.97
230.207	25579.84
230.671	25206.2
231.134	41755.18
231.597	48278.42
232.061	48321.42
232.524	47171.38
232.987	32517.1
233.45	29308.46
233.914	26374.39
234.377	27057.09
234.84	24793.19
235.303	29266.55
235.766	32778.97
236.229	33932.56
236.691	21385
237.154	24053.89
237.617	18137.66
238.08	18624.3
238.542	21827.07
239.005	15632.71
239.468	15542.41
239.93	14668.45
240.393	13352.3
240.855	11731.82
241.317	12029.66
241.78	14657.98
242.242	15202.78
242.704	16458.19
243.166	14339.97
243.629	13057.02
244.091	15070.61
244.553	16540.26
245.015	17811.49
245.477	23083.71
245.939	33896.16
246.4	36013.17
246.862	35048.99
247.324	33081.59
247.786	37022.99
248.247	48591.67
248.709	50244.28
249.17	37609.58
249.632	35506.84
250.093	41256.71
250.555	35679.32
251.016	21796.31
251.477	20716.77
251.939	22394
252.4	23521.42
252.861	28005.02
253.322	26096.64
253.783	31093.67
254.244	40321.9
254.705	31820.09
255.166	28304.22
255.627	27869.24
256.088	39356.67
256.549	41792.75
257.009	35989.18
257.47	43670.02
257.931	35547.3
258.391	26626.94
258.852	27453.55
259.312	28812.81
259.773	35588.62
260.233	30109.79
260.694	25416.51
261.154	28824.93
261.614	23160.1
262.074	20755.31
262.534	21581.65
262.994	20361.05
263.455	27142.15
263.915	22883.63
264.374	21564.05
264.834	23563.77
265.294	26122.27
265.754	27083.24
266.214	25645.69
266.673	24059.22
267.133	30337.38
267.593	30121.24
268.052	36877.97
268.512	32121.17
268.971	38779.99
269.431	42555.38
269.89	38135.43
270.349	57196.29
270.809	63850.31
271.268	57429.09
271.727	128817.25
272.186	83476.51
272.645	62661.16
273.104	45219.29
273.563	65436.2
274.022	51367.66
274.481	43720.03
274.94	33657.56
275.399	25015.54
275.857	29113.14
276.316	39365.49
276.775	35002.49
277.233	34494.88
277.692	32271.67
278.15	36516.16
278.609	37578.02
279.067	34806.15
279.525	32313.21
279.984	41769.59
280.442	50181.87
280.9	49458.02
281.358	32538.08
281.816	30337.39
282.274	29692.91
282.732	30643.28
283.19	30785.1
283.648	26542.87
284.106	28277.75
284.564	28753.66
285.021	26653.71
285.479	19855.23
285.937	18037.99
286.394	15828.07
286.852	16275.03
287.309	17081.34
287.767	16530.5
288.224	15714.78
288.682	17251.53
289.139	18939.49
289.596	17330.75
290.053	17997.03
290.511	22719.57
290.968	27601.17
291.425	37480.18
291.882	31223.91
292.339	27194.64
292.796	26988.86
293.252	25456.25
293.709	20249.3
294.166	18170.26
294.623	20103.75
295.079	19332.27
295.536	19451.6
295.992	17665.5
296.449	17476.44
296.905	18147.95
297.362	17432.92
297.818	18352.26
298.274	19059.82
298.731	19421.04
299.187	19208.52
299.643	20647.3
300.099	24947.63
300.555	27367.49
301.011	22871.55
301.467	22089.28
301.923	25910.64
302.379	25331.32
302.835	24870.68
303.291	24889.1
303.746	28321.92
304.202	35773.18
304.658	35938.17
305.113	24186.57
305.569	23696.85
306.024	25268.98
306.479	23993.07
306.935	20231.68
307.39	22068.41
307.845	20385.45
308.301	20524.66
308.756	19991.53
309.211	19276.3
309.666	19710.23
310.121	24459.46
310.576	24794.13
311.031	24591.81
311.486	28199.68
311.94	28145.39
312.395	37625.46
312.85	70671.36
313.305	346676.8
313.759	1797235.44
314.214	130177.71
314.668	103385.15
315.123	87023.93
315.577	31211.85
316.032	27739.93
316.486	34713.98
316.94	27426.9
317.394	19094.06
317.849	14867.34
318.303	14086.02
318.757	13291.83
319.211	14711.25
319.665	12857.47
320.119	13022.54
320.572	18699.02
321.026	17488.7
321.48	14601.21
321.934	15923.93
322.387	15981.04
322.841	17245.73
323.295	15529.46
323.748	17913.22
324.202	18186.74
324.655	21873
325.108	30590.36
325.562	21637.72
326.015	25716.97
326.468	19407.83
326.921	21709.53
327.374	20245.71
327.827	21092.65
328.28	23895.42
328.733	16019.87
329.186	14090.45
329.639	13447.26
330.092	11336.15
330.545	10803.03
330.997	10907.07
331.45	11935.27
331.903	13995.51
332.355	24059.13
332.808	23386.6
333.26	19278
333.713	20903.49
334.165	21020.1
334.617	28041.93
335.069	22635
335.522	40910.37
335.974	45372.92
336.426	41418.8
336.878	28675.74
337.33	14546.07
337.782	14220.71
338.234	17812.55
338.686	21280.91
339.137	25280.07
339.589	23802.64
340.041	18648.24
340.493	16042.66
340.944	16389.21
341.396	17672.24
341.847	14873.35
342.299	17598.16
342.75	21489.79
343.201	18752.03
343.653	21621.76
344.104	26577.99
344.555	20928.18
345.006	32641.53
345.457	25048.94
345.908	19934.4
346.359	18788.88
346.81	15313.51
347.261	16148.64
347.712	15899.27
348.163	17079.5
348.613	17306.84
349.064	16151.04
349.515	14142.08
349.965	14500.62
350.416	17436.74
350.866	19167.69
351.317	21634.31
351.767	35831.14
352.217	45232.25
352.668	37621.01
353.118	34479.78
353.568	33202.95
354.018	26271.22
354.468	27728.41
354.918	19899.49
355.368	17399.23
355.818	24586.54
356.268	70877.44
356.718	297080.28
357.168	73899.76
357.617	37011.73
358.067	41167.65
358.517	38640.66
358.966	45352.31
359.416	50940.59
359.865	55031.57
360.315	65510.37
360.764	30578.93
361.213	17102.71
361.663	16191.52
362.112	20022.82
362.561	32359.8
363.01	24432.83
363.459	20617.87
363.908	22344.77
364.357	18985.73
364.806	32064.99
365.255	22089.49
365.703	20232.9
366.152	20293.86
366.601	16462.33
367.05	13358.94
367.498	12140.08
367.947	12679.7
368.395	13146.54
368.844	11630.36
369.292	13996.41
369.74	9690.33
370.189	14812.03
370.637	17347.43
371.085	14987.61
371.533	18237.69
371.981	17564.95
372.429	16748.97
372.877	17415.76
373.325	14588.13
373.773	14837.49
374.221	13212.22
374.669	16344.67
375.116	14129
375.564	14236.29
376.012	15886.53
376.459	13099.27
376.907	15664.67
377.354	18907.59
377.801	17685.69
378.249	20314.3
378.696	25963.77
379.143	31382.05
379.591	33450.4
380.038	56600.84
380.485	40932.78
380.932	44102.07
381.379	40337.77
381.826	29653.37
382.273	21094.78
382.72	18376.11
383.166	17877.32
383.613	11592.41
384.06	10457.06
384.506	12091.7
384.953	8863.66
385.4	8905.08
385.846	7806.07
386.292	7588.04
386.739	7417.92
387.185	7314.88
387.631	7313.92
388.078	7096.9
388.524	7574.65
388.97	6978.64
389.416	5806.35
389.862	6159.57
390.308	5831.61
390.754	5905.55
391.2	6399.69
391.645	6538.55
392.091	6259.26
392.537	6044
392.983	6027.13
393.428	5924.31
393.874	6336.63
394.319	6363.68
394.765	6028.23
395.21	6183.63
395.655	5793.26
396.101	5423.3
396.546	4887.48
396.991	4920.24
397.436	4564.47
397.881	4417.2
398.326	4175.42
398.771	3954.64
399.216	3448.58
399.661	3110.27
400.106	3104.26
400.551	3183.6
400.995	2852.27
401.44	2822.33
401.885	2654.14
402.329	2683.17
402.774	2574.77
403.218	2503.78
403.663	2416.09
404.107	2492.53
404.551	2516.45
404.995	2307.8
405.44	2225.78
405.884	2266.31
406.328	2197.17
406.772	2193.4
407.216	2005.05
407.66	1946.61
408.104	1848.87
408.547	1734.27
408.991	1685.61
409.435	1625.04
409.879	1611.52
410.322	1591.65
410.766	1544.41
411.209	1476.09
411.653	1421.76
412.096	1398.87
412.54	1400.68
412.983	1397.24
413.426	1407.02
413.869	1408.01
414.312	1385.39
414.756	1336.23
415.199	1281.3
415.642	1246.21
416.085	1250.59
416.527	1246.4
416.97	1267.46
417.413	1205.49
417.856	1194.84
418.298	1186.03
418.741	1182.77
419.184	1185.81
419.626	1238.26
420.069	1244.52
420.511	1258.77
420.953	1237.19
421.396	1231.03
421.838	1202.96
422.28	1235.63
422.722	1248.46
423.164	1269.28
423.606	1249.25
424.048	1248.7
424.49	1191.23
424.932	1186.59
425.374	1169.42
425.816	1192.53
426.258	1218.05
426.699	1235.58
427.141	1221.26
427.582	1239.63
428.024	1236.87
428.465	1234.23
428.907	1205.49
429.348	1192.57
429.789	1194.2
430.231	1171.39
430.672	1186.21
431.113	1157.39
431.554	1141.32
431.995	1113.87
432.436	1077.37
432.877	1050.88
433.318	1032.5
433.759	1028.09
434.2	1028.65
434.64	1016.87
435.081	1020.09
435.522	965.86
435.962	929.82
436.403	907.78
436.843	919.05
437.284	897.6
437.724	874.06
438.164	874.65
438.604	857.29
439.045	823
439.485	790.77
439.925	772.71
440.365	754.18
440.805	743.64
441.245	736.12
441.685	707.34
442.125	700.46
442.564	705.3
443.004	687.67
443.444	682.3
443.883	683.68
444.323	676.55
444.762	675.73
445.202	681.86
445.641	695.42
446.081	687.82
446.52	691.86
446.959	684.37
447.398	665.58
447.837	656.75
448.276	642.66
448.716	644.77
449.154	648.36
449.593	632.1
450.032	629.67
450.471	614.52
450.91	613.3
451.349	611.53
451.787	606.93
452.226	614.24
452.664	614.28
453.103	617.39
453.541	615.9
453.98	613.8
454.418	618.74
454.856	608.96
455.295	607.96
455.733	611.96
456.171	613.95
456.609	615.85
457.047	615.77
457.485	623.37
457.923	622.69
458.361	614.24
458.798	615.59
459.236	611.94
459.674	614.83
460.111	617.28
460.549	611.21
460.987	608.45
461.424	605.98
461.862	602.32
462.299	592.72
462.736	592.63
463.173	594.49
463.611	589.76
464.048	589.67
464.485	596.27
464.922	590.89
465.359	587.42
465.796	584.12
466.233	580.45
466.67	576.58
467.106	576.01
467.543	571.57
467.98	564.19
468.416	547.87
468.853	542.35
469.29	525.34
469.726	519.43
470.162	506.44
470.599	495.96
471.035	490.05
471.471	477.62
471.907	473.16
472.344	468.04
472.78	469.23
473.216	475.12
473.652	469.57
474.088	467.7
474.523	466.21
474.959	469.95
475.395	465.83
475.831	462.57
476.266	464.68
476.702	463.95
477.138	459.11
477.573	456.92
478.008	455
478.444	457.77
478.879	462.42
479.314	463.91
479.75	463.58
480.185	464.89
480.62	468.8
481.055	471.13
481.49	474.2
481.925	480.76
482.36	490.56
482.795	503.57
483.229	515.21
483.664	525.07
484.099	526.79
484.534	534.43
484.968	539.16
485.403	539.97
485.837	538.73
486.271	537.09
486.706	537
487.14	528.42
487.574	519.22
488.009	514.2
488.443	507.49
488.877	512.01
489.311	511.55
489.745	517.07
490.179	519.95
490.613	528.19
491.046	530.69
491.48	532.67
491.914	532.66
492.348	535
492.781	535.79
493.215	535.53
493.648	533.32
494.082	535.43
494.515	532.26
494.948	536.74
495.382	536.71
495.815	537.29
496.248	538.08
496.681	543.51
497.114	547.98
497.547	551.9
497.98	559.15
498.413	560.69
498.846	565.16
499.279	568.17
499.711	566.65
500.144	564
500.577	568.73
501.009	573.19
501.442	577.11
501.874	574.78
502.306	572.01
502.739	574.09
503.171	579.24
503.603	576.28
504.036	578.17
504.468	578.12
504.9	581.7
505.332	580.39
505.764	578.29
506.196	577.21
506.627	581.35
507.059	585.89
507.491	583.73
507.923	578.69
508.354	583.57
508.786	585.39
509.217	591.2
509.649	596.38
510.08	602.75
510.512	608.88
510.943	614.38
511.374	617.13
511.805	624.45
512.237	632.8
512.668	646.44
513.099	658.28
513.53	670.36
513.961	679.97
514.391	694.79
514.822	712.79
515.253	730.4
515.684	740.72
516.114	755.13
516.545	765.06
516.975	776.89
517.406	785.82
517.836	785.09
518.267	787.75
518.697	795.96
519.127	796.8
519.558	798.07
519.988	797.89
520.418	802.87
520.848	810.88
521.278	815.42
521.708	848.78
522.138	856.18
522.567	872.7
522.997	886.1
523.427	894.19
523.857	903.64
524.286	909.75
524.716	919.26
525.145	930.6
525.575	937.97
526.004	946.15
526.433	920.28
526.863	920.12
527.292	917.02
527.721	921.46
528.15	925.38
528.579	926.86
529.008	934.09
529.437	947.05
529.866	955.99
530.295	966.29
530.724	974.78
531.152	990.09
531.581	999.88
532.01	1010.05
532.438	1015.71
532.867	1025.2
533.295	1037.28
533.723	1041.34
534.152	1042.23
534.58	1043.38
535.008	1034.89
535.436	1037.29
535.865	1042.34
536.293	1050.46
536.721	1059.8
537.149	1075.23
537.576	1077.82
538.004	1084.92
538.432	1089.63
538.86	1089.04
539.287	1093.26
539.715	1101.91
540.143	1103.04
540.57	1101.86
540.998	1099.48
541.425	1088.33
541.852	1076.16
542.28	1075.04
542.707	1066.35
543.134	1059.99
543.561	1057.97
543.988	1054.23
544.415	1053.84
544.842	1051.33
545.269	1048.28
545.696	1051.2
546.123	1058.67
546.549	1052.51
546.976	1045.8
547.403	1045.86
547.829	1046.06
548.256	1046.83
548.682	1045.04
549.108	1042.47
549.535	1043.12
549.961	1043.39
550.387	1035.68
550.813	1033.36
551.24	1037.54
551.666	1037.93
552.092	1032.3
552.518	1029.16
552.943	1025.97
553.369	1030.04
553.795	1033.09
554.221	1032.11
554.646	1031.4
555.072	1038.42
555.498	1039.6
555.923	1045.54
556.349	1054.49
556.774	1060.33
557.199	1061.13
557.625	1064.85
558.05	1060.75
558.475	1066.34
558.9	1066.51
559.325	1062.19
559.75	1057.68
560.175	1053.37
560.6	1048.93
561.025	1047.42
561.449	1048.01
561.874	1050.52
562.299	1053.15
562.723	1057.8
563.148	1050.96
563.572	1052.57
563.997	1056.91
564.421	1059.63
564.846	1060.62
565.27	1062.72
565.694	1060.97
566.118	1066.02
566.542	1071.51
566.966	1066.77
567.39	1064.29
567.814	1058.57
568.238	1057.91
568.662	1060.3
569.086	1061.46
569.509	1064.55
569.933	1055.61
570.357	1050.33
570.78	1038.57
571.204	1030.67
571.627	1025.13
572.05	1023.81
572.474	1023.27
572.897	1016.1
573.32	1012.32
573.743	1007.29
574.166	997.65
574.589	997.91
575.012	994.16
575.435	993.22
575.858	986.53
576.281	979.65
576.704	969.63
577.126	963.74
577.549	957.79
577.972	951.84
578.394	945.45
578.817	942.3
579.239	931.04
579.661	924.07
580.084	915.8
580.506	909.19
580.928	906.69
581.35	901.11
581.772	897.79
582.194	890.57
582.616	883.08
583.038	874.86
583.46	868.06
583.882	866.48
584.303	867.58
584.725	864.59
585.147	869.63
585.568	876.15
585.99	883.43
586.411	888.23
586.833	897.31
587.254	899.07
587.675	906.55
588.096	914.06
588.518	912.15
588.939	903.98
589.36	903.37
589.781	893.32
590.202	880.2
590.623	875.24
591.043	873.44
591.464	866.21
591.885	864.18
592.305	861.23
592.726	852.77
593.147	853.09
593.567	850.44
593.987	845.75
594.408	842.53
594.828	839.42
595.248	836.85
595.669	827.77
596.089	823.91
596.509	819.99
596.929	813.33
597.349	815.07
597.769	809.63
598.189	806.1
598.608	807.66
599.028	809.98
599.448	809.77
599.867	801.94
600.287	797.94
600.706	795.83
601.126	791.21
601.545	790.52
601.965	789.82
602.384	786.86
602.803	788.54
603.222	785.67
603.641	781.1
604.061	779.54
604.48	777.71
604.898	783.2
605.317	786.45
605.736	787.84
606.155	787.44
606.574	781.58
606.992	784.39
607.411	782.01
607.829	777.37
608.248	775.75
608.666	774.41
609.085	774.52
609.503	769.02
609.921	765.61
610.339	765.85
610.758	764.58
611.176	763.38
611.594	758.87
612.012	757.08
612.43	760.09
612.847	763.84
613.265	765.72
613.683	768.31
614.101	770.15
614.518	767.99
614.936	763.66
615.353	756.01
615.771	753.76
616.188	754.37
616.606	752.29
617.023	748.23
617.44	741.18
617.857	736.72
618.274	731.26
618.691	729.49
619.108	724.42
619.525	720.92
619.942	725.96
620.359	728.92
620.776	725.89
621.192	725.01
621.609	723.73
622.026	728.18
622.442	731.67
622.859	734.17
623.275	728.93
623.691	732.11
624.108	739.64
624.524	747.55
624.94	746.81
625.356	753.42
625.772	760.68
626.188	768.37
626.604	770.47
627.02	768.18
627.436	768.37
627.852	772.86
628.268	780.29
628.683	774.92
629.099	770.27
629.514	767.81
629.93	770.11
630.345	773.19
630.761	770.23
631.176	771.67
631.591	769.81
632.007	766.74
632.422	766.09
632.837	759.64
633.252	759.58
633.667	753.84
634.082	749.36
634.497	743.11
634.911	734.11
635.326	733.73
635.741	724.84
636.155	720.21
636.57	723.06
636.984	723.93
637.399	728.75
637.813	728.72
638.228	731.34
638.642	735.77
639.056	731.27
639.47	732.33
639.884	730.47
640.298	729.59
640.712	732.41
641.126	726.82
641.54	723.74
641.954	721.39
642.368	718.88
642.781	717.96
643.195	710.52
643.609	714.97
644.022	714.85
644.436	715.01
644.849	709.45
645.262	703.25
645.676	706.74
646.089	707.46
646.502	701.02
646.915	698.61
647.328	688.47
647.741	688.41
648.154	681.46
648.567	682.03
648.98	675.14
649.393	676.87
649.805	676.93
650.218	673.82
650.631	665.1
651.043	662.15
651.456	660.66
651.868	661.39
652.28	673.12
652.693	682.37
653.105	686.68
653.517	693.51
653.929	694.24
654.341	697.89
654.753	691.28
655.165	696.57
655.577	696.71
655.989	693.98
656.401	690.19
656.813	670.13
657.224	659.24
657.636	641.46
658.047	631.32
658.459	621.64
658.87	617.62
659.282	611.43
659.693	600.52
660.104	592.72
660.515	585.25
660.926	587.53
661.338	587.67
661.749	585.95
662.159	582.74
662.57	583.25
662.981	582.43
663.392	580.44
663.803	585.7
664.213	585.68
664.624	584.71
665.035	589.99
665.445	581.55
665.855	578.97
666.266	576.2
666.676	577.32
667.086	572.45
667.497	574.23
667.907	571.59
668.317	566
668.727	566.79
669.137	568.29
669.547	567.72
669.956	571.29
670.366	572.76
670.776	573.23
671.186	576.95
671.595	580.07
672.005	581.96
672.414	582.47
672.824	581.91
673.233	583.36
673.642	585.73
674.052	587.96
674.461	589.31
674.87	593.01
675.279	591.42
675.688	590.98
676.097	590.62
676.506	587.96
676.915	596.24
677.323	597.18
677.732	594.86
678.141	592.84
678.549	583.64
678.958	580.28
679.366	577.97
679.775	578.51
680.183	584.88
680.592	587.44
681	589.63
681.408	582.02
681.816	585.62
682.224	588.46
682.632	593.28
683.04	610.86
683.448	624.39
683.856	641.73
684.264	663.5
684.671	678.77
685.079	699.42
685.487	720.95
685.894	754.75
686.302	777.88
686.709	795.87
687.116	816.13
687.524	831.12
687.931	842.97
688.338	848.42
688.745	849.38
689.152	856.64
689.559	869.08
689.966	882.09
690.373	881.58
690.78	894.51
691.187	918.25
691.593	934.61
692	946.83
692.407	970.39
692.813	1006.15
693.22	1032.88
693.626	1057.7
694.032	1079.85
694.439	1117.56
694.845	1146.54
695.251	1183.41
695.657	1218.21
696.063	1270.53
696.469	1311.11
696.875	1349.53
697.281	1368.97
697.687	1397.12
698.093	1422.48
698.498	1466.8
698.904	1501.87
699.31	1554.37
699.715	1596.73
700.12	1653.67
700.526	1671.12
700.931	1717.11
701.337	1754.55
701.742	1781.63
702.147	1837.37
702.552	1863.52
702.957	1905.92
