Data from C_2_HIR_WI_4N_Splice17_12-33-51-911.txt Node
Date: Sat Mar 14 12:33:51 EDT 2020
User: sa697716
Spectrometer: FLMS03696
Trigger mode: 0
Integration Time (sec): 3.180400E-1
Scans to average: 20
Electric dark correction enabled: true
Nonlinearity correction enabled: true
Boxcar width: 5
XAxis mode: Wavelengths
Number of Pixels in Spectrum: 2048
>>>>>Begin Spectral Data<<<<<
187.83	-301809.37
188.298	2196.07
188.766	1184.64
189.233	1096.23
189.701	1513.75
190.169	2131.02
190.636	865.13
191.104	677.42
191.571	105.43
192.039	-95.28
192.506	-80.2
192.974	393.53
193.441	-678.33
193.908	-73.73
194.375	-15.23
194.842	-6.2
195.31	114.09
195.777	186.43
196.244	372.21
196.711	380.52
197.177	466.16
197.644	626.59
198.111	1068.05
198.578	1465.61
199.045	1182.47
199.511	1987.38
199.978	2308.42
200.445	1972.44
200.911	2184.91
201.378	2408.88
201.844	2207.09
202.31	3730.96
202.777	3930.47
203.243	2200.06
203.709	2150.15
204.176	2570.22
204.642	2127.43
205.108	1987.17
205.574	1607.59
206.04	1466.48
206.506	1386.32
206.972	1293.5
207.438	1258.83
207.903	1436.36
208.369	1266.88
208.835	1262.53
209.301	1318.03
209.766	1321.73
210.232	1316.06
210.697	1636.98
211.163	2013.48
211.628	2995.58
212.094	2549.15
212.559	3163.83
213.024	1985.03
213.49	2439.97
213.955	2372.72
214.42	2328.53
214.885	2194.35
215.35	2125.14
215.815	2069.69
216.28	2198.04
216.745	1815.15
217.21	1990.88
217.675	1837.45
218.14	2090.79
218.604	2331.36
219.069	2691.76
219.534	2847.91
219.998	3330.65
220.463	4071.54
220.927	5024.29
221.392	4778.21
221.856	4875.15
222.32	6167.42
222.785	7638.05
223.249	9636.28
223.713	10824.39
224.177	10859.95
224.642	13923.6
225.106	17181.48
225.57	18784.55
226.034	14029.3
226.497	21367.76
226.961	19302.64
227.425	22460.26
227.889	24919.51
228.353	24885.11
228.816	51349.54
229.28	49098.1
229.744	41441.45
230.207	25176.26
230.671	24739.75
231.134	40890.28
231.597	47132.44
232.061	47126.3
232.524	45914.37
232.987	31626.95
233.45	28471.97
233.914	25571.75
234.377	26163.51
234.84	23966.33
235.303	28262.91
235.766	31565.56
236.229	32625.21
236.691	20532.67
237.154	23025.76
237.617	17336.54
238.08	17766.7
238.542	20811.09
239.005	14843.54
239.468	14736.6
239.93	13878.93
240.393	12602.2
240.855	11063.77
241.317	11323.25
241.78	13763.73
242.242	14243.45
242.704	15366.81
243.166	13359.44
243.629	12114.81
244.091	13964.43
244.553	15312.13
245.015	16452.38
245.477	21290.8
245.939	31161.86
246.4	33056.03
246.862	32148.83
247.324	30305.71
247.786	33903.85
248.247	44417.58
248.709	45818.23
249.17	34238.63
249.632	32235.91
250.093	37371.03
250.555	32225.37
251.016	19662
251.477	18619.69
251.939	20062.16
252.4	21021.9
252.861	24986.54
253.322	23236.55
253.783	27637.93
254.244	35825.13
254.705	28207.99
255.166	25019.84
255.627	24600.61
256.088	34656.56
256.549	36802.62
257.009	31667.89
257.47	38330.06
257.931	31166.84
258.391	23337.55
258.852	24007.03
259.312	25129.5
259.773	31059.55
260.233	26270.16
260.694	22187.34
261.154	25140.08
261.614	20165.46
262.074	18022.51
262.534	18749.08
262.994	17656.6
263.455	23501.97
263.915	19793.06
264.374	18621.22
264.834	20283.66
265.294	22440.32
265.754	23207.72
266.214	21950.78
266.673	20542.92
267.133	25917.07
267.593	25685.2
268.052	31437.93
268.512	27308.72
268.971	32926.25
269.431	36109.68
269.89	32316.79
270.349	48435.68
270.809	53928.71
271.268	48433.4
271.727	108472.58
272.186	70181.34
272.645	52581.95
273.104	37841.89
273.563	54795.28
274.022	43084.4
274.481	36641.63
274.94	28218.58
275.399	20947.96
275.857	24398.14
276.316	32964.5
276.775	29367.17
277.233	28902.54
277.692	27033.61
278.15	30592.96
278.609	31461.95
279.067	29063.06
279.525	26971.74
279.984	34761.81
280.442	41764.56
280.9	41154.71
281.358	27083.83
281.816	25202.81
282.274	24642.65
282.732	25450.21
283.19	25542.66
283.648	22007.92
284.106	23431.04
284.564	23773.76
285.021	22066.96
285.479	16405.03
285.937	14886.11
286.394	13034.12
286.852	13380.44
287.309	14060.55
287.767	13570.23
288.224	12912.4
288.682	14146.05
289.139	15526.78
289.596	14206.62
290.053	14742.55
290.511	18574.24
290.968	22495.13
291.425	30529.31
291.882	25439.46
292.339	22115.39
292.796	21929.14
293.252	20626.42
293.709	16378.27
294.166	14670.07
294.623	16205.16
295.079	15540.03
295.536	15635.17
295.992	14212.37
296.449	14036.44
296.905	14577.22
297.362	13985.68
297.818	14692.69
298.274	15232.02
298.731	15522.1
299.187	15340.87
299.643	16465.29
300.099	19895.69
300.555	21798.96
301.011	18208.31
301.467	17596.02
301.923	20565.88
302.379	20070.59
302.835	19702.6
303.291	19735.54
303.746	22439.43
304.202	28352.11
304.658	28450.93
305.113	19116.11
305.569	18751.4
306.024	19936.39
306.479	18925.42
306.935	15948.68
307.39	17386.86
307.845	16052.86
308.301	16120.24
308.756	15697.63
309.211	15102.1
309.666	15462.53
310.121	19209.83
310.576	19445.31
311.031	19286.4
311.486	22038.57
311.94	22004.27
312.395	29424.53
312.85	55217.56
313.305	271339.62
313.759	1404990.5
314.214	101681.42
314.668	80411.88
315.123	67593.66
315.577	24228.73
316.032	21558.95
316.486	27023.32
316.94	21358.49
317.394	14877.86
317.849	11542.83
318.303	10910.07
318.757	10270.21
319.211	11327.64
319.665	9915.18
320.119	10020.9
320.572	14352.39
321.026	13397.56
321.48	11146.4
321.934	12116.66
322.387	12115.64
322.841	13097.9
323.295	11783
323.748	13578.23
324.202	13796.51
324.655	16557.04
325.108	23162.35
325.562	16360.59
326.015	19445.72
326.468	14680.01
326.921	16402.55
327.374	15322.91
327.827	15978.21
328.28	18050.01
328.733	12088.45
329.186	10627.53
329.639	10140.55
330.092	8530.25
330.545	8131.4
330.997	8187.91
331.45	8956.61
331.903	10498.21
332.355	18022.49
332.808	17451.49
333.26	14411.21
333.713	15628.4
334.165	15714.23
334.617	20900.21
335.069	16815.62
335.522	30346.02
335.974	33578.02
336.426	30635.34
336.878	21167.87
337.33	10725.34
337.782	10477.56
338.234	13131.22
338.686	15730.96
339.137	18648.79
339.589	17584.82
340.041	13843.03
340.493	11872.02
340.944	12144.09
341.396	13085.37
341.847	11039.53
342.299	13037.5
342.75	15957.68
343.201	13887.31
343.653	15935.23
344.104	19598.09
344.555	15447.01
345.006	23999.8
345.457	18471.72
345.908	14694.27
346.359	13833.61
346.81	11236.33
347.261	11821.63
347.712	11596.75
348.163	12454.43
348.613	12623.31
349.064	11768.92
349.515	10271.35
349.965	10535.59
350.416	12625.53
350.866	13841.83
351.317	15621.72
351.767	25869.42
352.217	32639.48
352.668	27077.65
353.118	24818.33
353.568	23865.36
354.018	18876.06
354.468	19899.23
354.918	14240.55
355.368	12470.62
355.818	17570.62
356.268	50544.05
356.718	211613.94
357.168	52624.61
357.617	26369.95
358.067	29257.29
358.517	27412.88
358.966	32171.55
359.416	36160.5
359.865	39119.88
360.315	46500.96
360.764	21745.5
361.213	12179.68
361.663	11506.92
362.112	14180.66
362.561	22934.94
363.01	17294.92
363.459	14558.08
363.908	15704.55
364.357	13329.36
364.806	22474.24
365.255	15456.83
365.703	14186.37
366.152	14171.76
366.601	11496.99
367.05	9351.86
367.498	8493.05
367.947	8872.6
368.395	9213.18
368.844	8161
369.292	9786.1
369.74	6764.33
370.189	10340.05
370.637	12101.86
371.085	10429.3
371.533	12687.35
371.981	12227.75
372.429	11685.12
372.877	12145.95
373.325	10160.18
373.773	10334.33
374.221	9238.42
374.669	11485.15
375.116	9930.93
375.564	10005.03
376.012	11202.54
376.459	9219.68
376.907	11010.21
377.354	13303.47
377.801	12416.56
378.249	14298.97
378.696	18351.33
379.143	22248.53
379.591	23676.48
380.038	40142.17
380.485	29086.61
380.932	31481.66
381.379	28985.96
381.826	21380.02
382.273	15193.94
382.72	13304.41
383.166	12986.57
383.613	8434.29
384.06	7622.15
384.506	8859.36
384.953	6507.68
385.4	6557.72
385.846	5739.72
386.292	5576.4
386.739	5460.89
387.185	5411.76
387.631	5446.57
388.078	5317.92
388.524	5703
388.97	5269.97
389.416	4413.94
389.862	4719.57
390.308	4481.75
390.754	4586.22
391.2	5016.33
391.645	5160.08
392.091	4973.42
392.537	4819.46
392.983	4837.51
393.428	4789.59
393.874	5157.28
394.319	5194.93
394.765	4952.9
395.21	5123.27
395.655	4817.77
396.101	4530.96
396.546	4119.01
396.991	4165.42
397.436	3892.09
397.881	3780.54
398.326	3587.61
398.771	3419.25
399.216	2996.27
399.661	2709.25
400.106	2712.03
400.551	2792.4
400.995	2524.49
401.44	2505.22
401.885	2359.01
402.329	2385.93
402.774	2296.33
403.218	2238.58
403.663	2160.86
404.107	2235.23
404.551	2260.13
404.995	2072.69
405.44	1999.65
405.884	2023.52
406.328	1959.21
406.772	1954.26
407.216	1784.96
407.66	1726.85
408.104	1640.35
408.547	1534.77
408.991	1482.87
409.435	1426.02
409.879	1411.03
410.322	1397.09
410.766	1355.17
411.209	1291.72
411.653	1245.71
412.096	1224.51
412.54	1226.22
412.983	1219.3
413.426	1228.95
413.869	1227.34
414.312	1206.61
414.756	1164.45
415.199	1109.46
415.642	1078.78
416.085	1080.34
416.527	1073.14
416.97	1088.51
417.413	1031.25
417.856	1018.83
418.298	1005.95
418.741	1000.33
419.184	998.01
419.626	1040.24
420.069	1042.71
420.511	1049.16
420.953	1029.23
421.396	1019.45
421.838	992.86
422.28	1017.1
422.722	1025.54
423.164	1040.36
423.606	1025.4
424.048	1024.21
424.49	972.73
424.932	966.03
425.374	950.55
425.816	963.98
426.258	983.69
426.699	993.91
427.141	982.34
427.582	994.73
428.024	990.74
428.465	984.25
428.907	960.18
429.348	947.11
429.789	948.29
430.231	933.73
430.672	947.27
431.113	925.23
431.554	913.14
431.995	887.08
432.436	856.94
432.877	837.84
433.318	823.94
433.759	823
434.2	824.52
434.64	815.06
435.081	814.86
435.522	773.36
435.962	744.11
436.403	728.05
436.843	738.53
437.284	723.13
437.724	702.84
438.164	704.33
438.604	687.24
439.045	661.82
439.485	635.62
439.925	622.22
440.365	607.69
440.805	600.65
441.245	595.23
441.685	575.42
442.125	571.97
442.564	578.31
443.004	567.65
443.444	568.34
443.883	571.38
444.323	569.23
444.762	570.28
445.202	580.55
445.641	595.25
446.081	594.35
446.52	601.41
446.959	598.87
447.398	586.16
447.837	581.04
448.276	572.66
448.716	579.93
449.154	587.29
449.593	579.06
450.032	579.89
450.471	569.61
450.91	572.26
451.349	574.96
451.787	574.18
452.226	585.69
452.664	588.19
453.103	591.8
453.541	593.81
453.98	596.55
454.418	601.06
454.856	592.88
455.295	592.52
455.733	598.82
456.171	602.71
456.609	605.15
457.047	606.02
457.485	616
457.923	618.13
458.361	610.09
458.798	611.57
459.236	610.45
459.674	614.91
460.111	619.81
460.549	613.89
460.987	612.23
461.424	610.05
461.862	607.19
462.299	598.01
462.736	597.51
463.173	599.89
463.611	593.61
464.048	592.52
464.485	597.75
464.922	591.97
465.359	589.17
465.796	582.89
466.233	578.85
466.67	574.4
467.106	573.18
467.543	567.66
467.98	559.39
468.416	544.76
468.853	540.05
469.29	522.96
469.726	518.25
470.162	504.08
470.599	495.79
471.035	490.88
471.471	478.29
471.907	475.23
472.344	472.48
472.78	475.37
473.216	480.46
473.652	475.58
474.088	474.57
474.523	473.2
474.959	478.66
475.395	475.32
475.831	472.81
476.266	475.9
476.702	475.43
477.138	470.88
477.573	469.04
478.008	468.82
478.444	471.96
478.879	477.59
479.314	479.5
479.75	479.43
480.185	482.02
480.62	486.31
481.055	489.96
481.49	494.47
481.925	501.95
482.36	512.22
482.795	526.81
483.229	540.67
483.664	553.17
484.099	556.64
484.534	566.53
484.968	572.94
485.403	575.72
485.837	575
486.271	575.63
486.706	577.41
487.14	570.94
487.574	563.13
488.009	559.6
488.443	555.52
488.877	562.58
489.311	565.92
489.745	574.61
490.179	582.06
490.613	595.89
491.046	601.95
491.48	607.88
491.914	611.55
492.348	618.68
492.781	624.71
493.215	628.68
493.648	632.18
494.082	638.95
494.515	641.6
494.948	651.3
495.382	657.41
495.815	664.12
496.248	672.59
496.681	687.24
497.114	700.9
497.547	713.25
497.98	728.93
498.413	739.02
498.846	751.76
499.279	762.71
499.711	769.99
500.144	775.56
500.577	788.9
501.009	803.22
501.442	817.16
501.874	821.14
502.306	826.38
502.739	837.31
503.171	853.72
503.603	860.34
504.036	872.82
504.468	882.12
504.9	896.14
505.332	905.57
505.764	912.04
506.196	920.07
506.627	937.78
507.059	953.88
507.491	964.15
507.923	964.29
508.354	981.61
508.786	994.21
509.217	1013.77
509.649	1031.92
510.08	1052.4
510.512	1071.03
510.943	1088.08
511.374	1100.57
511.805	1122.35
512.237	1142.67
512.668	1176.37
513.099	1203.73
513.53	1231.65
513.961	1252.52
514.391	1283.7
514.822	1317.53
515.253	1352.28
515.684	1376.17
516.114	1404.44
516.545	1423.78
516.975	1449
517.406	1464.59
517.836	1464.55
518.267	1469.25
518.697	1484.96
519.127	1486.83
519.558	1490.34
519.988	1491.22
520.418	1498.62
520.848	1513.23
521.278	1518.75
521.708	1523.47
522.138	1534.13
522.567	1563.03
522.997	1584.64
523.427	1597.32
523.857	1610.46
524.286	1618.61
524.716	1631.1
525.145	1648.16
525.575	1655.42
526.004	1666.29
526.433	1665.45
526.863	1663.22
527.292	1649.47
527.721	1653.31
528.15	1656.2
528.579	1654.94
529.008	1663.62
529.437	1683.74
529.866	1694.23
530.295	1710.75
530.724	1721.77
531.152	1746.09
531.581	1758.46
532.01	1775.29
532.438	1781.91
532.867	1795.32
533.295	1811.78
533.723	1816.15
534.152	1813.52
534.58	1811.84
535.008	1794.38
535.436	1796.02
535.865	1803.7
536.293	1816.49
536.721	1830.72
537.149	1854.52
537.576	1856.18
538.004	1868.42
538.432	1876.03
538.86	1873.41
539.287	1880.63
539.715	1893.35
540.143	1894.89
540.57	1890.16
540.998	1885.13
541.425	1862.28
541.852	1840.89
542.28	1839.04
542.707	1822.38
543.134	1807.94
543.561	1802.99
543.988	1794.96
544.415	1793.77
544.842	1787.49
545.269	1780.09
545.696	1782.23
546.123	1794.44
546.549	1784.09
546.976	1770.26
547.403	1769.77
547.829	1770.82
548.256	1773.16
548.682	1769.64
549.108	1761.97
549.535	1761.69
549.961	1763.43
550.387	1750.28
550.813	1744.38
551.24	1749.95
551.666	1750.09
552.092	1740.02
552.518	1733.72
552.943	1727.89
553.369	1734.05
553.795	1740.26
554.221	1741.64
554.646	1738.46
555.072	1749.91
555.498	1755.25
555.923	1765.04
556.349	1781.34
556.774	1790.94
557.199	1792.46
557.625	1798.63
558.05	1794.29
558.475	1805.28
558.9	1805.88
559.325	1798.74
559.75	1792.91
560.175	1787.44
560.6	1781.63
561.025	1779.53
561.449	1780.82
561.874	1788.47
562.299	1794.11
562.723	1803.35
563.148	1794.91
563.572	1799.94
563.997	1811.82
564.421	1819.62
564.846	1822.41
565.27	1828.92
565.694	1829.85
566.118	1844.61
566.542	1855.02
566.966	1851.69
567.39	1849.73
567.814	1841.4
568.238	1843.71
568.662	1851.2
569.086	1856.19
569.509	1866.03
569.933	1852.47
570.357	1847.3
570.78	1828.27
571.204	1816.5
571.627	1807.85
572.05	1808.32
572.474	1811.17
572.897	1800.53
573.32	1795.48
573.743	1787.1
574.166	1770.77
574.589	1772.44
575.012	1767.12
575.435	1767.64
575.858	1760.5
576.281	1750.4
576.704	1734.58
577.126	1722.54
577.549	1712.17
577.972	1702.79
578.394	1692.5
578.817	1687.59
579.239	1669.73
579.661	1657.13
580.084	1643.04
580.506	1630.51
580.928	1627.54
581.35	1618.47
581.772	1615.81
582.194	1603.24
582.616	1591.1
583.038	1578.28
583.46	1567.25
583.882	1565.95
584.303	1570.76
584.725	1565.99
585.147	1569.1
585.568	1580.75
585.99	1593.82
586.411	1601.85
586.833	1618.61
587.254	1622.74
587.675	1639.29
588.096	1652.57
588.518	1647.63
588.939	1631.31
589.36	1631.42
589.781	1621.05
590.202	1592.17
590.623	1583.66
591.043	1580.55
591.464	1567.47
591.885	1562.68
592.305	1556.43
592.726	1541.82
593.147	1543.38
593.567	1539.56
593.987	1530.76
594.408	1524.82
594.828	1524.15
595.248	1518.64
595.669	1500.85
596.089	1493.15
596.509	1486.96
596.929	1472.75
597.349	1475.11
597.769	1464.78
598.189	1457.18
598.608	1460.1
599.028	1463.51
599.448	1463.37
599.867	1450.49
600.287	1445.69
600.706	1443.06
601.126	1433.61
601.545	1433.25
601.965	1431.84
602.384	1427.17
602.803	1430.9
603.222	1424.99
603.641	1417.95
604.061	1414.55
604.48	1410.21
604.898	1419.4
605.317	1424.68
605.736	1426.82
606.155	1424.31
606.574	1415.52
606.992	1421.93
607.411	1416.88
607.829	1409.33
608.248	1407.03
608.666	1405.09
609.085	1405.04
609.503	1396.45
609.921	1389.27
610.339	1392.7
610.758	1392.9
611.176	1388.19
611.594	1379.49
612.012	1377.26
612.43	1381.65
612.847	1388.64
613.265	1390.31
613.683	1395.25
614.101	1397.31
614.518	1393.98
614.936	1383.18
615.353	1367.17
615.771	1365.12
616.188	1365.38
616.606	1361.72
617.023	1353.84
617.44	1338.91
617.857	1330.74
618.274	1322.04
618.691	1314.81
619.108	1304.72
619.525	1298.07
619.942	1306.19
620.359	1308.95
620.776	1303.42
621.192	1299.24
621.609	1297.75
622.026	1306.21
622.442	1313.69
622.859	1316.88
623.275	1310.05
623.691	1317.22
624.108	1329.62
624.524	1343.57
624.94	1342.94
625.356	1352.61
625.772	1366.41
626.188	1378.38
626.604	1378.97
627.02	1373.05
627.436	1372.65
627.852	1379.67
628.268	1391.95
628.683	1383.5
629.099	1374.65
629.514	1370.38
629.93	1375.09
630.345	1379.74
630.761	1375.31
631.176	1378.39
631.591	1373.26
632.007	1366.48
632.422	1364.36
632.837	1352.42
633.252	1349.68
633.667	1340.31
634.082	1330.33
634.497	1317.06
634.911	1296.06
635.326	1292.24
635.741	1274.19
636.155	1264.17
636.57	1264.84
636.984	1265.82
637.399	1268.08
637.813	1267.96
638.228	1265.74
638.642	1270.96
639.056	1259.46
639.47	1260.09
639.884	1251.58
640.298	1246.46
640.712	1244.71
641.126	1231.26
641.54	1221.22
641.954	1215.16
642.368	1202.58
642.781	1195.43
643.195	1176.53
643.609	1178.5
644.022	1172.65
644.436	1168.22
644.849	1154.92
645.262	1142.54
645.676	1143.65
646.089	1138.24
646.502	1123.16
646.915	1115.69
647.328	1096.94
647.741	1093.23
648.154	1076.73
648.567	1072.67
648.98	1058.1
649.393	1057.57
649.805	1052.86
650.218	1043.53
650.631	1025.23
651.043	1016.33
651.456	1007.95
651.868	1006.39
652.28	1022.09
652.693	1035.24
653.105	1039.44
653.517	1047.19
653.929	1044.6
654.341	1048.19
654.753	1035.89
655.165	1039.35
655.577	1034.7
655.989	1028.61
656.401	1017.55
656.813	980.15
657.224	957.54
657.636	926.55
658.047	906.56
658.459	884.65
658.87	870.37
659.282	854.08
659.693	832.69
660.104	814.57
660.515	798.16
660.926	794.43
661.338	786.87
661.749	776.04
662.159	762.97
662.57	754.12
662.981	746.53
663.392	737.47
663.803	736.98
664.213	728.42
664.624	720.4
665.035	719.24
665.445	701.07
665.855	690.53
666.266	679.94
666.676	673.26
667.086	660.74
667.497	654.76
667.907	645.23
668.317	633.64
668.727	629.35
669.137	626.57
669.547	620.17
669.956	618.91
670.366	617.58
670.776	616.75
671.186	618.59
671.595	620.26
672.005	620.57
672.414	618.02
672.824	615.98
673.233	616
673.642	616.23
674.052	618.45
674.461	619.89
674.87	622.67
675.279	619.3
675.688	618.37
676.097	618.77
676.506	616.31
676.915	627.7
677.323	629.18
677.732	627.98
678.141	628.49
678.549	620.51
678.958	620.85
679.366	620.6
679.775	626.12
680.183	638.5
680.592	644.54
681	652.65
681.408	651.39
681.816	661.99
682.224	674.07
682.632	686.97
683.04	718.78
683.448	744.78
683.856	778.54
684.264	817.72
684.671	852.62
685.079	896.09
685.487	943.11
685.894	1006.87
686.302	1063.09
686.709	1111.54
687.116	1167.39
687.524	1212
687.931	1254.59
688.338	1291.7
688.745	1320.97
689.152	1355.48
689.559	1400.45
689.966	1444.96
690.373	1466.85
690.78	1504.28
691.187	1564.16
691.593	1607.48
692	1645.46
692.407	1700.8
692.813	1769.13
693.22	1822.66
693.626	1876.59
694.032	1917.16
694.439	1982.48
694.845	2031.97
695.251	2096.51
695.657	2151.39
696.063	2235.78
696.469	2295.08
696.875	2349.68
697.281	2375.14
