Data from C_2_DEC_NC_4N_Splice17_12-26-11-831.txt Node
Date: Sat Mar 14 12:26:11 EDT 2020
User: sa697716
Spectrometer: FLMS03696
Trigger mode: 0
Integration Time (sec): 3.180400E-1
Scans to average: 20
Electric dark correction enabled: true
Nonlinearity correction enabled: true
Boxcar width: 5
XAxis mode: Wavelengths
Number of Pixels in Spectrum: 2048
>>>>>Begin Spectral Data<<<<<
187.83	-249054.88
188.298	1946.77
188.766	1111.97
189.233	1006.6
189.701	1405.96
190.169	1899
190.636	709.97
191.104	600.86
191.571	99.26
192.039	-63.96
192.506	-64.08
192.974	609.51
193.441	-890.42
193.908	-276.59
194.375	-76.9
194.842	25.94
195.31	22.85
195.777	137.46
196.244	354.59
196.711	441.42
197.177	543.41
197.644	758.39
198.111	1327.78
198.578	1860.25
199.045	1495.3
199.511	2438.64
199.978	2782.56
200.445	2386.7
200.911	2627.02
201.378	2956.32
201.844	2690.09
202.31	4599.19
202.777	4807.37
203.243	2658.41
203.709	2543.15
204.176	3042.55
204.642	2508.3
205.108	2358.42
205.574	1903.14
206.04	1740.73
206.506	1618.49
206.972	1509.03
207.438	1461.46
207.903	1666.3
208.369	1464.36
208.835	1454.12
209.301	1532.51
209.766	1569.48
210.232	1548.78
210.697	1936.45
211.163	2376.54
211.628	3560.82
212.094	2985.01
212.559	3665.33
213.024	2264.24
213.49	2759.78
213.955	2690.08
214.42	2594.6
214.885	2407.53
215.35	2318.37
215.815	2236
216.28	2376.57
216.745	1932.65
217.21	2079.89
217.675	1878.55
218.14	2096.24
218.604	2327.17
219.069	2607.88
219.534	2709.69
219.998	3106.35
220.463	3713.05
220.927	4496.99
221.392	4204.46
221.856	4247.42
222.32	5318.64
222.785	6541.66
223.249	8223.6
223.713	9116.87
224.177	9149.8
224.642	11743.32
225.106	14460.79
225.57	15842.14
226.034	11854.65
226.497	18049.36
226.961	16351.65
227.425	19070.06
227.889	21210.72
228.353	21242.32
228.816	44032.97
229.28	42212.17
229.744	35669.7
230.207	21776.2
230.671	21501.21
231.134	35526.09
231.597	41036.61
232.061	40961.14
232.524	40042.68
232.987	27646.93
233.45	24945.24
233.914	22419.06
234.377	22983.73
234.84	21056.55
235.303	24869.1
235.766	27762.15
236.229	28753.42
236.691	18173.18
237.154	20490.79
237.617	15470.56
238.08	15894.33
238.542	18677.23
239.005	13380.97
239.468	13328.43
239.93	12596.86
240.393	11465.37
240.855	10095.78
241.317	10376.09
241.78	12641.07
242.242	13119.7
242.704	14214.59
243.166	12394.84
243.629	11258.98
244.091	12998.04
244.553	14276.42
245.015	15386.53
245.477	19957.77
245.939	29321.55
246.4	31164.91
246.862	30344.04
247.324	28623.59
247.786	32001.38
248.247	42022.17
248.709	43397.81
249.17	32532.61
249.632	30723.44
250.093	35665.49
250.555	30788.61
251.016	18805.73
251.477	17852.81
251.939	19293.28
252.4	20260.53
252.861	24143.72
253.322	22483.46
253.783	26813.72
254.244	34803.08
254.705	27477.79
255.166	24454.46
255.627	24154.2
256.088	34095.81
256.549	36336.94
257.009	31341.57
257.47	38115.34
257.931	31105.72
258.391	23371.38
258.852	24160.36
259.312	25402.12
259.773	31416.02
260.233	26643.35
260.694	22532.28
261.154	25642.25
261.614	20610.8
262.074	18463.91
262.534	19223.64
262.994	18144.59
263.455	24210.57
263.915	20413.46
264.374	19240.88
264.834	21033.01
265.294	23342.47
265.754	24189.57
266.214	22902.09
266.673	21483.28
267.133	27135.44
267.593	26930.85
268.052	32994.95
268.512	28706.14
268.971	34682.12
269.431	38109.33
269.89	34183.04
270.349	51288.54
270.809	57295.92
271.268	51615.55
271.727	115885.78
272.186	75208.51
272.645	56521.33
273.104	40798.21
273.563	59181.45
274.022	46590.68
274.481	39677.19
274.94	30587.18
275.399	22756.39
275.857	26527.8
276.316	35914
276.775	31982.28
277.233	31547.39
277.692	29572.06
278.15	33539.52
278.609	34567
279.067	32057.87
279.525	29820.95
279.984	38598.55
280.442	46452.02
280.9	45870.69
281.358	30228.63
281.816	28225.1
282.274	27664.8
282.732	28619.4
283.19	28800.41
283.648	24887.86
284.106	26530.51
284.564	27042.64
285.021	25111.55
285.479	18745.54
285.937	17084.8
286.394	14998.38
286.852	15477.44
287.309	16291.71
287.767	15768.74
288.224	15027.75
288.682	16518.37
289.139	18162.93
289.596	16616.82
290.053	17285.99
290.511	21849.98
290.968	26499.26
291.425	36037.49
291.882	30007.37
292.339	26161.8
292.796	25942.09
293.252	24447.75
293.709	19434.29
294.166	17448.01
294.623	19322.53
295.079	18578.47
295.536	18691.4
295.992	16998.01
296.449	16812.36
296.905	17483.87
297.362	16803.98
297.818	17719.74
298.274	18403.96
298.731	18771.19
299.187	18572.84
299.643	19945.78
300.099	24150.32
300.555	26485.75
301.011	22148.01
301.467	21399.92
301.923	25090.67
302.379	24465.53
302.835	24066.44
303.291	24116.34
303.746	27472.28
304.202	34772.09
304.658	34953.95
305.113	23485.68
305.569	23031.03
306.024	24553.24
306.479	23376.95
306.935	19711.53
307.39	21557.91
307.845	19922.99
308.301	20065.58
308.756	19571.71
309.211	18874.12
309.666	19358.68
310.121	24079.48
310.576	24442.15
311.031	24289.19
311.486	27843.32
311.94	27849.91
312.395	37287.99
312.85	70157.81
313.305	344724.47
313.759	1785013.06
314.214	129191.21
314.668	102436.17
315.123	86214.79
315.577	30989.05
316.032	27586.51
316.486	34593.46
316.94	27300.39
317.394	18987.33
317.849	14725.55
318.303	13975.79
318.757	13209.65
319.211	14623.72
319.665	12798.01
320.119	12953.28
320.572	18548.35
321.026	17321.19
321.48	14435.77
321.934	15746
322.387	15805.35
322.841	17087.09
323.295	15350.76
323.748	17657.39
324.202	17918.47
324.655	21538.07
325.108	30121.89
325.562	21311.06
326.015	25347.72
326.468	19142.81
326.921	21404.55
327.374	19977.42
327.827	20832.63
328.28	23588.22
328.733	15819.61
329.186	13926.53
329.639	13281.93
330.092	11199.67
330.545	10685
330.997	10795.95
331.45	11810.1
331.903	13853.63
332.355	23853.52
332.808	23184.13
333.26	19144.15
333.713	20786.48
334.165	20957.16
334.617	27956.68
335.069	22559.45
335.522	40733.74
335.974	45094.25
336.426	41151.84
336.878	28522.02
337.33	14459.69
337.782	14106.93
338.234	17685.01
338.686	21188.02
339.137	25062.62
339.589	23625.21
340.041	18572.74
340.493	15984.7
340.944	16360.71
341.396	17646.47
341.847	14859.06
342.299	17544.47
342.75	21457.12
343.201	18764
343.653	21572.44
344.104	26579.56
344.555	20941.96
345.006	32552.97
345.457	24898.59
345.908	19821.02
346.359	18668.45
346.81	15192.09
347.261	16040.45
347.712	15815.58
348.163	16962.75
348.613	17199.05
349.064	16058.38
349.515	14056.01
349.965	14414.98
350.416	17398.99
350.866	19103.29
351.317	21598.18
351.767	35828.07
352.217	45200.25
352.668	37519.51
353.118	34382.71
353.568	33159.37
354.018	26234.94
354.468	27666.06
354.918	19865.76
355.368	17388.66
355.818	24573.15
356.268	70775.17
356.718	296276.18
357.168	73768.94
357.617	37105.85
358.067	41218.93
358.517	38612.02
358.966	45272.61
359.416	50816.28
359.865	54939.72
360.315	65445.47
360.764	30535.43
361.213	17107.72
361.663	16204.3
362.112	20016.96
362.561	32322.32
363.01	24437.01
363.459	20597.82
363.908	22280.23
364.357	18955.34
364.806	32074.83
365.255	22048.95
365.703	20219.06
366.152	20253.4
366.601	16449.38
367.05	13354.47
367.498	12147.61
367.947	12682.65
368.395	13203.01
368.844	11713.09
369.292	14127.07
369.74	9773.25
370.189	14971.8
370.637	17537.36
371.085	15140.05
371.533	18442.8
371.981	17800.95
372.429	16960.94
372.877	17675.47
373.325	14802.4
373.773	15087.58
374.221	13430.69
374.669	16646.1
375.116	14420.49
375.564	14541.87
376.012	16254.04
376.459	13393.97
376.907	16025.73
377.354	19376.27
377.801	18074.83
378.249	20760.08
378.696	26575.33
379.143	32286.54
379.591	34437.98
380.038	58307.48
380.485	42177.58
380.932	45557.02
381.379	41734.82
381.826	30692.78
382.273	21832.45
382.72	19086.19
383.166	18624.35
383.613	12089.15
384.06	10864.75
384.506	12593.76
384.953	9245.71
385.4	9307.11
385.846	8161
386.292	7953.14
386.739	7796.13
387.185	7705.36
387.631	7724.77
388.078	7499.3
388.524	8008.91
388.97	7400.69
389.416	6161.95
389.862	6543.92
390.308	6216.44
390.754	6320.59
391.2	6863.25
391.645	7023.56
392.091	6725.2
392.537	6501.92
392.983	6512.92
393.428	6412.36
393.874	6887.49
394.319	6909.46
394.765	6557.14
395.21	6739.79
395.655	6308.1
396.101	5913.11
396.546	5331.39
396.991	5385.31
397.436	5001.84
397.881	4839.79
398.326	4586.57
398.771	4341.43
399.216	3806.01
399.661	3436.85
400.106	3425.32
400.551	3516.66
400.995	3159.39
401.44	3130.93
401.885	2936.59
402.329	2970.58
402.774	2846.68
403.218	2760.43
403.663	2659.65
404.107	2736.37
404.551	2755.11
404.995	2526.32
405.44	2435.11
405.884	2472.67
406.328	2392.09
406.772	2388.3
407.216	2175.46
407.66	2102.3
408.104	1994.76
408.547	1865.51
408.991	1802.84
409.435	1735.12
409.879	1712.94
410.322	1692.42
410.766	1635.05
411.209	1558.07
411.653	1498.51
412.096	1469.07
412.54	1471.92
412.983	1462.74
413.426	1471.06
413.869	1470.71
414.312	1446.01
414.756	1393.74
415.199	1329.45
415.642	1293.16
416.085	1294.74
416.527	1282.35
416.97	1299.59
417.413	1234.18
417.856	1221.93
418.298	1207.62
418.741	1201.52
419.184	1196.88
419.626	1245.26
420.069	1248.43
420.511	1251.07
420.953	1225.77
421.396	1217.3
421.838	1188.88
422.28	1214.59
422.722	1220.48
423.164	1238.57
423.606	1217.79
424.048	1215.76
424.49	1157.62
424.932	1148.78
425.374	1135.04
425.816	1153.5
426.258	1172.87
426.699	1184.29
427.141	1166.11
427.582	1184.18
428.024	1179.99
428.465	1172.48
428.907	1146.36
429.348	1133.71
429.789	1134.41
430.231	1110.91
430.672	1126.48
431.113	1100.78
431.554	1084.65
431.995	1060.19
432.436	1023.42
432.877	1000.49
433.318	985.03
433.759	980.61
434.2	980.4
434.64	969.23
435.081	972.27
435.522	920.69
435.962	890.25
436.403	873.41
436.843	885.33
437.284	867.61
437.724	843.33
438.164	845.32
438.604	824.46
439.045	794.3
439.485	764.02
439.925	748.66
440.365	730.55
440.805	720.42
441.245	711.86
441.685	687.42
442.125	682.45
442.564	687.59
443.004	672.25
443.444	672.54
443.883	673.65
444.323	668.34
444.762	670.21
445.202	679.75
445.641	692.18
446.081	689.24
446.52	694.92
446.959	689.69
447.398	675.38
447.837	668.73
448.276	658.26
448.716	665.96
449.154	671.59
449.593	657.83
450.032	657.51
450.471	646.89
450.91	648.13
451.349	648.72
451.787	646.17
452.226	654.97
452.664	657.15
453.103	659.06
453.541	657.62
453.98	659.04
454.418	664.17
454.856	654.62
455.295	654.46
455.733	659.93
456.171	662.64
456.609	666.07
457.047	668.74
457.485	679.55
457.923	682.36
458.361	675.44
458.798	678.3
459.236	676.75
459.674	681.18
460.111	684.76
460.549	679.36
460.987	677.61
461.424	674.02
461.862	670.42
462.299	659.18
462.736	657.47
463.173	659.92
463.611	652.49
464.048	651.24
464.485	657.07
464.922	650.23
465.359	646.79
465.796	640.18
466.233	635.3
466.67	629.59
467.106	628.14
467.543	622.62
467.98	613.86
468.416	598.22
468.853	593.12
469.29	575.89
469.726	570.34
470.162	554.99
470.599	547.23
471.035	542.89
471.471	530.04
471.907	526.19
472.344	522.92
472.78	524.44
473.216	531.12
473.652	525.12
474.088	522.85
474.523	522.06
474.959	527.53
475.395	522.2
475.831	518.58
476.266	520.52
476.702	520.11
477.138	514
477.573	512.31
478.008	509.54
478.444	511.98
478.879	518.06
479.314	520.4
479.75	519.82
480.185	522.1
480.62	526.7
481.055	529.81
481.49	533.2
481.925	542.14
482.36	552.31
482.795	568.84
483.229	584.23
483.664	596.76
484.099	599.08
484.534	609.65
484.968	617.14
485.403	621.04
485.837	620.84
486.271	620.31
486.706	621.15
487.14	614.61
487.574	605.9
488.009	600.9
488.443	596.23
488.877	603.4
489.311	605.31
489.745	612.4
490.179	618.45
490.613	631.62
491.046	638.18
491.48	643.92
491.914	646.06
492.348	651.82
492.781	656.75
493.215	659
493.648	660.92
494.082	667.72
494.515	670.44
494.948	679.62
495.382	684.65
495.815	690.64
496.248	697.95
496.681	712.22
497.114	725.11
497.547	737.31
497.98	752.34
498.413	760.75
498.846	772.1
499.279	781.48
499.711	786.77
500.144	791.29
500.577	803.73
501.009	816.14
501.442	826.96
501.874	830.34
502.306	834.28
502.739	844.18
503.171	860.86
503.603	866.55
504.036	878.42
504.468	886.67
504.9	900.4
505.332	909.46
505.764	916.09
506.196	925.11
506.627	942.23
507.059	957.75
507.491	967.63
507.923	966.73
508.354	983.42
508.786	995.68
509.217	1016.1
509.649	1032.12
510.08	1053
510.512	1070.2
510.943	1087
511.374	1097.98
511.805	1119.66
512.237	1141.31
512.668	1175.16
513.099	1203.97
513.53	1233.54
513.961	1253.84
514.391	1287.65
514.822	1321.02
515.253	1358.29
515.684	1384.75
516.114	1416.62
516.545	1438.22
516.975	1463.72
517.406	1482.52
517.836	1482.69
518.267	1487.31
518.697	1505.54
519.127	1508.3
519.558	1514.94
519.988	1516.51
520.418	1526.22
520.848	1542.21
521.278	1549.43
521.708	1566.77
522.138	1578.12
522.567	1609.28
522.997	1633.68
523.427	1646.82
523.857	1663.07
524.286	1672.05
524.716	1687.62
525.145	1705.52
525.575	1715.33
526.004	1728.43
526.433	1718.95
526.863	1718.29
527.292	1706.9
527.721	1711.14
528.15	1716.76
528.579	1715.37
529.008	1725.67
529.437	1747.74
529.866	1760.08
530.295	1777.57
530.724	1789.66
531.152	1816.8
531.581	1830.31
532.01	1848.03
532.438	1856.61
532.867	1872.14
533.295	1892.27
533.723	1897.32
534.152	1894.83
534.58	1894.52
535.008	1877.79
535.436	1879.62
535.865	1888
536.293	1903.24
536.721	1920.61
537.149	1947.04
537.576	1949.16
538.004	1962.14
538.432	1971.47
538.86	1970.31
539.287	1977.81
539.715	1992.98
540.143	1996.27
540.57	1992.57
540.998	1988.71
541.425	1963.82
541.852	1941.79
542.28	1939.48
542.707	1922.13
543.134	1906.78
543.561	1902.37
543.988	1894.81
544.415	1893.19
544.842	1887.49
545.269	1879.51
545.696	1881.34
546.123	1894.87
546.549	1884.61
546.976	1871.97
547.403	1871.91
547.829	1874.44
548.256	1877.24
548.682	1873.72
549.108	1865.69
549.535	1865.84
549.961	1868.56
550.387	1854.32
550.813	1849
551.24	1855.49
551.666	1856.23
552.092	1847.32
552.518	1840.92
552.943	1833.66
553.369	1841.19
553.795	1847.95
554.221	1848.73
554.646	1845.59
555.072	1856.83
555.498	1862.1
555.923	1873.07
556.349	1889.42
556.774	1897.51
557.199	1899.7
557.625	1907.99
558.05	1903.03
558.475	1914.04
558.9	1914.01
559.325	1906.92
559.75	1902.05
560.175	1896.16
560.6	1889.92
561.025	1889.43
561.449	1891.35
561.874	1899.51
562.299	1904.43
562.723	1913.33
563.148	1904.2
563.572	1908.99
563.997	1920.41
564.421	1927.2
564.846	1929.61
565.27	1936.16
565.694	1933.8
566.118	1948.63
566.542	1957.01
566.966	1952.61
567.39	1949.64
567.814	1939.83
568.238	1942.77
568.662	1950.26
569.086	1954.62
569.509	1963.43
569.933	1947.87
570.357	1942.05
570.78	1921.67
571.204	1908.85
571.627	1898.61
572.05	1898.38
572.474	1899.81
572.897	1886.46
573.32	1879.66
573.743	1870.52
574.166	1853.28
574.589	1854.13
575.012	1847.82
575.435	1847.52
575.858	1839.75
576.281	1828.93
576.704	1812.52
577.126	1801.68
577.549	1791.7
577.972	1783.18
578.394	1773.23
578.817	1765.85
579.239	1747.17
579.661	1734.54
580.084	1718.01
580.506	1704.77
580.928	1701.63
581.35	1691.31
581.772	1685.65
582.194	1671.86
582.616	1658.36
583.038	1644.52
583.46	1634.48
583.882	1630.83
584.303	1635.51
584.725	1631.39
585.147	1633.54
585.568	1645.24
585.99	1658.99
586.411	1667.35
586.833	1684.44
587.254	1685.86
587.675	1702.25
588.096	1715.99
588.518	1711.28
588.939	1693.81
589.36	1692.83
589.781	1681.74
590.202	1651.36
590.623	1641.65
591.043	1639.86
591.464	1625.71
591.885	1622.6
592.305	1615.8
592.726	1600.41
593.147	1602.49
593.567	1596.67
593.987	1588.8
594.408	1583.77
594.828	1582.78
595.248	1575.94
595.669	1555.93
596.089	1548.18
596.509	1540.53
596.929	1525.63
597.349	1527.03
597.769	1516.55
598.189	1510.25
598.608	1511.69
599.028	1514.76
599.448	1514.06
599.867	1500.73
600.287	1495.93
600.706	1492.9
601.126	1483.31
601.545	1482.88
601.965	1482.51
602.384	1475.85
602.803	1478.56
603.222	1473.28
603.641	1465.35
604.061	1461.27
604.48	1457.03
604.898	1465.77
605.317	1470.02
605.736	1472.5
606.155	1469.51
606.574	1459.66
606.992	1466.18
607.411	1461.87
607.829	1453.74
608.248	1451.77
608.666	1450.66
609.085	1450.59
609.503	1442.02
609.921	1436.28
610.339	1438.61
610.758	1438.26
611.176	1433.09
611.594	1424.43
612.012	1421.12
612.43	1426.26
612.847	1433.04
613.265	1434.34
613.683	1440.98
614.101	1443.43
614.518	1439.76
614.936	1429.1
615.353	1413.79
615.771	1411.66
616.188	1411.37
616.606	1407.25
617.023	1398.93
617.44	1384.27
617.857	1377.48
618.274	1367.78
618.691	1361.13
619.108	1351.22
619.525	1345.12
619.942	1352.28
620.359	1355.21
620.776	1349.88
621.192	1346.47
621.609	1344.85
622.026	1352.03
622.442	1357.07
622.859	1361.59
623.275	1354.25
623.691	1360.36
624.108	1373.46
624.524	1388.82
624.94	1388.89
625.356	1400.34
625.772	1415.22
626.188	1428.33
626.604	1429.66
627.02	1425.83
627.436	1422.31
627.852	1429.75
628.268	1443.65
628.683	1432.96
629.099	1424.36
629.514	1418.69
629.93	1423.09
630.345	1426.86
630.761	1421.78
631.176	1425.04
631.591	1419.45
632.007	1412.35
632.422	1409.97
632.837	1396.59
633.252	1393.89
633.667	1381.36
634.082	1370.83
634.497	1355.84
634.911	1333.58
635.326	1327.89
635.741	1308.39
636.155	1295.87
636.57	1296.67
636.984	1294.58
637.399	1295.93
637.813	1294.48
638.228	1292.76
638.642	1296.77
639.056	1284.26
639.47	1284.32
639.884	1274.77
640.298	1266.07
640.712	1263.53
641.126	1248.47
641.54	1238.01
641.954	1228.92
642.368	1214.67
642.781	1204.96
643.195	1184.68
643.609	1182.76
644.022	1174.2
644.436	1168.14
644.849	1155.08
645.262	1141.28
645.676	1141.77
646.089	1134.52
646.502	1118.57
646.915	1111.18
647.328	1090.53
647.741	1086.35
648.154	1072.3
648.567	1068.16
648.98	1053.18
649.393	1051.92
649.805	1045.65
650.218	1036.37
650.631	1019.34
651.043	1011.65
651.456	1004.97
651.868	1005.99
652.28	1022.63
652.693	1036.42
653.105	1041.71
653.517	1050.81
653.929	1050.64
654.341	1055.4
654.753	1041.63
655.165	1046.56
655.577	1042.85
655.989	1036.39
656.401	1027.18
656.813	989.9
657.224	967.72
657.636	936.29
658.047	916.91
658.459	895.89
658.87	885.92
659.282	871.41
659.693	848.74
660.104	831.65
660.515	816.31
660.926	812.64
661.338	807.37
661.749	797.28
662.159	786.42
662.57	777.58
662.981	770.32
663.392	759.96
663.803	760.8
664.213	755.68
664.624	748.77
665.035	748.01
665.445	730.6
665.855	720.5
666.266	711.77
666.676	706.31
667.086	696.12
667.497	691.2
667.907	682.97
668.317	672.1
668.727	667.28
669.137	665.52
669.547	661.01
669.956	661.3
670.366	660.46
670.776	660.05
671.186	661.75
671.595	662.54
672.005	664.5
672.414	662.88
672.824	660.78
673.233	662.57
673.642	662.61
674.052	665.02
674.461	665.32
674.87	668.28
675.279	663.82
675.688	664.9
676.097	665.48
676.506	662.13
676.915	673.43
677.323	675.24
677.732	673.54
678.141	674.39
678.549	664.77
678.958	664.21
679.366	662.91
679.775	667.75
680.183	677.87
680.592	684.4
681	691.89
681.408	689.8
681.816	699.96
682.224	710.8
682.632	723.52
683.04	754.13
683.448	782.07
683.856	816.93
684.264	856.9
684.671	894.43
685.079	940.73
685.487	989.62
685.894	1056.18
686.302	1113.87
686.709	1165.21
687.116	1221.05
687.524	1269.13
687.931	1314.17
688.338	1353.43
688.745	1387.11
689.152	1423.15
689.559	1469.54
689.966	1517.37
690.373	1541.05
690.78	1584.76
691.187	1648.72
691.593	1698.91
692	1741.72
692.407	1803.67
692.813	1880.43
693.22	1939.86
693.626	2001.63
694.032	2049.62
694.439	2124.48
694.845	2182.31
695.251	2255.91
695.657	2321.12
696.063	2421.57
696.469	2492.49
