Data from C_2_DEC_OH_4N_Splice17_12-05-01-491.txt Node
Date: Sat Mar 14 12:05:01 EDT 2020
User: sa697716
Spectrometer: FLMS03696
Trigger mode: 0
Integration Time (sec): 3.180400E-1
Scans to average: 20
Electric dark correction enabled: true
Nonlinearity correction enabled: true
Boxcar width: 5
XAxis mode: Wavelengths
Number of Pixels in Spectrum: 2048
>>>>>Begin Spectral Data<<<<<
187.83	-250370.6
188.298	1865.41
188.766	964.08
189.233	781.73
189.701	1136.02
190.169	1594.44
190.636	576.59
191.104	439.93
191.571	19.42
192.039	-96.65
192.506	-193.92
192.974	74.59
193.441	-336.86
193.908	-40.04
194.375	-40.7
194.842	-8.52
195.31	23.9
195.777	153.58
196.244	353.21
196.711	382.52
197.177	466.05
197.644	645.11
198.111	1122.22
198.578	1589.07
199.045	1249.88
199.511	2022.43
199.978	2358.18
200.445	2020.21
200.911	2179.66
201.378	2397.42
201.844	2212.7
202.31	3738.95
202.777	3902.47
203.243	2168.77
203.709	2069.25
204.176	2492.19
204.642	2062.46
205.108	1915.42
205.574	1568.12
206.04	1434.97
206.506	1339.71
206.972	1243.92
207.438	1226.48
207.903	1380.55
208.369	1224.36
208.835	1232.15
209.301	1288.99
209.766	1309.13
210.232	1307.71
210.697	1592.88
211.163	1965.75
211.628	2973.51
212.094	2488.81
212.559	3029.83
213.024	1884.73
213.49	2286.73
213.955	2216.42
214.42	2147.12
214.885	2000.13
215.35	1923.97
215.815	1872.43
216.28	1964.88
216.745	1584.56
217.21	1703.95
217.675	1519.69
218.14	1679.63
218.604	1837.11
219.069	2073.21
219.534	2163.45
219.998	2474.76
220.463	2946.32
220.927	3564
221.392	3329.03
221.856	3370.2
222.32	4180.97
222.785	5188.7
223.249	6511.04
223.713	7232.92
224.177	7192.64
224.642	9161.97
225.106	11239.65
225.57	12282.77
226.034	9142.05
226.497	13890.8
226.961	12525.47
227.425	14629.58
227.889	16176.08
228.353	16141.15
228.816	33296.18
229.28	31874.63
229.744	26812.06
230.207	16329.44
230.671	16070.5
231.134	26502.61
231.597	30569.19
232.061	30514.26
232.524	29698.06
232.987	20423.6
233.45	18367.39
233.914	16473.79
234.377	16826.91
234.84	15457.01
235.303	18182.61
235.766	20247.72
236.229	20899.46
236.691	13159.58
237.154	14745.78
237.617	11115.13
238.08	11400.16
238.542	13370.61
239.005	9565.68
239.468	9514.53
239.93	8956.02
240.393	8155.77
240.855	7169.67
241.317	7348.9
241.78	8939.44
242.242	9264.96
242.704	10020.45
243.166	8737.69
243.629	7957.63
244.091	9181.77
244.553	10082.66
245.015	10857.84
245.477	14027.92
245.939	20556.49
246.4	21842.86
246.862	21268.35
247.324	20082.68
247.786	22472.76
248.247	29413.86
248.709	30325.59
249.17	22723.67
249.632	21449.61
250.093	24902.08
250.555	21534.5
251.016	13178.47
251.477	12519.31
251.939	13534.84
252.4	14215.21
252.861	16933.01
253.322	15807.49
253.783	18801.02
254.244	24369.01
254.705	19209.28
255.166	17068.38
255.627	16829.01
256.088	23738.77
256.549	25245.75
257.009	21730.55
257.47	26428.44
257.931	21514.07
258.391	16110.94
258.852	16656.65
259.312	17486.87
259.773	21609.66
260.233	18331.12
260.694	15494.05
261.154	17591.44
261.614	14142.39
262.074	12680.6
262.534	13187.49
262.994	12465.56
263.455	16647.92
263.915	14052.51
264.374	13258.49
264.834	14502.22
265.294	16075.93
265.754	16716.49
266.214	15851.18
266.673	14901.92
267.133	18833.93
267.593	18727.55
268.052	22976.58
268.512	20037.75
268.971	24222.1
269.431	26599.4
269.89	23880.32
270.349	35925.7
270.809	40061.99
271.268	36105.06
271.727	81116.32
272.186	52652.96
272.645	39536.66
273.104	28536.12
273.563	41342.17
274.022	32581.82
274.481	27842.74
274.94	21505.39
275.399	15989.08
275.857	18647.38
276.316	25247.22
276.775	22490.62
277.233	22185.96
277.692	20816.3
278.15	23577.97
278.609	24343.13
279.067	22568.2
279.525	20980.05
279.984	27116.66
280.442	32630.21
280.9	32264.55
281.358	21259.85
281.816	19850.91
282.274	19431.64
282.732	20058.38
283.19	20150.22
283.648	17382.95
284.106	18485.29
284.564	18804.15
285.021	17451.5
285.479	13043.84
285.937	11863.06
286.394	10433.75
286.852	10734.35
287.309	11315.9
287.767	10957.67
288.224	10481.6
288.682	11532.25
289.139	12712.36
289.596	11631.37
290.053	12105.39
290.511	15277.9
290.968	18561.15
291.425	25198.27
291.882	21050.13
292.339	18340.21
292.796	18240.73
293.252	17203.82
293.709	13692.02
294.166	12270.82
294.623	13600.25
295.079	13071.82
295.536	13150.91
295.992	11956.15
296.449	11834.12
296.905	12278.74
297.362	11798.01
297.818	12412.08
298.274	12874.55
298.731	13101.66
299.187	12978
299.643	13926.72
300.099	16857.64
300.555	18496.24
301.011	15445.29
301.467	14921.41
301.923	17482.47
302.379	17089.4
302.835	16817.9
303.291	16854.43
303.746	19191.11
304.202	24275.55
304.658	24443.46
305.113	16447.69
305.569	16135.7
306.024	17245.11
306.479	16449.18
306.935	13898.02
307.39	15176.79
307.845	14021.69
308.301	14120.74
308.756	13776.27
309.211	13280.26
309.666	13592.2
310.121	16883.11
310.576	17136.41
311.031	17000.89
311.486	19446.15
311.94	19455.6
312.395	26004.91
312.85	48914.85
313.305	240510.11
313.759	1249332.38
314.214	90712.44
314.668	72091.81
315.123	60762.69
315.577	21842.82
316.032	19457.19
316.486	24394.05
316.94	19254.67
317.394	13445.49
317.849	10460.77
318.303	9892.45
318.757	9316.84
319.211	10298.88
319.665	9020.11
320.119	9149.73
320.572	13125.01
321.026	12284.13
321.48	10245.57
321.934	11180.39
322.387	11214.44
322.841	12131.77
323.295	10962.67
323.748	12654.03
324.202	12884.11
324.655	15507.33
325.108	21694.14
325.562	15337.34
326.015	18216.13
326.468	13769.67
326.921	15397.57
327.374	14372.74
327.827	14950.79
328.28	16913.51
328.733	11336.94
329.186	9932.83
329.639	9461.37
330.092	7956
330.545	7590.32
330.997	7685.61
331.45	8410.9
331.903	9885.92
332.355	16975.09
332.808	16519.63
333.26	13634.75
333.713	14837.48
334.165	15002.74
334.617	20016.96
335.069	16204.89
335.522	29297.64
335.974	32399.33
336.426	29619.87
336.878	20470.55
337.33	10417.56
337.782	10170.74
338.234	12761.47
338.686	15250.08
339.137	18044.13
339.589	16982.51
340.041	13329.09
340.493	11439.86
340.944	11702.16
341.396	12602.1
341.847	10625.73
342.299	12518.91
342.75	15312.44
343.201	13349.84
343.653	15361.53
344.104	18857.84
344.555	14894.21
345.006	23136.26
345.457	17755.47
345.908	14128.85
346.359	13306.7
346.81	10822.67
347.261	11416.31
347.712	11250.6
348.163	12083.19
348.613	12280.87
349.064	11487.07
349.515	10044.24
349.965	10338.1
350.416	12476.09
350.866	13713.21
351.317	15527.91
351.767	25783.81
352.217	32600.04
352.668	27109.01
353.118	24841.6
353.568	23916.83
354.018	18934.01
354.468	19993.5
354.918	14327.53
355.368	12510.16
355.818	17683.55
356.268	50888.24
356.718	213004.11
357.168	53077.37
357.617	26618.26
358.067	29624.55
358.517	27742.54
358.966	32555.84
359.416	36579.22
359.865	39472.63
360.315	47037.17
360.764	21966.28
361.213	12304.02
361.663	11668.74
362.112	14414.72
362.561	23262.13
363.01	17567.73
363.459	14779.87
363.908	16029.11
364.357	13640.71
364.806	23082.72
365.255	15884.72
365.703	14554.18
366.152	14620.8
366.601	11865.2
367.05	9647.75
367.498	8779.97
367.947	9161.76
368.395	9533.82
368.844	8443.45
369.292	10158.87
369.74	7031
370.189	10761.6
370.637	12588.74
371.085	10825.78
371.533	13160.73
371.981	12692.78
372.429	12074.38
372.877	12574.81
373.325	10539.46
373.773	10714.02
374.221	9523.43
374.669	11769.97
375.116	10180.7
375.564	10277.44
376.012	11500.5
376.459	9476.21
376.907	11283.43
377.354	13661.25
377.801	12735.19
378.249	14609.68
378.696	18677.35
379.143	22584.46
379.591	24143.67
380.038	40900.91
380.485	29574.61
380.932	31889.24
381.379	29160.65
381.826	21470.55
382.273	15241.22
382.72	13325.98
383.166	12984.37
383.613	8403.71
384.06	7565.29
384.506	8740.66
384.953	6408.85
385.4	6444.24
385.846	5645.33
386.292	5496.08
386.739	5373.53
387.185	5312.39
387.631	5308.92
388.078	5167.61
388.524	5532.11
388.97	5125.26
389.416	4281.98
389.862	4538.59
390.308	4304.42
390.754	4376.28
391.2	4751.47
391.645	4860.73
392.091	4667.33
392.537	4525.18
392.983	4523.71
393.428	4459.69
393.874	4775
394.319	4801.79
394.765	4571.87
395.21	4691.26
395.655	4398.08
396.101	4124.65
396.546	3734.99
396.991	3756.27
397.436	3482.74
397.881	3372.63
398.326	3203.78
398.771	3043.23
399.216	2651.96
399.661	2390.22
400.106	2388.66
400.551	2457.05
400.995	2211.3
401.44	2196.22
401.885	2069.46
402.329	2098.16
402.774	2017.14
403.218	1955.2
403.663	1884.08
404.107	1945.55
404.551	1966.12
404.995	1803.59
405.44	1733.4
405.884	1762.68
406.328	1701.75
406.772	1699.1
407.216	1548.79
407.66	1496.91
408.104	1421.96
408.547	1335.56
408.991	1294.68
409.435	1245.87
409.879	1234.53
410.322	1224.56
410.766	1185.38
411.209	1131.38
411.653	1088.26
412.096	1070.49
412.54	1070.6
412.983	1066.41
413.426	1069.98
413.869	1071.14
414.312	1053.65
414.756	1014.64
415.199	966.04
415.642	938.28
416.085	940.24
416.527	933.43
416.97	945.38
417.413	901.41
417.856	890.81
418.298	882.64
418.741	878.05
419.184	875.81
419.626	911.68
420.069	913.01
420.511	920.05
420.953	904.69
421.396	900.3
421.838	879.23
422.28	900.67
422.722	907.12
423.164	919.58
423.606	904.5
424.048	902.12
424.49	859.95
424.932	858.74
425.374	845.36
425.816	855.7
426.258	871.36
426.699	878.47
427.141	864.87
427.582	876.78
428.024	871.53
428.465	865.63
428.907	845.69
429.348	834.13
429.789	832.64
430.231	814.15
430.672	825.25
431.113	802.64
431.554	794.26
431.995	773.33
432.436	745.05
432.877	727.35
433.318	713.67
433.759	710.02
434.2	709.51
434.64	701.06
435.081	703.05
435.522	664.53
435.962	641.21
436.403	626.84
436.843	633.68
437.284	618.86
437.724	602.61
438.164	603.44
438.604	590.56
439.045	568.31
439.485	545.54
439.925	534.4
440.365	521.17
440.805	514.04
441.245	506.29
441.685	487.56
442.125	484.06
442.564	485.08
443.004	473.46
443.444	471.12
443.883	472.06
444.323	465.88
444.762	463.55
445.202	467.84
445.641	474.88
446.081	470.86
446.52	472.85
446.959	468.22
447.398	457.99
447.837	452.64
448.276	444.11
448.716	446.71
449.154	449.76
449.593	440.38
450.032	438.94
450.471	429.96
450.91	429.15
451.349	429.68
451.787	425.43
452.226	431.55
452.664	429.51
453.103	429.23
453.541	426.69
453.98	427.04
454.418	429.16
454.856	422.57
455.295	420.48
455.733	424.07
456.171	425.11
456.609	428.09
457.047	426.99
457.485	434.36
457.923	434.97
458.361	429
458.798	430.05
459.236	429.49
459.674	432.36
460.111	435.89
460.549	431.66
460.987	429.66
461.424	427.2
461.862	426.22
462.299	420.22
462.736	420.31
463.173	423.15
463.611	421.06
464.048	420.74
464.485	426.24
464.922	422.29
465.359	420.73
465.796	420.3
466.233	418.22
466.67	415.1
467.106	414.48
467.543	410.28
467.98	404.85
468.416	393.1
468.853	389.53
469.29	377.31
469.726	372.73
470.162	363.56
470.599	355.67
471.035	352.15
471.471	343.12
471.907	340.91
472.344	338.82
472.78	339.74
473.216	343
473.652	339.02
474.088	337.19
474.523	336.96
474.959	340
475.395	337.02
475.831	335.43
476.266	337.29
476.702	336.56
477.138	334.35
477.573	333.75
478.008	333.08
478.444	335.41
478.879	339.3
479.314	340.58
479.75	340.19
480.185	341.69
480.62	343.61
481.055	345.32
481.49	347.57
481.925	352.03
482.36	358.63
482.795	367.89
483.229	376.62
483.664	384.79
484.099	386.21
484.534	392.31
484.968	396.63
485.403	398.34
485.837	398.21
486.271	397.73
486.706	397.71
487.14	392.75
487.574	387.32
488.009	384.1
488.443	380.96
488.877	386
489.311	386.99
489.745	391.91
490.179	395.73
490.613	404.21
491.046	408.37
491.48	412.46
491.914	413.95
492.348	417.66
492.781	421.43
493.215	423.03
493.648	423.91
494.082	427.97
494.515	429.14
494.948	435.48
495.382	439.33
495.815	443.56
496.248	448.59
496.681	457.87
497.114	466.34
497.547	474.67
497.98	485.65
498.413	492.57
498.846	501.1
499.279	507.88
499.711	512.73
500.144	515.67
500.577	524.02
501.009	531.95
501.442	541.13
501.874	545.15
502.306	547.79
502.739	555.06
503.171	566.62
503.603	570.98
504.036	579.9
504.468	586.69
504.9	596.92
505.332	604.52
505.764	611.05
506.196	618.82
506.627	631.19
507.059	643.99
507.491	652.6
507.923	654.53
508.354	668.34
508.786	678.82
509.217	693.74
509.649	707.51
510.08	723.95
510.512	739.15
510.943	752.84
511.374	763.41
511.805	780.73
512.237	797.58
512.668	823.38
513.099	846.89
513.53	869.94
513.961	889.1
514.391	914.61
514.822	942.1
515.253	971.77
515.684	993.77
516.114	1018.99
516.545	1037.09
516.975	1059.17
517.406	1075.23
517.836	1078.36
518.267	1085.64
518.697	1101.11
519.127	1107.38
519.558	1114.68
519.988	1119.73
520.418	1128.97
520.848	1143.3
521.278	1152.53
521.708	1175.02
522.138	1186.23
522.567	1211.73
522.997	1233
523.427	1245.84
523.857	1260.41
524.286	1269.7
524.716	1282.22
525.145	1297.75
525.575	1308.18
526.004	1319.79
526.433	1308.73
526.863	1310.01
527.292	1303.1
527.721	1307.96
528.15	1313.26
528.579	1313.58
529.008	1321.81
529.437	1339.61
529.866	1350.44
530.295	1363.98
530.724	1375.57
531.152	1397.28
531.581	1408.93
532.01	1424.39
532.438	1431.96
532.867	1444.42
533.295	1459.86
533.723	1466.02
534.152	1464.67
534.58	1465.3
535.008	1454.28
535.436	1455.78
535.865	1462.63
536.293	1475.19
536.721	1487.61
537.149	1508.18
537.576	1510.61
538.004	1522.46
538.432	1530.04
538.86	1530.65
539.287	1537.93
539.715	1549.89
540.143	1552.97
540.57	1551.2
540.998	1548.62
541.425	1531.46
541.852	1515.86
542.28	1515.2
542.707	1501.3
543.134	1490.74
543.561	1488.28
543.988	1482.24
544.415	1481.57
544.842	1476.97
545.269	1471.01
545.696	1473.48
546.123	1484.51
546.549	1476.06
546.976	1465.63
547.403	1466.28
547.829	1467.31
548.256	1468.01
548.682	1465.28
549.108	1460.49
549.535	1461.23
549.961	1462.71
550.387	1451.23
550.813	1446.05
551.24	1451.15
551.666	1451.74
552.092	1443.82
552.518	1438.12
552.943	1433.17
553.369	1438.64
553.795	1441.51
554.221	1441.5
554.646	1438.79
555.072	1447.84
555.498	1451.81
555.923	1458.23
556.349	1471.41
556.774	1478.54
557.199	1480.42
557.625	1485.37
558.05	1480.6
558.475	1489.08
558.9	1488.01
559.325	1480.88
559.75	1475.87
560.175	1469.73
560.6	1464.98
561.025	1462.77
561.449	1463.57
561.874	1467.51
562.299	1470.79
562.723	1476.91
563.148	1469.3
563.572	1472.24
563.997	1480.77
564.421	1483.71
564.846	1484.12
565.27	1488.27
565.694	1485.96
566.118	1494.88
566.542	1501.25
566.966	1496.17
567.39	1490.98
567.814	1481.23
568.238	1480.68
568.662	1484.6
569.086	1487.48
569.509	1494.11
569.933	1480.58
570.357	1474.85
570.78	1457.9
571.204	1447.25
571.627	1438.66
572.05	1438.22
572.474	1438.67
572.897	1429.26
573.32	1423.55
573.743	1415.48
574.166	1399.69
574.589	1399.06
575.012	1393.03
575.435	1392.15
575.858	1384.13
576.281	1375.07
576.704	1361.88
577.126	1352.17
577.549	1342.89
577.972	1333.62
578.394	1325.17
578.817	1320.32
579.239	1305.22
579.661	1294.55
580.084	1281.01
580.506	1270.52
580.928	1266.71
581.35	1257.74
581.772	1253.56
582.194	1242
582.616	1231.68
583.038	1219.25
583.46	1209.94
583.882	1206.79
584.303	1208.54
584.725	1204.74
585.147	1206.99
585.568	1215.86
585.99	1225.47
586.411	1229.74
586.833	1241.16
587.254	1242.88
587.675	1255.18
588.096	1265.92
588.518	1262.43
588.939	1248.99
589.36	1247.96
589.781	1238.39
590.202	1215.08
590.623	1207.44
591.043	1205.84
591.464	1195.97
591.885	1192.27
592.305	1186.59
592.726	1174.84
593.147	1175.54
593.567	1172.11
593.987	1166.59
594.408	1161.79
594.828	1159.73
595.248	1155.87
595.669	1142.07
596.089	1136.78
596.509	1132.07
596.929	1121.75
597.349	1121.91
597.769	1113.77
598.189	1107.69
598.608	1108.83
599.028	1110.45
599.448	1110.36
599.867	1099.91
600.287	1095.06
600.706	1091.04
601.126	1082.26
601.545	1080.25
601.965	1079.04
602.384	1074.47
602.803	1076
603.222	1071.41
603.641	1065.72
604.061	1063.26
604.48	1059.23
604.898	1065.55
605.317	1068.51
605.736	1069.66
606.155	1067.7
606.574	1059.63
606.992	1063.35
607.411	1060.56
607.829	1052.65
608.248	1049.18
608.666	1045.65
609.085	1045.22
609.503	1037.82
609.921	1033.44
610.339	1035.34
610.758	1033.94
611.176	1030.44
611.594	1022.24
612.012	1018.64
612.43	1021
612.847	1025.56
613.265	1025.94
613.683	1028.74
614.101	1029.46
614.518	1025.15
614.936	1016.43
615.353	1005.17
615.771	1002.24
616.188	1003.13
616.606	999.09
617.023	993.82
617.44	982.62
617.857	977.05
618.274	970.04
618.691	964.94
619.108	957.41
619.525	952.59
619.942	956.65
620.359	958.46
620.776	952.25
621.192	949.78
621.609	947.75
622.026	952.51
622.442	957.34
622.859	959.12
623.275	953.9
623.691	957.68
624.108	966.6
624.524	978.23
624.94	977.54
625.356	986.86
625.772	997.51
626.188	1005.89
626.604	1008
627.02	1004.9
627.436	1003.7
627.852	1008.74
628.268	1019.46
628.683	1012.49
629.099	1006.39
629.514	1003.58
629.93	1006.48
630.345	1008.51
630.761	1006.16
631.176	1008.31
631.591	1003.61
632.007	999.17
632.422	997.56
632.837	987.87
633.252	985.34
633.667	976.45
634.082	969.07
634.497	959.17
634.911	944.87
635.326	941.55
635.741	928.09
636.155	919.99
636.57	920.29
636.984	919.84
637.399	921.03
637.813	919.85
638.228	917.53
638.642	918.92
639.056	909.35
639.47	908.65
639.884	901.07
640.298	894.99
640.712	892.39
641.126	881.73
641.54	872.08
641.954	865.44
642.368	854.9
642.781	847.84
643.195	833.72
643.609	833.4
644.022	824.94
644.436	819.03
644.849	807.4
645.262	797.27
645.676	796.08
646.089	791.26
646.502	778.65
646.915	772.12
647.328	757.58
647.741	753.57
648.154	741.19
648.567	738.74
648.98	728.54
649.393	727.28
649.805	722.66
650.218	715.16
650.631	702.89
651.043	696.87
651.456	691.97
651.868	691.15
652.28	701.77
652.693	710.07
653.105	712.65
653.517	717.34
653.929	717.53
654.341	720.63
654.753	711.73
655.165	714.7
655.577	713.07
655.989	709.14
656.401	701.85
656.813	676.42
657.224	661.38
657.636	641.13
658.047	628.1
658.459	612.23
658.87	603.44
659.282	593.35
659.693	578.52
660.104	566.49
660.515	556.06
660.926	552.7
661.338	549.18
661.749	542.24
662.159	534.79
662.57	529.99
662.981	526.45
663.392	520.02
663.803	521.18
664.213	517.44
664.624	513.26
665.035	512.82
665.445	503.14
665.855	497.09
666.266	492.71
666.676	489.33
667.086	482.45
667.497	480.5
667.907	476.41
668.317	470.01
668.727	468.8
669.137	468.37
669.547	465.8
669.956	466.23
670.366	467
670.776	468.19
671.186	470.7
671.595	472.89
672.005	474.36
672.414	473.9
672.824	473.52
673.233	474.21
673.642	476.02
674.052	478.89
674.461	482.83
674.87	486.02
675.279	484.1
675.688	484.8
676.097	485.82
676.506	484.29
676.915	493.54
677.323	495.71
677.732	495.41
678.141	495.39
678.549	489.67
678.958	488.99
679.366	489
679.775	491.41
680.183	499.73
680.592	504.88
681	510.65
681.408	508.51
681.816	514.52
682.224	521.36
682.632	530.72
683.04	552.52
683.448	570.24
683.856	594.19
684.264	621.64
684.671	647.08
685.079	677.69
685.487	711.7
685.894	758.22
686.302	798.11
686.709	834.36
687.116	874.88
687.524	909.06
687.931	940.96
688.338	969.07
688.745	994.16
689.152	1023.28
689.559	1059.64
689.966	1096.06
690.373	1116.56
690.78	1153.22
691.187	1204.83
691.593	1244.8
692	1282.92
692.407	1334.86
692.813	1395.98
693.22	1446.97
693.626	1497.98
694.032	1539.22
694.439	1601.13
694.845	1650.67
695.251	1711.08
695.657	1766.07
696.063	1846.68
696.469	1906.68
696.875	1963.84
697.281	1998.24
697.687	2037.95
698.093	2070.68
698.498	2133.76
698.904	2183.99
699.31	2256.6
699.715	2309.24
700.12	2384.03
700.526	2399.12
700.931	2455.44
701.337	2496.39
