Data from C_2_DIV_WI_4N_Splice17_12-18-49-580.txt Node
Date: Sat Mar 14 12:18:49 EDT 2020
User: sa697716
Spectrometer: FLMS03696
Trigger mode: 0
Integration Time (sec): 3.180400E-1
Scans to average: 20
Electric dark correction enabled: true
Nonlinearity correction enabled: true
Boxcar width: 5
XAxis mode: Wavelengths
Number of Pixels in Spectrum: 2048
>>>>>Begin Spectral Data<<<<<
187.83	-306881.55
188.298	2325.73
188.766	1288.47
189.233	1156.34
189.701	1579.94
190.169	2127.31
190.636	778.5
191.104	572.93
191.571	81.58
192.039	-77.05
192.506	-100.57
192.974	348.49
193.441	-226.45
193.908	275.14
194.375	59.49
194.842	79.87
195.31	105.29
195.777	156.54
196.244	356.76
196.711	461.03
197.177	599.08
197.644	837.65
198.111	1467.21
198.578	2016.47
199.045	1626.13
199.511	2708.14
199.978	3161.63
200.445	2705.81
200.911	2995.06
201.378	3353.7
201.844	3057.39
202.31	5167.13
202.777	5393.51
203.243	2994.62
203.709	2864.33
204.176	3417.66
204.642	2818.28
205.108	2648.57
205.574	2151.07
206.04	1959.43
206.506	1830.74
206.972	1718.49
207.438	1682.17
207.903	1928.67
208.369	1694.46
208.835	1694.63
209.301	1758.28
209.766	1793.39
210.232	1770.66
210.697	2196.63
211.163	2702.01
211.628	4077.49
212.094	3428.8
212.559	4213.62
213.024	2620.6
213.49	3210.33
213.955	3139.63
214.42	3093.15
214.885	2895.29
215.35	2799.58
215.815	2697.27
216.28	2882.9
216.745	2371.75
217.21	2574.56
217.675	2365.67
218.14	2663.77
218.604	2999.45
219.069	3448.83
219.534	3634.43
219.998	4260.68
220.463	5184.29
220.927	6447.29
221.392	6105.95
221.856	6182.24
222.32	7824.09
222.785	9698.59
223.249	12267.56
223.713	13725.73
224.177	13714.63
224.642	17644.87
225.106	21730.49
225.57	23770.76
226.034	17697.85
226.497	26938.47
226.961	24362.26
227.425	28393.06
227.889	31575.56
228.353	31609.26
228.816	65262.83
229.28	62530.81
229.744	52805.15
230.207	32095.69
230.671	31624.53
231.134	52335.1
231.597	60298.16
232.061	60263.83
232.524	58832.79
232.987	40484.78
233.45	36433.78
233.914	32669.07
234.377	33472.32
234.84	30621.89
235.303	36115.55
235.766	40242.92
236.229	41537.78
236.691	26165.54
237.154	29410.22
237.617	22089.81
238.08	22593.2
238.542	26417.6
239.005	18859.72
239.468	18694.22
239.93	17598.04
240.393	16002.11
240.855	14046.1
241.317	14376.86
241.78	17490.98
242.242	18072.72
242.704	19519.96
243.166	17005.62
243.629	15432.23
244.091	17778.53
244.553	19478.27
245.015	20932.36
245.477	27042.14
245.939	39639.86
246.4	42025.49
246.862	40807.56
247.324	38454.2
247.786	42983.43
248.247	56329.29
248.709	58136.47
249.17	43451.81
249.632	40910.56
250.093	47348.65
250.555	40850.59
251.016	24854.01
251.477	23558.4
251.939	25396.17
252.4	26609.23
252.861	31623.32
253.322	29347.56
253.783	34847.22
254.244	45156.58
254.705	35589.5
255.166	31630.24
255.627	31090.44
256.088	43847.05
256.549	46591.28
257.009	40115.7
257.47	48636
257.931	39593.29
258.391	29682.74
258.852	30579.2
259.312	32062.87
259.773	39600.65
260.233	33446.88
260.694	28214.65
261.154	32007.6
261.614	25645.28
262.074	22937.56
262.534	23843.76
262.994	22435.27
263.455	29864.11
263.915	25166.28
264.374	23673.35
264.834	25858.27
265.294	28660.27
265.754	29676.18
266.214	28085.86
266.673	26330.34
267.133	33195.58
267.593	32934.33
268.052	40334.07
268.512	35038.28
268.971	42252.03
269.431	46336.23
269.89	41457.49
270.349	62120.7
270.809	69217.52
271.268	62175.48
271.727	139353.56
272.186	90276.19
272.645	67604.98
273.104	48729.7
273.563	70577.02
274.022	55477.94
274.481	47162.73
274.94	36318.9
275.399	26982.48
275.857	31407.96
276.316	42459.76
276.775	37767.05
277.233	37134.64
277.692	34738.67
278.15	39252.3
278.609	40350.72
279.067	37319.56
279.525	34642.23
279.984	44698.81
280.442	53670.83
280.9	52873.09
281.358	34733.33
281.816	32343.11
282.274	31695.11
282.732	32728.26
283.19	32917.66
283.648	28413.54
284.106	30258.89
284.564	30772.53
285.021	28508.58
285.479	21243.09
285.937	19321.77
286.394	16960.91
286.852	17454.38
287.309	18307.94
287.767	17679.99
288.224	16783.95
288.682	18403.03
289.139	20193.12
289.596	18457.82
290.053	19170.82
290.511	24177.55
290.968	29282.76
291.425	39711.3
291.882	33009.85
292.339	28702.53
292.796	28467.41
293.252	26809.42
293.709	21295.75
294.166	19066.04
294.623	21061.49
295.079	20181.39
295.536	20263.06
295.992	18384.7
296.449	18159.39
296.905	18855.26
297.362	18084
297.818	19003.04
298.274	19707.01
298.731	20033.3
299.187	19796.61
299.643	21254.02
300.099	25707.85
300.555	28169.3
301.011	23525.59
301.467	22659.19
301.923	26521.28
302.379	25878.32
302.835	25421.58
303.291	25422.7
303.746	28948.57
304.202	36555.31
304.658	36647.63
305.113	24636.66
305.569	24127.86
306.024	25683.08
306.479	24447.79
306.935	20598.54
307.39	22487.09
307.845	20757.34
308.301	20879.27
308.756	20343.9
309.211	19595.75
309.666	20069.87
310.121	24926.32
310.576	25273.04
311.031	25076.51
311.486	28720.59
311.94	28697.14
312.395	38335.1
312.85	71946.15
313.305	353427.12
313.759	1828139.43
314.214	132482.5
314.668	104928.85
315.123	88158.24
315.577	31606.84
316.032	28105.12
316.486	35184.91
316.94	27698.4
317.394	19261.34
317.849	14954.49
318.303	14136.28
318.757	13331.7
319.211	14709.07
319.665	12865.46
320.119	12997.99
320.572	18611.68
321.026	17406.32
321.48	14473.02
321.934	15768.08
322.387	15795.5
322.841	17063.1
323.295	15324.98
323.748	17631.28
324.202	17881.72
324.655	21467.69
325.108	30022.13
325.562	21204.14
326.015	25138.81
326.468	18984.71
326.921	21236.6
327.374	19806.05
327.827	20625.97
328.28	23345.56
328.733	15643.73
329.186	13783.27
329.639	13139.05
330.092	11059.83
330.545	10534.71
330.997	10633.75
331.45	11620.9
331.903	13618.51
332.355	23416.3
332.808	22737.77
333.26	18792.12
333.713	20386.05
334.165	20507.49
334.617	27370.51
335.069	22080
335.522	39861.45
335.974	44116.92
336.426	40324.79
336.878	27924.3
337.33	14164.16
337.782	13833.02
338.234	17268.58
338.686	20649.67
339.137	24433.73
339.589	22964.35
340.041	17991.77
340.493	15463.38
340.944	15822.16
341.396	16986.05
341.847	14258.17
342.299	16798.51
342.75	20491.21
343.201	17920.87
343.653	20562.53
344.104	25275.29
344.555	19900
345.006	30976.25
345.457	23708.01
345.908	18814.5
346.359	17705.48
346.81	14406.78
347.261	15188.56
347.712	14922.42
348.163	15967.6
348.613	16167.28
349.064	15063.91
349.515	13170.74
349.965	13495.11
350.416	16258.4
350.866	17837.63
351.317	20151.52
351.767	33411.3
352.217	42184.66
352.668	35031.65
353.118	32111.29
353.568	30960.84
354.018	24454.39
354.468	25821.86
354.918	18505.84
355.368	16180.91
355.818	22851.06
356.268	65798.18
356.718	275192.73
357.168	68467.88
357.617	34370.15
358.067	38199.01
358.517	35778.64
358.966	41976.81
359.416	47022.91
359.865	50927.37
360.315	60649.31
360.764	28363.78
361.213	15869.78
361.663	15015.78
362.112	18560.05
362.561	29946.43
363.01	22578.77
363.459	18979.96
363.908	20534.82
364.357	17438.21
364.806	29357.31
365.255	20153.05
365.703	18449.07
366.152	18521.24
366.601	15046.28
367.05	12197.71
367.498	11097.16
367.947	11599.15
368.395	12111.24
368.844	10737.48
369.292	12976.95
369.74	9000.26
370.189	13811.12
370.637	16229.98
371.085	14023.4
371.533	17087.3
371.981	16515.49
372.429	15769.32
372.877	16473.42
373.325	13803.34
373.773	14123.03
374.221	12609.14
374.669	15666.9
375.116	13569.58
375.564	13692.93
376.012	15360.86
376.459	12706.1
376.907	15231.5
377.354	18475.18
377.801	17281.83
378.249	19923.94
378.696	25493.45
379.143	30878.9
379.591	33011.65
380.038	56116.04
380.485	40724.54
380.932	44118.88
381.379	40583.37
381.826	29936.81
382.273	21362.12
382.72	18725.64
383.166	18306.38
383.613	11943.78
384.06	10822.05
384.506	12598.05
384.953	9282.88
385.4	9376.2
385.846	8243.67
386.292	8048.81
386.739	7914.04
387.185	7860.29
387.631	7893.89
388.078	7708.55
388.524	8270.19
388.97	7674.99
389.416	6422.68
389.862	6851.15
390.308	6509.78
390.754	6633.87
391.2	7225.63
391.645	7415.87
392.091	7110.65
392.537	6894.24
392.983	6905.97
393.428	6799.27
393.874	7281.71
394.319	7313.58
394.765	6940.15
395.21	7137.91
395.655	6679.81
396.101	6254.76
396.546	5640.5
396.991	5679.53
397.436	5267.29
397.881	5083.11
398.326	4813.37
398.771	4552.56
399.216	3971.2
399.661	3573.2
400.106	3551.38
400.551	3631.13
400.995	3246.89
401.44	3202.9
401.885	3002.13
402.329	3023.86
402.774	2890.77
403.218	2791.83
403.663	2680.61
404.107	2744.56
404.551	2751.88
404.995	2516.11
405.44	2418.38
405.884	2448.29
406.328	2360.76
406.772	2346.84
407.216	2128.72
407.66	2051.48
408.104	1934.7
408.547	1804.85
408.991	1741.71
409.435	1674.15
409.879	1644.87
410.322	1618.16
410.766	1556.62
411.209	1476.16
411.653	1409.82
412.096	1380.78
412.54	1375.93
412.983	1364.95
413.426	1364.7
413.869	1360.54
414.312	1331.93
414.756	1279.86
415.199	1217.66
415.642	1179.74
416.085	1177.53
416.527	1169.94
416.97	1184.24
417.413	1122.66
417.856	1110.07
418.298	1096.95
418.741	1085.36
419.184	1076.44
419.626	1118.97
420.069	1115.51
420.511	1119.19
420.953	1094.56
421.396	1081.04
421.838	1051.17
422.28	1074.1
422.722	1077.55
423.164	1089.81
423.606	1073.32
424.048	1072.28
424.49	1016.65
424.932	1011.35
425.374	994.12
425.816	1010.21
426.258	1027.97
426.699	1037.88
427.141	1020.93
427.582	1033.51
428.024	1025.76
428.465	1013.88
428.907	985.39
429.348	974.55
429.789	973.78
430.231	955.39
430.672	966.12
431.113	943.06
431.554	928.3
431.995	904.03
432.436	873.52
432.877	854.58
433.318	840.81
433.759	836.9
434.2	835.97
434.64	825.96
435.081	826.08
435.522	783.62
435.962	753.62
436.403	738.11
436.843	746.79
437.284	729.83
437.724	711.1
438.164	712.56
438.604	698.1
439.045	672.32
439.485	645.67
439.925	632.77
440.365	617.15
440.805	610.38
441.245	601.98
441.685	580.26
442.125	576.27
442.564	579.52
443.004	568.05
443.444	567.65
443.883	568.43
444.323	565.15
444.762	566.34
445.202	573.8
445.641	585.01
446.081	582.32
446.52	589.15
446.959	583.88
447.398	571.45
447.837	565.88
448.276	557.14
448.716	564.79
449.154	569.7
449.593	558.59
450.032	557.66
450.471	547.84
450.91	551.28
451.349	550.79
451.787	549.04
452.226	557.43
452.664	557.54
453.103	558.67
453.541	557.78
453.98	557.29
454.418	559.83
454.856	552.37
455.295	552.65
455.733	555.17
456.171	557.59
456.609	560.16
457.047	560.66
457.485	570.03
457.923	572.1
458.361	564.43
458.798	566.98
459.236	567.53
459.674	571.96
460.111	575.26
460.549	570.19
460.987	568.78
461.424	564.79
461.862	561.76
462.299	552.39
462.736	551.33
463.173	552.78
463.611	547.37
464.048	544.82
464.485	547.94
464.922	541.09
465.359	537.64
465.796	532.37
466.233	529.83
466.67	525.6
467.106	524.26
467.543	518.05
467.98	511.69
468.416	497.52
468.853	494.44
469.29	480.12
469.726	474.97
470.162	463.34
470.599	456.78
471.035	451.74
471.471	440.64
471.907	437.93
472.344	435.25
472.78	436.12
473.216	441.04
473.652	434.2
474.088	433.09
474.523	432.55
474.959	435.13
475.395	429.77
475.831	427.38
476.266	428.72
476.702	426.61
477.138	421.69
477.573	419.78
478.008	417.87
478.444	420.69
478.879	424.53
479.314	425.62
479.75	425.86
480.185	427.56
480.62	430.76
481.055	433.26
481.49	436.86
481.925	443.77
482.36	452
482.795	464.52
483.229	476.87
483.664	486.62
484.099	489.4
484.534	497.39
484.968	502.85
485.403	504.54
485.837	504.63
486.271	504.12
486.706	504.89
487.14	500.04
487.574	493.29
488.009	488.7
488.443	485.35
488.877	490.59
489.311	493.22
489.745	499.98
490.179	506.18
490.613	516.87
491.046	522.23
491.48	526.86
491.914	528.89
492.348	534.6
492.781	540.04
493.215	542.78
493.648	545.25
494.082	550.08
494.515	552.25
494.948	560.12
495.382	565.79
495.815	571.95
496.248	579.52
496.681	592.59
497.114	604.34
497.547	615.97
497.98	630.44
498.413	639.71
498.846	652.16
499.279	662.83
499.711	669.78
500.144	675.15
500.577	688.46
501.009	701.9
501.442	714.58
501.874	720.18
502.306	725.84
502.739	736.97
503.171	753.97
503.603	761.77
504.036	774.64
504.468	785.44
504.9	801.19
505.332	811.69
505.764	820.09
506.196	830.77
506.627	848.66
507.059	865.83
507.491	878.69
507.923	881.67
508.354	900.41
508.786	916.22
509.217	937.85
509.649	956.86
510.08	979.87
510.512	1001.35
510.943	1021.42
511.374	1037.22
511.805	1062.36
512.237	1086.04
512.668	1122.2
513.099	1154.5
513.53	1185.23
513.961	1210.74
514.391	1247.02
514.822	1284.98
515.253	1324.24
515.684	1354.65
516.114	1389
516.545	1414.27
516.975	1444.6
517.406	1467.4
517.836	1473.14
518.267	1483.56
518.697	1504.69
519.127	1512.11
519.558	1523.01
519.988	1531.07
520.418	1544.28
520.848	1565.29
521.278	1576.39
521.708	1583.86
522.138	1600.04
522.567	1634.53
522.997	1664.62
523.427	1683.21
523.857	1702.88
524.286	1714.94
524.716	1733.25
525.145	1754.8
525.575	1767.74
526.004	1785.94
526.433	1794.97
526.863	1796.19
527.292	1786.23
527.721	1792.1
528.15	1800.39
528.579	1802.18
529.008	1815.35
529.437	1840.81
529.866	1856.73
530.295	1876.52
530.724	1889.45
531.152	1919.83
531.581	1936.49
532.01	1957.43
532.438	1967.2
532.867	1982.71
533.295	2005
533.723	2013.16
534.152	2011.39
534.58	2011.17
535.008	1994.54
535.436	1998.02
535.865	2005.96
536.293	2022.34
536.721	2039.96
537.149	2068.78
537.576	2071.83
538.004	2085.24
538.432	2092.62
538.86	2091.1
539.287	2099.62
539.715	2115.78
540.143	2119.87
540.57	2115.99
540.998	2111.81
541.425	2087.33
541.852	2064.03
542.28	2063.1
542.707	2045.49
543.134	2030.87
543.561	2025.75
543.988	2018.2
544.415	2015.83
544.842	2008.36
545.269	2001.54
545.696	2002.63
546.123	2015.98
546.549	2005.09
546.976	1990.66
547.403	1989.4
547.829	1992.04
548.256	1994.47
548.682	1988.33
549.108	1980.42
549.535	1980.58
549.961	1981.64
550.387	1967.48
550.813	1960.78
551.24	1967.22
551.666	1967.28
552.092	1955.98
552.518	1948.29
552.943	1940.05
553.369	1947.82
553.795	1953.8
554.221	1953.97
554.646	1950.23
555.072	1961.65
555.498	1966.17
555.923	1975.67
556.349	1992.67
556.774	2003.1
557.199	2003.87
557.625	2010.62
558.05	2004.28
558.475	2015.1
558.9	2013.39
559.325	2003.88
559.75	1996.17
560.175	1989.49
560.6	1981.01
561.025	1976.98
561.449	1976.08
561.874	1980.92
562.299	1984.09
562.723	1991.79
563.148	1980.34
563.572	1983.33
563.997	1993.32
564.421	1997.69
564.846	1996.91
565.27	1999.73
565.694	1997.14
566.118	2009.25
566.542	2016.5
566.966	2009.3
567.39	2002.71
567.814	1988.97
568.238	1987.91
568.662	1992.21
569.086	1993.84
569.509	2000.07
569.933	1982.87
570.357	1973.66
570.78	1948.53
571.204	1932.74
571.627	1919.06
572.05	1915.62
572.474	1914.34
572.897	1900.04
573.32	1890.01
573.743	1878.48
574.166	1857.75
574.589	1857.58
575.012	1847.49
575.435	1845.59
575.858	1835.18
576.281	1822.44
576.704	1804.26
577.126	1790.42
577.549	1776.57
577.972	1764.54
578.394	1751.71
578.817	1742.73
579.239	1720.93
579.661	1705.95
580.084	1688.13
580.506	1671.72
580.928	1666.86
581.35	1653.62
581.772	1647.1
582.194	1632.64
582.616	1619.03
583.038	1602.97
583.46	1591.86
583.882	1587.1
584.303	1590.33
584.725	1584.97
585.147	1586.67
585.568	1596.85
585.99	1608.95
586.411	1615.6
586.833	1630.5
587.254	1631.53
587.675	1646.68
588.096	1659.04
588.518	1652.85
588.939	1634.6
589.36	1632.14
589.781	1620.68
590.202	1590.97
590.623	1581.37
591.043	1577.78
591.464	1562.87
591.885	1557.78
592.305	1550.47
592.726	1535.36
593.147	1535.95
593.567	1529.22
593.987	1520.96
594.408	1515.23
594.828	1512.09
595.248	1504.43
595.669	1485.57
596.089	1477.64
596.509	1470.11
596.929	1455.1
597.349	1455.12
597.769	1444.31
598.189	1438.06
598.608	1438.01
599.028	1438.88
599.448	1438.31
599.867	1426.5
600.287	1420.46
600.706	1416.27
601.126	1405.98
601.545	1405.57
601.965	1403.25
602.384	1397.43
602.803	1399.18
603.222	1394.18
603.641	1388.13
604.061	1383.25
604.48	1378.4
604.898	1386.74
605.317	1390
605.736	1390.89
606.155	1386.06
606.574	1376.17
606.992	1380.34
607.411	1374.79
607.829	1365.14
608.248	1360.54
608.666	1357.15
609.085	1354.75
609.503	1345.09
609.921	1338.56
610.339	1339.62
610.758	1338.52
611.176	1333.51
611.594	1322.69
612.012	1318.67
612.43	1321
612.847	1325.36
613.265	1325.76
613.683	1328.84
614.101	1328.04
614.518	1322.88
614.936	1311.36
615.353	1294.17
615.771	1288.87
616.188	1288.11
616.606	1283.03
617.023	1274.67
617.44	1259.93
617.857	1251.55
618.274	1242.31
618.691	1235.79
619.108	1225.54
619.525	1218.11
619.942	1224.19
620.359	1225.88
620.776	1219.81
621.192	1214.66
621.609	1212.39
622.026	1217.72
622.442	1222.63
622.859	1225.58
623.275	1217.25
623.691	1221.54
624.108	1233.09
624.524	1246.23
624.94	1245.25
625.356	1255.02
625.772	1267.16
626.188	1276.71
626.604	1278.37
627.02	1274.34
627.436	1271.51
627.852	1278.92
628.268	1290.27
628.683	1281.55
629.099	1273.98
629.514	1269.91
629.93	1272.69
630.345	1277.1
630.761	1273.92
631.176	1276.47
631.591	1269.79
632.007	1262.91
632.422	1259.72
632.837	1246.94
633.252	1242.5
633.667	1230.53
634.082	1219.5
634.497	1206.46
634.911	1185.56
635.326	1179.72
635.741	1160.86
636.155	1149.03
636.57	1148.84
636.984	1146.51
637.399	1147.59
637.813	1144.65
638.228	1141.54
638.642	1142.03
639.056	1128.89
639.47	1126.17
639.884	1114.81
640.298	1106.12
640.712	1102.45
641.126	1086.05
641.54	1072.9
641.954	1062.9
642.368	1048.07
642.781	1037.54
643.195	1019.36
643.609	1015.56
644.022	1006.74
644.436	999.95
644.849	984.99
645.262	970.03
645.676	968.56
646.089	961.77
646.502	946.33
646.915	939.18
647.328	920.75
647.741	915.87
648.154	902.98
648.567	898.21
648.98	884.42
649.393	883.49
649.805	879.8
650.218	871.26
650.631	855.91
651.043	849.99
651.456	843.16
651.868	842.03
652.28	854.92
652.693	864.55
653.105	867.62
653.517	873.94
653.929	871.27
654.341	873.29
654.753	862
655.165	866.37
655.577	860.25
655.989	854.33
656.401	844.62
656.813	812.58
657.224	792.69
657.636	766.4
658.047	749.76
658.459	732.05
658.87	722.03
659.282	708.93
659.693	688.9
660.104	675.02
660.515	660.75
660.926	655.43
661.338	649.44
661.749	641.6
662.159	631.34
662.57	624.59
662.981	617.5
663.392	608.3
663.803	608.07
664.213	603.35
664.624	596.34
665.035	595.91
665.445	584.39
665.855	576.86
666.266	569.06
666.676	565.86
667.086	555.93
667.497	552.86
667.907	546.39
668.317	538.05
668.727	534.9
669.137	534.44
669.547	531.06
669.956	531.45
670.366	531.46
670.776	531.23
671.186	533.87
671.595	537.03
672.005	539.52
672.414	539.53
672.824	539.49
673.233	540.44
673.642	542.29
674.052	544.86
674.461	547.35
674.87	551.24
675.279	551.44
675.688	552.75
676.097	554.82
676.506	554.64
676.915	566.14
677.323	569.15
677.732	570.91
678.141	571.28
678.549	566
678.958	566.89
679.366	568.73
679.775	573.85
680.183	583.57
680.592	590.55
681	597.53
681.408	595.58
681.816	604.09
682.224	613.53
682.632	627.34
683.04	656.47
683.448	680.25
683.856	710.01
684.264	743.19
684.671	776.13
685.079	814.77
685.487	858.06
685.894	916.83
686.302	967.75
686.709	1013.25
687.116	1063.8
687.524	1106.12
687.931	1146.95
688.338	1183.93
688.745	1218.82
689.152	1255.43
689.559	1302.96
689.966	1350.68
690.373	1379.45
690.78	1426.41
691.187	1494.41
691.593	1548.49
692	1596.35
692.407	1663.69
692.813	1743.02
693.22	1809.49
693.626	1879.02
694.032	1935.9
694.439	2017.36
694.845	2081.53
695.251	2162.59
695.657	2235.25
696.063	2340.79
696.469	2422.35
696.875	2498.84
697.281	2547.64
697.687	2601.81
698.093	2647.2
