Data from C_2_DEC_VA_2N_Splice17_12-08-29-810.txt Node
Date: Sat Mar 14 12:08:29 EDT 2020
User: sa697716
Spectrometer: FLMS03696
Trigger mode: 0
Integration Time (sec): 3.180400E-1
Scans to average: 20
Electric dark correction enabled: true
Nonlinearity correction enabled: true
Boxcar width: 5
XAxis mode: Wavelengths
Number of Pixels in Spectrum: 2048
>>>>>Begin Spectral Data<<<<<
187.83	-296165.79
188.298	2128.43
188.766	1083.71
189.233	953.33
189.701	1405.8
190.169	2093.41
190.636	773.59
191.104	582.01
191.571	89.6
192.039	-66.91
192.506	-107.45
192.974	401.52
193.441	-867.1
193.908	-397.98
194.375	-167.71
194.842	-53.8
195.31	60.34
195.777	117.14
196.244	318
196.711	438.78
197.177	589.24
197.644	875.3
198.111	1510.41
198.578	2153.29
199.045	1721.82
199.511	2837.63
199.978	3300.45
200.445	2806.74
200.911	3133.29
201.378	3499.36
201.844	3166.42
202.31	5376.93
202.777	5535.4
203.243	3087.81
203.709	2935.09
204.176	3502.83
204.642	2887.65
205.108	2685.84
205.574	2192.96
206.04	1995.61
206.506	1876.76
206.972	1776.19
207.438	1719.72
207.903	1959.06
208.369	1714.4
208.835	1714.14
209.301	1789.32
209.766	1824.28
210.232	1809.69
210.697	2230.65
211.163	2736.17
211.628	4115.08
212.094	3439.8
212.559	4189.2
213.024	2602.07
213.49	3145.41
213.955	3054.77
214.42	2951.65
214.885	2733.43
215.35	2603.39
215.815	2503.29
216.28	2652.37
216.745	2127.36
217.21	2269.14
217.675	2061.65
218.14	2281.55
218.604	2507.41
219.069	2797.9
219.534	2909.35
219.998	3332
220.463	3986.95
220.927	4795.63
221.392	4457.17
221.856	4477.95
222.32	5598.82
222.785	6836.74
223.249	8556.46
223.713	9502.2
224.177	9471.35
224.642	12081.55
225.106	14786.48
225.57	16095.52
226.034	11979.3
226.497	18188.51
226.961	16405.34
227.425	19048.81
227.889	21148.77
228.353	21111.29
228.816	43523.54
229.28	41603.77
229.744	35022.06
230.207	21281.73
230.671	20906.77
231.134	34547.49
231.597	39806.26
232.061	39839.47
232.524	38823.17
232.987	26676.16
233.45	24002.88
233.914	21490.5
234.377	22006.05
234.84	20127.1
235.303	23719.44
235.766	26461.3
236.229	27319.94
236.691	17187.28
237.154	19286.57
237.617	14498.28
238.08	14864.34
238.542	17400.29
239.005	12456.84
239.468	12370.41
239.93	11674.06
240.393	10634.36
240.855	9335.68
241.317	9562.19
241.78	11632.84
242.242	12033.91
242.704	13019.88
243.166	11338.42
243.629	10297.71
244.091	11856.77
244.553	12991.07
245.015	13952.87
245.477	18023.51
245.939	26409.42
246.4	28031.15
246.862	27243.05
247.324	25642.84
247.786	28670.25
248.247	37541.77
248.709	38728.04
249.17	28928.6
249.632	27268.15
250.093	31629.5
250.555	27281.07
251.016	16653.27
251.477	15783.55
251.939	17020.73
252.4	17832.28
252.861	21177.18
253.322	19691.26
253.783	23393.33
254.244	30378.21
254.705	23894.2
255.166	21223.97
255.627	20890.5
256.088	29425.86
256.549	31234.96
257.009	26875.98
257.47	32572.68
257.931	26517.97
258.391	19869.9
258.852	20475.45
259.312	21421.08
259.773	26445.03
260.233	22325.07
260.694	18794.08
261.154	21270.47
261.614	17048.08
262.074	15212.44
262.534	15786.97
262.994	14845.4
263.455	19694.59
263.915	16555.47
264.374	15557.81
264.834	16942.62
265.294	18718.65
265.754	19345.33
266.214	18276.34
266.673	17106.94
267.133	21557.91
267.593	21350.97
268.052	26088.03
268.512	22671.57
268.971	27325.74
269.431	29911.32
269.89	26758.39
270.349	40042.18
270.809	44638.39
271.268	40108.79
271.727	89725.16
272.186	58009.57
272.645	43482.38
273.104	31318.38
273.563	45330.59
274.022	35578.68
274.481	30264.28
274.94	23331.48
275.399	17341.01
275.857	20174.32
276.316	27255.68
276.775	24242.15
277.233	23909.23
277.692	22382.84
278.15	25307.28
278.609	26041.7
279.067	24115.74
279.525	22430.54
279.984	28896.49
280.442	34742.67
280.9	34301.19
281.358	22596.68
281.816	21066
282.274	20622.44
282.732	21300.88
283.19	21429.3
283.648	18503.91
284.106	19691.46
284.564	20027.98
285.021	18623.27
285.479	13872.52
285.937	12599.74
286.394	11071.12
286.852	11391.54
287.309	11972.81
287.767	11588.74
288.224	11037.51
288.682	12107.77
289.139	13324.85
289.596	12196.75
290.053	12657.54
290.511	15971.44
290.968	19352.59
291.425	26163.87
291.882	21821.58
292.339	18984.51
292.796	18823.62
293.252	17715.92
293.709	14055.76
294.166	12572.93
294.623	13872.1
295.079	13294.69
295.536	13357.87
295.992	12139.58
296.449	12027.07
296.905	12480.73
297.362	11979.13
297.818	12601.73
298.274	13066.64
298.731	13322.5
299.187	13174.77
299.643	14161.68
300.099	17141.97
300.555	18794.94
301.011	15715
301.467	15161.39
301.923	17746.94
302.379	17326.85
302.835	16994.28
303.291	17032.97
303.746	19399.07
304.202	24516.82
304.658	24598.62
305.113	16573.64
305.569	16251.69
306.024	17324.2
306.479	16470.74
306.935	13913.01
307.39	15205.19
307.845	14049.15
308.301	14160.59
308.756	13823.43
309.211	13346.37
309.666	13691.35
310.121	16992.2
310.576	17291.68
311.031	17162.1
311.486	19724.47
311.94	19725.46
312.395	26427.87
312.85	49802.86
313.305	244429.67
313.759	1266812.45
314.214	91958.6
314.668	73004.68
315.123	61596.69
315.577	22077.5
316.032	19681.74
316.486	24600.74
316.94	19395.96
317.394	13492.25
317.849	10510.55
318.303	9947.89
318.757	9390.9
319.211	10383.41
319.665	9084.66
320.119	9174.19
320.572	13136.98
321.026	12255.39
321.48	10214.75
321.934	11137.83
322.387	11157.56
322.841	12029.78
323.295	10840.65
323.748	12454.57
324.202	12634.94
324.655	15172.95
325.108	21214.61
325.562	15000.55
326.015	17833.22
326.468	13477.68
326.921	15076.92
327.374	14080.75
327.827	14669.57
328.28	16582.02
328.733	11124.26
329.186	9790.73
329.639	9332.02
330.092	7866.42
330.545	7511.29
330.997	7584.7
331.45	8295.87
331.903	9734.67
332.355	16711.02
332.808	16226.91
333.26	13417.35
333.713	14593.15
334.165	14681.52
334.617	19556.05
335.069	15816.95
335.522	28601.62
335.974	31698.34
336.426	28965.69
336.878	20073.05
337.33	10202.68
337.782	9969.55
338.234	12479.09
338.686	14924.31
339.137	17712.57
339.589	16725.47
340.041	13113.41
340.493	11262.78
340.944	11519.38
341.396	12389.32
341.847	10407.85
342.299	12293.81
342.75	15010.67
343.201	13094.3
343.653	15032.94
344.104	18467.43
344.555	14545.35
345.006	22562.86
345.457	17309.89
345.908	13772.43
346.359	12969.61
346.81	10573.52
347.261	11126.2
347.712	10939.88
348.163	11702.86
348.613	11852.9
349.064	11056.85
349.515	9671.65
349.965	9926.7
350.416	11938.77
350.866	13101.35
351.317	14803.37
351.767	24475.29
352.217	30936.45
352.668	25707.27
353.118	23622.44
353.568	22778.66
354.018	17998.59
354.468	19022.45
354.918	13677.67
355.368	11962.22
355.818	16906.37
356.268	48664.93
356.718	204383.87
357.168	50935.94
357.617	25550.82
358.067	28533.56
358.517	26717.2
358.966	31418.42
359.416	35145.24
359.865	37928.64
360.315	45145.53
360.764	21050.19
361.213	11796.26
361.663	11138.22
362.112	13732.95
362.561	22210.86
363.01	16689.61
363.459	14078.54
363.908	15196.81
364.357	12941.39
364.806	21851.95
365.255	15017.78
365.703	13785.28
366.152	13847.22
366.601	11243.52
367.05	9143.49
367.498	8306.72
367.947	8681.57
368.395	9039.48
368.844	8022.16
369.292	9663.44
369.74	6689.15
370.189	10254.46
370.637	11994.7
371.085	10327
371.533	12573.49
371.981	12148.42
372.429	11623.15
372.877	12120.88
373.325	10142.53
373.773	10337.88
374.221	9213.51
374.669	11451.55
375.116	9941.51
375.564	10080.99
376.012	11318.34
376.459	9363.77
376.907	11170.08
377.354	13514.96
377.801	12697.3
378.249	14645.19
378.696	18762
379.143	22860.66
379.591	24417.22
380.038	41398.35
380.485	30011.27
380.932	32489.25
381.379	29938.32
381.826	22224.55
382.273	15859.46
382.72	13896.92
383.166	13609.15
383.613	8878.81
384.06	8033.08
384.506	9367.85
384.953	6905.49
385.4	6985.91
385.846	6162.56
386.292	6035.08
386.739	5924.21
387.185	5916.25
387.631	5957.23
388.078	5823.27
388.524	6278.9
388.97	5843.77
389.416	4910.94
389.862	5273.7
390.308	5035.59
390.754	5150.4
391.2	5637.07
391.645	5823.34
392.091	5616.41
392.537	5470.33
392.983	5536.52
393.428	5505.82
393.874	5943.71
394.319	6032.12
394.765	5767.68
395.21	5980.15
395.655	5651.97
396.101	5333.18
396.546	4854.09
396.991	4927.53
397.436	4612.87
397.881	4481.88
398.326	4275.07
398.771	4076.78
399.216	3583.43
399.661	3256.6
400.106	3272.6
400.551	3385.39
400.995	3064.85
401.44	3055.21
401.885	2896.68
402.329	2946.38
402.774	2848.74
403.218	2777.33
403.663	2696.62
404.107	2789.24
404.551	2827.49
404.995	2608.15
405.44	2528.69
405.884	2579.44
406.328	2507.6
406.772	2509.42
407.216	2298.4
407.66	2236.96
408.104	2131.55
408.547	2006.35
408.991	1949.97
409.435	1883.84
409.879	1865.57
410.322	1846.23
410.766	1791.34
411.209	1710.44
411.653	1651.04
412.096	1625.48
412.54	1630.61
412.983	1628.16
413.426	1639.08
413.869	1645.53
414.312	1622.07
414.756	1568.81
415.199	1503.98
415.642	1464.71
416.085	1471.06
416.527	1463.51
416.97	1490.09
417.413	1417.67
417.856	1407
418.298	1395.22
418.741	1389.99
419.184	1389.72
419.626	1452.96
420.069	1455.05
420.511	1464.15
420.953	1437.23
421.396	1425.1
421.838	1391.12
422.28	1425.1
422.722	1433.22
423.164	1453.47
423.606	1430.57
424.048	1427.85
424.49	1356.57
424.932	1348.61
425.374	1331.88
425.816	1352.83
426.258	1379.53
426.699	1393.81
427.141	1369.8
427.582	1387.21
428.024	1382.46
428.465	1372.53
428.907	1338.96
429.348	1322.01
429.789	1321.55
430.231	1291.42
430.672	1308.74
431.113	1275.14
431.554	1254.56
431.995	1223.37
432.436	1180.26
432.877	1150.16
433.318	1130.39
433.759	1126.69
434.2	1125.54
434.64	1113.25
435.081	1118.77
435.522	1060.72
435.962	1023.99
436.403	1003.93
436.843	1021.11
437.284	998.9
437.724	975.79
438.164	982.55
438.604	962.56
439.045	927.97
439.485	894.46
439.925	878.13
440.365	859.38
440.805	853.35
441.245	847.05
441.685	819.26
442.125	821.89
442.564	832.32
443.004	817.73
443.444	821.46
443.883	830.17
444.323	830.34
444.762	838.91
445.202	859.47
445.641	881.16
446.081	883.12
446.52	898.44
446.959	897.26
447.398	882.91
447.837	880.67
448.276	873.01
448.716	889.24
449.154	904.94
449.593	890.62
450.032	892.42
450.471	883.54
450.91	892.05
451.349	895.11
451.787	897.62
452.226	916.92
452.664	922.58
453.103	929.6
453.541	931.99
453.98	934.04
454.418	944.51
454.856	933.07
455.295	935.49
455.733	945.66
456.171	954.51
456.609	956.81
457.047	959.19
457.485	973.2
457.923	974.37
458.361	965.43
458.798	969.88
459.236	968.22
459.674	978.6
460.111	981.62
460.549	972.21
460.987	969.93
461.424	967.9
461.862	964.11
462.299	950.97
462.736	951.61
463.173	954.38
463.611	943.44
464.048	941.13
464.485	947.46
464.922	941.64
465.359	936.89
465.796	920.9
466.233	914.68
466.67	904.03
467.106	900.59
467.543	891.47
467.98	880.7
468.416	858.92
468.853	853.29
469.29	828.02
469.726	818.95
470.162	798.08
470.599	790.63
471.035	783.94
471.471	765.79
471.907	763
472.344	758.89
472.78	759.15
473.216	770.06
473.652	761.74
474.088	761.59
474.523	759.64
474.959	768.15
475.395	763.13
475.831	759.62
476.266	765.1
476.702	764.38
477.138	758.09
477.573	757.32
478.008	754.51
478.444	758.12
478.879	764.24
479.314	768.35
479.75	769
480.185	773.31
480.62	781.03
481.055	787.48
481.49	795.1
481.925	808.16
482.36	823.4
482.795	849.52
483.229	875.16
483.664	896.97
484.099	902.92
484.534	919.58
484.968	931.81
485.403	938.63
485.837	940.21
486.271	941.05
486.706	946.13
487.14	940.68
487.574	928.95
488.009	925
488.443	921.26
488.877	935.63
489.311	943.07
489.745	959.14
490.179	972.17
490.613	994.79
491.046	1009.18
491.48	1021.49
491.914	1028.01
492.348	1042.18
492.781	1055.02
493.215	1064.64
493.648	1073.51
494.082	1088.59
494.515	1095.86
494.948	1115.18
495.382	1130.21
495.815	1144.46
496.248	1160.52
496.681	1189.78
497.114	1216.66
497.547	1240.39
497.98	1269.15
498.413	1286.51
498.846	1310.98
499.279	1333.83
499.711	1349.77
500.144	1362.12
500.577	1387.24
501.009	1413.98
501.442	1436.43
501.874	1445.13
502.306	1456.11
502.739	1473.16
503.171	1505.65
503.603	1517.34
504.036	1539.75
504.468	1554.1
504.9	1579.82
505.332	1596.88
505.764	1609.85
506.196	1627.58
506.627	1656.07
507.059	1682.21
507.491	1702.79
507.923	1700.4
508.354	1726.7
508.786	1744.95
509.217	1776.8
509.649	1801.07
510.08	1834.07
510.512	1860.25
510.943	1883.08
511.374	1900.33
511.805	1932.6
512.237	1962.91
512.668	2016
513.099	2059.91
513.53	2102.5
513.961	2132.37
514.391	2180.97
514.822	2227.97
515.253	2280.5
515.684	2315.97
516.114	2356.88
516.545	2382.89
516.975	2417.74
517.406	2437.7
517.836	2431.63
518.267	2430.06
518.697	2448.5
519.127	2445.42
519.558	2447.77
519.988	2443.66
520.418	2450.48
520.848	2469.41
521.278	2472
521.708	2460.84
522.138	2469.34
522.567	2508.98
522.997	2539.64
523.427	2552.43
523.857	2568.33
524.286	2575.3
524.716	2588.61
525.145	2607.96
525.575	2614.23
526.004	2627.38
526.433	2631.44
526.863	2623.53
527.292	2597.26
527.721	2597.61
528.15	2598.92
528.579	2592.02
529.008	2600.1
529.437	2628.53
529.866	2641.61
530.295	2661.13
530.724	2673.95
531.152	2710.35
531.581	2726.43
532.01	2748.97
532.438	2755.92
532.867	2773.26
533.295	2797.7
533.723	2802.83
534.152	2795.33
534.58	2791.47
535.008	2766.55
535.436	2765.85
535.865	2774.4
536.293	2794.36
536.721	2815.56
537.149	2852.66
537.576	2854.29
538.004	2871.26
538.432	2882.83
538.86	2878.85
539.287	2889.5
539.715	2906.52
540.143	2910.01
540.57	2903.75
540.998	2896.56
541.425	2860.38
541.852	2827.76
542.28	2825.85
542.707	2799.02
543.134	2775.86
543.561	2769.35
543.988	2755.94
544.415	2754.03
544.842	2744.58
545.269	2732.1
545.696	2733.05
546.123	2751.22
546.549	2733.79
546.976	2712.14
547.403	2710.86
547.829	2712.61
548.256	2713.17
548.682	2706.64
549.108	2694.43
549.535	2692.33
549.961	2693.33
550.387	2672.51
550.813	2663.42
551.24	2672.23
551.666	2673.17
552.092	2658.57
552.518	2649.33
552.943	2640.05
553.369	2650
553.795	2658.53
554.221	2659.79
554.646	2655.8
555.072	2671.95
555.498	2681.11
555.923	2697.46
556.349	2722.4
556.774	2737.98
557.199	2740.63
557.625	2752.64
558.05	2746.88
558.475	2763.76
558.9	2767.68
559.325	2758.76
559.75	2751.41
560.175	2745.26
560.6	2738.12
561.025	2738.57
561.449	2743.32
561.874	2756.25
562.299	2767.02
562.723	2782.56
563.148	2773.67
563.572	2783.84
563.997	2805.19
564.421	2822.81
564.846	2829.64
565.27	2842.03
565.694	2845.72
566.118	2870.88
566.542	2889.48
566.966	2887.8
567.39	2888.93
567.814	2880.59
568.238	2887.06
568.662	2903.63
569.086	2915.68
569.509	2937.19
569.933	2920.73
570.357	2918.17
570.78	2893.19
571.204	2880.13
571.627	2870.62
572.05	2876.68
572.474	2883.49
572.897	2871.61
573.32	2866.2
573.743	2858.31
574.166	2834.24
574.589	2842.39
575.012	2835.49
575.435	2841.02
575.858	2832.91
576.281	2820.63
576.704	2799.62
577.126	2786.57
577.549	2774.13
577.972	2763.89
578.394	2750.06
578.817	2741.67
579.239	2715.32
579.661	2697.71
580.084	2673.67
580.506	2655.54
580.928	2655.07
581.35	2640.11
581.772	2635.74
582.194	2618.18
582.616	2601.45
583.038	2581.8
583.46	2568.83
583.882	2566.25
584.303	2577.11
584.725	2574.44
585.147	2576.91
585.568	2596.25
585.99	2622.23
586.411	2636.85
586.833	2663.38
587.254	2668.94
587.675	2697.25
588.096	2722.77
588.518	2716.68
588.939	2691.57
589.36	2692.05
589.781	2682.46
590.202	2632.98
590.623	2617.43
591.043	2615.75
591.464	2596.84
591.885	2590.96
592.305	2581.31
592.726	2558.97
593.147	2563.16
593.567	2553.98
593.987	2542.05
594.408	2534.94
594.828	2536.73
595.248	2529.42
595.669	2497.66
596.089	2488.26
596.509	2480.42
596.929	2458.67
597.349	2461.1
597.769	2446.08
598.189	2437.74
598.608	2440.99
599.028	2445.84
599.448	2448.27
599.867	2428.33
600.287	2424.77
600.706	2417.84
601.126	2401.33
601.545	2400.63
601.965	2400.82
602.384	2393.26
602.803	2402.02
603.222	2395.62
603.641	2386.49
604.061	2382.59
604.48	2378.41
604.898	2394.64
605.317	2406.13
605.736	2412.83
606.155	2411.31
606.574	2397.15
606.992	2409.3
607.411	2403.1
607.829	2393.05
608.248	2391.15
608.666	2389.45
609.085	2392.1
609.503	2380.05
609.921	2373
610.339	2380.45
610.758	2382.7
611.176	2379.26
611.594	2366.1
612.012	2362.53
612.43	2371.06
612.847	2386.1
613.265	2391.45
613.683	2402.36
614.101	2408.49
614.518	2406.63
614.936	2392.28
615.353	2369.83
615.771	2367.83
616.188	2372.51
616.606	2370.18
617.023	2360.86
617.44	2338.43
617.857	2331.22
618.274	2319.86
618.691	2311.13
619.108	2294.81
619.525	2286.19
619.942	2300.86
620.359	2307.66
620.776	2300.65
621.192	2294.77
621.609	2293.65
622.026	2306.9
622.442	2317.91
622.859	2325.02
623.275	2314.05
623.691	2326.31
624.108	2347.65
624.524	2374.98
624.94	2376.88
625.356	2397.09
625.772	2423.46
626.188	2445.24
626.604	2449.36
627.02	2442.11
627.436	2438.76
627.852	2451.35
628.268	2474.59
628.683	2460.05
629.099	2445.6
629.514	2436.9
629.93	2444.87
630.345	2452.56
630.761	2447.3
631.176	2454.55
631.591	2442.9
632.007	2432.68
632.422	2430.81
632.837	2412.1
633.252	2406.63
633.667	2388.92
634.082	2373.92
634.497	2349.62
634.911	2313.9
635.326	2307.23
635.741	2276.52
636.155	2260.34
636.57	2262.83
636.984	2263.7
637.399	2264.94
637.813	2267.4
638.228	2266.73
638.642	2274.54
639.056	2256.79
639.47	2260.14
639.884	2244.93
640.298	2233.72
640.712	2232.59
641.126	2210.22
641.54	2194.98
641.954	2188.37
642.368	2163.99
642.781	2145.46
643.195	2113.11
643.609	2114.64
644.022	2101.46
644.436	2093.95
644.849	2071.48
645.262	2048.78
645.676	2051.68
646.089	2041.09
646.502	2009.79
646.915	1999
647.328	1967.23
647.741	1960.6
648.154	1932.04
648.567	1922.74
648.98	1895.55
649.393	1895.42
649.805	1886.83
650.218	1871.01
650.631	1839.84
651.043	1828.67
651.456	1817.02
651.868	1818.11
652.28	1850.28
652.693	1876.61
653.105	1890.1
653.517	1907.49
653.929	1906.85
654.341	1915.4
654.753	1891.75
655.165	1902.73
655.577	1894.6
655.989	1884.2
656.401	1868.49
656.813	1799.25
657.224	1760.89
657.636	1706.93
658.047	1671.45
658.459	1632.43
658.87	1613.68
659.282	1589.26
659.693	1546.27
660.104	1514.9
660.515	1486.02
660.926	1476.62
661.338	1465.45
661.749	1446.33
662.159	1421.37
662.57	1406.13
662.981	1388.85
663.392	1367.49
663.803	1364.76
664.213	1351.72
664.624	1336.77
665.035	1331.56
665.445	1299.84
665.855	1277.96
666.266	1254.41
666.676	1241.55
667.086	1217.46
667.497	1205.56
667.907	1186.4
668.317	1162.99
668.727	1146.11
669.137	1138.82
669.547	1127.02
669.956	1123.82
670.366	1118.44
670.776	1112.82
671.186	1111.12
671.595	1109.49
672.005	1110.23
672.414	1103.25
672.824	1095.25
673.233	1100.62
673.642	1098.58
674.052	1098
674.461	1097.3
674.87	1101.32
675.279	1096.54
675.688	1097.54
676.097	1097
676.506	1090.46
676.915	1110.73
677.323	1114.98
677.732	1112.48
678.141	1114.11
678.549	1104.95
678.958	1107.11
679.366	1109.95
679.775	1122.87
680.183	1145.1
680.592	1161.06
681	1181.04
681.408	1181.71
681.816	1207.32
682.224	1234.48
682.632	1264.67
683.04	1325.36
683.448	1383.03
683.856	1451.41
684.264	1530.14
684.671	1606.03
685.079	1698.81
685.487	1796.28
685.894	1927.36
686.302	2038.7
686.709	2134.69
687.116	2242.86
687.524	2333.12
687.931	2407.41
688.338	2473.5
688.745	2527.42
689.152	2583.95
689.559	2655.61
689.966	2722.83
690.373	2747.67
690.78	2803.16
691.187	2895.99
691.593	2957.05
692	3003.13
692.407	3083.12
692.813	3181.41
693.22	3252.6
693.626	3323.65
694.032	3370.46
694.439	3460.82
694.845	3517.92
695.251	3601.86
