Data from C_2_DEC_NC_4N_Splice17_12-26-23-703.txt Node
Date: Sat Mar 14 12:26:23 EDT 2020
User: sa697716
Spectrometer: FLMS03696
Trigger mode: 0
Integration Time (sec): 3.180400E-1
Scans to average: 20
Electric dark correction enabled: true
Nonlinearity correction enabled: true
Boxcar width: 5
XAxis mode: Wavelengths
Number of Pixels in Spectrum: 2048
>>>>>Begin Spectral Data<<<<<
187.83	-372337.88
188.298	2809.64
188.766	1485.08
189.233	1374.84
189.701	1926.53
190.169	2472.13
190.636	944.7
191.104	691.31
191.571	108.86
192.039	-75.53
192.506	-132.54
192.974	260.72
193.441	-232.28
193.908	54.75
194.375	61.09
194.842	133.11
195.31	160.02
195.777	174.85
196.244	357.89
196.711	415.72
197.177	507.3
197.644	718.98
198.111	1251.21
198.578	1803.61
199.045	1471.07
199.511	2376.04
199.978	2761.61
200.445	2356.29
200.911	2606.11
201.378	2880.25
201.844	2624.87
202.31	4479.77
202.777	4631.25
203.243	2579
203.709	2429.19
204.176	2895.15
204.642	2374.02
205.108	2224.92
205.574	1804.93
206.04	1643.15
206.506	1548.96
206.972	1458.63
207.438	1418.68
207.903	1624.9
208.369	1418.85
208.835	1410.09
209.301	1476.25
209.766	1528.99
210.232	1504.79
210.697	1855.58
211.163	2274.96
211.628	3451.04
212.094	2889.59
212.559	3549.95
213.024	2203.14
213.49	2686.94
213.955	2632.96
214.42	2552.57
214.885	2360.14
215.35	2262.6
215.815	2185.23
216.28	2315.07
216.745	1859.35
217.21	1984.79
217.675	1796.41
218.14	1995.33
218.604	2201.77
219.069	2475.36
219.534	2584.23
219.998	2976.67
220.463	3578.01
220.927	4331.57
221.392	4073.32
221.856	4102.76
222.32	5168.9
222.785	6398.2
223.249	8036.4
223.713	8957.5
224.177	8996.61
224.642	11523.37
225.106	14198.02
225.57	15537.89
226.034	11633.01
226.497	17711.18
226.961	16030.11
227.425	18703.34
227.889	20729.04
228.353	20808.27
228.816	43113.6
229.28	41252.61
229.744	34881.97
230.207	21278.83
230.671	21051.44
231.134	34923.12
231.597	40438.69
232.061	40578.66
232.524	39674.25
232.987	27381.95
233.45	24698.8
233.914	22180.9
234.377	22802.47
234.84	20937.06
235.303	24767.07
235.766	27649.61
236.229	28585.87
236.691	18025.03
237.154	20282.72
237.617	15301.2
238.08	15698.05
238.542	18429.99
239.005	13232.67
239.468	13150.48
239.93	12424.37
240.393	11319.24
240.855	9959.97
241.317	10223.48
241.78	12448.33
242.242	12917.46
242.704	13987.48
243.166	12217.31
243.629	11124.5
244.091	12831.41
244.553	14098.2
245.015	15184.55
245.477	19630.58
245.939	28799.29
246.4	30628.72
246.862	29847.99
247.324	28190.76
247.786	31581.39
248.247	41483.02
248.709	42894.58
249.17	32154.02
249.632	30395.04
250.093	35283.51
250.555	30551.78
251.016	18692.77
251.477	17757.98
251.939	19232.23
252.4	20194.21
252.861	24046.43
253.322	22404.6
253.783	26685.29
254.244	34665.11
254.705	27326.35
255.166	24339.55
255.627	24046.29
256.088	33941.06
256.549	36126.65
257.009	31141.7
257.47	37883.32
257.931	30911.24
258.391	23235.49
258.852	24021.91
259.312	25222.81
259.773	31261.01
260.233	26484.59
260.694	22366.3
261.154	25417.1
261.614	20448.68
262.074	18315.26
262.534	19077.37
262.994	18020.21
263.455	24032.71
263.915	20261.43
264.374	19116.2
264.834	20888.36
265.294	23197.06
265.754	24076.9
266.214	22825.28
266.673	21399.59
267.133	27043.12
267.593	26847.13
268.052	32901.18
268.512	28648.83
268.971	34618.01
269.431	38007.96
269.89	34104.38
270.349	51168.5
270.809	57133.61
271.268	51454.07
271.727	115683.54
272.186	75039.57
272.645	56361.82
273.104	40710.09
273.563	59025.03
274.022	46476.57
274.481	39624.08
274.94	30592.62
275.399	22768.13
275.857	26538.96
276.316	35957.8
276.775	32041.48
277.233	31593.92
277.692	29600.21
278.15	33531
278.609	34544.54
279.067	32031.1
279.525	29825.09
279.984	38531.18
280.442	46396.31
280.9	45818.06
281.358	30176.93
281.816	28160.44
282.274	27629.46
282.732	28598.98
283.19	28804.81
283.648	24925.08
284.106	26607.28
284.564	27061.14
285.021	25148.39
285.479	18767.21
285.937	17099.08
286.394	15034.18
286.852	15501.51
287.309	16329.35
287.767	15821.9
288.224	15063.9
288.682	16533.85
289.139	18165
289.596	16647.61
290.053	17327.52
290.511	21891.94
290.968	26557.04
291.425	36085.75
291.882	30034.92
292.339	26132.64
292.796	25932.2
293.252	24446.65
293.709	19439.67
294.166	17432.63
294.623	19282.48
295.079	18476.9
295.536	18568.71
295.992	16882.91
296.449	16708.37
296.905	17385.82
297.362	16702.47
297.818	17576.59
298.274	18257.71
298.731	18631.34
299.187	18453.14
299.643	19821.14
300.099	24041.35
300.555	26399.66
301.011	22071.34
301.467	21302.09
301.923	24946.03
302.379	24374.82
302.835	24015.84
303.291	24064.56
303.746	27402.87
304.202	34632.89
304.658	34814.25
305.113	23412.7
305.569	22948.1
306.024	24482.88
306.479	23295.75
306.935	19673.73
307.39	21496.94
307.845	19813.59
308.301	19954.78
308.756	19455.39
309.211	18781.81
309.666	19242.77
310.121	23898.61
310.576	24270.33
311.031	24083.7
311.486	27600.97
311.94	27595.26
312.395	36939.9
312.85	69528.42
313.305	341251.23
313.759	1767422.13
314.214	127896.04
314.668	101585.49
315.123	85527.43
315.577	30740.83
316.032	27393.82
316.486	34347.17
316.94	27078.75
317.394	18854.54
317.849	14652.54
318.303	13882.19
318.757	13100.53
319.211	14513.78
319.665	12693.11
320.119	12853.77
320.572	18425.89
321.026	17212.55
321.48	14337.89
321.934	15652.57
322.387	15686.83
322.841	16963.32
323.295	15273.79
323.748	17633.45
324.202	17882.35
324.655	21529.25
325.108	30100.23
325.562	21256.26
326.015	25300.45
326.468	19140.17
326.921	21420.67
327.374	20013.61
327.827	20874.09
328.28	23636.32
328.733	15803.8
329.186	13908.41
329.639	13247.62
330.092	11179.95
330.545	10670.15
330.997	10749.18
331.45	11769.67
331.903	13801.24
332.355	23718.63
332.808	23004.74
333.26	18978.13
333.713	20653.7
334.165	20811.18
334.617	27808.11
335.069	22443.01
335.522	40552.98
335.974	44953.81
336.426	41080.74
336.878	28475.31
337.33	14435.56
337.782	14121.41
338.234	17744.87
338.686	21230.04
339.137	25147.91
339.589	23690.23
340.041	18604.32
340.493	15987.02
340.944	16400.72
341.396	17668.12
341.847	14864.5
342.299	17575.27
342.75	21470.27
343.201	18729.5
343.653	21560.25
344.104	26482.92
344.555	20838.19
345.006	32425.18
345.457	24931.64
345.908	19787.98
346.359	18620.8
346.81	15151.15
347.261	15979.09
347.712	15714.26
348.163	16851.39
348.613	17083.15
349.064	15969.01
349.515	13995.62
349.965	14376.79
350.416	17288.99
350.866	18983.18
351.317	21463.11
351.767	35618.34
352.217	44998.29
352.668	37442.29
353.118	34311.22
353.568	33089.07
354.018	26196.11
354.468	27624.24
354.918	19798.67
355.368	17284.72
355.818	24433.78
356.268	70356.21
356.718	294549.69
357.168	73464.23
357.617	36841.04
358.067	41090.09
358.517	38450.93
358.966	45143.06
359.416	50787.96
359.865	54981.88
360.315	65654.06
360.764	30688.2
361.213	17205.87
361.663	16320.24
362.112	20132.6
362.561	32581.67
363.01	24543.73
363.459	20670.77
363.908	22368.42
364.357	18995.81
364.806	32088.43
365.255	22089.36
365.703	20238.25
366.152	20258.41
366.601	16410.4
367.05	13324.86
367.498	12104.29
367.947	12656.47
368.395	13187.78
368.844	11693.44
369.292	14084.37
369.74	9732.61
370.189	14898.8
370.637	17475.56
371.085	15072.61
371.533	18355.34
371.981	17684.95
372.429	16855.35
372.877	17578.65
373.325	14700.94
373.773	14994.1
374.221	13345.11
374.669	16538.89
375.116	14298.03
375.564	14425.11
376.012	16128.89
376.459	13318.11
376.907	15949.48
377.354	19270.29
377.801	17957.93
378.249	20660.72
378.696	26407.15
379.143	32010.44
379.591	34199.76
380.038	57896.61
380.485	41840.86
380.932	45338.96
381.379	41496.08
381.826	30524.39
382.273	21738.18
382.72	18989.65
383.166	18542.47
383.613	12012.6
384.06	10837
384.506	12545.59
384.953	9219.19
385.4	9276.3
385.846	8119
386.292	7912.69
386.739	7746.56
387.185	7661
387.631	7667.87
388.078	7427.8
388.524	7957.28
388.97	7354.81
389.416	6139.19
389.862	6524.75
390.308	6192.23
390.754	6282.68
391.2	6819.55
391.645	6979.67
392.091	6697.81
392.537	6485.33
392.983	6494.36
393.428	6394.47
393.874	6845.97
394.319	6865.91
394.765	6514.92
395.21	6698.91
395.655	6296.43
396.101	5904.33
396.546	5334.67
396.991	5372.18
397.436	4993.8
397.881	4836.16
398.326	4574.01
398.771	4326.69
399.216	3788.01
399.661	3415.74
400.106	3404.34
400.551	3480.1
400.995	3117.53
401.44	3079.04
401.885	2890.25
402.329	2916.74
402.774	2795.18
403.218	2711.69
403.663	2618.45
404.107	2689.6
404.551	2711.03
404.995	2486.03
405.44	2396.12
405.884	2434.06
406.328	2363.77
406.772	2360.33
407.216	2154.13
407.66	2085.07
408.104	1976.3
408.547	1849.51
408.991	1790.99
409.435	1722.46
409.879	1702.63
410.322	1683.23
410.766	1629.09
411.209	1546.78
411.653	1484.66
412.096	1452.13
412.54	1451.37
412.983	1445.37
413.426	1449.94
413.869	1449.74
414.312	1426.7
414.756	1372.05
415.199	1308.6
415.642	1271.11
416.085	1273.98
416.527	1266.49
416.97	1291.28
417.413	1227.99
417.856	1214.86
418.298	1202.63
418.741	1193.79
419.184	1186.9
419.626	1236.04
420.069	1237.24
420.511	1240.94
420.953	1214.91
421.396	1204.19
421.838	1171.95
422.28	1198.11
422.722	1204.91
423.164	1221.22
423.606	1203.75
424.048	1202.86
424.49	1145.8
424.932	1138.9
425.374	1126.26
425.816	1143.83
426.258	1166.83
426.699	1178.37
427.141	1161.53
427.582	1176.36
428.024	1174.66
428.465	1165.81
428.907	1139.92
429.348	1125.68
429.789	1127.56
430.231	1102.1
430.672	1117.12
431.113	1089.56
431.554	1073.95
431.995	1049.17
432.436	1013.4
432.877	988.29
433.318	972.66
433.759	965.46
434.2	964.95
434.64	955.16
435.081	959.61
435.522	912.8
435.962	881.02
436.403	863.46
436.843	872.96
437.284	855.37
437.724	832.34
438.164	833.24
438.604	815.81
439.045	787.86
439.485	757.12
439.925	741.34
440.365	720.14
440.805	709.61
441.245	701.97
441.685	678.89
442.125	673.85
442.564	680.28
443.004	665.15
443.444	664.54
443.883	664.19
444.323	658.05
444.762	659.71
445.202	670.58
445.641	683.97
446.081	680.54
446.52	684.13
446.959	680.03
447.398	663.62
447.837	658.76
448.276	648.44
448.716	655.96
449.154	662.51
449.593	648.74
450.032	648.6
450.471	638.23
450.91	640.65
451.349	640.81
451.787	637.93
452.226	648.32
452.664	649.65
453.103	651.39
453.541	650.93
453.98	651.77
454.418	658.82
454.856	648.43
455.295	646.79
455.733	651.22
456.171	655.14
456.609	659.06
457.047	660.43
457.485	669.75
457.923	671.95
458.361	664.1
458.798	666.4
459.236	662.59
459.674	668.92
460.111	672.85
460.549	667.57
460.987	665.82
461.424	661.87
461.862	658.01
462.299	648.77
462.736	648.37
463.173	649.73
463.611	642.54
464.048	642.77
464.485	646.79
464.922	641.76
465.359	637.01
465.796	629.51
466.233	625
466.67	619.53
467.106	617.1
467.543	611.1
467.98	604.47
468.416	589.07
468.853	583.75
469.29	566.02
469.726	560.29
470.162	545.23
470.599	538.27
471.035	533.72
471.471	521.72
471.907	518.74
472.344	515.91
472.78	516.97
473.216	523.75
473.652	517.44
474.088	516.64
474.523	515.56
474.959	522.23
475.395	517.57
475.831	515.02
476.266	517.24
476.702	516.63
477.138	510.38
477.573	508.26
478.008	505.84
478.444	508.37
478.879	513.93
479.314	515.95
479.75	515.03
480.185	517.37
480.62	521.12
481.055	524.2
481.49	528.36
481.925	536.09
482.36	546.33
482.795	561.95
483.229	577.06
483.664	589.14
484.099	591.34
484.534	601.32
484.968	607.97
485.403	611.03
485.837	610.66
486.271	610.13
486.706	611.92
487.14	605.48
487.574	596.77
488.009	591.76
488.443	587.62
488.877	594.61
489.311	596.93
489.745	603.8
490.179	610.29
490.613	622.62
491.046	628.57
491.48	634.79
491.914	637.07
492.348	643.56
492.781	649.37
493.215	651.69
493.648	654.04
494.082	660.14
494.515	662.88
494.948	671.23
495.382	678.15
495.815	683.95
496.248	690.42
496.681	704.78
497.114	716.94
497.547	728.1
497.98	743.16
498.413	751.33
498.846	762.71
499.279	771.69
499.711	777.75
500.144	781.36
500.577	793.1
501.009	805.78
501.442	817.32
501.874	820.68
502.306	825.2
502.739	834.7
503.171	851.28
503.603	856.83
504.036	869.42
504.468	877.46
504.9	890.16
505.332	899.52
505.764	906.11
506.196	914.84
506.627	931.12
507.059	946.83
507.491	957.02
507.923	956.18
508.354	973.23
508.786	984.81
509.217	1004.59
509.649	1020.1
510.08	1040.21
510.512	1058.41
510.943	1074.73
511.374	1087.53
511.805	1108.31
512.237	1128.06
512.668	1162.07
513.099	1189.51
513.53	1218.39
513.961	1239.46
514.391	1272.98
514.822	1306.58
515.253	1341.6
515.684	1366.82
516.114	1396.44
516.545	1417.34
516.975	1443.61
517.406	1459
517.836	1460.36
518.267	1466.16
518.697	1482.8
519.127	1485.48
519.558	1491.46
519.988	1494.41
520.418	1503.09
520.848	1518.34
521.278	1526.04
521.708	1543.45
522.138	1556.95
522.567	1587.46
522.997	1610.95
523.427	1625.91
523.857	1643.35
524.286	1653.18
524.716	1666.92
525.145	1684.74
525.575	1694.86
526.004	1707.85
526.433	1698.22
526.863	1696.08
527.292	1684.28
527.721	1688.62
528.15	1693.22
528.579	1692.62
529.008	1701.81
529.437	1724.35
529.866	1737.48
530.295	1754.39
530.724	1765.9
531.152	1792.31
531.581	1806.89
532.01	1824.53
532.438	1832.49
532.867	1846.77
533.295	1864.78
533.723	1870.85
534.152	1868.33
534.58	1868.76
535.008	1851.83
535.436	1854.35
535.865	1863.04
536.293	1877.33
536.721	1893.31
537.149	1920.04
537.576	1921.43
538.004	1933.26
538.432	1940.99
538.86	1938.56
539.287	1945.02
539.715	1960.5
540.143	1962.99
540.57	1958.26
540.998	1954.26
541.425	1931.12
541.852	1907.88
542.28	1907.63
542.707	1891.39
543.134	1877.67
543.561	1874.01
543.988	1865.89
544.415	1864.53
544.842	1858.88
545.269	1852.53
545.696	1854.86
546.123	1868.76
546.549	1859.01
546.976	1845.22
547.403	1844.98
547.829	1846.62
548.256	1849.03
548.682	1844.72
549.108	1836.81
549.535	1836.63
549.961	1837.85
550.387	1823.93
550.813	1818.09
551.24	1824.94
551.666	1826.14
552.092	1816.35
552.518	1809.95
552.943	1802.57
553.369	1811.15
553.795	1816.69
554.221	1817.71
554.646	1816.1
555.072	1827.88
555.498	1833.31
555.923	1843.51
556.349	1859.52
556.774	1869
557.199	1871.21
557.625	1879.49
558.05	1874.49
558.475	1886.29
558.9	1886.06
559.325	1877.39
559.75	1871.89
560.175	1865.63
560.6	1859.44
561.025	1856.2
561.449	1857.89
561.874	1864.78
562.299	1869.22
562.723	1877.82
563.148	1868.62
563.572	1874.05
563.997	1886.55
564.421	1893.72
564.846	1896.43
565.27	1901.92
565.694	1903.6
566.118	1917.33
566.542	1927.18
566.966	1923.27
567.39	1919.91
567.814	1910.06
568.238	1911.21
568.662	1918.04
569.086	1922.31
569.509	1931.46
569.933	1917.33
570.357	1910.31
570.78	1890.71
571.204	1876.91
571.627	1867.28
572.05	1867.16
572.474	1869.7
572.897	1858.21
573.32	1851.11
573.743	1842.14
574.166	1824.01
574.589	1825.35
575.012	1819.18
575.435	1818.72
575.858	1811.55
576.281	1800.47
576.704	1784.66
577.126	1772.82
577.549	1762.06
577.972	1752.69
578.394	1742.39
578.817	1735.85
579.239	1716.81
579.661	1703.68
580.084	1687.79
580.506	1674.91
580.928	1671.8
581.35	1660.29
581.772	1655.58
582.194	1641.97
582.616	1629.5
583.038	1615.23
583.46	1605.29
583.882	1602.79
584.303	1607.65
584.725	1603.01
585.147	1604.72
585.568	1616.5
585.99	1630.29
586.411	1638.01
586.833	1654.76
587.254	1656.54
587.675	1671.66
588.096	1684.44
588.518	1678.62
588.939	1661.44
589.36	1660.15
589.781	1649.5
590.202	1619.53
590.623	1611.04
591.043	1609.21
591.464	1595.26
591.885	1592.33
592.305	1586.82
592.726	1572.07
593.147	1573.57
593.567	1568.54
593.987	1560.85
594.408	1555.86
594.828	1554.03
595.248	1546.91
595.669	1528.03
596.089	1521.88
596.509	1515.46
596.929	1501.16
597.349	1502.43
597.769	1491.58
598.189	1484.29
598.608	1486.28
599.028	1489.48
599.448	1490.13
599.867	1477.75
600.287	1473.26
600.706	1468.08
601.126	1457.03
601.545	1456.35
601.965	1456.09
602.384	1451.78
602.803	1454.43
603.222	1449.23
603.641	1441.97
604.061	1437.85
604.48	1432.91
604.898	1440.86
605.317	1446.46
605.736	1448.88
606.155	1445.93
606.574	1435.43
606.992	1441.32
607.411	1438.01
607.829	1430.06
608.248	1427.38
608.666	1425.72
609.085	1425.86
609.503	1417.21
609.921	1411.83
610.339	1414.91
610.758	1415.01
611.176	1411.95
611.594	1402.42
612.012	1398.88
612.43	1402.91
612.847	1408.91
613.265	1411.26
613.683	1417.23
614.101	1419.24
614.518	1415.47
614.936	1405.72
615.353	1390.35
615.771	1387.13
616.188	1387.98
616.606	1384.95
617.023	1377.71
617.44	1363.41
617.857	1355.02
618.274	1346.01
618.691	1340.45
619.108	1329.69
619.525	1323.09
619.942	1329.52
620.359	1331.12
620.776	1325.84
621.192	1321.08
621.609	1319.41
622.026	1327.31
622.442	1334.07
622.859	1338.18
623.275	1329.42
623.691	1336.08
624.108	1348.48
624.524	1364.95
624.94	1366.71
625.356	1378.27
625.772	1393.23
626.188	1406.3
626.604	1408.41
627.02	1404
627.436	1401.6
627.852	1410.5
628.268	1424.15
628.683	1413.82
629.099	1404.62
629.514	1398.73
629.93	1401.06
630.345	1404.35
630.761	1398.19
631.176	1401.11
631.591	1395.34
632.007	1388.7
632.422	1386.28
632.837	1373.14
633.252	1371.63
633.667	1359.68
634.082	1349.07
634.497	1335.06
634.911	1314.42
635.326	1309.97
635.741	1290.52
636.155	1277.62
636.57	1276.81
636.984	1274.54
637.399	1275.63
637.813	1272.84
638.228	1271.4
638.642	1274.29
639.056	1262.88
639.47	1262.3
639.884	1251.91
640.298	1243.66
640.712	1241.82
641.126	1228.23
641.54	1217.41
641.954	1209.4
642.368	1195.16
642.781	1185.14
643.195	1165.63
643.609	1164.31
644.022	1155.34
644.436	1150.15
644.849	1136.37
645.262	1122.52
645.676	1122.44
646.089	1115.9
646.502	1099.74
646.915	1091.89
647.328	1071.94
647.741	1067.96
648.154	1053.55
648.567	1049.9
648.98	1035.56
649.393	1035.68
649.805	1030.96
650.218	1021.98
650.631	1005.39
651.043	997.98
651.456	992.14
651.868	991.95
652.28	1008.66
652.693	1021.18
653.105	1026.68
653.517	1035.58
653.929	1033.96
654.341	1038.36
654.753	1025.79
655.165	1030.34
655.577	1026.83
655.989	1020.79
656.401	1011.69
656.813	975.13
657.224	954.13
657.636	923.59
658.047	903.54
658.459	883.11
658.87	871.64
659.282	858.44
659.693	837.27
660.104	820.42
660.515	804.91
660.926	801.28
661.338	795.43
661.749	786.63
662.159	776.23
662.57	769.66
662.981	762.67
663.392	753.89
663.803	754.01
664.213	748.47
664.624	741.71
665.035	741.33
665.445	726.17
665.855	717.56
666.266	707.01
666.676	702
667.086	689.8
667.497	686.04
667.907	677.91
668.317	668.32
668.727	663.67
669.137	662.19
669.547	657.69
669.956	656.88
670.366	655.51
670.776	655.26
671.186	656.96
671.595	659.83
672.005	661.16
672.414	659.95
672.824	657.07
673.233	659.22
673.642	660.49
674.052	662.03
674.461	664.14
674.87	667.65
675.279	664.48
675.688	664.29
676.097	665.37
676.506	661.86
676.915	672.12
677.323	674.58
677.732	672.54
678.141	671.87
678.549	663.71
678.958	662.5
679.366	662.52
679.775	668.38
680.183	680.19
680.592	687.18
681	696.14
681.408	693.39
681.816	702.84
682.224	714.39
682.632	727.68
683.04	758.31
683.448	785.02
683.856	817.75
684.264	856.28
684.671	891.64
685.079	934.62
685.487	981.79
685.894	1047.92
686.302	1103.15
686.709	1151.53
687.116	1206.26
687.524	1255.36
687.931	1299.47
688.338	1337.07
688.745	1367.63
689.152	1402.03
689.559	1448.72
689.966	1493.56
690.373	1515.95
690.78	1558.35
691.187	1622.15
691.593	1669.71
692	1709.06
692.407	1769.38
692.813	1843.77
693.22	1904.03
693.626	1965.2
694.032	2011.76
694.439	2087.22
694.845	2144.71
695.251	2217.5
695.657	2280.61
696.063	2379.88
696.469	2450.13
696.875	2515.84
