Data from C_3_HIR_WI_4N_Splice17_13-11-00-923.txt Node
Date: Sat Mar 14 13:11:00 EDT 2020
User: sa697716
Spectrometer: FLMS03696
Trigger mode: 0
Integration Time (sec): 3.180400E-1
Scans to average: 20
Electric dark correction enabled: true
Nonlinearity correction enabled: true
Boxcar width: 5
XAxis mode: Wavelengths
Number of Pixels in Spectrum: 2048
>>>>>Begin Spectral Data<<<<<
187.83	-321259.07
188.298	2365.71
188.766	1261.05
189.233	1055.11
189.701	1475.67
190.169	2130.85
190.636	807.74
191.104	679.3
191.571	120.65
192.039	-97.78
192.506	-101.22
192.974	412.43
193.441	-692.19
193.908	-120.41
194.375	-70.26
194.842	-57.02
195.31	13.88
195.777	155.67
196.244	352.55
196.711	438.44
197.177	515.68
197.644	740.42
198.111	1306.1
198.578	1876.09
199.045	1496.86
199.511	2447.62
199.978	2915.96
200.445	2477.72
200.911	2725.95
201.378	3054.96
201.844	2786.28
202.31	4807.55
202.777	5029.99
203.243	2775.21
203.709	2628.47
204.176	3140.67
204.642	2599.95
205.108	2402.97
205.574	1978.53
206.04	1802.35
206.506	1690.6
206.972	1583.99
207.438	1528.62
207.903	1735.21
208.369	1529.9
208.835	1523.43
209.301	1599.73
209.766	1643.77
210.232	1628.01
210.697	2001.68
211.163	2489
211.628	3787.33
212.094	3183.06
212.559	3922.32
213.024	2438.16
213.49	2980.34
213.955	2923.69
214.42	2839.04
214.885	2622.59
215.35	2530.43
215.815	2464.78
216.28	2612.54
216.745	2123.09
217.21	2313.92
217.675	2138.41
218.14	2423.51
218.604	2716.13
219.069	3113.18
219.534	3311.57
219.998	3863.29
220.463	4706.16
220.927	5801.74
221.392	5496.78
221.856	5588.09
222.32	7051.34
222.785	8718.26
223.249	10962.76
223.713	12259.91
224.177	12236.48
224.642	15666.11
225.106	19330.8
225.57	21097.82
226.034	15687.01
226.497	23831.14
226.961	21538.45
227.425	25128.53
227.889	27843.98
228.353	27840.58
228.816	57422.06
229.28	55000.89
229.744	46324.95
230.207	28104.58
230.671	27658.6
231.134	45737.7
231.597	52717.87
232.061	52587.3
232.524	51185.54
232.987	35239.54
233.45	31737.22
233.914	28461.4
234.377	29173.15
234.84	26701.88
235.303	31486.55
235.766	35107.1
236.229	36228.71
236.691	22814.88
237.154	25637.4
237.617	19274.91
238.08	19729.72
238.542	23043.05
239.005	16462.99
239.468	16306.23
239.93	15369.5
240.393	13954.49
240.855	12235.43
241.317	12532.52
241.78	15246.21
242.242	15760.23
242.704	17002.01
243.166	14773.72
243.629	13416.84
244.091	15463.53
244.553	16966.6
245.015	18230.15
245.477	23557.94
245.939	34523.32
246.4	36606.66
246.862	35506.97
247.324	33465.7
247.786	37443.58
248.247	49083.11
248.709	50658.85
249.17	37834.53
249.632	35568.63
250.093	41224.97
250.555	35604.46
251.016	21702.09
251.477	20573.47
251.939	22197.46
252.4	23260.14
252.861	27613.62
253.322	25688.25
253.783	30582.97
254.244	39615.89
254.705	31270.89
255.166	27753.2
255.627	27323.95
256.088	38566.63
256.549	40969.12
257.009	35253.1
257.47	42784.59
257.931	34869.01
258.391	26146.3
258.852	26940.78
259.312	28286.51
259.773	34921.9
260.233	29532.75
260.694	24917.73
261.154	28245.23
261.614	22678.06
262.074	20292.52
262.534	21070.24
262.994	19850.88
263.455	26423.8
263.915	22252.5
264.374	20948.76
264.834	22883.91
265.294	25353.74
265.754	26238.55
266.214	24833.12
266.673	23247.49
267.133	29333.82
267.593	29101.43
268.052	35581.8
268.512	30937.96
268.971	37320.27
269.431	40880.97
269.89	36534.4
270.349	54723.88
270.809	61044.95
271.268	54903.26
271.727	123101.03
272.186	79721.15
272.645	59731.15
273.104	43097.72
273.563	62387.44
274.022	48992.86
274.481	41679.07
274.94	32136
275.399	23865.41
275.857	27772.93
276.316	37484.44
276.775	33354.55
277.233	32800.92
277.692	30723.25
278.15	34751.64
278.609	35784.37
279.067	33113.26
279.525	30781.67
279.984	39735.87
280.442	47752.29
280.9	47045.35
281.358	30981.43
281.816	28900.72
282.274	28322.21
282.732	29224.06
283.19	29348.15
283.648	25271.65
284.106	26919.79
284.564	27341.54
285.021	25344
285.479	18907.75
285.937	17186.05
286.394	15060.68
286.852	15466.18
287.309	16265.24
287.767	15736.29
288.224	14974.99
288.682	16451.88
289.139	18053.68
289.596	16519.17
290.053	17161.49
290.511	21659.37
290.968	26266.57
291.425	35617.29
291.882	29674.51
292.339	25791.6
292.796	25598.8
293.252	24099.83
293.709	19135.15
294.166	17143.6
294.623	18940.43
295.079	18174.86
295.536	18249.99
295.992	16564.04
296.449	16376.34
296.905	17004.26
297.362	16283.84
297.818	17105.77
298.274	17752.42
298.731	18065.87
299.187	17869.24
299.643	19179.57
300.099	23169.39
300.555	25381.02
301.011	21199.17
301.467	20449.26
301.923	23882.7
302.379	23323.22
302.835	22886.01
303.291	22884.64
303.746	26021.15
304.202	32862.5
304.658	32959.68
305.113	22150.85
305.569	21692.69
306.024	23118.77
306.479	22002.12
306.935	18554.65
307.39	20287.56
307.845	18735.09
308.301	18851.21
308.756	18374.39
309.211	17705.69
309.666	18162.54
310.121	22577.5
310.576	22918.07
311.031	22733.61
311.486	26007.36
311.94	25992.23
312.395	34739.18
312.85	65258.85
313.305	320313.92
313.759	1660754.22
314.214	120240.92
314.668	95173.45
315.123	79985.77
315.577	28705.56
316.032	25523.85
316.486	32011.08
316.94	25285.83
317.394	17590.35
317.849	13685.65
318.303	12982.79
318.757	12239.57
319.211	13523.01
319.665	11845.47
320.119	12004.73
320.572	17201.63
321.026	16065.48
321.48	13377.58
321.934	14569.87
322.387	14576.82
322.841	15731.65
323.295	14126.34
323.748	16247.21
324.202	16507.79
324.655	19850.61
325.108	27710.16
325.562	19574.42
326.015	23259.59
326.468	17581.51
326.921	19667.19
327.374	18378.43
327.827	19141.25
328.28	21688.63
328.733	14544.29
329.186	12763.97
329.639	12114.48
330.092	10206.07
330.545	9717.27
330.997	9817.4
331.45	10718.96
331.903	12573.71
332.355	21585.28
332.808	20978.4
333.26	17263.42
333.713	18726.91
334.165	18884.86
334.617	25242.71
335.069	20379.17
335.522	36900.23
335.974	40816.15
336.426	37261.92
336.878	25804.74
337.33	13126.51
337.782	12816
338.234	16074.74
338.686	19266.09
339.137	22881.61
339.589	21596.15
340.041	16942.19
340.493	14563.26
340.944	14903.22
341.396	16078.04
341.847	13513.82
342.299	15922.45
342.75	19466.76
343.201	17023.25
343.653	19539.96
344.104	23983.35
344.555	18854.57
345.006	29330.42
345.457	22441.29
345.908	17838.65
346.359	16771.19
346.81	13659.03
347.261	14393.83
347.712	14125.04
348.163	15108.88
348.613	15327.7
349.064	14303.84
349.515	12521.31
349.965	12852.66
350.416	15457.73
350.866	16933.65
351.317	19117.65
351.767	31660.08
352.217	39979.58
352.668	33190.35
353.118	30458.88
353.568	29335.13
354.018	23185.24
354.468	24433.52
354.918	17502.94
355.368	15320.42
355.818	21701.64
356.268	62465.31
356.718	261262.14
357.168	65029.58
357.617	32637.75
358.067	36324.77
358.517	34031.76
358.966	39972.55
359.416	44877.9
359.865	48451.53
360.315	57685.97
360.764	26887.75
361.213	15035.91
361.663	14236.79
362.112	17572.37
362.561	28447.32
363.01	21439.55
363.459	18034.05
363.908	19447.64
364.357	16513.64
364.806	27904.53
365.255	19176.96
365.703	17596.1
366.152	17655.57
366.601	14314.74
367.05	11619.56
367.498	10518.02
367.947	10987.2
368.395	11433.5
368.844	10149.03
369.292	12206.19
369.74	8425.9
370.189	12878.08
370.637	15047.76
371.085	12963.92
371.533	15764
371.981	15182.65
372.429	14497.03
372.877	15064.43
373.325	12576.27
373.773	12799.12
374.221	11396.23
374.669	14153.49
375.116	12239.49
375.564	12317.48
376.012	13772.45
376.459	11335.54
376.907	13538.52
377.354	16330.05
377.801	15214
378.249	17481.93
378.696	22286.99
379.143	26984.92
379.591	28732.53
380.038	48664.86
380.485	35238.32
380.932	38029.92
381.379	34863.46
381.826	25683.58
382.273	18243.4
382.72	15932.66
383.166	15516.22
383.613	10037.05
384.06	9034.09
384.506	10448.21
384.953	7634.13
385.4	7660.9
385.846	6686.85
386.292	6477.22
386.739	6312.51
387.185	6233.34
387.631	6226.52
388.078	6045.32
388.524	6468.23
388.97	5973.21
389.416	4983.28
389.862	5295.91
390.308	5009.78
390.754	5093.35
391.2	5535.06
391.645	5654.14
392.091	5423.87
392.537	5236.02
392.983	5225.55
393.428	5152.96
393.874	5524.79
394.319	5533.4
394.765	5256.43
395.21	5397.77
395.655	5056.97
396.101	4728.91
396.546	4268
396.991	4288.56
397.436	3992.54
397.881	3858.01
398.326	3645.75
398.771	3446.43
399.216	3004.56
399.661	2698.55
400.106	2696.32
400.551	2764.82
400.995	2488.2
401.44	2468.94
401.885	2323.25
402.329	2343.24
402.774	2251.43
403.218	2183.86
403.663	2100.96
404.107	2162.22
404.551	2180.34
404.995	1996.34
405.44	1917.9
405.884	1947.48
406.328	1878.48
406.772	1871.41
407.216	1709.15
407.66	1648.97
408.104	1565.67
408.547	1470.22
408.991	1423.66
409.435	1373.85
409.879	1357.14
410.322	1343.62
410.766	1299.33
411.209	1238.73
411.653	1190.71
412.096	1166.76
412.54	1167.27
412.983	1157.2
413.426	1159.51
413.869	1158.58
414.312	1137.48
414.756	1095.12
415.199	1043.18
415.642	1012.83
416.085	1015.93
416.527	1009.25
416.97	1026.46
417.413	979.39
417.856	971.55
418.298	960.96
418.741	954.25
419.184	949.13
419.626	990.12
420.069	991.07
420.511	994.9
420.953	975.1
421.396	965.71
421.838	940.13
422.28	961.41
422.722	965.77
423.164	981.44
423.606	967.23
424.048	966.29
424.49	919.33
424.932	914.09
425.374	900.58
425.816	915.13
426.258	934.71
426.699	945.17
427.141	929.28
427.582	942.85
428.024	936.46
428.465	928.48
428.907	906.47
429.348	894.58
429.789	896.9
430.231	880.86
430.672	894
431.113	871.92
431.554	859.62
431.995	837.69
432.436	808.34
432.877	791.88
433.318	781.89
433.759	779.18
434.2	780.23
434.64	774.47
435.081	778.37
435.522	737
435.962	711.72
436.403	696.35
436.843	705.73
437.284	690.3
437.724	670.17
438.164	670.95
438.604	656.74
439.045	631.87
439.485	606
439.925	592.29
440.365	576.05
440.805	566.11
441.245	560.45
441.685	540.28
442.125	535.82
442.564	539.73
443.004	528.35
443.444	528.33
443.883	529.93
444.323	525.03
444.762	524.19
445.202	532.28
445.641	545.55
446.081	541.4
446.52	545.28
446.959	542.92
447.398	530.25
447.837	524.91
448.276	515.04
448.716	519.07
449.154	522.53
449.593	511.73
450.032	510.73
450.471	498.73
450.91	499.1
451.349	499.49
451.787	495.39
452.226	504.42
452.664	503.42
453.103	503.98
453.541	504.41
453.98	504.89
454.418	508.17
454.856	500.44
455.295	500.32
455.733	504.84
456.171	506.59
456.609	507.8
457.047	505.51
457.485	512.98
457.923	514.22
458.361	506.52
458.798	507.53
459.236	506.47
459.674	509.48
460.111	511.11
460.549	506.27
460.987	503.84
461.424	501.96
461.862	499.63
462.299	492
462.736	492.31
463.173	494.12
463.611	490.03
464.048	489.53
464.485	492.35
464.922	487.74
465.359	483.68
465.796	482.87
466.233	480.45
466.67	476.89
467.106	475.86
467.543	469.73
467.98	462.37
468.416	449.09
468.853	444.75
469.29	431.85
469.726	427.58
470.162	416.93
470.599	406.99
471.035	401.58
471.471	392.02
471.907	389.45
472.344	387.54
472.78	389.99
473.216	395.25
473.652	390.47
474.088	389.14
474.523	387.68
474.959	391.33
475.395	388.35
475.831	386.45
476.266	387.57
476.702	385.97
477.138	381.33
477.573	379.12
478.008	377.05
478.444	378.53
478.879	382.3
479.314	384.61
479.75	383.96
480.185	385.63
480.62	388.89
481.055	390.84
481.49	394.3
481.925	400.01
482.36	408.66
482.795	419.62
483.229	430.41
483.664	439.59
484.099	440.54
484.534	447.36
484.968	451.81
485.403	453.46
485.837	453.03
486.271	452.12
486.706	452.57
487.14	445.89
487.574	439.47
488.009	435.61
488.443	431.48
488.877	436.38
489.311	438.14
489.745	442.55
490.179	447.15
490.613	457.05
491.046	460.03
491.48	463.77
491.914	464.83
492.348	468.62
492.781	472.82
493.215	474.67
493.648	475.67
494.082	479.79
494.515	482.02
494.948	487.92
495.382	490.51
495.815	494.85
496.248	499.42
496.681	509.24
497.114	518.12
497.547	525.53
497.98	536.08
498.413	542.63
498.846	550.88
499.279	557.98
499.711	561.81
500.144	565.27
500.577	575.03
501.009	585.02
501.442	594.84
501.874	597.71
502.306	601.47
502.739	611.07
503.171	623.49
503.603	628.5
504.036	637.51
504.468	644.8
504.9	655.42
505.332	663.43
505.764	669.02
506.196	676.43
506.627	690.67
507.059	704.29
507.491	712.42
507.923	714.78
508.354	729.33
508.786	740.99
509.217	757.86
509.649	774.15
510.08	791.19
510.512	808.68
510.943	824.1
511.374	836.6
511.805	855.81
512.237	874.78
512.668	902.7
513.099	927.15
513.53	952.41
513.961	973.09
514.391	1001.08
514.822	1032.62
515.253	1064.1
515.684	1088.4
516.114	1116.13
516.545	1137.93
516.975	1162.13
517.406	1181.98
517.836	1188.44
518.267	1197.81
518.697	1217.15
519.127	1225.61
519.558	1235.21
519.988	1242.93
520.418	1255.87
520.848	1274.65
521.278	1284.12
521.708	1311.9
522.138	1326.09
522.567	1356.87
522.997	1382.61
523.427	1398.12
523.857	1415.64
524.286	1427.72
524.716	1443.9
525.145	1463.23
525.575	1474.83
526.004	1491.53
526.433	1480.67
526.863	1483.2
527.292	1476.76
527.721	1484.39
528.15	1491.49
528.579	1494.28
529.008	1506.19
529.437	1528.81
529.866	1542.28
530.295	1559.39
530.724	1571.92
531.152	1598.19
531.581	1612.86
532.01	1629.68
532.438	1637.82
532.867	1652.99
533.295	1671.05
533.723	1677.02
534.152	1674.58
534.58	1675.23
535.008	1661.11
535.436	1663.07
535.865	1670.01
536.293	1682.8
536.721	1697.74
537.149	1720.75
537.576	1723.76
538.004	1735.13
538.432	1743.36
538.86	1742.43
539.287	1749.38
539.715	1763.11
540.143	1765.14
540.57	1761.52
540.998	1757.55
541.425	1737.29
541.852	1717.33
542.28	1715.91
542.707	1700.7
543.134	1687.19
543.561	1683.18
543.988	1676.36
544.415	1675.59
544.842	1672
545.269	1666.11
545.696	1669.81
546.123	1681.73
546.549	1674.54
546.976	1663.26
547.403	1663.59
547.829	1666.8
548.256	1670.62
548.682	1668.69
549.108	1662.9
549.535	1662.84
549.961	1666.1
550.387	1654.35
550.813	1650.48
551.24	1657.52
551.666	1660.07
552.092	1652.86
552.518	1646.47
552.943	1641.55
553.369	1648.39
553.795	1654.6
554.221	1655.9
554.646	1653.26
555.072	1662.72
555.498	1666.66
555.923	1674.71
556.349	1688.1
556.774	1695.38
557.199	1697.19
557.625	1701.4
558.05	1695.43
558.475	1706.05
558.9	1704.77
559.325	1696.92
559.75	1690.49
560.175	1684.71
560.6	1677.58
561.025	1674.97
561.449	1675.17
561.874	1678.83
562.299	1682.4
562.723	1688.87
563.148	1676.6
563.572	1678.94
563.997	1685.68
564.421	1690.03
564.846	1687.59
565.27	1690.09
565.694	1685.98
566.118	1695.39
566.542	1701.46
566.966	1693.8
567.39	1687.38
567.814	1675.66
568.238	1673.08
568.662	1675.38
569.086	1675.27
569.509	1681.44
569.933	1664.48
570.357	1655.51
570.78	1633.05
571.204	1618.34
571.627	1605.82
572.05	1601.86
572.474	1599.78
572.897	1586.71
573.32	1579.59
573.743	1568.9
574.166	1550.36
574.589	1548.06
575.012	1539.79
575.435	1537.18
575.858	1528.05
576.281	1517.9
576.704	1502.94
577.126	1491.02
577.549	1480.35
577.972	1470.42
578.394	1460.57
578.817	1453.24
579.239	1436.29
579.661	1423.37
580.084	1408.64
580.506	1396.1
580.928	1392.44
581.35	1381.78
581.772	1377.89
582.194	1365.55
582.616	1353.74
583.038	1340.04
583.46	1329.08
583.882	1326.36
584.303	1328.98
584.725	1325.53
585.147	1327.34
585.568	1334.66
585.99	1345.14
586.411	1350.41
586.833	1362.69
587.254	1362.94
587.675	1375.03
588.096	1385.8
588.518	1380.51
588.939	1364.18
589.36	1361.09
589.781	1350.35
590.202	1326.88
590.623	1318.13
591.043	1313.92
591.464	1302.76
591.885	1298.86
592.305	1292.45
592.726	1280.11
593.147	1280.74
593.567	1277.34
593.987	1270.86
594.408	1266.18
594.828	1262.6
595.248	1257.38
595.669	1241.63
596.089	1235.42
596.509	1229.35
596.929	1217.73
597.349	1218.31
597.769	1208.8
598.189	1202.74
598.608	1203.38
599.028	1204.47
599.448	1204.55
599.867	1192.87
600.287	1187.95
600.706	1184.02
601.126	1175.75
601.545	1175.3
601.965	1173.2
602.384	1167.93
602.803	1170.61
603.222	1166.14
603.641	1160.06
604.061	1156.17
604.48	1151.29
604.898	1158.12
605.317	1160.66
605.736	1160.98
606.155	1157.65
606.574	1150.11
606.992	1154.31
607.411	1148.17
607.829	1139.4
608.248	1135.33
608.666	1132.51
609.085	1131.2
609.503	1122.37
609.921	1116.75
610.339	1117.27
610.758	1114.17
611.176	1108.3
611.594	1099.45
612.012	1095.62
612.43	1098.13
612.847	1101.61
613.265	1100.93
613.683	1104.35
614.101	1103.78
614.518	1097.49
614.936	1088.61
615.353	1076.25
615.771	1072.34
616.188	1071.32
616.606	1067.26
617.023	1059.41
617.44	1047.64
617.857	1040.37
618.274	1031.56
618.691	1026.6
619.108	1019.68
619.525	1012.7
619.942	1016.57
620.359	1018.47
620.776	1013.02
621.192	1009.32
621.609	1007.66
622.026	1011.65
622.442	1016.36
622.859	1018.06
623.275	1011.4
623.691	1015.03
624.108	1023.95
624.524	1035.41
624.94	1034.2
625.356	1042.21
625.772	1052.01
626.188	1060.36
626.604	1061.56
627.02	1056.99
627.436	1055.35
627.852	1060.15
628.268	1069.75
628.683	1061.78
629.099	1054.38
629.514	1049.71
629.93	1051.88
630.345	1054.5
630.761	1049.84
631.176	1051.92
631.591	1047.51
632.007	1041.74
632.422	1039.3
632.837	1028.61
633.252	1026.91
633.667	1017.51
634.082	1009.39
634.497	998.6
634.911	983.16
635.326	980.91
635.741	965.91
636.155	957.06
636.57	957.05
636.984	955.21
637.399	955.62
637.813	952.95
638.228	950.44
638.642	952.64
639.056	942.61
639.47	940.97
639.884	931.8
640.298	925.53
640.712	923.21
641.126	912.93
641.54	905.67
641.954	899.18
642.368	888.15
642.781	882.14
643.195	866.19
643.609	864.98
644.022	857.17
644.436	852.83
644.849	842.34
645.262	831.07
645.676	829.58
646.089	823.85
646.502	812.83
646.915	808.35
647.328	792.75
647.741	790.51
648.154	779.64
648.567	778.79
648.98	768.49
649.393	767.33
649.805	763.01
650.218	756.82
650.631	744.19
651.043	737.24
651.456	731.39
651.868	730.59
652.28	742.01
652.693	750.77
653.105	752.44
653.517	757.4
653.929	756.18
654.341	758.26
654.753	747.72
655.165	750.44
655.577	747.58
655.989	742.78
656.401	736.03
656.813	708.53
657.224	691.69
657.636	670.33
658.047	656.08
658.459	641
658.87	632.97
659.282	622.97
659.693	607.51
660.104	594.86
660.515	584.33
660.926	579.7
661.338	575.92
661.749	569.96
662.159	561.46
662.57	557.1
662.981	552.99
663.392	547.79
663.803	549.44
664.213	546.06
664.624	542.53
665.035	542.3
665.445	533.4
665.855	528.78
666.266	523.94
666.676	522.79
667.086	515.74
667.497	514.63
667.907	510.26
668.317	503.84
668.727	502.76
669.137	502.71
669.547	501.04
669.956	503.36
670.366	504.73
670.776	506.29
671.186	508.66
671.595	511.49
672.005	513.02
672.414	512.55
672.824	513.02
673.233	514.58
673.642	516.49
674.052	519.59
674.461	522.02
674.87	524.41
675.279	522.79
675.688	523.63
676.097	526.01
676.506	524.81
676.915	534.39
677.323	536.21
677.732	535.84
678.141	536.81
678.549	530.19
678.958	530.08
679.366	530.48
679.775	534.38
680.183	543.77
680.592	548.52
681	554.01
681.408	550.27
681.816	556.8
682.224	564.96
682.632	574
683.04	596.6
683.448	615.7
683.856	639.44
684.264	667.15
684.671	690.27
685.079	720.9
685.487	754.58
685.894	802.86
686.302	841.83
686.709	874.05
687.116	914.18
687.524	947.38
687.931	976.51
688.338	1002.23
688.745	1024.36
689.152	1052.41
689.559	1087.7
689.966	1125.34
690.373	1145.2
690.78	1181.44
691.187	1234.99
691.593	1276.1
692	1311.91
692.407	1366.82
692.813	1432.61
693.22	1486
693.626	1542.35
694.032	1588.59
694.439	1652.99
694.845	1708.03
695.251	1777.03
695.657	1837.08
696.063	1924.9
696.469	1994.61
696.875	2058.34
697.281	2098.56
697.687	2147.21
698.093	2188.36
698.498	2261.17
698.904	2321.91
699.31	2406.06
699.715	2467.19
