Data from C_3_DEC_OH_4N_Splice17_13-25-51-327.txt Node
Date: Sat Mar 14 13:25:51 EDT 2020
User: sa697716
Spectrometer: FLMS03696
Trigger mode: 0
Integration Time (sec): 3.180400E-1
Scans to average: 20
Electric dark correction enabled: true
Nonlinearity correction enabled: true
Boxcar width: 5
XAxis mode: Wavelengths
Number of Pixels in Spectrum: 2048
>>>>>Begin Spectral Data<<<<<
187.83	-365753.27
188.298	2655.76
188.766	1422.62
189.233	1277.84
189.701	1862.25
190.169	2512.38
190.636	966.1
191.104	757.2
191.571	77.3
192.039	-98.87
192.506	-140.92
192.974	441.13
193.441	-611.55
193.908	6.79
194.375	-23.19
194.842	65.48
195.31	123.8
195.777	166.65
196.244	370.96
196.711	373.74
197.177	436.98
197.644	579.29
198.111	1027.4
198.578	1414.05
199.045	1120.62
199.511	1820.18
199.978	2130.94
200.445	1825.74
200.911	2037.63
201.378	2246.28
201.844	2077.82
202.31	3579.79
202.777	3760.38
203.243	2100.05
203.709	2023.28
204.176	2414.78
204.642	2024.06
205.108	1871.86
205.574	1508.93
206.04	1358.74
206.506	1278.94
206.972	1178.59
207.438	1138.66
207.903	1269.75
208.369	1123.82
208.835	1110.63
209.301	1165.52
209.766	1185.83
210.232	1175.67
210.697	1451.52
211.163	1789.19
211.628	2656.02
212.094	2252.65
212.559	2765.52
213.024	1734.68
213.49	2085.71
213.955	2029.57
214.42	1930.75
214.885	1788.29
215.35	1732.59
215.815	1727.89
216.28	1832.63
216.745	1483.25
217.21	1576.79
217.675	1404.29
218.14	1550.69
218.604	1699.69
219.069	1911.06
219.534	1999.99
219.998	2270.29
220.463	2679.22
220.927	3161.64
221.392	2936.56
221.856	2951.31
222.32	3650.83
222.785	4518.78
223.249	5655.73
223.713	6310.77
224.177	6283.79
224.642	8004.85
225.106	9814.13
225.57	10704.87
226.034	8020.84
226.497	12144.19
226.961	10964.68
227.425	12798.79
227.889	14060.43
228.353	13995.18
228.816	28659.13
229.28	27378.79
229.744	23017.73
230.207	14028.73
230.671	13778.34
231.134	22637.09
231.597	26207.41
232.061	26077.27
232.524	25297.54
232.987	17404.92
233.45	15719.5
233.914	14130.24
234.377	14447.25
234.84	13242.47
235.303	15564.35
235.766	17390.03
236.229	17965.93
236.691	11268.03
237.154	12668.41
237.617	9570.13
238.08	9837.77
238.542	11502.36
239.005	8229.22
239.468	8177.88
239.93	7714.82
240.393	7030.79
240.855	6180.28
241.317	6316.45
241.78	7689.86
242.242	7985.65
242.704	8667.82
243.166	7548.22
243.629	6901.41
244.091	7981.7
244.553	8766.41
245.015	9424.36
245.477	12191.93
245.939	17853.08
246.4	18995.15
246.862	18471.97
247.324	17383.97
247.786	19393.23
248.247	25395.39
248.709	26094.28
249.17	19495.9
249.632	18449.09
250.093	21477.36
250.555	18521.27
251.016	11341.73
251.477	10779.1
251.939	11651.58
252.4	12240.5
252.861	14543.26
253.322	13558.04
253.783	16144.29
254.244	20940.19
254.705	16475.63
255.166	14616.56
255.627	14414.3
256.088	20336.54
256.549	21606.43
257.009	18600.26
257.47	22541.54
257.931	18376.11
258.391	13790.18
258.852	14196.37
259.312	14868.72
259.773	18374.74
260.233	15599.22
260.694	13180.58
261.154	14960.61
261.614	12063.66
262.074	10790.87
262.534	11235.4
262.994	10599.79
263.455	14090.39
263.915	11878.24
264.374	11189.04
264.834	12196.66
265.294	13469.84
265.754	13954.57
266.214	13170.59
266.673	12299.66
267.133	15528.76
267.593	15388.67
268.052	18821.32
268.512	16362.15
268.971	19813.51
269.431	21720.28
269.89	19432.63
270.349	29180.14
270.809	32580.53
271.268	29367.42
271.727	65825.48
272.186	42613.78
272.645	31944.96
273.104	23029.02
273.563	33400.95
274.022	26145.65
274.481	22284.21
274.94	17216.54
275.399	12770.37
275.857	14841.92
276.316	20058.46
276.775	17857.02
277.233	17620.45
277.692	16568.58
278.15	18775.03
278.609	19363.2
279.067	17956.78
279.525	16725.29
279.984	21598.84
280.442	25993.12
280.9	25734.17
281.358	16948.11
281.816	15842.61
282.274	15513.18
282.732	15974.17
283.19	16064.99
283.648	13868.88
284.106	14804.92
284.564	15041.73
285.021	13991.85
285.479	10436.62
285.937	9468.3
286.394	8319.7
286.852	8560.57
287.309	9022.26
287.767	8784.21
288.224	8382.98
288.682	9209.17
289.139	10124.48
289.596	9307.24
290.053	9666.41
290.511	12216.79
290.968	14879.9
291.425	20211.9
291.882	16881.47
292.339	14722.22
292.796	14596.46
293.252	13759.11
293.709	10971.89
294.166	9859.13
294.623	10913.91
295.079	10477.97
295.536	10572.93
295.992	9609.26
296.449	9518.01
296.905	9920.69
297.362	9530.04
297.818	10014.24
298.274	10427.54
298.731	10623.05
299.187	10528.47
299.643	11296.69
300.099	13686.51
300.555	14990.59
301.011	12544.33
301.467	12160.39
301.923	14210.1
302.379	13904.66
302.835	13690.61
303.291	13705.9
303.746	15621.93
304.202	19759.19
304.658	19826.82
305.113	13371.18
305.569	13150.32
306.024	14016.17
306.479	13290.89
306.935	11248.55
307.39	12274.14
307.845	11354.28
308.301	11471.09
308.756	11171.36
309.211	10770.2
309.666	11061.87
310.121	13746.26
310.576	13950.24
311.031	13848.89
311.486	15871.09
311.94	15818.76
312.395	21184.96
312.85	39820.83
313.305	195176.47
313.759	1015749.87
314.214	73656.45
314.668	58642.88
315.123	49501.88
315.577	17817.66
316.032	15911.39
316.486	20001.59
316.94	15859.83
317.394	11077.65
317.849	8634.74
318.303	8178.57
318.757	7722.04
319.211	8549.66
319.665	7468.01
320.119	7555.72
320.572	10820.54
321.026	10129.45
321.48	8439.66
321.934	9188.92
322.387	9208.17
322.841	9967.44
323.295	9017.12
323.748	10367.57
324.202	10530.58
324.655	12681.47
325.108	17801.03
325.562	12599.35
326.015	14928.52
326.468	11321.54
326.921	12686.56
327.374	11854.16
327.827	12358.84
328.28	13991
328.733	9412.22
329.186	8291.13
329.639	7904.56
330.092	6655.87
330.545	6343.08
330.997	6422.83
331.45	7039.48
331.903	8257.87
332.355	14180.31
332.808	13795.67
333.26	11348.74
333.713	12342.84
334.165	12420.39
334.617	16594.57
335.069	13384.54
335.522	24262.58
335.974	26854.14
336.426	24475.83
336.878	16949.57
337.33	8619.18
337.782	8419.82
338.234	10593.63
338.686	12634.26
339.137	15017.89
339.589	14179.73
340.041	11141.26
340.493	9562.06
340.944	9824.25
341.396	10587.84
341.847	8952.84
342.299	10622
342.75	13019.47
343.201	11358.76
343.653	13103.49
344.104	16093.03
344.555	12655.99
345.006	19626.99
345.457	15118.46
345.908	12022.38
346.359	11368.84
346.81	9252.47
347.261	9729.16
347.712	9546.86
348.163	10240.73
348.613	10405.17
349.064	9741.92
349.515	8537.13
349.965	8805.8
350.416	10584.27
350.866	11602.75
351.317	13072.87
351.767	21669.85
352.217	27372.37
352.668	22767.33
353.118	20893.59
353.568	20130.81
354.018	15943.79
354.468	16829.58
354.918	12083.5
355.368	10597.09
355.818	14997.33
356.268	43245.61
356.718	181369.34
357.168	45250.53
357.617	22698.71
358.067	25271.08
358.517	23719.24
358.966	27835
359.416	31331.63
359.865	33844.48
360.315	40252.02
360.764	18877.57
361.213	10598.55
361.663	10033.26
362.112	12397.46
362.561	20067.06
363.01	15146.3
363.459	12755.45
363.908	13846.93
364.357	11813.35
364.806	19944.54
365.255	13733.69
365.703	12598.93
366.152	12642.04
366.601	10269.94
367.05	8358.55
367.498	7607.99
367.947	7960.02
368.395	8268.54
368.844	7342.45
369.292	8833.34
369.74	6143.83
370.189	9405.94
370.637	11016.48
371.085	9490.25
371.533	11592.28
371.981	11153.21
372.429	10679.22
372.877	11120.81
373.325	9338.52
373.773	9512.97
374.221	8454.1
374.669	10478.43
375.116	9060.12
375.564	9136.51
376.012	10226.64
376.459	8454.74
376.907	10086.89
377.354	12164.36
377.801	11423.12
378.249	13172.92
378.696	16820.28
379.143	20393.33
379.591	21721.15
380.038	36903.52
380.485	26809.98
380.932	29000.57
381.379	26592.47
381.826	19680.49
382.273	13999.33
382.72	12178.93
383.166	11842.17
383.613	7682.41
384.06	6939.73
384.506	8053.03
384.953	5903.05
385.4	5913.79
385.846	5167.23
386.292	5020.55
386.739	4914.36
387.185	4853.14
387.631	4868.11
388.078	4741.03
388.524	5065.47
388.97	4683.58
389.416	3903.97
389.862	4153.53
390.308	3941.67
390.754	4021.99
391.2	4354.13
391.645	4450.97
392.091	4295.89
392.537	4143.08
392.983	4147.13
393.428	4113.07
393.874	4388.84
394.319	4427.21
394.765	4211.19
395.21	4327.57
395.655	4054.69
396.101	3802.67
396.546	3440.39
396.991	3453.81
397.436	3213.04
397.881	3096.78
398.326	2922.52
398.771	2783.64
399.216	2424.25
399.661	2187.99
400.106	2186.61
400.551	2247.98
400.995	2022.37
401.44	2002.93
401.885	1880.75
402.329	1905.46
402.774	1833.75
403.218	1786.39
403.663	1718.27
404.107	1775.31
404.551	1789.98
404.995	1639.67
405.44	1575.55
405.884	1600.88
406.328	1548.34
406.772	1549.27
407.216	1414.12
407.66	1370.29
408.104	1294.9
408.547	1215.44
408.991	1175.51
409.435	1133.77
409.879	1125.34
410.322	1117.12
410.766	1081.37
411.209	1032.34
411.653	993.5
412.096	976.69
412.54	976.09
412.983	973.71
413.426	979.35
413.869	978.63
414.312	964.61
414.756	929.82
415.199	885.14
415.642	862.98
416.085	868.94
416.527	861.2
416.97	873.38
417.413	828.58
417.856	820.37
418.298	814.93
418.741	809.79
419.184	805.63
419.626	838.69
420.069	840.08
420.511	842.02
420.953	821.89
421.396	815.74
421.838	794.65
422.28	815.69
422.722	819.77
423.164	828.12
423.606	815.85
424.048	811.78
424.49	771.11
424.932	767.25
425.374	757.51
425.816	769.42
426.258	784.56
426.699	793.92
427.141	784.47
427.582	795.3
428.024	790.84
428.465	783.18
428.907	764.18
429.348	752.48
429.789	753.95
430.231	736.79
430.672	744.71
431.113	726.58
431.554	717.17
431.995	696.91
432.436	674.95
432.877	660.86
433.318	650.73
433.759	647.22
434.2	647.67
434.64	636.95
435.081	640.69
435.522	609.22
435.962	586.61
436.403	571.22
436.843	576.31
437.284	558.92
437.724	539.82
438.164	538.69
438.604	523.82
439.045	504.75
439.485	486.52
439.925	473.82
440.365	461.86
440.805	455.01
441.245	449.68
441.685	433.34
442.125	429.49
442.564	432.3
443.004	422.66
443.444	421.38
443.883	420.82
444.323	414.25
444.762	409.95
445.202	411.22
445.641	418.52
446.081	412.27
446.52	414.2
446.959	409.52
447.398	401.32
447.837	395.44
448.276	388.87
448.716	390.85
449.154	393.35
449.593	386.61
450.032	386.42
450.471	376.78
450.91	376.89
451.349	377.68
451.787	375.09
452.226	378.07
452.664	378.33
453.103	380.13
453.541	378.55
453.98	380.98
454.418	382.55
454.856	378.12
455.295	377
455.733	381.1
456.171	382
456.609	382.25
457.047	381.67
457.485	387.69
457.923	387.81
458.361	383.04
458.798	381.87
459.236	380.36
459.674	379.9
460.111	382.06
460.549	377.83
460.987	373.71
461.424	372.55
461.862	371.17
462.299	364.62
462.736	364.42
463.173	366.09
463.611	364.52
464.048	364.02
464.485	367.7
464.922	363.4
465.359	360.87
465.796	363.64
466.233	361.24
466.67	358.95
467.106	359.37
467.543	353.8
467.98	347.89
468.416	336.96
468.853	333.85
469.29	323.19
469.726	318.9
470.162	309.97
470.599	300.87
471.035	297.64
471.471	290.59
471.907	286.79
472.344	285.78
472.78	286.87
473.216	289.74
473.652	286.53
474.088	285.41
474.523	285.61
474.959	288.1
475.395	285.87
475.831	283.69
476.266	284.43
476.702	283.85
477.138	280.17
477.573	280.35
478.008	278.91
478.444	281.04
478.879	284.71
479.314	285.97
479.75	286.78
480.185	286.81
480.62	289.6
481.055	290.61
481.49	293.27
481.925	298.34
482.36	304.67
482.795	312.29
483.229	319.74
483.664	326.27
484.099	327.36
484.534	332.64
484.968	335.93
485.403	336.6
485.837	335.49
486.271	334.58
486.706	334.07
487.14	328.26
487.574	324.46
488.009	321.66
488.443	318.41
488.877	322.78
489.311	323.07
489.745	327.71
490.179	331.94
490.613	340.14
491.046	342.51
491.48	345.37
491.914	346.72
492.348	349.6
492.781	352.13
493.215	353.14
493.648	352.48
494.082	355.62
494.515	356.53
494.948	360.87
495.382	362.36
495.815	365.44
496.248	369.6
496.681	375.79
497.114	381.29
497.547	386.82
497.98	395.89
498.413	401.79
498.846	408.05
499.279	413.71
499.711	415.86
500.144	417.93
500.577	425.19
501.009	431.14
501.442	438.8
501.874	441.84
502.306	444.42
502.739	451.38
503.171	460.29
503.603	463.93
504.036	469.41
504.468	474.86
504.9	482.52
505.332	487.4
505.764	492.38
506.196	497.37
506.627	506.8
507.059	516.36
507.491	520.59
507.923	521.64
508.354	532.14
508.786	541.33
509.217	553.55
509.649	564.42
510.08	577.27
510.512	589.01
510.943	600.7
511.374	610.15
511.805	624.51
512.237	638.06
512.668	658.73
513.099	676.04
513.53	694.33
513.961	708.87
514.391	730.85
514.822	754.83
515.253	778.55
515.684	796.13
516.114	816.1
516.545	831.89
516.975	850.57
517.406	863.79
517.836	867.73
518.267	874.04
518.697	888.24
519.127	892.65
519.558	898.47
519.988	902.98
520.418	910.78
520.848	924.02
521.278	930.69
521.708	968.76
522.138	978.94
522.567	1000.28
522.997	1018.08
523.427	1029.14
523.857	1042
524.286	1049.77
524.716	1061.72
525.145	1076
525.575	1084.22
526.004	1095.78
526.433	1068.72
526.863	1070.99
527.292	1067.16
527.721	1072.32
528.15	1077.39
528.579	1079.91
529.008	1089.4
529.437	1104.56
529.866	1114.12
530.295	1126.34
530.724	1135.85
531.152	1154.6
531.581	1165.38
532.01	1177.77
532.438	1183.95
532.867	1193.13
533.295	1206
533.723	1208.85
534.152	1208.34
534.58	1209.07
535.008	1198.93
535.436	1200.33
535.865	1205.67
536.293	1213.52
536.721	1223.28
537.149	1239.93
537.576	1243.73
538.004	1251.34
538.432	1256.83
538.86	1255.56
539.287	1259.9
539.715	1269.15
540.143	1270.67
540.57	1268.2
540.998	1266.52
541.425	1252.87
541.852	1238.29
542.28	1236.27
542.707	1225.49
543.134	1217.09
543.561	1214.62
543.988	1210.26
544.415	1209.7
544.842	1206.22
545.269	1202.19
545.696	1204.08
546.123	1213.09
546.549	1206.71
546.976	1198.9
547.403	1199.71
547.829	1201.21
548.256	1202.66
548.682	1200.85
549.108	1197.2
549.535	1196.83
549.961	1197.74
550.387	1189.41
550.813	1186.74
551.24	1191.98
551.666	1192.58
552.092	1186.4
552.518	1182.59
552.943	1179.11
553.369	1183.26
553.795	1187.09
554.221	1188.23
554.646	1186.25
555.072	1193.48
555.498	1194.87
555.923	1200.87
556.349	1211.25
556.774	1216.89
557.199	1217.08
557.625	1221.01
558.05	1218.42
558.475	1224.89
558.9	1224.4
559.325	1219.58
559.75	1215.84
560.175	1212.14
560.6	1207.73
561.025	1205.96
561.449	1206.2
561.874	1209.99
562.299	1212.76
562.723	1217.23
563.148	1209.39
563.572	1210.7
563.997	1216.79
564.421	1218.81
564.846	1218.24
565.27	1220.15
565.694	1217.72
566.118	1223.65
566.542	1227.75
566.966	1222.22
567.39	1217.78
567.814	1209.92
568.238	1209.1
568.662	1210.32
569.086	1210.37
569.509	1213.48
569.933	1202.54
570.357	1196.49
570.78	1181.63
571.204	1173.03
571.627	1165.21
572.05	1162.2
572.474	1162.32
572.897	1153.27
573.32	1147.96
573.743	1140.53
574.166	1128.32
574.589	1127.09
575.012	1121.87
575.435	1120.74
575.858	1113.54
576.281	1105.79
576.704	1095.76
577.126	1085.3
577.549	1077.91
577.972	1071.29
578.394	1064.93
578.817	1061.71
579.239	1049.42
579.661	1040.51
580.084	1031.37
580.506	1022.47
580.928	1020.34
581.35	1013.29
581.772	1010.88
582.194	1002.07
582.616	993.47
583.038	983.67
583.46	974.72
583.882	972
584.303	973.33
584.725	969.75
585.147	973.59
585.568	978.97
585.99	986.17
586.411	991.27
586.833	1000.24
587.254	1000.66
587.675	1009.54
588.096	1018.06
588.518	1015.07
588.939	1004.63
589.36	1002.61
589.781	990.8
590.202	973.57
590.623	967.27
591.043	964.25
591.464	955.49
591.885	953.5
592.305	948.3
592.726	938.84
593.147	939.83
593.567	935.5
593.987	930.5
594.408	927.86
594.828	924.98
595.248	921.25
595.669	909.87
596.089	904.61
596.509	899.59
596.929	891.48
597.349	891.8
597.769	883.73
598.189	879.77
598.608	879.35
599.028	880.61
599.448	879.97
599.867	870.78
600.287	867.37
600.706	864.66
601.126	859.06
601.545	858.53
601.965	856.95
602.384	853.5
602.803	855.47
603.222	853.58
603.641	848.82
604.061	847.21
604.48	844.39
604.898	848.86
605.317	851.55
605.736	851.81
606.155	850.42
606.574	843.92
606.992	847.36
607.411	843.37
607.829	836.58
608.248	833.34
608.666	830.61
609.085	830.59
609.503	825.3
609.921	822.15
610.339	822.98
610.758	820.62
611.176	817.17
611.594	811.12
612.012	809.25
612.43	811.41
612.847	815.18
613.265	815.83
613.683	817.66
614.101	818.12
614.518	813.58
614.936	807.05
615.353	798.24
615.771	796.17
616.188	795.53
616.606	791.91
617.023	787.58
617.44	778.39
617.857	772.66
618.274	766.71
618.691	762.82
619.108	757.21
619.525	752.76
619.942	757.2
620.359	758.78
620.776	754.72
621.192	753.59
621.609	751.16
622.026	755.91
622.442	760.47
622.859	762.52
623.275	758.11
623.691	761.57
624.108	769.03
624.524	776.39
624.94	775.86
625.356	782.46
625.772	789.38
626.188	796.48
626.604	796.77
627.02	793.8
627.436	791.92
627.852	796.34
628.268	802.83
628.683	795.33
629.099	789.45
629.514	785.64
629.93	787.21
630.345	789.3
630.761	786.52
631.176	787.67
631.591	783.42
632.007	780.74
632.422	776.94
632.837	769.35
633.252	769.14
633.667	762.93
634.082	756.6
634.497	748.74
634.911	736.98
635.326	733.37
635.741	721.98
636.155	714.79
636.57	714.13
636.984	712.07
637.399	712.88
637.813	709.37
638.228	706.69
638.642	707.6
639.056	699.03
639.47	696.22
639.884	690.08
640.298	684.37
640.712	681.84
641.126	671.29
641.54	665.5
641.954	657.82
642.368	649.71
642.781	645.31
643.195	633.9
643.609	632.41
644.022	626.82
644.436	621.16
644.849	612.92
645.262	604.11
645.676	603.16
646.089	598.6
646.502	591.07
646.915	586.49
647.328	574.77
647.741	571.96
648.154	563.33
648.567	562.3
648.98	556.23
649.393	555.89
649.805	554.04
650.218	549.3
650.631	540.67
651.043	537.4
651.456	534.16
651.868	533.79
652.28	542.71
652.693	549.93
653.105	551.67
653.517	555.38
653.929	555.36
654.341	557.76
654.753	552.07
655.165	554.28
655.577	551.58
655.989	548.88
656.401	543.66
656.813	525.29
657.224	515.03
657.636	499.02
658.047	490.31
658.459	479.94
658.87	474.19
659.282	466.89
659.693	456.43
660.104	448.61
660.515	440.02
660.926	437.82
661.338	434.24
661.749	429.5
662.159	425.6
662.57	421.38
662.981	417.59
663.392	412.49
663.803	413.89
664.213	411.67
664.624	408.65
665.035	408.76
665.445	401.38
665.855	399.21
666.266	395.77
666.676	392.95
667.086	388.47
667.497	388.34
667.907	385.39
668.317	380.59
668.727	381.31
669.137	380.98
669.547	381.02
669.956	382.16
670.366	382.37
670.776	383.44
671.186	385.99
671.595	387.66
672.005	389.03
672.414	389.45
672.824	390.29
673.233	389.57
673.642	392.16
674.052	394.76
674.461	398.16
674.87	400.26
675.279	399.92
675.688	400.59
676.097	403.28
676.506	402.02
676.915	410.51
677.323	410.89
677.732	411.97
678.141	411.26
678.549	406.45
678.958	406.01
679.366	406.78
679.775	408.88
680.183	417.59
680.592	420.98
681	426.27
681.408	423.69
681.816	430.42
682.224	435.92
682.632	444.48
683.04	461.77
683.448	476.49
683.856	494.63
684.264	516.73
684.671	534.35
685.079	557.72
685.487	584.38
685.894	621.82
686.302	651.16
686.709	678.61
687.116	709.61
687.524	736.82
687.931	760.64
688.338	782.38
688.745	799
689.152	820.96
689.559	849.17
689.966	877.57
690.373	891.75
690.78	919.74
691.187	959.65
691.593	989.93
692	1016.83
692.407	1056.48
692.813	1107.27
693.22	1148.25
693.626	1187.32
694.032	1221.84
694.439	1271.38
694.845	1311.33
695.251	1360.14
695.657	1405.01
696.063	1469.65
696.469	1519.99
696.875	1565.43
697.281	1589.58
697.687	1622.85
698.093	1652.95
698.498	1703.08
698.904	1740.99
699.31	1799.72
699.715	1844.64
700.12	1903.97
700.526	1918.76
700.931	1964.88
701.337	2002.8
701.742	2028.22
702.147	2084.11
702.552	2106.21
702.957	2148.44
703.362	2165.2
703.767	2186.13
704.172	2212.63
704.577	2185.33
