Data from C_3_DEC_CT_2N_Splice17_13-01-10-276.txt Node
Date: Sat Mar 14 13:01:10 EDT 2020
User: sa697716
Spectrometer: FLMS03696
Trigger mode: 0
Integration Time (sec): 3.180400E-1
Scans to average: 20
Electric dark correction enabled: true
Nonlinearity correction enabled: true
Boxcar width: 5
XAxis mode: Wavelengths
Number of Pixels in Spectrum: 2048
>>>>>Begin Spectral Data<<<<<
187.83	-288443.97
188.298	2201.19
188.766	1209.23
189.233	1049.79
189.701	1507.18
190.169	2068.05
190.636	787.82
191.104	629.41
191.571	83.77
192.039	-75.81
192.506	-139.73
192.974	372.85
193.441	-531.73
193.908	-64.81
194.375	-23.74
194.842	27.93
195.31	46.07
195.777	114.03
196.244	358.01
196.711	530.38
197.177	719.84
197.644	1053.22
198.111	1870.96
198.578	2612.56
199.045	2116.8
199.511	3463.71
199.978	4076.42
200.445	3470.46
200.911	3868.18
201.378	4332.27
201.844	3882.78
202.31	6606.59
202.777	6869.86
203.243	3781.97
203.709	3616.19
204.176	4308.5
204.642	3555.17
205.108	3329.25
205.574	2722.18
206.04	2492.26
206.506	2337.05
206.972	2222.6
207.438	2159.94
207.903	2477.78
208.369	2177.69
208.835	2186.64
209.301	2302.3
209.766	2370.32
210.232	2350.87
210.697	2929.57
211.163	3628.67
211.628	5519.27
212.094	4657.12
212.559	5692.56
213.024	3553.71
213.49	4341.62
213.955	4230.73
214.42	4172.07
214.885	3901.14
215.35	3751.63
215.815	3593.43
216.28	3864.77
216.745	3192.42
217.21	3499.27
217.675	3292.16
218.14	3765.81
218.604	4318.22
219.069	5040.24
219.534	5377.5
219.998	6395.16
220.463	7900.73
220.927	9939.81
221.392	9472.81
221.856	9679.46
222.32	12354.2
222.785	15356.65
223.249	19447.06
223.713	21785.92
224.177	21856.03
224.642	28174.94
225.106	34754.71
225.57	38108.23
226.034	28337.08
226.497	43198.23
226.961	39040.41
227.425	45493.56
227.889	50594.92
228.353	50694.66
228.816	104852.85
229.28	100359.81
229.744	84699.32
230.207	51484.46
230.671	50647.12
231.134	84014.02
231.597	96860.31
232.061	96995.65
232.524	94687.81
232.987	65245.99
233.45	58746.65
233.914	52752.21
234.377	54166.65
234.84	49587.13
235.303	58510.17
235.766	65402.34
236.229	67580.26
236.691	42556.2
237.154	47819.37
237.617	35921.27
238.08	36795.5
238.542	43050.64
239.005	30735.88
239.468	30481.9
239.93	28711.06
240.393	26071.84
240.855	22854.7
241.317	23425.06
241.78	28547.46
242.242	29498.28
242.704	31817.85
243.166	27679.82
243.629	25105.73
244.091	28966.44
244.553	31775.63
245.015	34147.68
245.477	44232.85
245.939	64890.08
246.4	68839.06
246.862	66922.2
247.324	63105.67
247.786	70721.76
248.247	92756.59
248.709	95940.52
249.17	71705.43
249.632	67443.87
250.093	78193.72
250.555	67521.77
251.016	41157.04
251.477	39049.7
251.939	42141.31
252.4	44225.41
252.861	52619.79
253.322	48971.01
253.783	58347.7
254.244	75756.03
254.705	59824.05
255.166	53249.43
255.627	52474.12
256.088	74032.44
256.549	78661.67
257.009	67769.17
257.47	82338.34
257.931	67089.92
258.391	50289.87
258.852	51868.29
259.312	54432.21
259.773	67285.29
260.233	56864.1
260.694	47971.03
261.154	54471.7
261.614	43730.96
262.074	39176.15
262.534	40691.17
262.994	38394.61
263.455	51221.07
263.915	43168.9
264.374	40686.17
264.834	44462.34
265.294	49363.07
265.754	51145.02
266.214	48445.38
266.673	45411.53
267.133	57342.87
267.593	56979.9
268.052	69751.09
268.512	60703.62
268.971	73177.83
269.431	80284.93
269.89	71921.27
270.349	107832.18
270.809	120306.66
271.268	108228.75
271.727	243024.27
272.186	157409.63
272.645	118076.08
273.104	85266.09
273.563	123503.06
274.022	97314.21
274.481	82777.82
274.94	63779.1
275.399	47472.32
275.857	55346.9
276.316	74921.26
276.775	66699
277.233	65721.18
277.692	61521.18
278.15	69576.39
278.609	71550.39
279.067	66219.17
279.525	61514.68
279.984	79537.29
280.442	95492.87
280.9	94018.14
281.358	61817.89
281.816	57613.65
282.274	56443.16
282.732	58370.48
283.19	58703.81
283.648	50678.38
284.106	53958.35
284.564	54899.47
285.021	50838.33
285.479	37879.19
285.937	34495.7
286.394	30233.86
286.852	31118.74
287.309	32674.68
287.767	31504.39
288.224	29914.41
288.682	32850.38
289.139	36034.25
289.596	32973.59
290.053	34330.44
290.511	43374.97
290.968	52551.3
291.425	71436.03
291.882	59432.36
292.339	51714.58
292.796	51382.63
293.252	48465.65
293.709	38457.74
294.166	34485.93
294.623	38114.63
295.079	36579.84
295.536	36715.96
295.992	33337.83
296.449	32959.37
296.905	34241.24
297.362	32823.81
297.818	34540.01
298.274	35809.83
298.731	36508.69
299.187	36131.14
299.643	38797.84
300.099	46873.99
300.555	51428.41
301.011	42987.8
301.467	41371.99
301.923	48459.16
302.379	47339.26
302.835	46469.25
303.291	46528.57
303.746	52973.36
304.202	66911.98
304.658	67145.41
305.113	45180.08
305.569	44239.21
306.024	47161.83
306.479	44930.11
306.935	37833.11
307.39	41312.6
307.845	38111.39
308.301	38326.86
308.756	37342.88
309.211	35937.25
309.666	36810.21
310.121	45640.52
310.576	46323.9
311.031	45951.22
311.486	52659.13
311.94	52630.96
312.395	70375.14
312.85	132391.84
313.305	650561.54
313.759	3360658.8
314.214	243671.04
314.668	193045.55
315.123	162254.49
315.577	58141.89
316.032	51741
316.486	64844.04
316.94	51127.56
317.394	35582.5
317.849	27639.76
318.303	26191.28
318.757	24700.54
319.211	27263.8
319.665	23870.47
320.119	24131.58
320.572	34607.72
321.026	32296.91
321.48	26872.75
321.934	29337.57
322.387	29366.26
322.841	31719.18
323.295	28454.93
323.748	32828.13
324.202	33326.74
324.655	39991.76
325.108	55785.18
325.562	39393.26
326.015	46838.26
326.468	35371.48
326.921	39510.08
327.374	36820.79
327.827	38272.09
328.28	43264.67
328.733	28939.88
329.186	25434.25
329.639	24207.11
330.092	20436.34
330.545	19457.25
330.997	19595.42
331.45	21380.44
331.903	25015.22
332.355	43081.44
332.808	41844.77
333.26	34551.33
333.713	37507.13
334.165	37770.14
334.617	50454.48
335.069	40780.69
335.522	73693.14
335.974	81453.51
336.426	74431.66
336.878	51617.9
337.33	26133.72
337.782	25525.48
338.234	31963.85
338.686	38221.42
339.137	45282.06
339.589	42623.69
340.041	33403.6
340.493	28738.56
340.944	29438.81
341.396	31718.61
341.847	26663.96
342.299	31420.5
342.75	38335.44
343.201	33518.94
343.653	38582.26
344.104	47425.04
344.555	37302.77
345.006	58123.23
345.457	44424.78
345.908	35354.02
346.359	33253.26
346.81	27065.42
347.261	28577.84
347.712	28143.68
348.163	30140.26
348.613	30432.56
349.064	28376.5
349.515	24838.52
349.965	25415.23
350.416	30618.72
350.866	33593.65
351.317	37961.37
351.767	62832.57
352.217	79385.99
352.668	65898.8
353.118	60408.72
353.568	58413
354.018	46181.1
354.468	48741.64
354.918	34999.31
355.368	30611.84
355.818	43238.63
356.268	124543.22
356.718	521144.24
357.168	129602.89
357.617	65063.23
358.067	72361.13
358.517	67707
358.966	79324.19
359.416	88820.81
359.865	96054.83
360.315	114441.78
360.764	53399.56
361.213	29910.49
361.663	28373.5
362.112	35024.89
362.561	56542.51
363.01	42637.66
363.459	35895.24
363.908	38885.06
364.357	33020.33
364.806	55739.07
365.255	38346.7
365.703	35035.81
366.152	35066.89
366.601	28393.97
367.05	23006.27
367.498	20863.93
367.947	21801.06
368.395	22679
368.844	20080.89
369.292	24214.78
369.74	16707.58
370.189	25554.52
370.637	29980.29
371.085	25855.44
371.533	31496.46
371.981	30395.79
372.429	28934.35
372.877	30138.94
373.325	25182.01
373.773	25639.65
374.221	22828.13
374.669	28322.94
375.116	24484.96
375.564	24632.62
376.012	27503.08
376.459	22602.46
376.907	26950.3
377.354	32650.43
377.801	30399.44
378.249	34872.56
378.696	44524.51
379.143	53908.25
379.591	57441.88
380.038	96961.65
380.485	70155.99
380.932	75783.42
381.379	69283.82
381.826	50945.87
382.273	36193.3
382.72	31643.96
383.166	30819.23
383.613	19975.28
384.06	17994.89
384.506	20791.63
384.953	15274.99
385.4	15364.61
385.846	13431.25
386.292	13105.65
386.739	12829.32
387.185	12665.58
387.631	12644.83
388.078	12236.42
388.524	13077.59
388.97	12052.81
389.416	10027.29
389.862	10635.68
390.308	10056.03
390.754	10179.76
391.2	11024.07
391.645	11263.31
392.091	10726.48
392.537	10337.43
392.983	10361.88
393.428	10154.52
393.874	10883.1
394.319	10893.65
394.765	10292.33
395.21	10574.56
395.655	9915.85
396.101	9267.54
396.546	8347.38
396.991	8418.7
397.436	7804.94
397.881	7512.25
398.326	7115.49
398.771	6700.95
399.216	5855.89
399.661	5268.85
400.106	5231.22
400.551	5341.01
400.995	4786.91
401.44	4730.53
401.885	4444.69
402.329	4495.6
402.774	4308.57
403.218	4153.5
403.663	4001.31
404.107	4104.69
404.551	4131.38
404.995	3791.72
405.44	3653.75
405.884	3705.7
406.328	3587.15
406.772	3575.79
407.216	3249.53
407.66	3140.84
408.104	2988.07
408.547	2795.84
408.991	2706.61
409.435	2602.68
409.879	2560.97
410.322	2525.32
410.766	2433.68
411.209	2310.15
411.653	2213.87
412.096	2168.41
412.54	2169.71
412.983	2156.48
413.426	2159.36
413.869	2156.79
414.312	2117.62
414.756	2040.11
415.199	1944.82
415.642	1888.86
416.085	1890.04
416.527	1877.31
416.97	1905.06
417.413	1806.16
417.856	1786.06
418.298	1768.57
418.741	1756.91
419.184	1753.04
419.626	1829.42
420.069	1829.93
420.511	1839.45
420.953	1797.58
421.396	1780.49
421.838	1733.98
422.28	1773.25
422.722	1780.23
423.164	1804.53
423.606	1774.1
424.048	1769.93
424.49	1676.46
424.932	1667.64
425.374	1645.68
425.816	1677.78
426.258	1710.17
426.699	1731.66
427.141	1703.08
427.582	1728.64
428.024	1722.46
428.465	1712.47
428.907	1672.11
429.348	1656.22
429.789	1654.43
430.231	1620.58
430.672	1640.48
431.113	1600.21
431.554	1574.15
431.995	1540.54
432.436	1483.3
432.877	1447.88
433.318	1420.84
433.759	1413.14
434.2	1409.37
434.64	1396.07
435.081	1396.58
435.522	1322.3
435.962	1274.26
436.403	1246
436.843	1262.81
437.284	1236.42
437.724	1203.63
438.164	1209.6
438.604	1182.35
439.045	1138.87
439.485	1090.7
439.925	1066.41
440.365	1039.13
440.805	1023.5
441.245	1009.57
441.685	969.25
442.125	963.1
442.564	968.35
443.004	945.05
443.444	941.11
443.883	940.73
444.323	931.69
444.762	934.7
445.202	946.72
445.641	963.09
446.081	956.87
446.52	962.75
446.959	950.56
447.398	925.67
447.837	910.11
448.276	892.72
448.716	899.63
449.154	906.86
449.593	883.65
450.032	879.2
450.471	861.39
450.91	859.99
451.349	856.42
451.787	851.53
452.226	863.46
452.664	863.92
453.103	863.39
453.541	859.84
453.98	855.4
454.418	859.56
454.856	844.05
455.295	841.38
455.733	847.91
456.171	851.3
456.609	849.87
457.047	847.79
457.485	857.82
457.923	858.72
458.361	847.48
458.798	850.46
459.236	847.76
459.674	853.4
460.111	855.73
460.549	845.7
460.987	842.02
461.424	838.9
461.862	835.33
462.299	822.25
462.736	820.96
463.173	823.21
463.611	813.61
464.048	809.39
464.485	814.92
464.922	807.83
465.359	801.89
465.796	789.74
466.233	784.1
466.67	773.88
467.106	770.43
467.543	761.35
467.98	751.38
468.416	731.69
468.853	726.88
469.29	705.22
469.726	696.92
470.162	679.95
470.599	673
471.035	667.16
471.471	651.3
471.907	648.07
472.344	644.75
472.78	645
473.216	652.61
473.652	643.42
474.088	640.46
474.523	637.2
474.959	643.79
475.395	636.97
475.831	632.12
476.266	635.25
476.702	633.24
477.138	625.95
477.573	623.26
478.008	620.36
478.444	622.48
478.879	627.8
479.314	630.24
479.75	627.81
480.185	629.23
480.62	634.37
481.055	637.55
481.49	640.88
481.925	648.2
482.36	658.76
482.795	676.08
483.229	693.87
483.664	707.07
484.099	708.77
484.534	719.38
484.968	726.06
485.403	727.68
485.837	725.15
486.271	722.41
486.706	723.03
487.14	712.85
487.574	699.56
488.009	691.88
488.443	684.72
488.877	689.91
489.311	689.77
489.745	695.09
490.179	698.82
490.613	709.27
491.046	712.59
491.48	714.94
491.914	713.92
492.348	716.35
492.781	717.79
493.215	717.01
493.648	715.56
494.082	718.97
494.515	716.54
494.948	721.72
495.382	722.95
495.815	724.63
496.248	726.4
496.681	735.78
497.114	743.49
497.547	749.5
497.98	758.23
498.413	760.48
498.846	764.91
499.279	769.36
499.711	768.63
500.144	766.87
500.577	772.73
501.009	779.56
501.442	785.16
501.874	782.86
502.306	780.77
502.739	784.1
503.171	793.63
503.603	791.71
504.036	795.77
504.468	797.08
504.9	804.63
505.332	806.88
505.764	805.87
506.196	807.74
506.627	817.14
507.059	825.02
507.491	828.59
507.923	823.61
508.354	833.91
508.786	841.15
509.217	853.99
509.649	862.99
510.08	876.95
510.512	889.81
510.943	900.74
511.374	908.15
511.805	923.64
512.237	938.21
512.668	964.59
513.099	987.38
513.53	1009.51
513.961	1025.94
514.391	1051.94
514.822	1080.53
515.253	1110.73
515.684	1132.35
516.114	1159.2
516.545	1178.95
516.975	1201.94
517.406	1218.78
517.836	1221.75
518.267	1229.48
518.697	1247.71
519.127	1254.82
519.558	1263.01
519.988	1269.12
520.418	1280.76
520.848	1297.67
521.278	1308.08
521.708	1336.98
522.138	1351.29
522.567	1381.71
522.997	1407.49
523.427	1423.64
523.857	1442.45
524.286	1454.26
524.716	1471.31
525.145	1492.64
525.575	1505.93
526.004	1522.4
526.433	1511.76
526.863	1515.19
527.292	1511.27
527.721	1519.61
528.15	1529.36
528.579	1532.76
529.008	1547.22
529.437	1571.67
529.866	1587.09
530.295	1607.87
530.724	1623.12
531.152	1651.4
531.581	1667.83
532.01	1685.48
532.438	1695.47
532.867	1710.62
533.295	1731.34
533.723	1738.7
534.152	1738.34
534.58	1740.21
535.008	1726.23
535.436	1729.06
535.865	1737.9
536.293	1752.68
536.721	1770.85
537.149	1797.21
537.576	1802.16
538.004	1815.81
538.432	1824.62
538.86	1823.94
539.287	1831.69
539.715	1845.82
540.143	1849.49
540.57	1846.03
540.998	1844.1
541.425	1821.5
541.852	1800.86
542.28	1800.56
542.707	1784.48
543.134	1771.26
543.561	1768.69
543.988	1762.66
544.415	1763.5
544.842	1759.02
545.269	1753.81
545.696	1756.33
546.123	1770.02
546.549	1762.21
546.976	1750.97
547.403	1751.65
547.829	1755.51
548.256	1757.4
548.682	1755.81
549.108	1749.29
549.535	1750.33
549.961	1752.74
550.387	1739.96
550.813	1735.37
551.24	1742.12
551.666	1742.32
552.092	1734.02
552.518	1727.51
552.943	1723.09
553.369	1728.93
553.795	1733.97
554.221	1735.21
554.646	1731.75
555.072	1742.42
555.498	1745.9
555.923	1753.54
556.349	1767.26
556.774	1773.73
557.199	1773.99
557.625	1778.79
558.05	1772.21
558.475	1781.15
558.9	1778.58
559.325	1769.62
559.75	1761.43
560.175	1753.5
560.6	1744.52
561.025	1740.45
561.449	1739.69
561.874	1742.88
562.299	1745.35
562.723	1749.28
563.148	1737.36
563.572	1737.57
563.997	1744.12
564.421	1745.9
564.846	1743.73
565.27	1745.43
565.694	1740.7
566.118	1748.45
566.542	1752.46
566.966	1742.15
567.39	1735.04
567.814	1720.04
568.238	1714.96
568.662	1715.35
569.086	1714.27
569.509	1717.4
569.933	1699.2
570.357	1688.71
570.78	1666.11
571.204	1650.28
571.627	1636.34
572.05	1629.98
572.474	1626.89
572.897	1613.81
573.32	1604.47
573.743	1593.27
574.166	1573.92
574.589	1570.8
575.012	1561.29
575.435	1557.07
575.858	1547.06
576.281	1534.24
576.704	1518.45
577.126	1505.57
577.549	1493.71
577.972	1482.94
578.394	1471.61
578.817	1464.98
579.239	1447.12
579.661	1434.29
580.084	1420.31
580.506	1406.63
580.928	1403.28
581.35	1393.86
581.772	1390.19
582.194	1377.3
582.616	1365.76
583.038	1352.22
583.46	1341.69
583.882	1338.91
584.303	1341.15
584.725	1335.96
585.147	1338.68
585.568	1347.81
585.99	1358.18
586.411	1363.71
586.833	1376.59
587.254	1377.87
587.675	1390.38
588.096	1401.18
588.518	1396.13
588.939	1380.68
589.36	1378.82
589.781	1368.78
590.202	1343.16
590.623	1333.63
591.043	1329.88
591.464	1318.28
591.885	1313.8
592.305	1308.24
592.726	1295.72
593.147	1296.63
593.567	1292.01
593.987	1284.6
594.408	1278.79
594.828	1275.72
595.248	1269.82
595.669	1253.87
596.089	1248.39
596.509	1241.9
596.929	1229.64
597.349	1230.1
597.769	1219.72
598.189	1214.2
598.608	1215.55
599.028	1217.71
599.448	1217.53
599.867	1205.81
600.287	1200.85
600.706	1195.38
601.126	1186.92
601.545	1185.28
601.965	1182.7
602.384	1177.9
602.803	1178.59
603.222	1172.73
603.641	1165.26
604.061	1161.61
604.48	1157.8
604.898	1163.36
605.317	1166.15
605.736	1165.92
606.155	1162.37
606.574	1152.93
606.992	1156.52
607.411	1151.73
607.829	1149.1
608.248	1145.65
608.666	1142.63
609.085	1140.37
609.503	1132.51
609.921	1127.18
610.339	1128.24
610.758	1127
611.176	1123.01
611.594	1114.23
612.012	1110.89
612.43	1107.32
612.847	1111.66
613.265	1112.48
613.683	1117.24
614.101	1118.22
614.518	1115.24
614.936	1106.09
615.353	1093.43
615.771	1091.09
616.188	1091.28
616.606	1087.99
617.023	1082.21
617.44	1069.76
617.857	1062.03
618.274	1052.94
618.691	1047.29
619.108	1037.72
619.525	1032.96
619.942	1039.09
620.359	1040.97
620.776	1036.16
621.192	1032.43
621.609	1030.09
622.026	1035.91
622.442	1041.75
622.859	1044.62
623.275	1038.96
623.691	1044.49
624.108	1054.24
624.524	1063.93
624.94	1063.44
625.356	1072
625.772	1083.95
626.188	1094.42
626.604	1095.74
627.02	1091.5
627.436	1090.46
627.852	1096.59
628.268	1106.7
628.683	1099.82
629.099	1093.4
629.514	1089.97
629.93	1093.88
630.345	1096.63
630.761	1093.72
631.176	1097.76
631.591	1094.65
632.007	1090.78
632.422	1088.48
632.837	1079.28
633.252	1077.94
633.667	1071.27
634.082	1064.09
634.497	1054.1
634.911	1039.1
635.326	1035.94
635.741	1021.81
636.155	1013.46
636.57	1014.92
636.984	1015.7
637.399	1017.91
637.813	1016.05
638.228	1014.65
638.642	1018.95
639.056	1009.98
639.47	1011.33
639.884	1005.21
640.298	1000.56
640.712	1001.19
641.126	990.84
641.54	983.9
641.954	979.18
642.368	971.14
642.781	966.41
643.195	951.95
643.609	954.1
644.022	950.82
644.436	948.41
644.849	938.65
645.262	928.66
645.676	931.43
646.089	928.79
646.502	919.46
646.915	916.79
647.328	903.17
647.741	903.48
648.154	893.29
648.567	891.4
648.98	880.88
649.393	882.64
649.805	881.55
650.218	875
650.631	862.36
651.043	857.68
651.456	853.17
651.868	854.55
652.28	869.43
652.693	881.77
653.105	887.69
653.517	897.44
653.929	899.17
654.341	904.51
654.753	895.74
655.165	902.91
655.577	901.39
655.989	899.6
656.401	893.81
656.813	864.74
657.224	849.66
657.636	826.79
658.047	813.77
658.459	799.08
658.87	793.5
659.282	786.95
659.693	771.84
660.104	762.33
660.515	753.9
660.926	757.12
661.338	757.96
661.749	755.09
662.159	750.98
662.57	750.61
662.981	750.98
663.392	747.76
663.803	754.86
664.213	756.45
664.624	756.02
665.035	761.47
665.445	751.11
665.855	748.27
666.266	745.68
666.676	747.21
667.086	741.51
667.497	743.61
667.907	741.59
668.317	735.57
668.727	736.44
669.137	740.36
669.547	740.38
669.956	745.38
670.366	748.63
670.776	751.07
671.186	756.87
671.595	762.14
672.005	765.91
672.414	766.15
672.824	766.44
673.233	769.94
673.642	771.78
674.052	775.68
674.461	777.16
674.87	782.55
675.279	780.31
675.688	780.51
676.097	781.39
676.506	778.41
676.915	793.37
677.323	795.75
677.732	794.64
678.141	793.08
678.549	781.9
678.958	780.34
679.366	778.79
679.775	783.49
680.183	792.74
680.592	797
681	801.06
681.408	790.67
681.816	796.07
682.224	800.26
682.632	807.08
683.04	832.33
683.448	852.47
683.856	876.57
684.264	903.4
684.671	926.45
685.079	955.71
685.487	988.35
685.894	1037.83
686.302	1073.96
686.709	1102.26
687.116	1134.38
687.524	1158.66
687.931	1178.55
688.338	1192.68
688.745	1203.13
689.152	1219.11
689.559	1245.85
689.966	1272.24
690.373	1279.99
690.78	1304.54
691.187	1349.91
691.593	1385.53
692	1414.92
692.407	1464.49
692.813	1526.96
693.22	1579.58
693.626	1634.52
694.032	1680.4
694.439	1750.51
694.845	1807.41
695.251	1880.44
695.657	1946.78
696.063	2044.44
696.469	2122.42
