Data from C_3_DEC_ON_6N_Splice17_13-36-29-469.txt Node
Date: Sat Mar 14 13:36:29 EDT 2020
User: sa697716
Spectrometer: FLMS03696
Trigger mode: 0
Integration Time (sec): 3.180400E-1
Scans to average: 20
Electric dark correction enabled: true
Nonlinearity correction enabled: true
Boxcar width: 5
XAxis mode: Wavelengths
Number of Pixels in Spectrum: 2048
>>>>>Begin Spectral Data<<<<<
187.83	-392452.48
188.298	2908.69
188.766	1524.26
189.233	1348.99
189.701	1890.84
190.169	2599.94
190.636	979.61
191.104	770.33
191.571	107.1
192.039	-118.73
192.506	-130.38
192.974	613.11
193.441	-912.35
193.908	-284.3
194.375	-125.75
194.842	-55.66
195.31	32.62
195.777	181.61
196.244	422.87
196.711	426.96
197.177	518.04
197.644	737.1
198.111	1253.7
198.578	1751.88
199.045	1378.99
199.511	2273.64
199.978	2585.39
200.445	2197.35
200.911	2395.42
201.378	2628.29
201.844	2398.07
202.31	4066.47
202.777	4190.06
203.243	2327.1
203.709	2215.89
204.176	2651.06
204.642	2177.22
205.108	2047.36
205.574	1666.31
206.04	1518.48
206.506	1435.75
206.972	1346.63
207.438	1315.7
207.903	1496.04
208.369	1321.46
208.835	1319.89
209.301	1384.87
209.766	1405.56
210.232	1420.21
210.697	1753.44
211.163	2142.77
211.628	3217.32
212.094	2750.56
212.559	3406.23
213.024	2123.07
213.49	2615.11
213.955	2552.96
214.42	2460.78
214.885	2293.67
215.35	2176.46
215.815	2140.74
216.28	2281.56
216.745	1835.36
217.21	1969.81
217.675	1784.76
218.14	1993.68
218.604	2191.53
219.069	2500.25
219.534	2657.18
219.998	3064.34
220.463	3701.11
220.927	4486.75
221.392	4209.36
221.856	4289.99
222.32	5386.88
222.785	6655.54
223.249	8405.65
223.713	9366.57
224.177	9344.44
224.642	11930.22
225.106	14664.47
225.57	15989.03
226.034	11965.68
226.497	18287.86
226.961	16534.2
227.425	19300.92
227.889	21419.59
228.353	21377.32
228.816	44232.92
229.28	42456.57
229.744	35895.62
230.207	21948.87
230.671	21659.38
231.134	35757.71
231.597	41261.34
232.061	41282.12
232.524	40311.5
232.987	27815.17
233.45	25141.7
233.914	22634.75
234.377	23195.67
234.84	21233.08
235.303	25051.28
235.766	27988.12
236.229	28936.68
236.691	18237.45
237.154	20526.09
237.617	15463.37
238.08	15859.02
238.542	18577.16
239.005	13309.52
239.468	13237.54
239.93	12510.41
240.393	11395.48
240.855	10026.23
241.317	10295.16
241.78	12527.42
242.242	12960.46
242.704	14042.08
243.166	12240.97
243.629	11143.54
244.091	12834.67
244.553	14079.7
245.015	15166.05
245.477	19599.82
245.939	28754.08
246.4	30598.01
246.862	29789.18
247.324	28162.17
247.786	31523.36
248.247	41291.1
248.709	42571.07
249.17	31904.31
249.632	30161.39
250.093	34999.43
250.555	30264.33
251.016	18482.92
251.477	17503.35
251.939	18885.81
252.4	19800.44
252.861	23506.3
253.322	21891.34
253.783	26069.59
254.244	33776.89
254.705	26548
255.166	23572.27
255.627	23207.54
256.088	32735.48
256.549	34788.59
257.009	29980.86
257.47	36350.01
257.931	29608.79
258.391	22198.04
258.852	22873.5
259.312	23976.13
259.773	29628.84
260.233	25043.57
260.694	21104.43
261.154	23925.72
261.614	19214.37
262.074	17174.07
262.534	17829.35
262.994	16810.64
263.455	22370.7
263.915	18834.98
264.374	17719.64
264.834	19338.41
265.294	21430.11
265.754	22206.31
266.214	20975.51
266.673	19615.68
267.133	24703.5
267.593	24489.83
268.052	29921.13
268.512	25993.64
268.971	31372.86
269.431	34368.32
269.89	30730.28
270.349	45994.4
270.809	51248.63
271.268	46074.28
271.727	103194.73
272.186	66872.88
272.645	50121.27
273.104	36118.02
273.563	52276.36
274.022	40991.95
274.481	34871.06
274.94	26882.53
275.399	19964.94
275.857	23203.03
276.316	31342.6
276.775	27908.69
277.233	27488.63
277.692	25728.27
278.15	29089.8
278.609	29928.95
279.067	27714.55
279.525	25764.51
279.984	33235.81
280.442	39948.87
280.9	39471.48
281.358	25978.55
281.816	24204.78
282.274	23673.33
282.732	24424.98
283.19	24575.88
283.648	21218.51
284.106	22564.58
284.564	22922.41
285.021	21273.52
285.479	15849.88
285.937	14386.3
286.394	12639.86
286.852	13027.96
287.309	13702.15
287.767	13306.64
288.224	12652.75
288.682	13906.85
289.139	15313.38
289.596	14042.32
290.053	14592.45
290.511	18443.4
290.968	22416.77
291.425	30464.95
291.882	25387.41
292.339	22107.01
292.796	21893.64
293.252	20640.08
293.709	16399.33
294.166	14707.47
294.623	16244.77
295.079	15589.1
295.536	15676.78
295.992	14225.5
296.449	14069.72
296.905	14606.27
297.362	14029.96
297.818	14767.28
298.274	15353.04
298.731	15651.54
299.187	15495.47
299.643	16635.35
300.099	20147.2
300.555	22108.56
301.011	18501.56
301.467	17861.16
301.923	20904.29
302.379	20396.34
302.835	20025.81
303.291	20012.69
303.746	22770.92
304.202	28766.93
304.658	28905.81
305.113	19439.49
305.569	19050.7
306.024	20303.08
306.479	19308.99
306.935	16301.39
307.39	17812.93
307.845	16470.23
308.301	16636.94
308.756	16209.89
309.211	15624.01
309.666	16042.16
310.121	19966.74
310.576	20263.15
311.031	20119.59
311.486	23014.83
311.94	23014.46
312.395	30857.84
312.85	58057.14
313.305	284780.3
313.759	1480660.72
314.214	107612.36
314.668	85383.23
315.123	71837.4
315.577	25805.13
316.032	22965.82
316.486	28851.57
316.94	22811.29
317.394	15892.69
317.849	12355.68
318.303	11706.3
318.757	11047.68
319.211	12219.63
319.665	10693.01
320.119	10836.78
320.572	15526.94
321.026	14538.97
321.48	12108.37
321.934	13167.47
322.387	13196.57
322.841	14281.27
323.295	12868.98
323.748	14801.22
324.202	15021.77
324.655	18056.6
325.108	25296
325.562	17873.97
326.015	21201.83
326.468	16023.18
326.921	17971.03
327.374	16785.97
327.827	17496.2
328.28	19840.68
328.733	13319.43
329.186	11713.21
329.639	11179.41
330.092	9396.98
330.545	8982.2
330.997	9087.92
331.45	9960.98
331.903	11690.05
332.355	20099.37
332.808	19530.09
333.26	16103.08
333.713	17502.38
334.165	17645.05
334.617	23562.09
335.069	19053.56
335.522	34425.63
335.974	38155.35
336.426	34820.1
336.878	24106.33
337.33	12247.71
337.782	11953.28
338.234	15021.59
338.686	17978.53
339.137	21296.88
339.589	20058.83
340.041	15768.73
340.493	13543
340.944	13860.84
341.396	14956.49
341.847	12620.49
342.299	14906.45
342.75	18225.21
343.201	15845.55
343.653	18207.5
344.104	22380.67
344.555	17603.65
345.006	27376.24
345.457	21078.49
345.908	16758.98
346.359	15804.01
346.81	12863.03
347.261	13543.28
347.712	13355.9
348.163	14345.03
348.613	14587.16
349.064	13623.64
349.515	11951.51
349.965	12255.16
350.416	14717.12
350.866	16167.86
351.317	18236.1
351.767	30247.72
352.217	38316.41
352.668	31801.01
353.118	29218.36
353.568	28087.77
354.018	22306.2
354.468	23566.4
354.918	16936.85
355.368	14842.44
355.818	20991.06
356.268	60558.05
356.718	253780.54
357.168	63165.52
357.617	31712.85
358.067	35284.38
358.517	33090.9
358.966	38864.22
359.416	43706.86
359.865	47217.3
360.315	56250.2
360.764	26315.26
361.213	14764.86
361.663	13981.02
362.112	17288.54
362.561	27991.26
363.01	21129.8
363.459	17843.99
363.908	19321.83
364.357	16418.17
364.806	27759.95
365.255	19093.3
365.703	17503.18
366.152	17528.17
366.601	14220.53
367.05	11532.09
367.498	10463.51
367.947	10947.58
368.395	11369.79
368.844	10053.21
369.292	12120.51
369.74	8389.04
370.189	12872.01
370.637	15078.66
371.085	13008.51
371.533	15836.39
371.981	15272.63
372.429	14641.21
372.877	15240.82
373.325	12779.84
373.773	13016.68
374.221	11576.49
374.669	14354
375.116	12379.33
375.564	12464.62
376.012	13944.9
376.459	11490.08
376.907	13721.67
377.354	16539.93
377.801	15427.86
378.249	17735.26
378.696	22672.59
379.143	27411.85
379.591	29200.72
380.038	49366.75
380.485	35730.22
380.932	38503.03
381.379	35319.97
381.826	26053.56
382.273	18480.76
382.72	16155.42
383.166	15742.39
383.613	10187.74
384.06	9192.05
384.506	10658.03
384.953	7837.85
385.4	7881.74
385.846	6897.63
386.292	6681.65
386.739	6529.28
387.185	6445.91
387.631	6433.91
388.078	6237.22
388.524	6673.18
388.97	6165.78
389.416	5136.16
389.862	5467.93
390.308	5182.39
390.754	5271.15
391.2	5735.11
391.645	5862.5
392.091	5636.86
392.537	5457.18
392.983	5463.77
393.428	5405.98
393.874	5789.33
394.319	5829.47
394.765	5533.79
395.21	5693.11
395.655	5334.53
396.101	4994.78
396.546	4512.54
396.991	4547.21
397.436	4214.06
397.881	4077.11
398.326	3850.63
398.771	3649.82
399.216	3180.83
399.661	2868.46
400.106	2864.53
400.551	2949.92
400.995	2653.66
401.44	2628.55
401.885	2470.3
402.329	2505.42
402.774	2405.3
403.218	2339.61
403.663	2253.5
404.107	2325.6
404.551	2347.57
404.995	2154.53
405.44	2071.98
405.884	2102.1
406.328	2037.52
406.772	2036.67
407.216	1860.1
407.66	1799.8
408.104	1707.81
408.547	1603.9
408.991	1553.9
409.435	1493.3
409.879	1474.27
410.322	1461.37
410.766	1421.94
411.209	1357.68
411.653	1306.28
412.096	1283.81
412.54	1285.91
412.983	1280.13
413.426	1289.42
413.869	1288.88
414.312	1270.4
414.756	1227.91
415.199	1170.68
415.642	1137.92
416.085	1142.41
416.527	1136.38
416.97	1153.76
417.413	1099.64
417.856	1089.24
418.298	1076.71
418.741	1070.6
419.184	1069.41
419.626	1113.93
420.069	1119
420.511	1125.72
420.953	1102
421.396	1093.02
421.838	1065.99
422.28	1089.3
422.722	1096.65
423.164	1112.48
423.606	1096.19
424.048	1093.16
424.49	1040.39
424.932	1033.79
425.374	1018.45
425.816	1034.42
426.258	1053.91
426.699	1066.58
427.141	1057.29
427.582	1072.63
428.024	1066.16
428.465	1058.14
428.907	1034.81
429.348	1022.93
429.789	1025.05
430.231	1007.51
430.672	1022.77
431.113	997.78
431.554	984.62
431.995	954.34
432.436	922.35
432.877	905.82
433.318	894.83
433.759	889.92
434.2	888.41
434.64	877.44
435.081	878.45
435.522	833.9
435.962	804.73
436.403	787.35
436.843	799.62
437.284	783.09
437.724	760.86
438.164	759.84
438.604	742.67
439.045	717.48
439.485	691.25
439.925	676.96
440.365	658.55
440.805	650.39
441.245	644.91
441.685	623.06
442.125	617.26
442.564	621.94
443.004	609.87
443.444	611.08
443.883	612.56
444.323	607.2
444.762	607.74
445.202	618.95
445.641	632.89
446.081	628.97
446.52	636.01
446.959	631.96
447.398	619.34
447.837	612.63
448.276	600.48
448.716	606.81
449.154	611.78
449.593	601.16
450.032	598.94
450.471	586.01
450.91	585.76
451.349	584.84
451.787	584.03
452.226	594.05
452.664	595.18
453.103	597.4
453.541	597.67
453.98	599.61
454.418	602.03
454.856	593.4
455.295	593.33
455.733	599.71
456.171	600.91
456.609	599.37
457.047	597.75
457.485	607.27
457.923	608.14
458.361	599.86
458.798	600.51
459.236	598.75
459.674	601.97
460.111	604.84
460.549	598.86
460.987	597.79
461.424	596.84
461.862	593.72
462.299	582.83
462.736	581.89
463.173	582.49
463.611	577.79
464.048	576.48
464.485	581.35
464.922	575.4
465.359	570.51
465.796	567.58
466.233	563.51
466.67	559.4
467.106	559.96
467.543	555.3
467.98	547.53
468.416	531.19
468.853	526.03
469.29	510.2
469.726	504.79
470.162	491.8
470.599	481.16
471.035	476
471.471	464.13
471.907	460.32
472.344	457.43
472.78	460.05
473.216	466.81
473.652	462.46
474.088	462.31
474.523	462.3
474.959	466.88
475.395	463.7
475.831	463.42
476.266	466.25
476.702	465.49
477.138	461.59
477.573	460.69
478.008	459.44
478.444	462.8
478.879	467.53
479.314	470.05
479.75	470.45
480.185	472.35
480.62	475.94
481.055	478.96
481.49	483.34
481.925	490.37
482.36	500.4
482.795	513.88
483.229	526.46
483.664	537.28
484.099	539.31
484.534	547.67
484.968	553.93
485.403	554.73
485.837	553.59
486.271	551.73
486.706	552.12
487.14	544.91
487.574	536.91
488.009	532.62
488.443	527.69
488.877	533.61
489.311	535.66
489.745	541.25
490.179	546.29
490.613	557.57
491.046	562.22
491.48	566.36
491.914	567.38
492.348	571.61
492.781	576.11
493.215	578.32
493.648	578.84
494.082	584.09
494.515	585.92
494.948	594.21
495.382	598.2
495.815	603.11
496.248	608.92
496.681	620.29
497.114	631.77
497.547	641.19
497.98	654.65
498.413	662.76
498.846	672.83
499.279	681.04
499.711	686.18
500.144	689.54
500.577	701.62
501.009	713.38
501.442	725.15
501.874	727.96
502.306	732.27
502.739	741.47
503.171	755.37
503.603	759.95
504.036	770.53
504.468	778.35
504.9	790.87
505.332	797.93
505.764	803.93
506.196	812.29
506.627	827.48
507.059	841.77
507.491	850.63
507.923	851.76
508.354	868.64
508.786	881.63
509.217	900.2
509.649	916.64
510.08	937.24
510.512	956.32
510.943	972.5
511.374	986.32
511.805	1007.79
512.237	1028.79
512.668	1061.22
513.099	1089.7
513.53	1117.88
513.961	1140.68
514.391	1174.57
514.822	1209.9
515.253	1245.6
515.684	1273.62
516.114	1304.65
516.545	1328.36
516.975	1357.12
517.406	1378.89
517.836	1384.39
518.267	1394.07
518.697	1414.96
519.127	1422.01
519.558	1431.2
519.988	1438.37
520.418	1450.76
520.848	1470.3
521.278	1481.6
521.708	1516.81
522.138	1532.17
522.567	1564.97
522.997	1592.08
523.427	1608.87
523.857	1627.87
524.286	1640.3
524.716	1657.24
525.145	1677.82
525.575	1690.97
526.004	1707.1
526.433	1687.54
526.863	1687.86
527.292	1679.65
527.721	1687.02
528.15	1694.51
528.579	1696.81
529.008	1709.2
529.437	1732.98
529.866	1748.46
530.295	1766.94
530.724	1781.44
531.152	1809.98
531.581	1826.09
532.01	1845.43
532.438	1855.32
532.867	1869.88
533.295	1889.37
533.723	1896.51
534.152	1895.94
534.58	1896.51
535.008	1881.02
535.436	1883.1
535.865	1890.84
536.293	1904.93
536.721	1921.57
537.149	1947.68
537.576	1952.29
538.004	1965.1
538.432	1972.71
538.86	1970.64
539.287	1977.59
539.715	1992.65
540.143	1996.26
540.57	1993.33
540.998	1991.04
541.425	1966.73
541.852	1944.97
542.28	1943.01
542.707	1927.63
543.134	1913.95
543.561	1910.4
543.988	1903.58
544.415	1903.14
544.842	1896.59
545.269	1890.07
545.696	1893.11
546.123	1907.73
546.549	1898.41
546.976	1887.27
547.403	1886.72
547.829	1889.78
548.256	1893.51
548.682	1890.49
549.108	1883.26
549.535	1884.48
549.961	1886.67
550.387	1873.27
550.813	1868.73
551.24	1875.84
551.666	1877.28
552.092	1869.08
552.518	1863.08
552.943	1856.9
553.369	1865.74
553.795	1872.47
554.221	1874.63
554.646	1873
555.072	1886.57
555.498	1892.27
555.923	1903.14
556.349	1920
556.774	1929.86
557.199	1933.29
557.625	1940.95
558.05	1936.74
558.475	1948.78
558.9	1948.68
559.325	1940.63
559.75	1934.18
560.175	1929.45
560.6	1923.15
561.025	1921.81
561.449	1922.36
561.874	1929.02
562.299	1934.92
562.723	1942.99
563.148	1932.94
563.572	1938.08
563.997	1949.77
564.421	1956.63
564.846	1955.45
565.27	1960.36
565.694	1958.16
566.118	1972.09
566.542	1979.06
566.966	1972.07
567.39	1966.01
567.814	1954.1
568.238	1952.58
568.662	1957.75
569.086	1958.97
569.509	1968.37
569.933	1951.47
570.357	1943.66
570.78	1921.58
571.204	1909.32
571.627	1897.65
572.05	1895.74
572.474	1895.97
572.897	1882.85
573.32	1875.6
573.743	1865.58
574.166	1846.14
574.589	1847.35
575.012	1839.46
575.435	1838.53
575.858	1828.26
576.281	1817.05
576.704	1801
577.126	1788.55
577.549	1778.08
577.972	1766.4
578.394	1756.86
578.817	1749.74
579.239	1729.64
579.661	1715.4
580.084	1699.32
580.506	1686.12
580.928	1683.4
581.35	1672.74
581.772	1669.21
582.194	1654.74
582.616	1642.94
583.038	1627.63
583.46	1616.58
583.882	1614.25
584.303	1618.52
584.725	1614.42
585.147	1617.97
585.568	1629.72
585.99	1642.82
586.411	1649.79
586.833	1665.93
587.254	1667.78
587.675	1683.63
588.096	1697.54
588.518	1691.27
588.939	1674.25
589.36	1671.07
589.781	1658.04
590.202	1627.98
590.623	1619.25
591.043	1616.42
591.464	1603.61
591.885	1598.77
592.305	1592.02
592.726	1577.11
593.147	1579.67
593.567	1574.09
593.987	1565.85
594.408	1560.26
594.828	1556.57
595.248	1550.28
595.669	1530.26
596.089	1523.08
596.509	1516.58
596.929	1502.39
597.349	1504.53
597.769	1492.75
598.189	1485.21
598.608	1487.76
599.028	1490.44
599.448	1491
599.867	1477.22
600.287	1473.19
600.706	1467.55
601.126	1457.66
601.545	1456.64
601.965	1454.04
602.384	1448.26
602.803	1451.05
603.222	1444.79
603.641	1437.19
604.061	1432.79
604.48	1428.67
604.898	1437.15
605.317	1442.62
605.736	1444.58
606.155	1442.15
606.574	1432.59
606.992	1438.4
607.411	1434.09
607.829	1425.77
608.248	1422.42
608.666	1420.52
609.085	1419.36
609.503	1410.53
609.921	1404.23
610.339	1405.81
610.758	1404.31
611.176	1398.72
611.594	1389.78
612.012	1385.72
612.43	1389.2
612.847	1395.75
613.265	1396.33
613.683	1400.83
614.101	1402.39
614.518	1398.58
614.936	1386.93
615.353	1370.45
615.771	1367.25
616.188	1366.6
616.606	1362.96
617.023	1355.77
617.44	1340.29
617.857	1332.73
618.274	1322.98
618.691	1316.29
619.108	1304.9
619.525	1299.79
619.942	1307.48
620.359	1309.69
620.776	1303.92
621.192	1300.03
621.609	1296.6
622.026	1303.3
622.442	1309.07
622.859	1313.39
623.275	1305.8
623.691	1312.2
624.108	1323.88
624.524	1337.95
624.94	1337.84
625.356	1348.09
625.772	1361.94
626.188	1374.78
626.604	1376.89
627.02	1371.74
627.436	1368.45
627.852	1374.83
628.268	1388.28
628.683	1378.31
629.099	1368.85
629.514	1363.82
629.93	1368.18
630.345	1371.53
630.761	1366.14
631.176	1368.14
631.591	1362.84
632.007	1356.97
632.422	1354.65
632.837	1340.77
633.252	1338.08
633.667	1327.52
634.082	1316.74
634.497	1301.89
634.911	1281.2
635.326	1275.92
635.741	1258.48
636.155	1245.02
636.57	1245
636.984	1242.05
637.399	1242.42
637.813	1240.13
638.228	1236.56
638.642	1239.1
639.056	1226.1
639.47	1224.83
639.884	1215.68
640.298	1205.65
640.712	1204.27
641.126	1188.22
641.54	1177.45
641.954	1169.59
642.368	1154.67
642.781	1145.61
643.195	1125.59
643.609	1125.38
644.022	1115.28
644.436	1107.67
644.849	1092.75
645.262	1077.24
645.676	1076.44
646.089	1069.45
646.502	1053.27
646.915	1046.33
647.328	1027.75
647.741	1024.47
648.154	1008.27
648.567	1004.9
648.98	990.48
649.393	990.68
649.805	985.29
650.218	976.6
650.631	959.59
651.043	952.88
651.456	946.09
651.868	944.69
652.28	959.86
652.693	971.13
653.105	976.97
653.517	985.98
653.929	986.03
654.341	992.55
654.753	981.02
655.165	986.49
655.577	983.07
655.989	976.61
656.401	966.88
656.813	931.92
657.224	912.02
657.636	882.38
658.047	864.35
658.459	843.46
658.87	831.49
659.282	818.19
659.693	798.15
660.104	783.21
660.515	769.57
660.926	765.8
661.338	761.47
661.749	753.56
662.159	742.76
662.57	736.07
662.981	730.19
663.392	722.25
663.803	723.81
664.213	718.57
664.624	710.66
665.035	710.93
665.445	697.54
665.855	689.12
666.266	681.51
666.676	678.54
667.086	669.41
667.497	667.6
667.907	661.43
668.317	652.52
668.727	650.64
669.137	650.63
669.547	647.32
669.956	648
670.366	648.4
670.776	649.07
671.186	651.84
671.595	655.22
672.005	656.83
672.414	655.68
672.824	654.52
673.233	656.05
673.642	658.45
674.052	662.17
674.461	664.53
674.87	667.79
675.279	665.81
675.688	666.91
676.097	667.31
676.506	665.21
676.915	678.03
677.323	680.67
677.732	679.43
678.141	679.4
678.549	670.03
678.958	671.18
679.366	671.58
679.775	676.99
680.183	688.1
680.592	695.42
681	702.75
681.408	698.79
681.816	707.45
682.224	718.74
682.632	731.64
683.04	761.83
683.448	786.08
683.856	818.74
684.264	856.38
684.671	890.85
685.079	931.75
685.487	977.64
685.894	1041.27
686.302	1095.38
686.709	1141.79
687.116	1194.5
687.524	1239.56
687.931	1282.65
688.338	1319.62
688.745	1350.64
689.152	1384.29
689.559	1430.94
689.966	1479.49
690.373	1504.75
690.78	1549.15
691.187	1615.58
691.593	1666.25
692	1712.35
692.407	1776.2
692.813	1855.4
693.22	1918.56
693.626	1983.65
694.032	2035.44
694.439	2114.3
694.845	2174.42
695.251	2252.61
695.657	2320.17
696.063	2423.08
696.469	2499.15
696.875	2569.74
697.281	2607.97
697.687	2656.99
698.093	2699.54
