Data from C_3_DEC_OH_4N_Splice17_13-25-59-364.txt Node
Date: Sat Mar 14 13:25:59 EDT 2020
User: sa697716
Spectrometer: FLMS03696
Trigger mode: 0
Integration Time (sec): 3.180400E-1
Scans to average: 20
Electric dark correction enabled: true
Nonlinearity correction enabled: true
Boxcar width: 5
XAxis mode: Wavelengths
Number of Pixels in Spectrum: 2048
>>>>>Begin Spectral Data<<<<<
187.83	-361309.23
188.298	2625.69
188.766	1374.5
189.233	1270.75
189.701	1713.4
190.169	2362.41
190.636	894.07
191.104	709.34
191.571	126.44
192.039	-73.21
192.506	-51.77
192.974	449.23
193.441	-605.2
193.908	-206.41
194.375	-22.45
194.842	3.97
195.31	101.27
195.777	179.37
196.244	374.67
196.711	390
197.177	471.33
197.644	652.62
198.111	1071.08
198.578	1454.3
199.045	1168.69
199.511	1902.67
199.978	2203.26
200.445	1880.09
200.911	2051.27
201.378	2247.39
201.844	2048.62
202.31	3426.88
202.777	3495.44
203.243	1955.78
203.709	1865.63
204.176	2229.99
204.642	1831.8
205.108	1702.06
205.574	1368.16
206.04	1219.9
206.506	1153.71
206.972	1074.26
207.438	1050.35
207.903	1189.31
208.369	1059.22
208.835	1064.56
209.301	1113.81
209.766	1115.11
210.232	1094.84
210.697	1338.85
211.163	1653.58
211.628	2448.74
212.094	2063.23
212.559	2570.35
213.024	1624.58
213.49	1969.94
213.955	1903.12
214.42	1828.8
214.885	1711.18
215.35	1648.9
215.815	1673.12
216.28	1769.99
216.745	1425.7
217.21	1525.04
217.675	1353.14
218.14	1485.88
218.604	1613.1
219.069	1804.54
219.534	1885.21
219.998	2133.3
220.463	2537.69
220.927	2970.41
221.392	2757.63
221.856	2763.5
222.32	3405.35
222.785	4169.76
223.249	5190.37
223.713	5764.05
224.177	5748.69
224.642	7277.06
225.106	8921.81
225.57	9687.72
226.034	7263.82
226.497	11021.01
226.961	9990.22
227.425	11705.9
227.889	12958.39
228.353	12923.32
228.816	26575.79
229.28	25425.48
229.744	21371.06
230.207	13041.99
230.671	12842.29
231.134	21013.33
231.597	24257.72
232.061	24187.16
232.524	23452.01
232.987	16159.24
233.45	14593.8
233.914	13080.68
234.377	13357.69
234.84	12241.17
235.303	14376.78
235.766	16030.42
236.229	16570.6
236.691	10390.83
237.154	11644.09
237.617	8796.35
238.08	8995.87
238.542	10516.53
239.005	7545.76
239.468	7500.24
239.93	7082.34
240.393	6446.16
240.855	5670.93
241.317	5798.68
241.78	7063.86
242.242	7331.54
242.704	7948.72
243.166	6946.54
243.629	6345.77
244.091	7312.51
244.553	7991.24
245.015	8626.81
245.477	11159.14
245.939	16292.1
246.4	17324.89
246.862	16884.97
247.324	15930.57
247.786	17764.1
248.247	23274.35
248.709	23905.05
249.17	17888.75
249.632	17006.8
250.093	19704.05
250.555	17028.09
251.016	10431.78
251.477	9925.91
251.939	10720.14
252.4	11230.51
252.861	13335.38
253.322	12409.35
253.783	14756.12
254.244	19161.69
254.705	15050.43
255.166	13360.12
255.627	13161.62
256.088	18662.39
256.549	19787.34
257.009	17009.59
257.47	20643.33
257.931	16832.07
258.391	12634.62
258.852	13071.97
259.312	13669.2
259.773	16916.16
260.233	14328.75
260.694	12128.42
261.154	13705.93
261.614	11058.69
262.074	9893.31
262.534	10303.51
262.994	9737.7
263.455	12945.51
263.915	10909.65
264.374	10282.05
264.834	11218.99
265.294	12419.29
265.754	12864.78
266.214	12162.74
266.673	11379.99
267.133	14355.9
267.593	14231.45
268.052	17411.75
268.512	15149.25
268.971	18322.49
269.431	20108.16
269.89	18005.92
270.349	27017.84
270.809	30165.43
271.268	27142.29
271.727	60739.56
272.186	39351.3
272.645	29495.62
273.104	21229.32
273.563	30725.47
274.022	24074.14
274.481	20527.8
274.94	15792.17
275.399	11725.51
275.857	13611.44
276.316	18401.83
276.775	16381.31
277.233	16167.43
277.692	15194.95
278.15	17257.62
278.609	17824.55
279.067	16504.48
279.525	15343
279.984	19833.24
280.442	23863.22
280.9	23615.49
281.358	15581.84
281.816	14569.73
282.274	14276.88
282.732	14677.18
283.19	14729.37
283.648	12687.39
284.106	13512.75
284.564	13716.45
285.021	12752.57
285.479	9517.04
285.937	8645.49
286.394	7605.14
286.852	7824.14
287.309	8229.99
287.767	8016.79
288.224	7645.66
288.682	8425.26
289.139	9278.57
289.596	8534.31
290.053	8879.28
290.511	11212.85
290.968	13637.34
291.425	18517.76
291.882	15512.99
292.339	13534.44
292.796	13426.46
293.252	12667.74
293.709	10104.56
294.166	9095.3
294.623	10048.44
295.079	9659.81
295.536	9746.42
295.992	8865.2
296.449	8782.25
296.905	9146.26
297.362	8789.44
297.818	9232.1
298.274	9610.77
298.731	9765.2
299.187	9655.33
299.643	10365.4
300.099	12556.1
300.555	13762.2
301.011	11510.49
301.467	11139.91
301.923	12984.98
302.379	12711.21
302.835	12519.58
303.291	12526.2
303.746	14278.61
304.202	18064.35
304.658	18185.06
305.113	12234.96
305.569	12010.51
306.024	12800.61
306.479	12149.42
306.935	10276.93
307.39	11215.57
307.845	10393.27
308.301	10506.29
308.756	10251.51
309.211	9878.58
309.666	10139.63
310.121	12639.53
310.576	12836.97
311.031	12748.65
311.486	14591.68
311.94	14574.65
312.395	19503.18
312.85	36604.63
313.305	178759.84
313.759	931964.96
314.214	67637.47
314.668	53819.87
315.123	45380.68
315.577	16331.17
316.032	14574.79
316.486	18319.45
316.94	14484.72
317.394	10113.22
317.849	7883.42
318.303	7482.98
318.757	7054.52
319.211	7809.2
319.665	6805.44
320.119	6884.91
320.572	9833.56
321.026	9194.69
321.48	7644.78
321.934	8318.71
322.387	8338.22
322.841	8993.02
323.295	8157.16
323.748	9358.63
324.202	9517.48
324.655	11473.21
325.108	16068.23
325.562	11393.58
326.015	13544.41
326.468	10265
326.921	11519.66
327.374	10781.81
327.827	11273.19
328.28	12713.21
328.733	8537.14
329.186	7506.85
329.639	7166.26
330.092	6057.1
330.545	5765.33
330.997	5832.8
331.45	6391.13
331.903	7525.6
332.355	12922.19
332.808	12541.66
333.26	10355.94
333.713	11286.69
334.165	11373
334.617	15178.97
335.069	12202.04
335.522	22084.11
335.974	24380.88
336.426	22310.15
336.878	15420.5
337.33	7825.39
337.782	7640.17
338.234	9612.68
338.686	11459.49
339.137	13615.06
339.589	12802.17
340.041	10057.3
340.493	8666.06
340.944	8893.05
341.396	9569.6
341.847	8086.86
342.299	9567.74
342.75	11751.56
343.201	10230.2
343.653	11797.6
344.104	14483.41
344.555	11443.41
345.006	17786.23
345.457	13692.53
345.908	10904.97
346.359	10280.98
346.81	8356.73
347.261	8804.28
347.712	8667.68
348.163	9298.24
348.613	9486.07
349.064	8884.54
349.515	7786.85
349.965	8013.26
350.416	9627.56
350.866	10549.85
351.317	11900.68
351.767	19748.44
352.217	24901.05
352.668	20645.07
353.118	18959.55
353.568	18183.24
354.018	14398.75
354.468	15209.93
354.918	10942.01
355.368	9590.3
355.818	13603.57
356.268	39275.16
356.718	164460.34
357.168	41053.16
357.617	20630.68
358.067	22932.53
358.517	21550.48
358.966	25393.84
359.416	28561.65
359.865	30880.48
360.315	36771.81
360.764	17209.95
361.213	9681.15
361.663	9149.33
362.112	11338.08
362.561	18328.12
363.01	13860.64
363.459	11650.37
363.908	12573.57
364.357	10714.96
364.806	18003.78
365.255	12346.5
365.703	11314.58
366.152	11345.29
366.601	9242.03
367.05	7535.58
367.498	6874.09
367.947	7194.78
368.395	7480.97
368.844	6645.48
369.292	7996.44
369.74	5569.55
370.189	8561.66
370.637	10043.11
371.085	8659.73
371.533	10565.7
371.981	10153.38
372.429	9715.25
372.877	10109.65
373.325	8511.37
373.773	8662.84
374.221	7713.6
374.669	9568.84
375.116	8267.79
375.564	8323.29
376.012	9305.62
376.459	7655.42
376.907	9130.27
377.354	11004.67
377.801	10291.05
378.249	11843.37
378.696	15180.22
379.143	18384.33
379.591	19559.1
380.038	33250.9
380.485	24224.34
380.932	26224.88
381.379	24124.73
381.826	17860.83
382.273	12696.68
382.72	11086.57
383.166	10802.61
383.613	7009
384.06	6319.13
384.506	7352.6
384.953	5392.25
385.4	5399.22
385.846	4734.05
386.292	4601.37
386.739	4494.24
387.185	4436.37
387.631	4428.3
388.078	4309.97
388.524	4585
388.97	4229.94
389.416	3517.55
389.862	3740.61
390.308	3543.15
390.754	3592.66
391.2	3892.48
391.645	3975.37
392.091	3833.43
392.537	3719.83
392.983	3714.95
393.428	3687.77
393.874	3957.05
394.319	3989.41
394.765	3799.23
395.21	3902.74
395.655	3661.03
396.101	3430.76
396.546	3104.21
396.991	3118.19
397.436	2898.5
397.881	2804.49
398.326	2646.78
398.771	2514.83
399.216	2196.56
399.661	1975.4
400.106	1972.66
400.551	2030.73
400.995	1827.19
401.44	1806.77
401.885	1702.51
402.329	1728.75
402.774	1656.7
403.218	1619.03
403.663	1559.67
404.107	1606.52
404.551	1627.14
404.995	1496.03
405.44	1438.52
405.884	1463.15
406.328	1417.72
406.772	1414.87
407.216	1285.63
407.66	1247.59
408.104	1177.12
408.547	1104.45
408.991	1069.31
409.435	1033.46
409.879	1022.01
410.322	1012.16
410.766	981.08
411.209	940.44
411.653	904.18
412.096	889.78
412.54	892.02
412.983	891.61
413.426	899.81
413.869	900.4
414.312	883.56
414.756	853.17
415.199	814.23
415.642	794.04
416.085	794.43
416.527	789.2
416.97	799.56
417.413	758.61
417.856	746.8
418.298	737.25
418.741	728.22
419.184	724.32
419.626	752.59
420.069	754.58
420.511	759.62
420.953	744.33
421.396	737.63
421.838	720.61
422.28	738.45
422.722	747.09
423.164	758.55
423.606	753.2
424.048	751.16
424.49	718.79
424.932	715.28
425.374	703.16
425.816	713.32
426.258	727.78
426.699	734.56
427.141	725.34
427.582	735.41
428.024	730.18
428.465	721.68
428.907	705.78
429.348	692.13
429.789	690.79
430.231	676.62
430.672	686.63
431.113	670.49
431.554	660.55
431.995	643.66
432.436	621.63
432.877	608.43
433.318	600.33
433.759	594.58
434.2	596.73
434.64	590.29
435.081	590.93
435.522	560.84
435.962	539.94
436.403	531.29
436.843	535.4
437.284	522.04
437.724	503.6
438.164	501.16
438.604	489.81
439.045	472.09
439.485	452.66
439.925	443.76
440.365	430.36
440.805	422.42
441.245	416.2
441.685	400.37
442.125	396.27
442.564	399.57
443.004	390.79
443.444	389.79
443.883	387.68
444.323	381.97
444.762	378.29
445.202	383.14
445.641	393.59
446.081	389.15
446.52	392.44
446.959	388.17
447.398	379.31
447.837	375.22
448.276	367.89
448.716	372.29
449.154	374.8
449.593	368.78
450.032	367.53
450.471	357.01
450.91	353.99
451.349	353.44
451.787	350.16
452.226	353.47
452.664	352.26
453.103	353.51
453.541	352.61
453.98	354
454.418	354.98
454.856	351.67
455.295	351.55
455.733	355.37
456.171	356.7
456.609	357.85
457.047	359.78
457.485	365.89
457.923	367.1
458.361	360.51
458.798	360.69
459.236	359
459.674	358.19
460.111	358.76
460.549	356.17
460.987	353.6
461.424	351.31
461.862	347.85
462.299	342.64
462.736	341.57
463.173	343.08
463.611	342.04
464.048	342.13
464.485	345.57
464.922	343.96
465.359	341.26
465.796	343.91
466.233	343.06
466.67	341.56
467.106	341.14
467.543	336.23
467.98	331.67
468.416	320.93
468.853	317.07
469.29	307.25
469.726	302.68
470.162	294.52
470.599	284.94
471.035	280.22
471.471	272.6
471.907	269.63
472.344	268.55
472.78	269.31
473.216	271.2
473.652	268.7
474.088	266.34
474.523	266.05
474.959	268.75
475.395	266.7
475.831	267
476.266	269.13
476.702	268.1
477.138	265.98
477.573	265.08
478.008	264.92
478.444	266.4
478.879	271.82
479.314	273.28
479.75	273.26
480.185	273.91
480.62	275.43
481.055	276.01
481.49	278.51
481.925	281.74
482.36	289.11
482.795	297.23
483.229	304.95
483.664	309.74
484.099	310.34
484.534	315.72
484.968	319.03
485.403	319.27
485.837	318.62
486.271	318.41
486.706	318.95
487.14	313.53
487.574	308.67
488.009	305.85
488.443	303.67
488.877	308.23
489.311	308.76
489.745	312.87
490.179	316.88
490.613	325.07
491.046	327.02
491.48	329.41
491.914	330.48
492.348	333.49
492.781	336.49
493.215	337.7
493.648	337.88
494.082	341.87
494.515	342.97
494.948	347.92
495.382	349.24
495.815	352.75
496.248	356.96
496.681	364.15
497.114	370.37
497.547	376.64
497.98	385.03
498.413	390.67
498.846	396.45
499.279	402.23
499.711	405.14
500.144	407.11
500.577	415.11
501.009	421.93
501.442	429.3
501.874	432.2
502.306	434.4
502.739	442.48
503.171	450.91
503.603	455.25
504.036	462.16
504.468	467.9
504.9	476.41
505.332	481.49
505.764	486.63
506.196	492.91
506.627	503.63
507.059	514.02
507.491	518.16
507.923	519.91
508.354	531.26
508.786	540.25
509.217	552.94
509.649	564.29
510.08	577.98
510.512	591.2
510.943	602.1
511.374	611.63
511.805	626.69
512.237	640.97
512.668	663.48
513.099	681.42
513.53	700.07
513.961	715.49
514.391	738.05
514.822	762.26
515.253	786.45
515.684	805.28
516.114	825.53
516.545	841.42
516.975	861.71
517.406	875.05
517.836	879.47
518.267	886.46
518.697	900.68
519.127	905.82
519.558	911.61
519.988	915.34
520.418	923.54
520.848	937.45
521.278	945.55
521.708	983.5
522.138	993.78
522.567	1015.76
522.997	1034.29
523.427	1045.62
523.857	1058.73
524.286	1067.43
524.716	1081.31
525.145	1096.12
525.575	1105.48
526.004	1115.56
526.433	1088.75
526.863	1090.56
527.292	1086.33
527.721	1091.83
528.15	1097.07
528.579	1098.75
529.008	1107.68
529.437	1122.67
529.866	1131.63
530.295	1142.86
530.724	1152.57
531.152	1171.54
531.581	1182.19
532.01	1194.74
532.438	1200.33
532.867	1211.36
533.295	1224.99
533.723	1229.12
534.152	1227.71
534.58	1228.37
535.008	1218.42
535.436	1220.24
535.865	1225.35
536.293	1234.43
536.721	1244.44
537.149	1261.69
537.576	1263.85
538.004	1271.76
538.432	1276.27
538.86	1275.59
539.287	1280.59
539.715	1289.53
540.143	1291
540.57	1287.25
540.998	1284.68
541.425	1269.57
541.852	1255.23
542.28	1253.18
542.707	1242.72
543.134	1234.55
543.561	1232.13
543.988	1227.17
544.415	1226.51
544.842	1222.65
545.269	1219.07
545.696	1221.66
546.123	1229.8
546.549	1223.27
546.976	1215.15
547.403	1214.02
547.829	1215.02
548.256	1215.62
548.682	1213.49
549.108	1209.81
549.535	1210.28
549.961	1211.6
550.387	1202.25
550.813	1200.45
551.24	1205.05
551.666	1207.35
552.092	1201.83
552.518	1197.79
552.943	1195.42
553.369	1200.81
553.795	1204.99
554.221	1206.46
554.646	1204.65
555.072	1213.35
555.498	1216.02
555.923	1222.34
556.349	1231.57
556.774	1237.37
557.199	1238.29
557.625	1241.22
558.05	1237.37
558.475	1244.84
558.9	1243.85
559.325	1238.9
559.75	1233.46
560.175	1228.61
560.6	1224.31
561.025	1221.73
561.449	1222.59
561.874	1226.54
562.299	1228.96
562.723	1233.75
563.148	1225.52
563.572	1226.11
563.997	1231.93
564.421	1234.25
564.846	1233.62
565.27	1235.09
565.694	1232.5
566.118	1238.05
566.542	1242.13
566.966	1236.55
567.39	1231.78
567.814	1223.38
568.238	1222.94
568.662	1224.05
569.086	1225.58
569.509	1228.71
569.933	1217.26
570.357	1210.99
570.78	1196.49
571.204	1186.83
571.627	1178.54
572.05	1176.35
572.474	1175.28
572.897	1165.56
573.32	1161.1
573.743	1152.81
574.166	1140.3
574.589	1138.52
575.012	1133.39
575.435	1132.23
575.858	1124.88
576.281	1117.23
576.704	1105.79
577.126	1097.04
577.549	1089.23
577.972	1080.76
578.394	1073.5
578.817	1070.55
579.239	1057.77
579.661	1049.1
580.084	1039.22
580.506	1029.87
580.928	1026.45
581.35	1018.78
581.772	1015.33
582.194	1005.96
582.616	998.32
583.038	988.12
583.46	979.25
583.882	977.41
584.303	977.47
584.725	972.82
585.147	976.39
585.568	984.03
585.99	991.89
586.411	996.17
586.833	1006.68
587.254	1006.42
587.675	1014.91
588.096	1022.2
588.518	1018.55
588.939	1009.21
589.36	1008.35
589.781	997.7
590.202	980.49
590.623	973.27
591.043	970.52
591.464	960.32
591.885	958.46
592.305	954.67
592.726	945
593.147	945.9
593.567	942.22
593.987	936.23
594.408	933.07
594.828	928.69
595.248	926.26
595.669	915.62
596.089	910.88
596.509	905.06
596.929	895.67
597.349	896.13
597.769	888.49
598.189	883.19
598.608	883.61
599.028	884.97
599.448	884.47
599.867	875.35
600.287	870.91
600.706	869.09
601.126	863.01
601.545	862.75
601.965	861.24
602.384	857.14
602.803	858.49
603.222	856.21
603.641	850.83
604.061	848.85
604.48	845.48
604.898	849.83
605.317	851.37
605.736	852.01
606.155	849.75
606.574	843.37
606.992	846.45
607.411	843.39
607.829	835.56
608.248	833.74
608.666	831.69
609.085	831.74
609.503	826.34
609.921	822.53
610.339	824.59
610.758	822.64
611.176	818.92
611.594	813.76
612.012	811.08
612.43	814.47
612.847	817.32
613.265	817.37
613.683	819.01
614.101	818.57
614.518	815.17
614.936	807.91
615.353	798.78
615.771	797.48
616.188	796.96
616.606	794.32
617.023	788.74
617.44	779.21
617.857	773.88
618.274	768.18
618.691	764.52
619.108	758.23
619.525	752.96
619.942	757.74
620.359	758.06
620.776	753.63
621.192	751.23
621.609	749.36
622.026	753.82
622.442	757.22
622.859	757.57
623.275	752.86
623.691	756.24
624.108	763.48
624.524	770.4
624.94	770
625.356	774.71
625.772	781.42
626.188	788.89
626.604	789.19
627.02	785.6
627.436	785.07
627.852	789.62
628.268	795.49
628.683	789.78
629.099	784.74
629.514	781.19
629.93	783.91
630.345	786.25
630.761	782.59
631.176	784.02
631.591	782.18
632.007	778.26
632.422	775.09
632.837	767.48
633.252	764.77
633.667	757.84
634.082	751.48
634.497	743.74
634.911	731.64
635.326	727.76
635.741	716.06
636.155	706.5
636.57	705.33
636.984	703.78
637.399	704.48
637.813	702.32
638.228	699.36
638.642	700.37
639.056	691.21
639.47	688.94
639.884	682.97
640.298	676.9
640.712	674.63
641.126	665.21
641.54	658.59
641.954	651.68
642.368	642.75
642.781	637.75
643.195	625.34
643.609	624.2
644.022	618.38
644.436	613.11
644.849	604.84
645.262	596.4
645.676	595.44
646.089	590.68
646.502	581.98
646.915	576.92
647.328	565.67
647.741	565.28
648.154	557.52
648.567	557.12
648.98	549.18
649.393	548.44
649.805	545.8
650.218	541.22
650.631	532.44
651.043	528.06
651.456	524.97
651.868	523.49
652.28	529.47
652.693	534.75
653.105	535.5
653.517	540.32
653.929	539.72
654.341	542.1
654.753	535.34
655.165	538.01
655.577	536.7
655.989	533.68
656.401	529.04
656.813	511.03
657.224	500.68
657.636	484.54
658.047	475.71
658.459	465.01
658.87	460.04
659.282	452.58
659.693	441.95
660.104	433.09
660.515	424.61
660.926	422.15
661.338	420.07
661.749	415.58
662.159	411.57
662.57	407.81
662.981	404.64
663.392	399.5
663.803	400.94
664.213	398.21
664.624	396.3
665.035	397.27
665.445	390.14
665.855	385.87
666.266	382.18
666.676	379.51
667.086	373.61
667.497	372.7
667.907	368.93
668.317	364.74
668.727	365.85
669.137	364.63
669.547	363.5
669.956	364.58
670.366	365.18
670.776	366.11
671.186	368.7
671.595	371.38
672.005	373.08
672.414	375.05
672.824	375.58
673.233	375.05
673.642	377.4
674.052	380.55
674.461	383.04
674.87	385.06
675.279	385.21
675.688	385.79
676.097	388.5
676.506	388.58
676.915	395.68
677.323	397.4
677.732	397.12
678.141	397.74
678.549	392.38
678.958	392.55
679.366	393.95
679.775	396.51
680.183	405.8
680.592	408.76
681	412.57
681.408	409.98
681.816	415.49
682.224	421.83
682.632	429.91
683.04	447.88
683.448	462.96
683.856	482.23
684.264	504.41
684.671	521.46
685.079	545.16
685.487	571.81
685.894	607.45
686.302	636.18
686.709	661.63
687.116	691.53
687.524	718.03
687.931	744.05
688.338	764.74
688.745	781.12
689.152	802.89
689.559	832.45
689.966	861.57
690.373	877.49
690.78	905.7
691.187	948.25
691.593	981.24
692	1009.95
692.407	1048.64
692.813	1098.3
693.22	1139.38
693.626	1180.62
694.032	1215.52
694.439	1265.39
694.845	1307.4
695.251	1357.24
695.657	1403.55
696.063	1467.52
696.469	1517.89
696.875	1566.45
697.281	1594.63
697.687	1629.01
698.093	1658.5
698.498	1710.06
698.904	1750.51
699.31	1811.31
699.715	1859.01
700.12	1920.31
700.526	1939.71
700.931	1988.65
701.337	2025.57
701.742	2050.9
702.147	2111.95
702.552	2135.21
702.957	2180.22
703.362	2197.91
703.767	2220
704.172	2246.44
704.577	2218.06
704.981	2249.09
705.386	2263.57
705.791	2261.19
706.195	2314.85
706.6	2321.26
