Data from C_3_DEC_NC_4N_Splice17_13-06-09-943.txt Node
Date: Sat Mar 14 13:06:09 EDT 2020
User: sa697716
Spectrometer: FLMS03696
Trigger mode: 0
Integration Time (sec): 3.180400E-1
Scans to average: 20
Electric dark correction enabled: true
Nonlinearity correction enabled: true
Boxcar width: 5
XAxis mode: Wavelengths
Number of Pixels in Spectrum: 2048
>>>>>Begin Spectral Data<<<<<
187.83	-282323.91
188.298	2135.36
188.766	1206.71
189.233	1086.25
189.701	1475.59
190.169	2087.42
190.636	791.3
191.104	681.57
191.571	152.95
192.039	6.73
192.506	23.16
192.974	572.37
193.441	-806.97
193.908	-95.45
194.375	-1.56
194.842	43.33
195.31	114.27
195.777	156.63
196.244	388.12
196.711	452.76
197.177	552.48
197.644	784.81
198.111	1361.96
198.578	1901.81
199.045	1532.92
199.511	2496.6
199.978	2884.41
200.445	2482.25
200.911	2749.37
201.378	3061.83
201.844	2788.72
202.31	4818.15
202.777	4996.43
203.243	2767.18
203.709	2641.38
204.176	3130.26
204.642	2572.56
205.108	2424.49
205.574	1961.12
206.04	1800.49
206.506	1685.51
206.972	1592.99
207.438	1531.92
207.903	1732.86
208.369	1518.09
208.835	1521.88
209.301	1581.53
209.766	1628.31
210.232	1605.84
210.697	1989.51
211.163	2434.31
211.628	3638.29
212.094	3056.19
212.559	3761.67
213.024	2361.51
213.49	2874.18
213.955	2783.28
214.42	2747.45
214.885	2539.9
215.35	2446.36
215.815	2357.97
216.28	2475.25
216.745	2020.94
217.21	2175.33
217.675	1986.63
218.14	2224.05
218.604	2473.21
219.069	2805.81
219.534	2924.56
219.998	3369.88
220.463	4062.88
220.927	4957.14
221.392	4673.42
221.856	4737.09
222.32	5952.74
222.785	7350.69
223.249	9208.12
223.713	10266.75
224.177	10263.85
224.642	13147.03
225.106	16203.75
225.57	17662.65
226.034	13156.32
226.497	19993.96
226.961	18014.83
227.425	20956.09
227.889	23171.34
228.353	23206.54
228.816	47966.4
229.28	45884.19
229.744	38613.08
230.207	23482.12
230.671	23047.53
231.134	38074.12
231.597	43929.34
232.061	43897.01
232.524	42798.48
232.987	29479.96
233.45	26524.57
233.914	23722.88
234.377	24265.67
234.84	22233.18
235.303	26163.98
235.766	29197.09
236.229	30135.78
236.691	18947.18
237.154	21266.75
237.617	15998.03
238.08	16369.48
238.542	19132.17
239.005	13685.83
239.468	13588.99
239.93	12788.4
240.393	11624.96
240.855	10218.92
241.317	10468.64
241.78	12728.24
242.242	13165.66
242.704	14211.41
243.166	12371.45
243.629	11242.28
244.091	12964.25
244.553	14194.39
245.015	15272.53
245.477	19739.51
245.939	28907.09
246.4	30658.24
246.862	29847.62
247.324	28145.48
247.786	31506.29
248.247	41323.57
248.709	42605.75
249.17	31853.12
249.632	30064.31
250.093	34913.4
250.555	30171.62
251.016	18420.73
251.477	17485.89
251.939	18863.56
252.4	19781.72
252.861	23511.45
253.322	21872.37
253.783	26052.32
254.244	33803.9
254.705	26675.27
255.166	23682.59
255.627	23321.42
256.088	32918
256.549	34947.16
257.009	30102.67
257.47	36526.5
257.931	29780.41
258.391	22327.96
258.852	23022.7
259.312	24087.93
259.773	29712.61
260.233	25110.2
260.694	21178.5
261.154	24008.28
261.614	19296.55
262.074	17250.82
262.534	17934.23
262.994	16878.36
263.455	22474.51
263.915	18926.32
264.374	17853.43
264.834	19480.46
265.294	21589.24
265.754	22351.86
266.214	21149.94
266.673	19806.86
267.133	24984.74
267.593	24775.27
268.052	30306.49
268.512	26359.9
268.971	31802.63
269.431	34828.28
269.89	31185.62
270.349	46731.06
270.809	52117.21
271.268	46814.66
271.727	104967.29
272.186	67991.68
272.645	50981.1
273.104	36766.9
273.563	53234.54
274.022	41816.72
274.481	35633.86
274.94	27469.47
275.399	20397.4
275.857	23770.01
276.316	32137.6
276.775	28579.35
277.233	28139.22
277.692	26346.8
278.15	29804.09
278.609	30651.01
279.067	28369.17
279.525	26328.26
279.984	33946.87
280.442	40837.69
280.9	40230.52
281.358	26473.46
281.816	24664.52
282.274	24117.52
282.732	24881.71
283.19	25006.04
283.648	21578.17
284.106	22984.75
284.564	23336.97
285.021	21639.32
285.479	16106.41
285.937	14660.45
286.394	12884.61
286.852	13258.17
287.309	13944.67
287.767	13486.17
288.224	12847.99
288.682	14088.6
289.139	15460.85
289.596	14160.35
290.053	14731.46
290.511	18604.28
290.968	22534.23
291.425	30524.28
291.882	25450.77
292.339	22187.65
292.796	22010.72
293.252	20709.49
293.709	16470.19
294.166	14757.67
294.623	16300.11
295.079	15633.42
295.536	15706.15
295.992	14241.32
296.449	14071.77
296.905	14611.8
297.362	13988.97
297.818	14700.55
298.274	15258.1
298.731	15510.46
299.187	15351.82
299.643	16472.16
300.099	19899.78
300.555	21782.52
301.011	18212.89
301.467	17575.7
301.923	20540.02
302.379	20059.39
302.835	19709.36
303.291	19711.17
303.746	22442.93
304.202	28324.47
304.658	28428.91
305.113	19123.81
305.569	18760.87
306.024	20006.24
306.479	19057.12
306.935	16078.84
307.39	17566.57
307.845	16235.57
308.301	16368.96
308.756	15957.64
309.211	15384.15
309.666	15772.14
310.121	19601.64
310.576	19886.42
311.031	19735.94
311.486	22534.75
311.94	22526.39
312.395	30116.41
312.85	56566.3
313.305	277452.23
313.759	1436387.55
314.214	104056.99
314.668	82617.9
315.123	69480.16
315.577	24982.83
316.032	22188.97
316.486	27881.75
316.94	21964.55
317.394	15289.32
317.849	11876.43
318.303	11228.49
318.757	10604.83
319.211	11717.09
319.665	10240.44
320.119	10359.66
320.572	14819.35
321.026	13847.92
321.48	11514.43
321.934	12554.78
322.387	12578.86
322.841	13617.36
323.295	12274.6
323.748	14118.08
324.202	14334.71
324.655	17205.69
325.108	24055.92
325.562	16977.96
326.015	20197.23
326.468	15276.22
326.921	17095.35
327.374	15958.01
327.827	16580.57
328.28	18736.43
328.733	12573.14
329.186	11061.36
329.639	10540.11
330.092	8878.16
330.545	8476.11
330.997	8533.8
331.45	9332.5
331.903	10931.65
332.355	18793.7
332.808	18225.02
333.26	15031.21
333.713	16315.93
334.165	16431.52
334.617	21949.21
335.069	17722.05
335.522	31980.01
335.974	35501.31
336.426	32402.18
336.878	22485.4
337.33	11416.29
337.782	11189.31
338.234	14033.68
338.686	16752.68
339.137	19821.78
339.589	18703.55
340.041	14701.49
340.493	12642.98
340.944	12949.03
341.396	13955.81
341.847	11768.18
342.299	13882.55
342.75	16956.39
343.201	14814.69
343.653	17062.53
344.104	20966.25
344.555	16477.7
345.006	25599.64
345.457	19605.77
345.908	15550.29
346.359	14636.1
346.81	11876.13
347.261	12499.97
347.712	12316.02
348.163	13209.16
348.613	13412.54
349.064	12538.43
349.515	10971.48
349.965	11255.74
350.416	13567.38
350.866	14896.78
351.317	16847.51
351.767	27919.54
352.217	35336.92
352.668	29289.71
353.118	26880.82
353.568	25901.76
354.018	20508.32
354.468	21643.81
354.918	15561.46
355.368	13633.13
355.818	19296.97
356.268	55479.41
356.718	232810.18
357.168	57953.39
357.617	29034.17
358.067	32240.06
358.517	30214.47
358.966	35524.59
359.416	39915.06
359.865	43009.26
360.315	51126.83
360.764	23858.59
361.213	13368.74
361.663	12639.87
362.112	15601.64
362.561	25307.29
363.01	19084.16
363.459	16041.63
363.908	17285.9
364.357	14702.84
364.806	24912.46
365.255	17129.64
365.703	15720.35
366.152	15785.8
366.601	12803.43
367.05	10405.93
367.498	9457.9
367.947	9893.38
368.395	10277.66
368.844	9132.04
369.292	10983.38
369.74	7581.7
370.189	11625.62
370.637	13584.65
371.085	11682.81
371.533	14219.83
371.981	13691.33
372.429	13049.84
372.877	13584.66
373.325	11376.56
373.773	11554.76
374.221	10274.18
374.669	12721.22
375.116	10974.43
375.564	11068.18
376.012	12381.13
376.459	10197.16
376.907	12171.35
377.354	14683.63
377.801	13693.63
378.249	15761.91
378.696	20122.18
379.143	24392.31
379.591	26058.66
380.038	44066.21
380.485	31844.91
380.932	34372.94
381.379	31499
381.826	23216.95
382.273	16471.08
382.72	14361.58
383.166	13965.32
383.613	9061.09
384.06	8170.32
384.506	9425.68
384.953	6938.11
385.4	6963.13
385.846	6093.81
386.292	5922.98
386.739	5785.46
387.185	5711.39
387.631	5717.32
388.078	5557.5
388.524	5960.4
388.97	5492.15
389.416	4585.41
389.862	4859.53
390.308	4615.17
390.754	4684.55
391.2	5087.61
391.645	5196.05
392.091	4987.96
392.537	4832.72
392.983	4823.33
393.428	4737.81
393.874	5080.99
394.319	5101.28
394.765	4847.38
395.21	4971.84
395.655	4659.2
396.101	4358.56
396.546	3936.9
396.991	3954.3
397.436	3663.72
397.881	3544.83
398.326	3345.85
398.771	3161.31
399.216	2755.53
399.661	2476.77
400.106	2468.52
400.551	2529.64
400.995	2272.44
401.44	2248.99
401.885	2116.07
402.329	2130.29
402.774	2039.31
403.218	1982.48
403.663	1908.88
404.107	1965.16
404.551	1982.26
404.995	1817.3
405.44	1746.47
405.884	1768.5
406.328	1706.05
406.772	1698.83
407.216	1550.07
407.66	1498.78
408.104	1420.13
408.547	1330.6
408.991	1288.99
409.435	1237.83
409.879	1221.1
410.322	1206.12
410.766	1164.61
411.209	1110.37
411.653	1066.83
412.096	1047.68
412.54	1047.57
412.983	1039.23
413.426	1041.78
413.869	1038.29
414.312	1020.84
414.756	982.9
415.199	937.05
415.642	913.47
416.085	913.12
416.527	906.03
416.97	919.18
417.413	871.18
417.856	861.36
418.298	853.16
418.741	844.22
419.184	840.57
419.626	874
420.069	873.67
420.511	877.11
420.953	860.06
421.396	852.9
421.838	829.04
422.28	848.94
422.722	854.29
423.164	862.77
423.606	851.86
424.048	850.23
424.49	809.01
424.932	805.08
425.374	790.88
425.816	803.59
426.258	819.09
426.699	828.56
427.141	818.07
427.582	830.25
428.024	828.73
428.465	821.45
428.907	801.63
429.348	791.14
429.789	793.8
430.231	783.12
430.672	795.23
431.113	776.65
431.554	766.64
431.995	746.25
432.436	722.6
432.877	707.46
433.318	699.22
433.759	694.4
434.2	695.09
434.64	687.47
435.081	686.17
435.522	649.87
435.962	624.86
436.403	611
436.843	619.95
437.284	606.95
437.724	589.77
438.164	589.1
438.604	578.57
439.045	559.11
439.485	536.65
439.925	526.85
440.365	512.32
440.805	505.26
441.245	500.41
441.685	482.93
442.125	478.33
442.564	482.45
443.004	471.92
443.444	470.81
443.883	471.98
444.323	468.22
444.762	465.91
445.202	471.78
445.641	483.86
446.081	480.24
446.52	483.3
446.959	479.35
447.398	468.4
447.837	462.64
448.276	454.79
448.716	458.44
449.154	462.34
449.593	453.72
450.032	453.87
450.471	443.72
450.91	442.8
451.349	441.56
451.787	438.77
452.226	443.86
452.664	445.11
453.103	445.38
453.541	443.72
453.98	443.3
454.418	444.72
454.856	436.77
455.295	435.59
455.733	439.99
456.171	442.42
456.609	442.51
457.047	442.97
457.485	449.12
457.923	450.57
458.361	444.81
458.798	445.77
459.236	445.01
459.674	447.99
460.111	450.14
460.549	446.65
460.987	444.31
461.424	442.98
461.862	441.27
462.299	434.47
462.736	434.64
463.173	435.89
463.611	434.21
464.048	433.85
464.485	439.36
464.922	435.96
465.359	433.25
465.796	432.89
466.233	430.72
466.67	427.07
467.106	427.06
467.543	421.36
467.98	416.43
468.416	404.64
468.853	401.88
469.29	387.76
469.726	383.49
470.162	373
470.599	364.88
471.035	361.5
471.471	352.82
471.907	350.5
472.344	348.84
472.78	349.6
473.216	353.07
473.652	348.52
474.088	348.48
474.523	348.77
474.959	353.09
475.395	349.97
475.831	348.69
476.266	350.59
476.702	348.33
477.138	345.19
477.573	344.23
478.008	342.81
478.444	345.01
478.879	349.1
479.314	350.69
479.75	349.86
480.185	350.72
480.62	352.55
481.055	354.52
481.49	358.05
481.925	362.99
482.36	370.58
482.795	380.24
483.229	390.66
483.664	397.97
484.099	399.2
484.534	405.73
484.968	410.77
485.403	411.89
485.837	410.92
486.271	411.25
486.706	411.78
487.14	406.39
487.574	400.58
488.009	396.32
488.443	393.32
488.877	397.83
489.311	399.41
489.745	404.12
490.179	408.54
490.613	417.55
491.046	420.39
491.48	423.64
491.914	425.01
492.348	429.02
492.781	433.06
493.215	435.15
493.648	435.81
494.082	439.41
494.515	441.38
494.948	448.1
495.382	451.49
495.815	455.83
496.248	461.43
496.681	471.56
497.114	480.83
497.547	488.87
497.98	500.49
498.413	508.37
498.846	517.83
499.279	525.81
499.711	531
500.144	535.35
500.577	546.04
501.009	556.21
501.442	566.15
501.874	569.87
502.306	574.91
502.739	584.23
503.171	597.18
503.603	603.15
504.036	612.65
504.468	620.15
504.9	632.35
505.332	640.56
505.764	647.64
506.196	656.21
506.627	671.61
507.059	686.1
507.491	695
507.923	698.28
508.354	713.31
508.786	726.36
509.217	744.55
509.649	759.75
510.08	778.84
510.512	796.37
510.943	812.4
511.374	825.17
511.805	844.84
512.237	864.7
512.668	893.72
513.099	920.61
513.53	946.17
513.961	967.01
514.391	997.75
514.822	1029.62
515.253	1063.19
515.684	1088.89
516.114	1117.72
516.545	1140.57
516.975	1166.92
517.406	1186.55
517.836	1192.41
518.267	1203.38
518.697	1223.48
519.127	1230.91
519.558	1240.52
519.988	1247.83
520.418	1260.89
520.848	1280.37
521.278	1290.5
521.708	1320.9
522.138	1336.07
522.567	1366.92
522.997	1392.39
523.427	1408.1
523.857	1425.95
524.286	1438.32
524.716	1454.68
525.145	1473.96
525.575	1485.94
526.004	1501.9
526.433	1488.64
526.863	1490.45
527.292	1484.11
527.721	1491.48
528.15	1500.02
528.579	1503.16
529.008	1514.54
529.437	1536.25
529.866	1549.4
530.295	1566.11
530.724	1579.58
531.152	1604.18
531.581	1617.94
532.01	1634.6
532.438	1642.47
532.867	1656.01
533.295	1673.26
533.723	1679.57
534.152	1678.38
534.58	1679.57
535.008	1665.67
535.436	1666.59
535.865	1674.26
536.293	1687.8
536.721	1702.12
537.149	1725.51
537.576	1727.17
538.004	1738.44
538.432	1745.1
538.86	1744.86
539.287	1751.83
539.715	1765.27
540.143	1767.07
540.57	1763.13
540.998	1759.32
541.425	1738.51
541.852	1718.49
542.28	1717.46
542.707	1702.51
543.134	1689.73
543.561	1684.58
543.988	1676.45
544.415	1674.76
544.842	1669.82
545.269	1663.84
545.696	1665.69
546.123	1677.01
546.549	1668.36
546.976	1657.14
547.403	1656.77
547.829	1659.11
548.256	1661.28
548.682	1658.94
549.108	1653.07
549.535	1653.21
549.961	1655.11
550.387	1643.52
550.813	1638.8
551.24	1645.22
551.666	1646.21
552.092	1638.28
552.518	1632.64
552.943	1627.94
553.369	1634.47
553.795	1639.29
554.221	1640.97
554.646	1638.12
555.072	1648.38
555.498	1653.24
555.923	1660.62
556.349	1674.99
556.774	1682.92
557.199	1683.51
557.625	1687.54
558.05	1681.55
558.475	1690.4
558.9	1689.23
559.325	1680.98
559.75	1674.73
560.175	1667.56
560.6	1660.59
561.025	1656.16
561.449	1655.53
561.874	1659.49
562.299	1663
562.723	1668.86
563.148	1658.71
563.572	1660.67
563.997	1668.31
564.421	1670.51
564.846	1670.44
565.27	1672.47
565.694	1668.74
566.118	1677.5
566.542	1681.97
566.966	1674.01
567.39	1667.47
567.814	1655.52
568.238	1652.23
568.662	1653.88
569.086	1654.76
569.509	1657.93
569.933	1642.23
570.357	1633.33
570.78	1612.03
571.204	1599.5
571.627	1587.22
572.05	1583.84
572.474	1581.52
572.897	1568.5
573.32	1560.74
573.743	1550.17
574.166	1532.76
574.589	1531.2
575.012	1523.03
575.435	1520.43
575.858	1509.98
576.281	1498.78
576.704	1482.59
577.126	1472.39
577.549	1462.39
577.972	1452.02
578.394	1440.92
578.817	1433.8
579.239	1416.19
579.661	1403.72
580.084	1389.85
580.506	1377.43
580.928	1372.97
581.35	1363.15
581.772	1356.57
582.194	1342.61
582.616	1330.49
583.038	1317.49
583.46	1307.29
583.882	1303.25
584.303	1305.06
584.725	1299.35
585.147	1301.63
585.568	1309.59
585.99	1318.13
586.411	1322.41
586.833	1334.63
587.254	1334.65
587.675	1345.58
588.096	1354.61
588.518	1348.07
588.939	1333.99
589.36	1331.53
589.781	1319.47
590.202	1295.45
590.623	1287.16
591.043	1284.02
591.464	1271.34
591.885	1267.29
592.305	1260.77
592.726	1248.25
593.147	1248.21
593.567	1241.95
593.987	1235.31
594.408	1230.24
594.828	1227.01
595.248	1221.35
595.669	1204.71
596.089	1198.69
596.509	1192.93
596.929	1181.24
597.349	1181.23
597.769	1173.25
598.189	1168.14
598.608	1168.19
599.028	1169.36
599.448	1168.23
599.867	1156.54
600.287	1152.74
600.706	1149
601.126	1140.66
601.545	1140
601.965	1137.82
602.384	1132.86
602.803	1133.59
603.222	1128.57
603.641	1121.43
604.061	1118.33
604.48	1115.17
604.898	1120.06
605.317	1122.63
605.736	1122.4
606.155	1119.18
606.574	1110.4
606.992	1113.05
607.411	1108.42
607.829	1099.8
608.248	1096.92
608.666	1093.52
609.085	1091.6
609.503	1084.42
609.921	1079.05
610.339	1081.02
610.758	1079.33
611.176	1075.56
611.594	1067.91
612.012	1064.54
612.43	1067.65
612.847	1072.21
613.265	1073.32
613.683	1076.02
614.101	1075.83
614.518	1071.43
614.936	1061.46
615.353	1048.61
615.771	1044.93
616.188	1043.39
616.606	1039.05
617.023	1032.58
617.44	1019.66
617.857	1012.19
618.274	1004.41
618.691	999.01
619.108	990.52
619.525	985.86
619.942	990.17
620.359	991.68
620.776	987.76
621.192	985.35
621.609	982.58
622.026	987.07
622.442	990.62
622.859	992.52
623.275	986.63
623.691	990.66
624.108	998.13
624.524	1009.07
624.94	1008.05
625.356	1015.14
625.772	1024.32
626.188	1032.92
626.604	1033.53
627.02	1030.06
627.436	1027.45
627.852	1031.89
628.268	1041.71
628.683	1034.31
629.099	1026.91
629.514	1023.05
629.93	1025.1
630.345	1027.67
630.761	1023.62
631.176	1025.39
631.591	1021.08
632.007	1017.34
632.422	1014.59
632.837	1003.63
633.252	1000.92
633.667	991.36
634.082	982.02
634.497	969.55
634.911	952.64
635.326	947.34
635.741	932.52
636.155	921.3
636.57	918.57
636.984	915
637.399	913.57
637.813	908.89
638.228	904.24
638.642	904.36
639.056	893.74
639.47	890.56
639.884	880.44
640.298	871.57
640.712	867.64
641.126	853.76
641.54	843.53
641.954	834.74
642.368	822.98
642.781	814.76
643.195	798.08
643.609	795.28
644.022	785.79
644.436	779.17
644.849	767.34
645.262	754.72
645.676	753.1
646.089	747.2
646.502	735.17
646.915	727.98
647.328	712.95
647.741	709.48
648.154	697.88
648.567	696.29
648.98	686.47
649.393	685.37
649.805	682.42
650.218	676.72
650.631	665.65
651.043	661.16
651.456	657.14
651.868	656.83
652.28	666.99
652.693	675.82
653.105	678.29
653.517	683.62
653.929	683.49
654.341	686.18
654.753	676.82
655.165	679.75
655.577	676.89
655.989	672.31
656.401	665.64
656.813	642.29
657.224	627.26
657.636	606.87
658.047	595.26
658.459	581.2
658.87	574
659.282	564.85
659.693	551.13
660.104	540.26
660.515	531.21
660.926	528.17
661.338	524.48
661.749	519.79
662.159	513.44
662.57	508.32
662.981	505.06
663.392	498.09
663.803	499.9
664.213	497.37
664.624	493.87
665.035	494.2
665.445	485.63
665.855	481.73
666.266	477.48
666.676	475.72
667.086	470.74
667.497	469.79
667.907	467.84
668.317	461.04
668.727	460.67
669.137	461.19
669.547	459.7
669.956	461.18
670.366	461.69
670.776	462.01
671.186	464.77
671.595	466.97
672.005	468.96
672.414	469.11
672.824	470.45
673.233	471.45
673.642	473.71
674.052	477.55
674.461	481.49
674.87	485.66
675.279	486.13
675.688	487.75
676.097	490.63
676.506	489.79
676.915	500.01
677.323	503.44
677.732	504.51
678.141	506.32
678.549	500.82
678.958	501.14
679.366	503.24
679.775	508
680.183	519.26
680.592	525.88
681	532.05
681.408	529.65
681.816	536.59
682.224	544.54
682.632	553.98
683.04	577.49
683.448	598.01
683.856	621.23
684.264	650.28
684.671	674.75
685.079	705.91
685.487	742.35
685.894	791.27
686.302	833.62
686.709	871.37
687.116	914.06
687.524	951.42
687.931	984.53
688.338	1013.91
688.745	1039.43
689.152	1071.06
689.559	1111.35
689.966	1152.53
690.373	1177.34
690.78	1216.68
691.187	1273.38
691.593	1318.79
692	1359.57
692.407	1417.16
692.813	1490.17
693.22	1548.85
693.626	1610.11
694.032	1660.86
694.439	1733.03
694.845	1791.53
695.251	1863.95
695.657	1930.85
696.063	2026.87
696.469	2101.03
696.875	2171.1
697.281	2214.04
697.687	2264.61
698.093	2307.02
698.498	2381.97
698.904	2442.2
699.31	2530.01
699.715	2596.27
700.12	2686.46
