Data from C_3_HIR_WI_4N_Splice17_13-10-49-806.txt Node
Date: Sat Mar 14 13:10:49 EDT 2020
User: sa697716
Spectrometer: FLMS03696
Trigger mode: 0
Integration Time (sec): 3.180400E-1
Scans to average: 20
Electric dark correction enabled: true
Nonlinearity correction enabled: true
Boxcar width: 5
XAxis mode: Wavelengths
Number of Pixels in Spectrum: 2048
>>>>>Begin Spectral Data<<<<<
187.83	-318138.12
188.298	2297.43
188.766	1221.49
189.233	1145.52
189.701	1606.3
190.169	2138.83
190.636	801.03
191.104	647.32
191.571	73.95
192.039	-82.09
192.506	-159.93
192.974	433.14
193.441	-914.22
193.908	-424.13
194.375	-72.04
194.842	-20.79
195.31	1.42
195.777	124.17
196.244	371.97
196.711	434.67
197.177	537.32
197.644	773.67
198.111	1376.8
198.578	1960.23
199.045	1594.13
199.511	2610.26
199.978	3047.16
200.445	2573.91
200.911	2874.46
201.378	3171.89
201.844	2888.53
202.31	4965.41
202.777	5182.41
203.243	2845.34
203.709	2714.2
204.176	3229.22
204.642	2690.75
205.108	2517.45
205.574	2069.86
206.04	1867.25
206.506	1757.47
206.972	1675.45
207.438	1632.47
207.903	1841.18
208.369	1630.73
208.835	1632.06
209.301	1722.75
209.766	1737.77
210.232	1720.94
210.697	2127.07
211.163	2638.15
211.628	3960.27
212.094	3290.97
212.559	4046.43
213.024	2528.66
213.49	3080.8
213.955	3008.31
214.42	2889.78
214.885	2694.57
215.35	2577.9
215.815	2507.28
216.28	2660.41
216.745	2192.28
217.21	2389.29
217.675	2198
218.14	2495.06
218.604	2792.85
219.069	3197.94
219.534	3394.97
219.998	3956.8
220.463	4810.65
220.927	5905.86
221.392	5561.46
221.856	5625.56
222.32	7108.2
222.785	8768.2
223.249	11047.28
223.713	12362.54
224.177	12360.88
224.642	15823.28
225.106	19471.28
225.57	21289.02
226.034	15828.47
226.497	24134.39
226.961	21789.6
227.425	25262.89
227.889	28039.66
228.353	27996.71
228.816	57654.55
229.28	55145.48
229.744	46506.02
230.207	28240.38
230.671	27749.98
231.134	45888.71
231.597	52862.69
232.061	52851.84
232.524	51669.91
232.987	35534.2
233.45	31996.56
233.914	28741.99
234.377	29441.17
234.84	26928.37
235.303	31747.6
235.766	35449.58
236.229	36605.03
236.691	23029.2
237.154	25836.84
237.617	19415.15
238.08	19890.05
238.542	23236.76
239.005	16593.21
239.468	16457.5
239.93	15511.08
240.393	14094.86
240.855	12364.39
241.317	12663.8
241.78	15410.54
242.242	15938.12
242.704	17203.79
243.166	14974.03
243.629	13610.45
244.091	15671.83
244.553	17164.92
245.015	18433.63
245.477	23851.01
245.939	34910.76
246.4	37037.68
246.862	36000.45
247.324	33895.16
247.786	37879.05
248.247	49656.47
248.709	51186.28
249.17	38275.42
249.632	36068.83
250.093	41813.65
250.555	36071.05
251.016	22004.31
251.477	20862.19
251.939	22483.22
252.4	23604.04
252.861	28072.28
253.322	26107.7
253.783	31062.05
254.244	40285.69
254.705	31743.8
255.166	28204.08
255.627	27773.03
256.088	39169.27
256.549	41548.5
257.009	35776.59
257.47	43427.55
257.931	35364.47
258.391	26480.86
258.852	27322.54
259.312	28605.09
259.773	35320.09
260.233	29875.34
260.694	25194.56
261.154	28560.69
261.614	22948.64
262.074	20508.2
262.534	21304.97
262.994	20064.56
263.455	26737.11
263.915	22511.39
264.374	21212.53
264.834	23151.43
265.294	25646.58
265.754	26575.99
266.214	25151.67
266.673	23541.82
267.133	29703.23
267.593	29420.9
268.052	36028.45
268.512	31333.44
268.971	37806.02
269.431	41422.45
269.89	37110.99
270.349	55617.7
270.809	61856.28
271.268	55594.91
271.727	124689.72
272.186	80816.25
272.645	60628.01
273.104	43661.88
273.563	63156.37
274.022	49616.03
274.481	42227.57
274.94	32514.36
275.399	24148.66
275.857	28147.32
276.316	38051.33
276.775	33850.47
277.233	33292.8
277.692	31162.12
278.15	35252.52
278.609	36270.5
279.067	33550.75
279.525	31138.52
279.984	40191.16
280.442	48257.16
280.9	47558
281.358	31259.24
281.816	29108.93
282.274	28477.84
282.732	29399.61
283.19	29540.2
283.648	25450.46
284.106	27093.61
284.564	27555.64
285.021	25530.56
285.479	19009.9
285.937	17247.28
286.394	15141.93
286.852	15590.45
287.309	16389.1
287.767	15838.76
288.224	15061.82
288.682	16527.85
289.139	18138.2
289.596	16576.01
290.053	17253.35
290.511	21802.18
290.968	26476.68
291.425	35918.95
291.882	29910.13
292.339	26029.66
292.796	25812.42
293.252	24292.07
293.709	19300.68
294.166	17282.53
294.623	19083.78
295.079	18258.75
295.536	18299.33
295.992	16604.74
296.449	16415.75
296.905	17026.62
297.362	16314.56
297.818	17153.24
298.274	17804.27
298.731	18126.3
299.187	17930.73
299.643	19257.07
300.099	23315.91
300.555	25549.83
301.011	21348.44
301.467	20562.58
301.923	24027.39
302.379	23443.63
302.835	23007.52
303.291	23014.64
303.746	26191.33
304.202	33044.64
304.658	33132.57
305.113	22241.38
305.569	21816.5
306.024	23190.91
306.479	22050.96
306.935	18628.69
307.39	20343.58
307.845	18760.87
308.301	18871.51
308.756	18365.44
309.211	17693.71
309.666	18148.04
310.121	22529.54
310.576	22842.73
311.031	22675.56
311.486	25948.91
311.94	25859.36
312.395	34583.98
312.85	64965.25
313.305	318536.35
313.759	1650641.29
314.214	119664.18
314.668	94615.65
315.123	79520.8
315.577	28512.96
316.032	25390.73
316.486	31832.44
316.94	25188.42
317.394	17524.73
317.849	13638.84
318.303	12911.53
318.757	12177.66
319.211	13447.64
319.665	11771.59
320.119	11923.14
320.572	17111.74
321.026	16000.52
321.48	13306.16
321.934	14458.74
322.387	14481.94
322.841	15640.98
323.295	14095.72
323.748	16212.68
324.202	16438.71
324.655	19777.93
325.108	27668.79
325.562	19524.75
326.015	23182.67
326.468	17540.67
326.921	19637.82
327.374	18310.5
327.827	19033.98
328.28	21521.77
328.733	14414.26
329.186	12675.27
329.639	12056.12
330.092	10144.41
330.545	9668.34
330.997	9744.83
331.45	10658.11
331.903	12476.13
332.355	21450.3
332.808	20861.36
333.26	17204.89
333.713	18738.57
334.165	18861.65
334.617	25199.87
335.069	20338.67
335.522	36777.36
335.974	40732.48
336.426	37110.34
336.878	25745.27
337.33	13080.29
337.782	12760.81
338.234	15978.06
338.686	19029.19
339.137	22574.9
339.589	21265.95
340.041	16655.79
340.493	14310.25
340.944	14646.17
341.396	15800.2
341.847	13294.09
342.299	15672.79
342.75	19144.11
343.201	16711.97
343.653	19208.22
344.104	23571.08
344.555	18528.01
345.006	28825.91
345.457	22085.15
345.908	17554.22
346.359	16462.98
346.81	13394.41
347.261	14100.31
347.712	13870.01
348.163	14859.2
348.613	15086.18
349.064	14096.34
349.515	12332.52
349.965	12637.21
350.416	15213.06
350.866	16682.72
351.317	18870.18
351.767	31223.78
352.217	39476.62
352.668	32754.61
353.118	29988.88
353.568	28870.66
354.018	22860.6
354.468	24136.61
354.918	17329.26
355.368	15141.87
355.818	21378.19
356.268	61591.51
356.718	257651.11
357.168	64123.57
357.617	32168.14
358.067	35821.43
358.517	33562.51
358.966	39266.36
359.416	44013.08
359.865	47513.02
360.315	56484.86
360.764	26418.74
361.213	14795.59
361.663	14003.57
362.112	17267.99
362.561	27900.04
363.01	21021.09
363.459	17635.89
363.908	19108.92
364.357	16213.66
364.806	27408.54
365.255	18856.18
365.703	17266.7
366.152	17265.92
366.601	14000.52
367.05	11373.11
367.498	10347.97
367.947	10807.79
368.395	11256.06
368.844	9969
369.292	12004.96
369.74	8284.57
370.189	12675.45
370.637	14816.01
371.085	12787.68
371.533	15568.4
371.981	14985.66
372.429	14247.97
372.877	14811.66
373.325	12400.51
373.773	12595.35
374.221	11213.25
374.669	13882.9
375.116	11995
375.564	12109.73
376.012	13537.27
376.459	11163.16
376.907	13324.76
377.354	16066.04
377.801	15008.65
378.249	17238.98
378.696	21982.55
379.143	26604.44
379.591	28399.96
380.038	48075.4
380.485	34679.23
380.932	37308.7
381.379	34087.23
381.826	25043.27
382.273	17807.06
382.72	15528.58
383.166	15125.97
383.613	9824.46
384.06	8848.13
384.506	10221.03
384.953	7477.34
385.4	7504.2
385.846	6586.89
386.292	6423.79
386.739	6276.69
387.185	6197.07
387.631	6202.29
388.078	6028.44
388.524	6443.83
388.97	5950.28
389.416	4958.79
389.862	5277.45
390.308	5006.65
390.754	5085.93
391.2	5501.8
391.645	5641.51
392.091	5408.35
392.537	5216.3
392.983	5215.38
393.428	5133.98
393.874	5505.75
394.319	5542.56
394.765	5271.04
395.21	5408.83
395.655	5065.11
396.101	4746.49
396.546	4288.67
396.991	4322.37
397.436	4014.58
397.881	3872.92
398.326	3661.69
398.771	3461.66
399.216	3014.12
399.661	2707.87
400.106	2703.45
400.551	2770.54
400.995	2485.32
401.44	2453.09
401.885	2303.31
402.329	2331.58
402.774	2237.85
403.218	2174.34
403.663	2094
404.107	2150.13
404.551	2165.46
404.995	1986.15
405.44	1911.68
405.884	1941.72
406.328	1881.29
406.772	1876.68
407.216	1710.57
407.66	1652.53
408.104	1564.34
408.547	1463.82
408.991	1419.8
409.435	1366.97
409.879	1348.35
410.322	1329.73
410.766	1282.95
411.209	1217.82
411.653	1169.33
412.096	1146.07
412.54	1145.71
412.983	1140.55
413.426	1145.96
413.869	1145.4
414.312	1125.46
414.756	1082.48
415.199	1032.85
415.642	1004.85
416.085	1007.54
416.527	999.2
416.97	1013.73
417.413	964.77
417.856	953.39
418.298	943.83
418.741	936.3
419.184	931.73
419.626	971.68
420.069	973.66
420.511	980.46
420.953	958.89
421.396	952.78
421.838	927.21
422.28	948.42
422.722	955.88
423.164	968.42
423.606	955.1
424.048	954.3
424.49	907.07
424.932	901.35
425.374	885.64
425.816	900.9
426.258	918.8
426.699	931.61
427.141	917.45
427.582	926.62
428.024	921.3
428.465	913.63
428.907	890.46
429.348	878.39
429.789	881
430.231	864.58
430.672	875.64
431.113	853.24
431.554	837.65
431.995	815.72
432.436	791.26
432.877	775.71
433.318	765.34
433.759	763.14
434.2	765.58
434.64	754.74
435.081	757.14
435.522	720.17
435.962	693.06
436.403	680.44
436.843	685.9
437.284	666.94
437.724	646.97
438.164	646.32
438.604	630.91
439.045	607.27
439.485	584.8
439.925	571.74
440.365	556.08
440.805	548.76
441.245	542.07
441.685	525
442.125	522.42
442.564	525.81
443.004	513.63
443.444	513.89
443.883	513.66
444.323	507.24
444.762	506.51
445.202	513.28
445.641	525.56
446.081	521.02
446.52	525.91
446.959	520.56
447.398	508.13
447.837	503.49
448.276	493.89
448.716	499.4
449.154	503.15
449.593	492.73
450.032	491.81
450.471	479.81
450.91	480.85
451.349	478.5
451.787	476.25
452.226	483.48
452.664	482.26
453.103	482.59
453.541	481.9
453.98	483.01
454.418	487.64
454.856	480.16
455.295	479.08
455.733	483.02
456.171	486.45
456.609	486.5
457.047	486.84
457.485	494.81
457.923	496.65
458.361	488.47
458.798	489.89
459.236	486.68
459.674	489.47
460.111	492.49
460.549	488.3
460.987	486.57
461.424	485.85
461.862	483.77
462.299	477.24
462.736	476.91
463.173	478.66
463.611	474.62
464.048	474.25
464.485	477.8
464.922	473.37
465.359	469.73
465.796	467.52
466.233	463.99
466.67	460.83
467.106	459.79
467.543	454.71
467.98	448.01
468.416	435.94
468.853	430.88
469.29	417.65
469.726	411.76
470.162	400.25
470.599	390.79
471.035	386.87
471.471	375.92
471.907	372.1
472.344	369.24
472.78	371.21
473.216	374.1
473.652	370.97
474.088	369.71
474.523	370.04
474.959	373.24
475.395	369.93
475.831	369.05
476.266	371.37
476.702	370.09
477.138	366.12
477.573	365.21
478.008	364.37
478.444	366.09
478.879	370.31
479.314	371.67
479.75	372.02
480.185	373.71
480.62	376.22
481.055	377.83
481.49	380.72
481.925	386.71
482.36	393.96
482.795	404.55
483.229	415.54
483.664	423.2
484.099	424.32
484.534	430.86
484.968	434.81
485.403	436.1
485.837	434.58
486.271	433.65
486.706	433.33
487.14	427.18
487.574	420.71
488.009	415.95
488.443	412.67
488.877	417.47
489.311	418.61
489.745	423.83
490.179	426.87
490.613	436.43
491.046	439.92
491.48	443.14
491.914	445.14
492.348	449.02
492.781	452.64
493.215	454.96
493.648	455.45
494.082	459.24
494.515	461.21
494.948	468.57
495.382	471.54
495.815	476.37
496.248	482.19
496.681	491.07
497.114	499.83
497.547	509.36
497.98	519.49
498.413	526.87
498.846	535.86
499.279	542.75
499.711	547.17
500.144	551.22
500.577	560.91
501.009	570.3
501.442	580.15
501.874	584.06
502.306	586.57
502.739	596.25
503.171	608.61
503.603	613.43
504.036	623.53
504.468	631.05
504.9	642.2
505.332	649.96
505.764	656.98
506.196	665.18
506.627	678.25
507.059	691.76
507.491	700.87
507.923	703.58
508.354	718.86
508.786	730.48
509.217	747.54
509.649	763.16
510.08	781.95
510.512	798.12
510.943	813.8
511.374	827.45
511.805	847.1
512.237	865.39
512.668	894.37
513.099	919.78
513.53	946.17
513.961	967.41
514.391	997.39
514.822	1029.06
515.253	1062.75
515.684	1089.05
516.114	1117.33
516.545	1140.19
516.975	1167.61
517.406	1188.29
517.836	1196.04
518.267	1205.71
518.697	1225.22
519.127	1233.49
519.558	1243.15
519.988	1251.63
520.418	1263.72
520.848	1282.4
521.278	1293.94
521.708	1320.79
522.138	1335.13
522.567	1366.27
522.997	1392.56
523.427	1410.16
523.857	1428.47
524.286	1441.8
524.716	1458.21
525.145	1478.97
525.575	1492.83
526.004	1509.04
526.433	1498.87
526.863	1502.24
527.292	1495.18
527.721	1502.77
528.15	1510.05
528.579	1512.95
529.008	1525.09
529.437	1547.17
529.866	1560.75
530.295	1578.2
530.724	1591.65
531.152	1618.39
531.581	1632.18
532.01	1650.25
532.438	1658.45
532.867	1673.44
533.295	1691.78
533.723	1698.57
534.152	1698.11
534.58	1699.69
535.008	1686.82
535.436	1688.29
535.865	1695.75
536.293	1710.42
536.721	1726.06
537.149	1749.53
537.576	1751.83
538.004	1763.82
538.432	1770.66
538.86	1769.51
539.287	1775.88
539.715	1788.66
540.143	1791.78
540.57	1788.99
540.998	1785.09
541.425	1764.12
541.852	1745.49
542.28	1744.82
542.707	1729.46
543.134	1716.82
543.561	1712.78
543.988	1706.17
544.415	1705.41
544.842	1700.64
545.269	1693.71
545.696	1696.71
546.123	1709.16
546.549	1701
546.976	1690.21
547.403	1691.59
547.829	1694.38
548.256	1697.73
548.682	1695.11
549.108	1688.07
549.535	1689.17
549.961	1692.35
550.387	1680.33
550.813	1675.38
551.24	1681.15
551.666	1682.64
552.092	1674.39
552.518	1668.61
552.943	1662.91
553.369	1670.15
553.795	1677.2
554.221	1679.34
554.646	1676.6
555.072	1687.31
555.498	1691.79
555.923	1701.06
556.349	1714.51
556.774	1721.62
557.199	1721.87
557.625	1727.73
558.05	1721.51
558.475	1730.56
558.9	1727.67
559.325	1719.34
559.75	1713.25
560.175	1707.19
560.6	1700.5
561.025	1697.76
561.449	1697.62
561.874	1702.88
562.299	1705.38
562.723	1711.64
563.148	1701.39
563.572	1703.85
563.997	1711.29
564.421	1713.55
564.846	1711.22
565.27	1712.3
565.694	1707.43
566.118	1716.9
566.542	1722.24
566.966	1713.84
567.39	1707.7
567.814	1695.37
568.238	1693.6
568.662	1696.12
569.086	1697.13
569.509	1702.11
569.933	1685.54
570.357	1677.03
570.78	1655.4
571.204	1641.06
571.627	1630.1
572.05	1625.79
572.474	1623.39
572.897	1609.33
573.32	1600.97
573.743	1589.64
574.166	1571.36
574.589	1570.36
575.012	1562.33
575.435	1559.56
575.858	1550.62
576.281	1539.08
576.704	1523.46
577.126	1511.19
577.549	1499.81
577.972	1490.02
578.394	1479.38
578.817	1471.84
579.239	1452.9
579.661	1439.3
580.084	1424.54
580.506	1410.08
580.928	1405.64
581.35	1394.82
581.772	1389.7
582.194	1377.3
582.616	1364.91
583.038	1351.73
583.46	1342.34
583.882	1339.67
584.303	1342.05
584.725	1336.4
585.147	1338.56
585.568	1347.01
585.99	1356.86
586.411	1361.6
586.833	1373.51
587.254	1373.54
587.675	1384.71
588.096	1393.25
588.518	1387.1
588.939	1372.07
589.36	1370.63
589.781	1359.65
590.202	1334.38
590.623	1326.19
591.043	1322.8
591.464	1311.78
591.885	1307.69
592.305	1301.99
592.726	1290.77
593.147	1292.07
593.567	1287.54
593.987	1279.67
594.408	1274.49
594.828	1271.19
595.248	1266.27
595.669	1250.68
596.089	1243.64
596.509	1237.05
596.929	1224.43
597.349	1224.82
597.769	1216.09
598.189	1209.9
598.608	1210.98
599.028	1213.2
599.448	1213.18
599.867	1201.03
600.287	1196.55
600.706	1192.08
601.126	1184.23
601.545	1183.45
601.965	1180.81
602.384	1175.82
602.803	1176.94
603.222	1172.29
603.641	1165.6
604.061	1161.23
604.48	1157.22
604.898	1163.18
605.317	1166.68
605.736	1166.76
606.155	1163.3
606.574	1154.92
606.992	1158.41
607.411	1154.4
607.829	1145.84
608.248	1141.25
608.666	1138.73
609.085	1136.92
609.503	1128.58
609.921	1122.04
610.339	1122.53
610.758	1120.35
611.176	1115.63
611.594	1105.36
612.012	1099.79
612.43	1100.8
612.847	1104.61
613.265	1103.83
613.683	1106.06
614.101	1105.89
614.518	1101.04
614.936	1092.58
615.353	1079.16
615.771	1074.71
616.188	1073.82
616.606	1070.47
617.023	1064.34
617.44	1052.32
617.857	1045.51
618.274	1036.8
618.691	1029.93
619.108	1020.65
619.525	1013.58
619.942	1017.88
620.359	1018.47
620.776	1013.32
621.192	1009.93
621.609	1007.04
622.026	1011.5
622.442	1014.94
622.859	1016.77
623.275	1011.26
623.691	1016.03
624.108	1024.25
624.524	1035.05
624.94	1035.12
625.356	1043.2
625.772	1052.26
626.188	1061.57
626.604	1062.75
627.02	1059.26
627.436	1058.24
627.852	1062.99
628.268	1072.82
628.683	1065.81
629.099	1058.21
629.514	1053.19
629.93	1054.78
630.345	1057.39
630.761	1053.39
631.176	1054.14
631.591	1049.63
632.007	1043.84
632.422	1042.71
632.837	1031.81
633.252	1029.61
633.667	1020.64
634.082	1013.47
634.497	1002.66
634.911	987.35
635.326	983.2
635.741	969.06
636.155	959.13
636.57	958.4
636.984	955.22
637.399	956.14
637.813	953.53
638.228	950.69
638.642	950.35
639.056	940.07
639.47	937.1
639.884	928.67
640.298	920.84
640.712	917.3
641.126	905.69
641.54	896.7
641.954	888.6
642.368	877.49
642.781	871.43
643.195	856.9
643.609	855.72
644.022	849.42
644.436	843.47
644.849	832.55
645.262	821.69
645.676	820.66
646.089	815.49
646.502	802.7
646.915	795.41
647.328	779.08
647.741	775.94
648.154	764.71
648.567	761.95
648.98	751.08
649.393	750.04
649.805	747.39
650.218	739.89
650.631	727.17
651.043	721.91
651.456	717.18
651.868	716.72
652.28	727.43
652.693	735.78
653.105	738.79
653.517	743.73
653.929	742.98
654.341	744.82
654.753	734.99
655.165	737.92
655.577	734.67
655.989	729.89
656.401	721.68
656.813	695.17
657.224	677.83
657.636	654.72
658.047	640.27
658.459	624.28
658.87	614.91
659.282	604.99
659.693	588.78
660.104	577.32
660.515	566.39
660.926	563.54
661.338	559.74
661.749	554.05
662.159	547.06
662.57	542.09
662.981	537.9
663.392	532.63
663.803	533.96
664.213	530.65
664.624	525
665.035	525.4
665.445	515.31
665.855	509.41
666.266	504.08
666.676	501.11
667.086	494.57
667.497	493.87
667.907	488.39
668.317	481.67
668.727	481.09
669.137	481.72
669.547	479.86
669.956	480.86
670.366	481.51
670.776	482.33
671.186	485.46
671.595	488.87
672.005	490.15
672.414	491.33
672.824	491.65
673.233	492.52
673.642	495.46
674.052	498.32
674.461	500.75
674.87	504.46
675.279	504.01
675.688	504.82
676.097	505.97
676.506	505.27
676.915	514.47
677.323	516.64
677.732	517.31
678.141	516.87
678.549	510.22
678.958	510.4
679.366	510.72
679.775	514.87
680.183	523.98
680.592	529.99
681	535.35
681.408	532.61
681.816	538.53
682.224	545.02
682.632	554.73
683.04	577.26
683.448	596.29
683.856	620.48
684.264	647.53
684.671	672.32
685.079	702.05
685.487	735.79
685.894	782.44
686.302	822.2
686.709	856.57
687.116	895.63
687.524	930.85
687.931	962.22
688.338	988.8
688.745	1011.5
689.152	1038.99
689.559	1076.01
689.966	1113.56
690.373	1135.4
690.78	1172.57
691.187	1226.72
691.593	1270
692	1308.16
692.407	1362.82
692.813	1430.56
693.22	1489.01
693.626	1547.02
694.032	1595.19
694.439	1665.98
694.845	1723.6
695.251	1794.13
695.657	1859.01
696.063	1952.72
696.469	2025.13
696.875	2093.63
697.281	2136.6
697.687	2185.49
698.093	2230.46
698.498	2306.09
698.904	2366.4
699.31	2453.44
699.715	2519.05
