Data from C_3_DEC_OH_4N_Splice17_13-33-28-415.txt Node
Date: Sat Mar 14 13:33:28 EDT 2020
User: sa697716
Spectrometer: FLMS03696
Trigger mode: 0
Integration Time (sec): 3.180400E-1
Scans to average: 20
Electric dark correction enabled: true
Nonlinearity correction enabled: true
Boxcar width: 5
XAxis mode: Wavelengths
Number of Pixels in Spectrum: 2048
>>>>>Begin Spectral Data<<<<<
187.83	-435314.18
188.298	3087.16
188.766	1654.42
189.233	1546.58
189.701	2140.22
190.169	2881.02
190.636	1062.9
191.104	842.83
191.571	150.5
192.039	-71.52
192.506	-119.56
192.974	621.86
193.441	-995.71
193.908	-340.37
194.375	-83.37
194.842	-13.66
195.31	89.57
195.777	194.22
196.244	516.96
196.711	683.13
197.177	867.74
197.644	1244.47
198.111	2158.92
198.578	3020.14
199.045	2416.75
199.511	3916.77
199.978	4528.81
200.445	3791.57
200.911	4167.16
201.378	4611.82
201.844	4137.49
202.31	7003.14
202.777	7220.39
203.243	3953.41
203.709	3728.43
204.176	4387.22
204.642	3620.73
205.108	3347.98
205.574	2728.61
206.04	2482.5
206.506	2319.49
206.972	2178.23
207.438	2115.87
207.903	2389.91
208.369	2091.3
208.835	2057.8
209.301	2152.34
209.766	2177.26
210.232	2170.34
210.697	2668.38
211.163	3269.64
211.628	4891.68
212.094	4077.21
212.559	4949.8
213.024	3065.86
213.49	3712.92
213.955	3603.26
214.42	3515.02
214.885	3297.73
215.35	3140.06
215.815	3019.37
216.28	3197.07
216.745	2596.82
217.21	2786.37
217.675	2533.03
218.14	2845.18
218.604	3140.74
219.069	3566.65
219.534	3707.66
219.998	4246.63
220.463	5118.1
220.927	6223.91
221.392	5808.13
221.856	5872.49
222.32	7351.87
222.785	9052.26
223.249	11339.71
223.713	12640.78
224.177	12622
224.642	16130.47
225.106	19825.26
225.57	21616.88
226.034	16091.69
226.497	24418.51
226.961	21963.95
227.425	25607.38
227.889	28348.14
228.353	28319.61
228.816	58322.58
229.28	55654.97
229.744	46914.66
230.207	28489.16
230.671	27949.78
231.134	46117.23
231.597	53247.85
232.061	53167.3
232.524	51726.86
232.987	35611.17
233.45	32010.15
233.914	28706.27
234.377	29380.25
234.84	26845.91
235.303	31622.62
235.766	35345.07
236.229	36524.91
236.691	22981.64
237.154	25816.34
237.617	19407.28
238.08	19862.47
238.542	23201.46
239.005	16569.43
239.468	16452.34
239.93	15502.42
240.393	14084.47
240.855	12342.12
241.317	12622.24
241.78	15343.87
242.242	15856.97
242.704	17138.35
243.166	14922.84
243.629	13574.29
244.091	15667.61
244.553	17174.47
245.015	18469.09
245.477	23873.8
245.939	35009.73
246.4	37156.71
246.862	36147.58
247.324	34103.33
247.786	38189.6
248.247	50044.57
248.709	51647.59
249.17	38586.39
249.632	36399.17
250.093	42260.88
250.555	36570.9
251.016	22324.19
251.477	21211.4
251.939	22903.53
252.4	24046.29
252.861	28587
253.322	26618.69
253.783	31715.81
254.244	41191.99
254.705	32494.45
255.166	28889.81
255.627	28461.29
256.088	40235.3
256.549	42758.39
257.009	36844.78
257.47	44780.15
257.931	36514.65
258.391	27390.39
258.852	28252.07
259.312	29642.69
259.773	36628.83
260.233	31000.79
260.694	26197.43
261.154	29729.17
261.614	23894.45
262.074	21401.64
262.534	22237.78
262.994	20990.02
263.455	28010.63
263.915	23646.42
264.374	22301.38
264.834	24388.31
265.294	27034.19
265.754	28022.42
266.214	26542.39
266.673	24888.68
267.133	31414.49
267.593	31197.09
268.052	38197.46
268.512	33245.55
268.971	40133.96
269.431	44059.67
269.89	39482.44
270.349	59311.01
270.809	66190.34
271.268	59569.45
271.727	133716.33
272.186	86711.77
272.645	65095.37
273.104	46984.89
273.563	68071.19
274.022	53525.03
274.481	45571.42
274.94	35100.25
275.399	26074.28
275.857	30387.9
276.316	41092.37
276.775	36596.85
277.233	36051.8
277.692	33773.94
278.15	38237.98
278.609	39365.22
279.067	36450.74
279.525	33845.56
279.984	43769.21
280.442	52663.34
280.9	51904.09
281.358	34166.09
281.816	31843.27
282.274	31187.76
282.732	32220.81
283.19	32376.53
283.648	27939.35
284.106	29790.37
284.564	30297.39
285.021	28087.02
285.479	20903.67
285.937	18984.3
286.394	16667.34
286.852	17161.84
287.309	18053.25
287.767	17455.48
288.224	16615.13
288.682	18232.36
289.139	20023.11
289.596	18365.62
290.053	19122.36
290.511	24189.01
290.968	29434.71
291.425	39980.2
291.882	33274.61
292.339	29001.67
292.796	28799.06
293.252	27151.7
293.709	21619.37
294.166	19383.62
294.623	21422.34
295.079	20551.84
295.536	20647.37
295.992	18724.92
296.449	18512.41
296.905	19260.2
297.362	18473.5
297.818	19439.1
298.274	20173.35
298.731	20545.53
299.187	20340.77
299.643	21837.43
300.099	26426.67
300.555	29008.21
301.011	24278.84
301.467	23434.19
301.923	27427.57
302.379	26777.55
302.835	26313.55
303.291	26359
303.746	29989.81
304.202	37901.48
304.658	38047.44
305.113	25578.71
305.569	25050.95
306.024	26700.54
306.479	25397.83
306.935	21418.54
307.39	23378.04
307.845	21585.06
308.301	21740.47
308.756	21200.37
309.211	20429.16
309.666	20932.4
310.121	25986.85
310.576	26399.99
311.031	26152.17
311.486	29948.97
311.94	29932.7
312.395	40043.47
312.85	75248.3
313.305	368679.92
313.759	1910754.05
314.214	138346.76
314.668	109828.25
315.123	92396.93
315.577	33142.36
316.032	29490.22
316.486	36947.77
316.94	29159.28
317.394	20312.6
317.849	15788.86
318.303	14982.98
318.757	14151.35
319.211	15655.32
319.665	13703.95
320.119	13881.94
320.572	19908.71
321.026	18644.54
321.48	15548.17
321.934	16956.33
322.387	16984.94
322.841	18370.86
323.295	16501.04
323.748	18976.2
324.202	19243.06
324.655	23102.82
325.108	32305.17
325.562	22814.37
326.015	27102.68
326.468	20468.89
326.921	22892.54
327.374	21386.37
327.827	22297.67
328.28	25291.21
328.733	16986.62
329.186	14947.72
329.639	14252.77
330.092	12005.18
330.545	11439.53
330.997	11533.29
331.45	12608.87
331.903	14774.43
332.355	25393.05
332.808	24604.3
333.26	20302.84
333.713	21998.66
334.165	22135.91
334.617	29478.59
335.069	23781.23
335.522	42962.81
335.974	47624.01
336.426	43495.47
336.878	30106.36
337.33	15276.47
337.782	14938.9
338.234	18693.76
338.686	22325.05
339.137	26507.63
339.589	25027.82
340.041	19646.82
340.493	16920.41
340.944	17308.49
341.396	18653.51
341.847	15713.44
342.299	18563.59
342.75	22681.93
343.201	19831.78
343.653	22854.46
344.104	28091.49
344.555	22152.08
345.006	34490.26
345.457	26435.18
345.908	20998.43
346.359	19785.67
346.81	16134.2
347.261	17000.63
347.712	16728.48
348.163	17941.93
348.613	18173.95
349.064	16988.6
349.515	14846.12
349.965	15265.26
350.416	18385.42
350.866	20208.73
351.317	22817.26
351.767	37794.4
352.217	47768.25
352.668	39718.3
353.118	36422.16
353.568	35070.12
354.018	27693.5
354.468	29294.25
354.918	20987.61
355.368	18364.08
355.818	25925.56
356.268	74614.89
356.718	312528.91
357.168	77723.64
357.617	38969.86
358.067	43298.23
358.517	40668.52
358.966	47771.26
359.416	53526.19
359.865	57875.22
360.315	68985.79
360.764	32238.18
361.213	18070.13
361.663	17078.43
362.112	21135.17
362.561	34163.15
363.01	25839.3
363.459	21768.06
363.908	23541.71
364.357	19993.17
364.806	33736.01
365.255	23187.04
365.703	21279.74
366.152	21342.96
366.601	17325.7
367.05	14067.23
367.498	12785.18
367.947	13367.87
368.395	13886.63
368.844	12318.3
369.292	14875.47
369.74	10310.17
370.189	15787.5
370.637	18511.27
371.085	15985.12
371.533	19494.28
371.981	18744.78
372.429	17892.83
372.877	18618.67
373.325	15584.05
373.773	15851.99
374.221	14112.27
374.669	17476.69
375.116	15112.92
375.564	15214.51
376.012	17005.61
376.459	14023.14
376.907	16769.91
377.354	20257.69
377.801	18905.63
378.249	21746.68
378.696	27801.74
379.143	33624.37
379.591	35865.87
380.038	60751.52
380.485	43914.11
380.932	47426.76
381.379	43429.79
381.826	32015.15
382.273	22770.59
382.72	19908.39
383.166	19443.53
383.613	12662.62
384.06	11464.89
384.506	13346.08
384.953	9837.37
385.4	9968.29
385.846	8780.67
386.292	8615.97
386.739	8521.63
387.185	8521.82
387.631	8643.66
388.078	8527.86
388.524	9247.75
388.97	8645.08
389.416	7267.95
389.862	7793.96
390.308	7439.93
390.754	7638.08
391.2	8415.43
391.645	8784.32
392.091	8603.71
392.537	8476.03
392.983	8618.19
393.428	8589.31
393.874	9364.25
394.319	9651.85
394.765	9506.45
395.21	10251.79
395.655	10102.98
396.101	9967.03
396.546	9456
396.991	10036.08
397.436	9847.49
397.881	10102.91
398.326	10228.65
398.771	10321.42
399.216	9616.41
399.661	9175.79
400.106	9621.42
400.551	10351.73
400.995	9723.21
401.44	10041.4
401.885	9814.14
402.329	10286.27
402.774	10197.67
403.218	10161.49
403.663	10127.54
404.107	10766.53
404.551	11247.84
404.995	10741.65
405.44	10805.08
405.884	11440.8
406.328	11515.18
406.772	11891.55
407.216	11218.76
407.66	11286.35
408.104	11250.43
408.547	11000.79
408.991	11062.89
409.435	11034.76
409.879	11201.46
410.322	11361.72
410.766	11267.07
411.209	11028.79
411.653	10948.63
412.096	11054.55
412.54	11396.28
412.983	11601.92
413.426	11880.53
413.869	12172.67
414.312	12186.43
414.756	12022.42
415.199	11726.95
415.642	11621.47
416.085	11857.16
416.527	11980.09
416.97	12386.74
417.413	11904.49
417.856	11959.64
418.298	11979.65
418.741	11999.04
419.184	12075.67
419.626	12689.99
420.069	12775.54
420.511	12933.54
420.953	12761.5
421.396	12770.43
421.838	12582.53
422.28	13008.98
422.722	13185.93
423.164	13590.44
423.606	13559.91
424.048	13779.35
424.49	13254.99
424.932	13390.47
425.374	13392.17
425.816	13734.47
426.258	13973.28
426.699	13993.4
427.141	13516.12
427.582	13523
428.024	13323.27
428.465	13297.56
428.907	13128.65
429.348	13232.06
429.789	13434.23
430.231	13297.99
430.672	13663.54
431.113	13603.6
431.554	13828.91
431.995	14090.07
432.436	14123.05
432.877	14298.78
433.318	14387.83
433.759	14620.57
434.2	14828.67
434.64	14869.41
435.081	15128.57
435.522	14559.4
435.962	14304.81
436.403	14203.15
436.843	14649.87
437.284	14569.79
437.724	14368.88
438.164	14620.14
438.604	14433.74
439.045	14001.48
439.485	13572.36
439.925	13506.68
440.365	13389.69
440.805	13392.77
441.245	13363.18
441.685	12959.94
442.125	12965.98
442.564	13112.93
443.004	12828.6
443.444	12850.13
443.883	12939.86
444.323	12988.15
444.762	13169.73
445.202	13451.37
445.641	13728.7
446.081	13784.71
446.52	13977.27
446.959	13926.86
447.398	13691.49
447.837	13684.7
448.276	13588.22
448.716	13807.93
449.154	13983.4
449.593	13586.05
450.032	13496.72
450.471	13280.17
450.91	13276.67
451.349	13182.36
451.787	13099.31
452.226	13245.7
452.664	13177.4
453.103	13128.35
453.541	13082.49
453.98	12954.53
454.418	13038.74
454.856	12770.27
455.295	12703.19
455.733	12715.77
456.171	12743.42
456.609	12671.54
457.047	12604.57
457.485	12696.46
457.923	12649.36
458.361	12450.48
458.798	12496.24
459.236	12460.91
459.674	12605.33
460.111	12687.24
460.549	12599.33
460.987	12620.5
461.424	12644.11
461.862	12630.55
462.299	12495.41
462.736	12510.99
463.173	12596.57
463.611	12428.86
464.048	12421.52
464.485	12558.66
464.922	12518.49
465.359	12558.39
465.796	12284.42
466.233	12273.18
466.67	12203.88
467.106	12236.71
467.543	12238.16
467.98	12189.45
468.416	12055.72
468.853	12108.92
469.29	11872.89
469.726	11838.51
470.162	11604.49
470.599	11700.04
471.035	11695.69
471.471	11519.45
471.907	11574.76
472.344	11565.52
472.78	11605.34
473.216	11773.3
473.652	11618.21
474.088	11588.55
474.523	11515.59
474.959	11608.62
475.395	11468.96
475.831	11337.94
476.266	11351.83
476.702	11268.69
477.138	11075.58
477.573	10979.11
478.008	10854.25
478.444	10799.7
478.879	10772.83
479.314	10722.04
479.75	10608.72
480.185	10565.4
480.62	10557.18
481.055	10497.97
481.49	10435.52
481.925	10445.24
482.36	10421.13
482.795	10542.34
483.229	10649.39
483.664	10687.82
484.099	10564.33
484.534	10557.15
484.968	10506.87
485.403	10410.88
485.837	10295.4
486.271	10173.39
486.706	10099.28
487.14	9963.86
487.574	9759.71
488.009	9641.77
488.443	9523.06
488.877	9543.83
489.311	9518.47
489.745	9557.61
490.179	9569.19
490.613	9636.63
491.046	9653.71
491.48	9659.45
491.914	9599.1
492.348	9605.14
492.781	9598.7
493.215	9575.51
493.648	9571.96
494.082	9603.86
494.515	9558.08
494.948	9598.67
495.382	9628.78
495.815	9619.35
496.248	9615.99
496.681	9718.99
497.114	9801.31
497.547	9844.71
497.98	9905.26
498.413	9862.67
498.846	9877.94
499.279	9898.34
499.711	9874.08
500.144	9817.78
500.577	9841.62
501.009	9886.5
501.442	9891.33
501.874	9801.78
502.306	9755.89
502.739	9735.55
503.171	9851.36
503.603	9808.88
504.036	9828.47
504.468	9793.26
504.9	9816.91
505.332	9798.27
505.764	9742.87
506.196	9724.63
506.627	9774.32
507.059	9796.85
507.491	9808.42
507.923	9651.2
508.354	9681.43
508.786	9671.15
509.217	9725.44
509.649	9748.82
510.08	9810.4
510.512	9831.39
510.943	9840.51
511.374	9813.88
511.805	9864.79
512.237	9908.87
512.668	10072.73
513.099	10171.57
513.53	10239.67
513.961	10240.32
514.391	10332.54
514.822	10412.39
515.253	10532.71
515.684	10566.54
516.114	10636.25
516.545	10635.68
516.975	10675.07
517.406	10651.92
517.836	10530.61
518.267	10454.8
518.697	10466.83
519.127	10387.5
519.558	10334.67
519.988	10250.46
520.418	10219.26
520.848	10233.66
521.278	10189.16
521.708	9933.3
522.138	9920.04
522.567	10022.48
522.997	10075.45
523.427	10063.33
523.857	10051.61
524.286	10011.85
524.716	10009.23
525.145	10028.12
525.575	10008.6
526.004	10018.05
526.433	10135.03
526.863	10062.84
527.292	9926.76
527.721	9903.36
528.15	9899.84
528.579	9866.94
529.008	9893.09
529.437	9983.91
529.866	10013.76
530.295	10059.13
530.724	10067.68
531.152	10164.33
531.581	10186.88
532.01	10243.58
532.438	10249.02
532.867	10290.45
533.295	10354.33
533.723	10349.39
534.152	10302.39
534.58	10270.95
535.008	10157.36
535.436	10140.45
535.865	10162.5
536.293	10223.3
536.721	10284.78
537.149	10389.96
537.576	10371.97
538.004	10421.53
538.432	10453.58
538.86	10431.9
539.287	10467.29
539.715	10536.04
540.143	10560.11
540.57	10545.63
540.998	10539.63
541.425	10416.29
541.852	10329.62
542.28	10346.78
542.707	10285
543.134	10230.09
543.561	10228.69
543.988	10206.62
544.415	10229.86
544.842	10221.73
545.269	10199.28
545.696	10223.36
546.123	10329.55
546.549	10289.7
546.976	10233.92
547.403	10246.13
547.829	10279.31
548.256	10318.33
548.682	10318.14
549.108	10291.29
549.535	10310.58
549.961	10343.1
550.387	10286.93
550.813	10265.42
551.24	10320.7
551.666	10346.36
552.092	10309.84
552.518	10292.42
552.943	10263.26
553.369	10325.72
553.795	10373.6
554.221	10385.59
554.646	10378.43
555.072	10434.91
555.498	10474.11
555.923	10528.23
556.349	10612.97
556.774	10662.37
557.199	10666.59
557.625	10718.85
558.05	10682.76
558.475	10749.78
558.9	10747.86
559.325	10702.59
559.75	10680.33
560.175	10653.8
560.6	10632.27
561.025	10630.51
561.449	10646.71
561.874	10686.06
562.299	10701.61
562.723	10746.78
563.148	10680.45
563.572	10701.74
563.997	10758.96
564.421	10792.49
564.846	10790.04
565.27	10795.12
565.694	10773.89
566.118	10823.11
566.542	10848.17
566.966	10799.33
567.39	10754.81
567.814	10679.82
568.238	10670.16
568.662	10698.28
569.086	10710.96
569.509	10769.4
569.933	10693.36
570.357	10682.59
570.78	10596.77
571.204	10553.69
571.627	10541.05
572.05	10587.53
572.474	10642.47
572.897	10638.86
573.32	10657.64
573.743	10678.54
574.166	10630.19
574.589	10712.61
575.012	10735.24
575.435	10809.73
575.858	10832.78
576.281	10845.58
576.704	10831.68
577.126	10847.91
577.549	10858.08
577.972	10886.31
578.394	10895.65
578.817	10916.55
579.239	10876.64
579.661	10867.23
580.084	10825.13
580.506	10819.89
580.928	10874.88
581.35	10876.29
581.772	10913.72
582.194	10885.92
582.616	10853.51
583.038	10820.27
583.46	10816.8
583.882	10844.37
584.303	10932.26
584.725	10965.43
585.147	10977.55
585.568	11069.68
585.99	11157.98
586.411	11204.66
586.833	11310.84
587.254	11329.7
587.675	11447.1
588.096	11557.36
588.518	11533.96
588.939	11421.75
589.36	11419.41
589.781	11413.39
590.202	11210.83
590.623	11190.66
591.043	11217.6
591.464	11154.39
591.885	11144.01
592.305	11112.95
592.726	11015.79
593.147	11021.65
593.567	10978.88
593.987	10912.47
594.408	10860.13
594.828	10854.14
595.248	10775.45
595.669	10599.2
596.089	10518.57
596.509	10446.88
596.929	10308.26
597.349	10270.85
597.769	10157.04
598.189	10062.04
598.608	10026.6
599.028	9990.47
599.448	9948.6
599.867	9825.93
600.287	9772.88
600.706	9706.42
601.126	9605.47
601.545	9568.24
601.965	9543.03
602.384	9492.75
602.803	9506.25
603.222	9462.39
603.641	9417.39
604.061	9386.69
604.48	9366.62
604.898	9430.21
605.317	9481.47
605.736	9510.44
606.155	9504.36
606.574	9458.23
606.992	9516.72
607.411	9503.06
607.829	9480.47
608.248	9490.72
608.666	9510.44
609.085	9535.29
609.503	9503.83
609.921	9488.27
610.339	9535.42
610.758	9570.78
611.176	9573.19
611.594	9541.68
612.012	9555.8
612.43	9605.21
612.847	9682.48
613.265	9707.41
613.683	9771.22
614.101	9811.52
614.518	9825.51
614.936	9790.45
615.353	9716.83
615.771	9728.9
616.188	9768.03
616.606	9777.8
617.023	9766.06
617.44	9698.98
617.857	9701.59
618.274	9679.9
618.691	9666.07
619.108	9627.23
619.525	9609.75
619.942	9680.93
620.359	9719.61
620.776	9697.68
621.192	9670.07
621.609	9658.09
622.026	9704.72
622.442	9745.91
622.859	9772.57
623.275	9721.7
623.691	9764.96
624.108	9852.38
624.524	9965.18
624.94	9960.36
625.356	10032.34
625.772	10141.2
626.188	10233.71
626.604	10244.53
627.02	10213.24
627.436	10187.84
627.852	10230.37
628.268	10313.16
628.683	10242.52
629.099	10177.85
629.514	10154.84
629.93	10195.42
630.345	10239.86
630.761	10225.69
631.176	10271.47
631.591	10229.39
632.007	10205.79
632.422	10230.08
632.837	10175.71
633.252	10178
633.667	10132.54
634.082	10095.13
634.497	10027.63
634.911	9902.76
635.326	9918.96
635.741	9831.11
636.155	9814.05
636.57	9867.71
636.984	9912.61
637.399	9963.95
637.813	10025.95
638.228	10071.57
638.642	10167
639.056	10145.98
639.47	10220
639.884	10214.42
640.298	10228.46
640.712	10284.6
641.126	10256.11
641.54	10264.73
641.954	10325.55
642.368	10290.35
642.781	10272.19
643.195	10186.69
643.609	10255.63
644.022	10268.1
644.436	10293.09
644.849	10247.46
645.262	10200.76
645.676	10276.43
646.089	10270.49
646.502	10149.98
646.915	10152.2
647.328	10065.25
647.741	10098.91
648.154	10030.62
648.567	10028.73
648.98	9943.03
649.393	9994
649.805	10006.7
650.218	9982.7
650.631	9872.71
651.043	9867.34
651.456	9841.53
651.868	9879.04
652.28	10067.14
652.693	10184.02
653.105	10215.32
653.517	10248.84
653.929	10195.04
654.341	10214.78
654.753	10073.41
655.165	10148.13
655.577	10144.49
655.989	10140.97
656.401	10126.35
656.813	9819.9
657.224	9727.04
657.636	9595.18
658.047	9560.93
658.459	9510.68
658.87	9562.58
659.282	9566.81
659.693	9435.42
660.104	9362.27
660.515	9300.08
660.926	9351.17
661.338	9407.76
661.749	9419.69
662.159	9372.3
662.57	9409.73
662.981	9421.78
663.392	9391.26
663.803	9489.1
664.213	9525.07
664.624	9537.36
665.035	9628.98
665.445	9523.26
665.855	9471.04
666.266	9397.93
666.676	9410.41
667.086	9330.19
667.497	9335.56
667.907	9277.56
668.317	9180.58
668.727	9100.37
669.137	9121.13
669.547	9082.12
669.956	9113.52
670.366	9132.31
670.776	9142.14
671.186	9177.43
671.595	9192.86
672.005	9226.93
672.414	9184.65
672.824	9132.72
673.233	9206.49
673.642	9200.88
674.052	9197.35
674.461	9173.83
674.87	9199.59
675.279	9121.94
675.688	9117.4
676.097	9079.68
676.506	9000.47
676.915	9140.7
677.323	9133.66
677.732	9070.93
678.141	9025.45
678.549	8874.65
678.958	8832.37
679.366	8779.89
