Data from C_3_DEC_ON_6N_Splice17_13-36-17-597.txt Node
Date: Sat Mar 14 13:36:17 EDT 2020
User: sa697716
Spectrometer: FLMS03696
Trigger mode: 0
Integration Time (sec): 3.180400E-1
Scans to average: 20
Electric dark correction enabled: true
Nonlinearity correction enabled: true
Boxcar width: 5
XAxis mode: Wavelengths
Number of Pixels in Spectrum: 2048
>>>>>Begin Spectral Data<<<<<
187.83	-437220.39
188.298	3187.41
188.766	1625.08
189.233	1521.49
189.701	2126
190.169	3007.17
190.636	1144.76
191.104	885.96
191.571	134.24
192.039	-68.29
192.506	-72.27
192.974	687.15
193.441	-849.36
193.908	-399.51
194.375	-67.37
194.842	-6.55
195.31	154.78
195.777	217.24
196.244	463.31
196.711	471.93
197.177	572.91
197.644	752.95
198.111	1297.35
198.578	1779.17
199.045	1431.42
199.511	2307.56
199.978	2664.73
200.445	2283.3
200.911	2523.36
201.378	2758.17
201.844	2517.91
202.31	4274.88
202.777	4491.58
203.243	2509.85
203.709	2370.52
204.176	2774.31
204.642	2291.89
205.108	2145.08
205.574	1729.02
206.04	1547.73
206.506	1466.26
206.972	1369.92
207.438	1316.21
207.903	1491.04
208.369	1299.7
208.835	1309.48
209.301	1401.44
209.766	1417.2
210.232	1390.32
210.697	1704.24
211.163	2115.13
211.628	3183.15
212.094	2678.13
212.559	3375.17
213.024	2107.05
213.49	2594.19
213.955	2534.64
214.42	2448.8
214.885	2272.78
215.35	2199.04
215.815	2184.85
216.28	2317.32
216.745	1868.15
217.21	2031.47
217.675	1813.06
218.14	2022.93
218.604	2237.01
219.069	2530.25
219.534	2668.13
219.998	3082.68
220.463	3716.18
220.927	4465.28
221.392	4168.73
221.856	4225.11
222.32	5275.38
222.785	6542.75
223.249	8243.02
223.713	9199.34
224.177	9211.77
224.642	11782.44
225.106	14509.78
225.57	15832.52
226.034	11864.45
226.497	18098.29
226.961	16392.6
227.425	19205.57
227.889	21323.86
228.353	21321.57
228.816	44026.1
229.28	42229.2
229.744	35575.65
230.207	21715.26
230.671	21422.95
231.134	35382.54
231.597	40973.61
232.061	40969.63
232.524	39913.46
232.987	27584
233.45	24941.96
233.914	22424.63
234.377	22949.39
234.84	21089.33
235.303	24870.25
235.766	27795.47
236.229	28770.32
236.691	18113.68
237.154	20375.18
237.617	15370.47
238.08	15753.93
238.542	18443.39
239.005	13215.9
239.468	13177.66
239.93	12445.64
240.393	11348.73
240.855	9996.94
241.317	10244.44
241.78	12482.5
242.242	12942.54
242.704	14033.36
243.166	12236.77
243.629	11148.04
244.091	12851.08
244.553	14085.14
245.015	15152.74
245.477	19592.84
245.939	28709.8
246.4	30552.66
246.862	29720.08
247.324	28029.92
247.786	31306.02
248.247	41057.45
248.709	42313.63
249.17	31720.18
249.632	29995.65
250.093	34854.46
250.555	30143.9
251.016	18408.77
251.477	17470
251.939	18868.81
252.4	19818.53
252.861	23547.08
253.322	21933.26
253.783	26105.83
254.244	33796.98
254.705	26587.47
255.166	23571.65
255.627	23214.97
256.088	32767.44
256.549	34767.75
257.009	29930.5
257.47	36254.72
257.931	29548.27
258.391	22126.42
258.852	22793.65
259.312	23898.41
259.773	29494.84
260.233	24983.83
260.694	21052.56
261.154	23842.93
261.614	19159.61
262.074	17131.49
262.534	17818.43
262.994	16785.71
263.455	22324.47
263.915	18813.07
264.374	17723.71
264.834	19345.68
265.294	21397.46
265.754	22162.65
266.214	20981.13
266.673	19620.65
267.133	24728.2
267.593	24506.08
268.052	29968.67
268.512	26056.46
268.971	31444.86
269.431	34444.45
269.89	30818.92
270.349	46211.19
270.809	51480.91
271.268	46228.54
271.727	103664.1
272.186	67113.01
272.645	50254.15
273.104	36222.33
273.563	52380.46
274.022	41112.57
274.481	34972.3
274.94	26959.48
275.399	20017.71
275.857	23277.18
276.316	31477.06
276.775	27989.38
277.233	27560.6
277.692	25841.58
278.15	29260.56
278.609	30153.57
279.067	27876.39
279.525	25912.73
279.984	33437.22
280.442	40133.64
280.9	39676.89
281.358	26106.05
281.816	24347.72
282.274	23845.72
282.732	24621.86
283.19	24703.67
283.648	21319.58
284.106	22730.7
284.564	23108.57
285.021	21432.83
285.479	15970.7
285.937	14487.55
286.394	12729.03
286.852	13120.96
287.309	13812.15
287.767	13365.58
288.224	12745.77
288.682	13974.63
289.139	15356.63
289.596	14061.12
290.053	14612.02
290.511	18486.05
290.968	22486.88
291.425	30508.24
291.882	25399.3
292.339	22079.75
292.796	21892.46
293.252	20611.21
293.709	16428.73
294.166	14726.36
294.623	16278.73
295.079	15646.74
295.536	15746.03
295.992	14291.54
296.449	14128.02
296.905	14720.6
297.362	14178.78
297.818	14914.51
298.274	15515.42
298.731	15781.82
299.187	15620.76
299.643	16763.4
300.099	20284.62
300.555	22241.58
301.011	18587.76
301.467	17964.21
301.923	20966.45
302.379	20443.51
302.835	20110.38
303.291	20111.13
303.746	22912.86
304.202	28961.19
304.658	29141.15
305.113	19614.68
305.569	19228.99
306.024	20501.94
306.479	19518.02
306.935	16492.37
307.39	17995.88
307.845	16633.48
308.301	16757.04
308.756	16339.75
309.211	15780.18
309.666	16196.71
310.121	20133.5
310.576	20426.66
311.031	20293.86
311.486	23201.5
311.94	23182.35
312.395	31069.65
312.85	58448.39
313.305	287905.73
313.759	1493050.86
314.214	108169.59
314.668	85705
315.123	72111.2
315.577	25943.24
316.032	23110.22
316.486	29035.23
316.94	22955.57
317.394	16019.4
317.849	12463.92
318.303	11786.53
318.757	11146.35
319.211	12354.44
319.665	10828.07
320.119	10963.72
320.572	15700.23
321.026	14702.47
321.48	12242.34
321.934	13334.08
322.387	13358.72
322.841	14416.84
323.295	13006.83
323.748	14961.23
324.202	15156.99
324.655	18224.87
325.108	25554.87
325.562	18086.46
326.015	21472.27
326.468	16267.18
326.921	18239.68
327.374	17006.61
327.827	17778.7
328.28	20100.08
328.733	13479.63
329.186	11890.86
329.639	11322.85
330.092	9527.49
330.545	9080.41
330.997	9177.71
331.45	10038.22
331.903	11770.47
332.355	20317.68
332.808	19703.25
333.26	16243.71
333.713	17679.04
334.165	17765.46
334.617	23746.31
335.069	19172.89
335.522	34678.34
335.974	38394.6
336.426	35028.21
336.878	24248.93
337.33	12293.36
337.782	12034.5
338.234	15085.85
338.686	18012.33
339.137	21406.81
339.589	20177.63
340.041	15831.08
340.493	13622.71
340.944	13981.8
341.396	15091.11
341.847	12714.72
342.299	15009.08
342.75	18344.12
343.201	16061.44
343.653	18492.73
344.104	22702.4
344.555	17882.33
345.006	27839.35
345.457	21382.85
345.908	16949.71
346.359	15987.73
346.81	13036.37
347.261	13759.74
347.712	13555.48
348.163	14512.79
348.613	14733.11
349.064	13803.22
349.515	12089.09
349.965	12423.29
350.416	14941.91
350.866	16424.46
351.317	18516.8
351.767	30673.27
352.217	38711.79
352.668	32172.53
353.118	29588.29
353.568	28512.82
354.018	22546.26
354.468	23841.39
354.918	17123.83
355.368	15017.82
355.818	21236.14
356.268	61228.38
356.718	257133.04
357.168	64154.8
357.617	32145.1
358.067	35703.9
358.517	33528.19
358.966	39346.89
359.416	44186.7
359.865	47755.34
360.315	56893.71
360.764	26644.79
361.213	14933.44
361.663	14119.58
362.112	17443.09
362.561	28172.03
363.01	21317.95
363.459	17921.79
363.908	19431.71
364.357	16517.46
364.806	27947.68
365.255	19212.11
365.703	17619.55
366.152	17696.41
366.601	14360.21
367.05	11669.48
367.498	10635.05
367.947	11101.35
368.395	11544.33
368.844	10230.46
369.292	12310.84
369.74	8516.3
370.189	13048.3
370.637	15277.41
371.085	13161.33
371.533	15984.37
371.981	15362.28
372.429	14688.42
372.877	15307.56
373.325	12868.23
373.773	13089.44
374.221	11661.63
374.669	14457.53
375.116	12495.17
375.564	12619.97
376.012	14131.85
376.459	11709.63
376.907	13993.48
377.354	16878.16
377.801	15732.93
378.249	18016.54
378.696	23048.96
379.143	27884.56
379.591	29723.66
380.038	50263.94
380.485	36274.5
380.932	39176.57
381.379	35917.82
381.826	26501.69
382.273	18844.52
382.72	16493.19
383.166	16069.96
383.613	10426.76
384.06	9398.86
384.506	10862.97
384.953	7986.77
385.4	8027.46
385.846	7010.17
386.292	6795.44
386.739	6639.68
387.185	6552.08
387.631	6549.88
388.078	6383.76
388.524	6816.35
388.97	6295.28
389.416	5254.17
389.862	5574.03
390.308	5286.02
390.754	5379.12
391.2	5838.25
391.645	5967.67
392.091	5723.15
392.537	5536.48
392.983	5522.73
393.428	5461.21
393.874	5855.71
394.319	5890.35
394.765	5608.98
395.21	5771.37
395.655	5414.22
396.101	5080.25
396.546	4597.94
396.991	4639.51
397.436	4314.2
397.881	4173.55
398.326	3944.83
398.771	3739.83
399.216	3275.97
399.661	2944.88
400.106	2944.13
400.551	3026.55
400.995	2715.79
401.44	2691.39
401.885	2530.75
402.329	2564.17
402.774	2470.66
403.218	2404.22
403.663	2315.88
404.107	2384.45
404.551	2413.23
404.995	2207.72
405.44	2126.94
405.884	2162.26
406.328	2090.14
406.772	2091.71
407.216	1905.88
407.66	1841.55
408.104	1745.09
408.547	1638.22
408.991	1585.44
409.435	1524.8
409.879	1512.3
410.322	1496.54
410.766	1450.66
411.209	1386.94
411.653	1330.81
412.096	1310.33
412.54	1314.79
412.983	1309.08
413.426	1318.61
413.869	1318.27
414.312	1298.77
414.756	1250.99
415.199	1193.02
415.642	1161.2
416.085	1166.25
416.527	1159.1
416.97	1174.2
417.413	1116.65
417.856	1106.73
418.298	1096.17
418.741	1090.7
419.184	1085.96
419.626	1131.14
420.069	1133.44
420.511	1141.98
420.953	1117.65
421.396	1110.3
421.838	1083.66
422.28	1108.56
422.722	1114.31
423.164	1130.41
423.606	1114.61
424.048	1114.15
424.49	1061.3
424.932	1056.97
425.374	1040.66
425.816	1058.3
426.258	1078.86
426.699	1090.51
427.141	1073.5
427.582	1090.9
428.024	1084.02
428.465	1073.98
428.907	1050.64
429.348	1039.11
429.789	1040.36
430.231	1022.68
430.672	1038.55
431.113	1015.31
431.554	1001.53
431.995	978.75
432.436	945.47
432.877	924.39
433.318	911.91
433.759	906.17
434.2	905.54
434.64	896.41
435.081	898.91
435.522	851.45
435.962	821.25
436.403	802.73
436.843	811.17
437.284	793.49
437.724	772.8
438.164	772.14
438.604	756.91
439.045	727.51
439.485	699.4
439.925	683.16
440.365	665.88
440.805	656.92
441.245	652.77
441.685	632.45
442.125	627.61
442.564	633.28
443.004	620.13
443.444	618.85
443.883	622.56
444.323	616.62
444.762	618.16
445.202	627.56
445.641	640.47
446.081	634.11
446.52	638.62
446.959	634.01
447.398	619.45
447.837	613.16
448.276	602
448.716	607.28
449.154	610.99
449.593	598.49
450.032	597.19
450.471	584.49
450.91	586.61
451.349	584.77
451.787	581.59
452.226	591.09
452.664	592.64
453.103	593.95
453.541	592.35
453.98	595.96
454.418	600.04
454.856	592.08
455.295	591.76
455.733	596.25
456.171	599.91
456.609	600.79
457.047	599.51
457.485	609.23
457.923	611.98
458.361	604.18
458.798	604.33
459.236	600.96
459.674	603.36
460.111	606.16
460.549	601.24
460.987	597.88
461.424	595.62
461.862	591.22
462.299	580.31
462.736	579.74
463.173	581.59
463.611	576.67
464.048	575.2
464.485	579.21
464.922	572.79
465.359	567.32
465.796	566.25
466.233	563.48
466.67	561.01
467.106	560.47
467.543	553.21
467.98	545.97
468.416	530.33
468.853	525.71
469.29	509.93
469.726	504.48
470.162	492.95
470.599	482.79
471.035	476.68
471.471	465.05
471.907	461.84
472.344	459.45
472.78	461.94
473.216	467.84
473.652	462.51
474.088	462.16
474.523	462.57
474.959	466.31
475.395	462.64
475.831	460.89
476.266	463.55
476.702	462.72
477.138	459.41
477.573	457.39
478.008	456.05
478.444	459.74
478.879	464.91
479.314	466.92
479.75	467.04
480.185	468.43
480.62	472.9
481.055	475.26
481.49	479.48
481.925	486.45
482.36	496.63
482.795	510.34
483.229	523.64
483.664	533.74
484.099	534.97
484.534	543.32
484.968	549.28
485.403	550.59
485.837	549.9
486.271	548.66
486.706	547.94
487.14	540.24
487.574	531.93
488.009	526.98
488.443	522.27
488.877	529.2
489.311	530.74
489.745	537.6
490.179	543.29
490.613	554.46
491.046	558.84
491.48	564.18
491.914	566.09
492.348	570.84
492.781	574.94
493.215	578.11
493.648	578.4
494.082	583.79
494.515	583.34
494.948	590.13
495.382	593.74
495.815	598.69
496.248	603.59
496.681	615.27
497.114	625.79
497.547	635.39
497.98	647.26
498.413	654.72
498.846	664.37
499.279	673.49
499.711	678.84
500.144	682.24
500.577	692.69
501.009	704.16
501.442	715.02
501.874	718.86
502.306	722.35
502.739	732.71
503.171	747.81
503.603	752.56
504.036	763.16
504.468	771.01
504.9	783.77
505.332	792.06
505.764	798.85
506.196	806.1
506.627	821.18
507.059	836.21
507.491	843.98
507.923	843.84
508.354	861.01
508.786	873.31
509.217	892.04
509.649	907.66
510.08	927.19
510.512	945.2
510.943	961.06
511.374	974.13
511.805	994.9
512.237	1015.85
512.668	1049.1
513.099	1075.9
513.53	1104.42
513.961	1125.95
514.391	1159.21
514.822	1193.61
515.253	1229.62
515.684	1257.51
516.114	1288.45
516.545	1311.7
516.975	1339.3
517.406	1358.77
517.836	1364.02
518.267	1373.54
518.697	1394
519.127	1400.65
519.558	1410.14
519.988	1415.7
520.418	1427.51
520.848	1445.87
521.278	1457.19
521.708	1492.53
522.138	1507.27
522.567	1539.05
522.997	1564.92
523.427	1580.9
523.857	1599.39
524.286	1611.72
524.716	1628.8
525.145	1649.15
525.575	1661.63
526.004	1677.1
526.433	1657.13
526.863	1657.94
527.292	1649.99
527.721	1657.19
528.15	1665.12
528.579	1666.99
529.008	1678.49
529.437	1702.36
529.866	1717.52
530.295	1735.69
530.724	1749.56
531.152	1777.65
531.581	1794.05
532.01	1813.02
532.438	1821.91
532.867	1836.77
533.295	1856.53
533.723	1862.96
534.152	1860.68
534.58	1861.5
535.008	1846.77
535.436	1850.05
535.865	1858.52
536.293	1872.72
536.721	1888.51
537.149	1915.86
537.576	1920.2
538.004	1932.95
538.432	1941.06
538.86	1939.83
539.287	1946.02
539.715	1960.07
540.143	1962.39
540.57	1957.15
540.998	1954.37
541.425	1932.88
541.852	1910.78
542.28	1907.52
542.707	1890.34
543.134	1877.3
543.561	1873.18
543.988	1867.66
544.415	1867.13
544.842	1862.18
545.269	1857.01
545.696	1859.38
546.123	1872.63
546.549	1862.21
546.976	1850.44
547.403	1851.29
547.829	1853.83
548.256	1857.07
548.682	1852.59
549.108	1845.63
549.535	1845.81
549.961	1847.81
550.387	1834.67
550.813	1831.05
551.24	1839.31
551.666	1842.3
552.092	1834.33
552.518	1829.34
552.943	1824.27
553.369	1833.93
553.795	1841.43
554.221	1842.6
554.646	1841.15
555.072	1854.07
555.498	1858.68
555.923	1869.56
556.349	1885.88
556.774	1895.78
557.199	1897.25
557.625	1904.4
558.05	1899.51
558.475	1910.94
558.9	1911.56
559.325	1903.72
559.75	1898.06
560.175	1892.52
560.6	1885.59
561.025	1883.38
561.449	1883.92
561.874	1890.64
562.299	1896.42
562.723	1903.2
563.148	1893.11
563.572	1896.78
563.997	1908.42
564.421	1914.53
564.846	1916.94
565.27	1921.8
565.694	1919.85
566.118	1932.92
566.542	1941.46
566.966	1934.02
567.39	1929.9
567.814	1917.72
568.238	1917.69
568.662	1922.54
569.086	1924.99
569.509	1931.89
569.933	1915.46
570.357	1907.58
570.78	1886.02
571.204	1873.44
571.627	1863.27
572.05	1861.79
572.474	1864.14
572.897	1852.04
573.32	1844.13
573.743	1834.09
574.166	1814.69
574.589	1815.24
575.012	1807.7
575.435	1807.19
575.858	1797.91
576.281	1786.48
576.704	1771.01
577.126	1757.47
577.549	1746.58
577.972	1736.79
578.394	1727.2
578.817	1721.68
579.239	1703.15
579.661	1690.99
580.084	1675.76
580.506	1662.26
580.928	1659.1
581.35	1648.84
581.772	1646.46
582.194	1633.07
582.616	1620.33
583.038	1605.32
583.46	1595.03
583.882	1592.09
584.303	1596.28
584.725	1591.47
585.147	1595.4
585.568	1606.75
585.99	1618.91
586.411	1625.85
586.833	1641.7
587.254	1643.83
587.675	1658.85
588.096	1670.47
588.518	1666.4
588.939	1649.64
589.36	1647.63
589.781	1635.08
590.202	1606.3
590.623	1596.81
591.043	1593.48
591.464	1580.22
591.885	1576.57
592.305	1569.78
592.726	1555.73
593.147	1556.26
593.567	1550.98
593.987	1543.59
594.408	1537.45
594.828	1535.08
595.248	1530.03
595.669	1510.93
596.089	1502.76
596.509	1495.25
596.929	1482.11
597.349	1482.99
597.769	1472.13
598.189	1464.68
598.608	1465.29
599.028	1468.2
599.448	1468.07
599.867	1454.03
600.287	1448.8
600.706	1445.21
601.126	1435.43
601.545	1434.82
601.965	1432.61
602.384	1427.17
602.803	1430.32
603.222	1426.07
603.641	1418.91
604.061	1414.88
604.48	1410.56
604.898	1419.02
605.317	1424.33
605.736	1426.88
606.155	1423.12
606.574	1414.59
606.992	1420.54
607.411	1415.71
607.829	1406.11
608.248	1402.44
608.666	1400.62
609.085	1401.12
609.503	1392.58
609.921	1385.95
610.339	1387.97
610.758	1387.01
611.176	1380.83
611.594	1371.26
612.012	1366.66
612.43	1370.94
612.847	1376.83
613.265	1376.83
613.683	1380.39
614.101	1381.98
614.518	1377.8
614.936	1367.19
615.353	1352.39
615.771	1350.06
616.188	1350.08
616.606	1347.05
617.023	1339.45
617.44	1325.15
617.857	1317.05
618.274	1307.9
618.691	1301.47
619.108	1291.37
619.525	1285.45
619.942	1292.72
620.359	1295.66
620.776	1290
621.192	1285.87
621.609	1283.51
622.026	1291.05
622.442	1297.66
622.859	1300.66
623.275	1292.46
623.691	1297.88
624.108	1309.23
624.524	1321.98
624.94	1321.53
625.356	1331.71
625.772	1345.8
626.188	1356.72
626.604	1357.17
627.02	1353.21
627.436	1351.69
627.852	1359.4
628.268	1372.18
628.683	1362.03
629.099	1353.52
629.514	1347.13
629.93	1350.52
630.345	1353.62
630.761	1349.76
631.176	1353.69
631.591	1348.12
632.007	1342.29
632.422	1338.13
632.837	1325.61
633.252	1323.38
633.667	1311.96
634.082	1302.34
634.497	1287.82
634.911	1267.4
635.326	1261.75
635.741	1242.25
636.155	1229.66
636.57	1229.04
636.984	1227.94
637.399	1228.01
637.813	1224.48
638.228	1221.94
638.642	1224.67
639.056	1214.15
639.47	1212.6
639.884	1203.29
640.298	1194.32
640.712	1190.45
641.126	1174.76
641.54	1164.3
641.954	1156.56
642.368	1142.38
642.781	1133.58
643.195	1113.67
643.609	1110.86
644.022	1102.67
644.436	1095.61
644.849	1082
645.262	1067.59
645.676	1068.02
646.089	1060.1
646.502	1043.38
646.915	1037.38
647.328	1018.01
647.741	1013.85
648.154	999.43
648.567	996.58
648.98	982.76
649.393	981.58
649.805	978.11
650.218	969.19
650.631	954.14
651.043	947.42
651.456	940.73
651.868	940.92
652.28	956.88
652.693	968.79
653.105	972.33
653.517	981.23
653.929	981
654.341	985.29
654.753	971.7
655.165	976.35
655.577	972.19
655.989	966.35
656.401	956.77
656.813	922.28
657.224	902.87
657.636	874.55
658.047	856.07
658.459	837.03
658.87	825.9
659.282	814.15
659.693	793.52
660.104	779.22
660.515	764.01
660.926	759.98
661.338	754.29
661.749	745.26
662.159	734.87
662.57	728.63
662.981	721.98
663.392	714.67
663.803	716.11
664.213	712.1
664.624	706.05
665.035	708.4
665.445	695.28
665.855	688.4
666.266	681.46
666.676	678.05
667.086	669.02
667.497	667.19
667.907	660.69
668.317	651.22
668.727	648.83
669.137	647.76
669.547	643.5
669.956	644.92
670.366	645.32
670.776	645.26
671.186	648.19
671.595	650.24
672.005	651.42
672.414	650.65
672.824	650.27
673.233	652.77
673.642	655.11
674.052	658.9
674.461	660.81
674.87	665.01
675.279	663.95
675.688	663.4
676.097	666.11
676.506	665.01
676.915	678.18
677.323	680.68
677.732	679.15
678.141	679.42
678.549	669.88
678.958	670.56
679.366	671.04
679.775	674.79
680.183	688.13
680.592	694.06
681	700.69
681.408	696.14
681.816	704.58
682.224	714.98
682.632	726.93
683.04	756.51
683.448	782.18
683.856	813.4
684.264	850.82
684.671	883.56
685.079	924.47
685.487	969.49
685.894	1032.4
686.302	1086.74
686.709	1131.87
687.116	1186.16
687.524	1231.83
687.931	1270.93
688.338	1306.01
688.745	1336.7
689.152	1373.32
689.559	1420.12
689.966	1467.57
690.373	1489.76
690.78	1533.83
691.187	1598.89
691.593	1647.9
692	1691.58
692.407	1755.66
692.813	1834.94
693.22	1897.75
693.626	1959.21
694.032	2009.24
694.439	2086.43
694.845	2147.58
695.251	2223.51
695.657	2291.18
696.063	2392.14
696.469	2467.77
696.875	2538.39
697.281	2575.89
697.687	2621.84
