Data from C_3_DEC_NC_4N_Splice17_13-06-03-582.txt Node
Date: Sat Mar 14 13:06:03 EDT 2020
User: sa697716
Spectrometer: FLMS03696
Trigger mode: 0
Integration Time (sec): 3.180400E-1
Scans to average: 20
Electric dark correction enabled: true
Nonlinearity correction enabled: true
Boxcar width: 5
XAxis mode: Wavelengths
Number of Pixels in Spectrum: 2048
>>>>>Begin Spectral Data<<<<<
187.83	-345526.46
188.298	2580.71
188.766	1334.46
189.233	1147.1
189.701	1600.08
190.169	2047.3
190.636	761.3
191.104	599.47
191.571	46.41
192.039	-124.22
192.506	-169.52
192.974	226.73
193.441	-373.23
193.908	-25.02
194.375	-96.23
194.842	16.59
195.31	-8.96
195.777	146.56
196.244	367.55
196.711	420.63
197.177	546.52
197.644	766.85
198.111	1352.72
198.578	1940.59
199.045	1565.41
199.511	2575.62
199.978	2958.35
200.445	2516.56
200.911	2759.23
201.378	3080.95
201.844	2818.76
202.31	4813.57
202.777	5047.27
203.243	2811.8
203.709	2660.97
204.176	3190.31
204.642	2654.56
205.108	2491.19
205.574	2034.31
206.04	1863.57
206.506	1738.37
206.972	1641.11
207.438	1574.52
207.903	1794.82
208.369	1581.3
208.835	1596.55
209.301	1661.07
209.766	1694.21
210.232	1666.93
210.697	2057.39
211.163	2521.61
211.628	3783.78
212.094	3148.89
212.559	3898.54
213.024	2396.92
213.49	2900.42
213.955	2792.65
214.42	2713.04
214.885	2513.71
215.35	2404.47
215.815	2333.2
216.28	2474.68
216.745	2016.32
217.21	2190.01
217.675	1980.94
218.14	2236.51
218.604	2479.83
219.069	2835.87
219.534	2987.02
219.998	3460.38
220.463	4207.1
220.927	5153.85
221.392	4850.87
221.856	4928.19
222.32	6177.52
222.785	7656.73
223.249	9623.41
223.713	10760.29
224.177	10735.03
224.642	13715.26
225.106	16867.75
225.57	18373.66
226.034	13671.7
226.497	20787.67
226.961	18797.59
227.425	21925.86
227.889	24277.64
228.353	24246.97
228.816	50032.65
229.28	47913
229.744	40426.85
230.207	24545.36
230.671	24128.95
231.134	39860.41
231.597	45994.31
232.061	45841.21
232.524	44669.8
232.987	30724.33
233.45	27655.03
233.914	24787.45
234.377	25361.15
234.84	23198.03
235.303	27354.49
235.766	30562.13
236.229	31546.6
236.691	19855.66
237.154	22318.74
237.617	16771.95
238.08	17207.01
238.542	20143.51
239.005	14408.77
239.468	14290.92
239.93	13461.59
240.393	12240.43
240.855	10731.67
241.317	10999.23
241.78	13369.81
242.242	13810.34
242.704	14925.95
243.166	12975.67
243.629	11799.48
244.091	13572.49
244.553	14889.7
245.015	16025.64
245.477	20752.19
245.939	30420.95
246.4	32314.47
246.862	31418.28
247.324	29669.53
247.786	33241.16
248.247	43668.96
248.709	45055.14
249.17	33741.11
249.632	31796.29
250.093	36863.08
250.555	31859.33
251.016	19457.66
251.477	18461.73
251.939	19955.98
252.4	20932.82
252.861	24876.81
253.322	23149.73
253.783	27544.57
254.244	35742.01
254.705	28227.91
255.166	25122.24
255.627	24747.44
256.088	34981.42
256.549	37121.85
257.009	31988.28
257.47	38817.33
257.931	31588.25
258.391	23641.58
258.852	24392.89
259.312	25576.83
259.773	31579.32
260.233	26718.03
260.694	22530.6
261.154	25524.43
261.614	20511.08
262.074	18327.22
262.534	19049.61
262.994	17966.12
263.455	23965.65
263.915	20191.61
264.374	19010.95
264.834	20763.12
265.294	22992.11
265.754	23814.16
266.214	22539.26
266.673	21117.57
267.133	26654.61
267.593	26421.01
268.052	32326.27
268.512	28110.22
268.971	33928.29
269.431	37225
269.89	33333.98
270.349	49992.93
270.809	55720.67
271.268	50087
271.727	112287.81
272.186	72694.96
272.645	54524.92
273.104	39332.15
273.563	56887.6
274.022	44695.97
274.481	37999.59
274.94	29268.46
275.399	21748.65
275.857	25314.83
276.316	34221.73
276.775	30460.14
277.233	30007.09
277.692	28095.41
278.15	31790.44
278.609	32720.96
279.067	30257.23
279.525	28118.11
279.984	36282.99
280.442	43555.51
280.9	42948.4
281.358	28277.44
281.816	26362.41
282.274	25783.96
282.732	26659.54
283.19	26793.63
283.648	23133.78
284.106	24663.68
284.564	25102.01
285.021	23276.73
285.479	17339.27
285.937	15760.07
286.394	13826.37
286.852	14215.32
287.309	14958.75
287.767	14446.05
288.224	13735.65
288.682	15079.36
289.139	16540.07
289.596	15121.52
290.053	15734.98
290.511	19866.6
290.968	24117.39
291.425	32748.01
291.882	27261.5
292.339	23698.09
292.796	23517.05
293.252	22165.12
293.709	17593.04
294.166	15769.94
294.623	17418.13
295.079	16676.24
295.536	16761.5
295.992	15214.34
296.449	15015.18
296.905	15576.36
297.362	14933.78
297.818	15689.82
298.274	16277.5
298.731	16568.19
299.187	16380.28
299.643	17604.77
300.099	21322.08
300.555	23340.96
301.011	19496.94
301.467	18819.76
301.923	22060.89
302.379	21538.34
302.835	21172.09
303.291	21190.17
303.746	24126.78
304.202	30521.84
304.658	30610.29
305.113	20566.51
305.569	20195.9
306.024	21510.68
306.479	20451.69
306.935	17235.62
307.39	18848.01
307.845	17400.69
308.301	17509.68
308.756	17058.04
309.211	16423.08
309.666	16828.03
310.121	20909.27
310.576	21177.64
311.031	21008.77
311.486	24061.24
311.94	24031.58
312.395	32101.37
312.85	60321.12
313.305	295684.43
313.759	1530934.29
314.214	110834.61
314.668	87895.33
315.123	73930.81
315.577	26535.62
316.032	23630.78
316.486	29603.28
316.94	23392.66
317.394	16306.38
317.849	12664.65
318.303	12016.14
318.757	11349.52
319.211	12543.97
319.665	10962.27
320.119	11085.32
320.572	15885.79
321.026	14842.71
321.48	12351.6
321.934	13443.59
322.387	13474.75
322.841	14549.9
323.295	13085.46
323.748	15061.72
324.202	15298.01
324.655	18384.51
325.108	25714.52
325.562	18188.01
326.015	21618.08
326.468	16334.12
326.921	18270.06
327.374	17023.63
327.827	17747.17
328.28	20070.19
328.733	13462.83
329.186	11823.93
329.639	11268.54
330.092	9508.53
330.545	9049.79
330.997	9120.05
331.45	9980.65
331.903	11708.41
332.355	20126.95
332.808	19533.81
333.26	16112.51
333.713	17469.53
334.165	17596.67
334.617	23520.4
335.069	18920.23
335.522	34253.19
335.974	37979.34
336.426	34716.5
336.878	23988.49
337.33	12190.25
337.782	11906.73
338.234	14925.96
338.686	17845.76
339.137	21177.53
339.589	19931.15
340.041	15668.42
340.493	13446.06
340.944	13749.8
341.396	14816.88
341.847	12506.93
342.299	14751.18
342.75	18051.66
343.201	15766.84
343.653	18164.64
344.104	22361.72
344.555	17600.74
345.006	27367.85
345.457	21051.38
345.908	16754.58
346.359	15769.07
346.81	12837.05
347.261	13538.13
347.712	13317.59
348.163	14289.74
348.613	14478.66
349.064	13497.31
349.515	11803.1
349.965	12123.66
350.416	14563.52
350.866	15989.5
351.317	18057.09
351.767	29910.52
352.217	37863.37
352.668	31428.69
353.118	28760.47
353.568	27692.18
354.018	21883.84
354.468	23146.98
354.918	16628.32
355.368	14543.7
355.818	20530.04
356.268	59073.5
356.718	247719.98
357.168	61488.02
357.617	30877.38
358.067	34388.9
358.517	32199.25
358.966	37834.95
359.416	42465.32
359.865	45873.99
360.315	54660.36
360.764	25544.39
361.213	14324.81
361.663	13545.88
362.112	16762.42
362.561	27077.23
363.01	20456.4
363.459	17270.71
363.908	18689.23
364.357	15868.71
364.806	26741.51
365.255	18345.61
365.703	16801.32
366.152	16854.11
366.601	13675
367.05	11105.83
367.498	10075.41
367.947	10523.23
368.395	10916.23
368.844	9662.59
369.292	11624.42
369.74	8051.36
370.189	12341.56
370.637	14466.01
371.085	12448.49
371.533	15105.14
371.981	14496.11
372.429	13820.89
372.877	14380.7
373.325	12027.55
373.773	12256.08
374.221	10919.49
374.669	13524.09
375.116	11683.88
375.564	11755.27
376.012	13136.36
376.459	10863.91
376.907	12980.49
377.354	15729.08
377.801	14669.99
378.249	16902.4
378.696	21547.06
379.143	26082.12
379.591	27813.7
380.038	47073.87
380.485	33962.89
380.932	36716.92
381.379	33581.45
381.826	24758.55
382.273	17565.35
382.72	15326.88
383.166	14882.01
383.613	9660.47
384.06	8705.79
384.506	10057.06
384.953	7374.42
385.4	7449.22
385.846	6509.66
386.292	6328.57
386.739	6174.97
387.185	6095.81
387.631	6103.16
388.078	5935.32
388.524	6349.12
388.97	5872.41
389.416	4880.74
389.862	5187.88
390.308	4902.39
390.754	4978.21
391.2	5400.14
391.645	5526.02
392.091	5289.67
392.537	5101.14
392.983	5100.7
393.428	5018.41
393.874	5366.41
394.319	5407.13
394.765	5125.86
395.21	5269.06
395.655	4932.54
396.101	4618.84
396.546	4175.98
396.991	4202.66
397.436	3906.22
397.881	3773.54
398.326	3560.84
398.771	3368.76
399.216	2937.94
399.661	2646.19
400.106	2637.52
400.551	2703.26
400.995	2426.98
401.44	2399.56
401.885	2256.83
402.329	2281.34
402.774	2189.35
403.218	2127.49
403.663	2047.7
404.107	2107.34
404.551	2122.75
404.995	1943.01
405.44	1869.52
405.884	1893.32
406.328	1824.37
406.772	1816.72
407.216	1651.53
407.66	1592.41
408.104	1506.16
408.547	1406.66
408.991	1358.59
409.435	1305
409.879	1288.06
410.322	1268.98
410.766	1225.71
411.209	1166.79
411.653	1122.39
412.096	1100.85
412.54	1100.29
412.983	1093.45
413.426	1098.58
413.869	1097.18
414.312	1077.2
414.756	1035.64
415.199	989.97
415.642	960.64
416.085	964.04
416.527	955.28
416.97	969.16
417.413	919.15
417.856	908.13
418.298	897.84
418.741	890.79
419.184	888.45
419.626	925.03
420.069	923.86
420.511	930.98
420.953	911.39
421.396	902.45
421.838	878.52
422.28	898.33
422.722	906.73
423.164	918.75
423.606	904.48
424.048	903.11
424.49	858.92
424.932	855.27
425.374	841.79
425.816	855.59
426.258	874.72
426.699	884.99
427.141	873.64
427.582	883.9
428.024	878.92
428.465	872.66
428.907	851.61
429.348	841.82
429.789	842.62
430.231	826.5
430.672	836.43
431.113	813.27
431.554	801.47
431.995	779.95
432.436	753.99
432.877	738.53
433.318	729.67
433.759	723.99
434.2	723.71
434.64	717.2
435.081	718.75
435.522	682.01
435.962	658.25
436.403	644.97
436.843	655.18
437.284	642.65
437.724	624.56
438.164	622.78
438.604	610.36
439.045	587.19
439.485	565.06
439.925	553.16
440.365	540.15
440.805	532.4
441.245	527.34
441.685	508.28
442.125	502.33
442.564	504.77
443.004	495.03
443.444	493.05
443.883	494.57
444.323	488.37
444.762	488.32
445.202	494.44
445.641	506.12
446.081	500.92
446.52	505.23
446.959	500.2
447.398	489.46
447.837	483.89
448.276	476.36
448.716	481.59
449.154	485.21
449.593	474.87
450.032	474.22
450.471	463.14
450.91	463.18
451.349	461.96
451.787	461.06
452.226	467.73
452.664	466.88
453.103	468.05
453.541	466.56
453.98	466.88
454.418	470
454.856	463.01
455.295	462.53
455.733	466.49
456.171	467.4
456.609	466.33
457.047	467.11
457.485	475.08
457.923	476.12
458.361	469.83
458.798	469.77
459.236	468.37
459.674	470.02
460.111	471.15
460.549	467.07
460.987	466.71
461.424	466.03
461.862	464.03
462.299	456.17
462.736	456.2
463.173	457.75
463.611	454.82
464.048	453.45
464.485	458.66
464.922	456.05
465.359	452.66
465.796	450.29
466.233	447.64
466.67	444.2
467.106	442.93
467.543	437.91
467.98	433.2
468.416	422.02
468.853	418.64
469.29	405.86
469.726	401.4
470.162	392.87
470.599	385.52
471.035	382.13
471.471	373
471.907	371.21
472.344	369.64
472.78	370.42
473.216	374.98
473.652	371.3
474.088	369.68
474.523	369.07
474.959	372.27
475.395	368.19
475.831	366.16
476.266	367.58
476.702	366.85
477.138	362.56
477.573	361.64
478.008	359.7
478.444	361.73
478.879	366.22
479.314	368.1
479.75	367.91
480.185	369.91
480.62	372.82
481.055	374.77
481.49	377.98
481.925	383.56
482.36	390.16
482.795	401.28
483.229	411.6
483.664	419.61
484.099	420.83
484.534	426.56
484.968	431.76
485.403	432.82
485.837	432
486.271	430.35
486.706	430.65
487.14	425.53
487.574	418.31
488.009	414.64
488.443	411.46
488.877	416.51
489.311	418.04
489.745	422.56
490.179	427.45
490.613	437.08
491.046	441.75
491.48	445.52
491.914	446.68
492.348	451.32
492.781	455.04
493.215	456.25
493.648	458.34
494.082	463.56
494.515	464.85
494.948	471.36
495.382	475.17
495.815	479
496.248	484.18
496.681	494.94
497.114	504.34
497.547	513
497.98	524.42
498.413	530.64
498.846	538.72
499.279	546.82
499.711	551.59
500.144	555.07
500.577	566.29
501.009	576.95
501.442	586.32
501.874	590.47
502.306	595.12
502.739	605.37
503.171	618.85
503.603	625.09
504.036	636.12
504.468	644.47
504.9	656.73
505.332	664.91
505.764	672.51
506.196	681.88
506.627	696.62
507.059	711.04
507.491	720.44
507.923	723.11
508.354	738.45
508.786	751.26
509.217	769.42
509.649	786.17
510.08	805.35
510.512	822.56
510.943	839.38
511.374	853.45
511.805	874.03
512.237	894.21
512.668	925.27
513.099	951.06
513.53	977.6
513.961	999.42
514.391	1029.83
514.822	1062.41
515.253	1097.3
515.684	1122.81
516.114	1152.88
516.545	1176.5
516.975	1202.43
517.406	1222.16
517.836	1231.02
518.267	1241.39
518.697	1261.85
519.127	1269.59
519.558	1279.14
519.988	1286.12
520.418	1297.94
520.848	1316.28
521.278	1325.78
521.708	1355.63
522.138	1369.43
522.567	1399.95
522.997	1424.92
523.427	1440.74
523.857	1459.71
524.286	1471.44
524.716	1487.58
525.145	1507.94
525.575	1520.64
526.004	1537.07
526.433	1523.64
526.863	1526.12
527.292	1519.01
527.721	1526.06
528.15	1533.78
528.579	1535.37
529.008	1547.86
529.437	1570.09
529.866	1584.97
530.295	1601.85
530.724	1614
531.152	1640.53
531.581	1655.34
532.01	1672.54
532.438	1681.51
532.867	1695.27
533.295	1713.6
533.723	1719.49
534.152	1717.81
534.58	1717.3
535.008	1702.75
535.436	1704.88
535.865	1711.82
536.293	1725.42
536.721	1739.57
537.149	1763.22
537.576	1766.17
538.004	1777.45
538.432	1784.86
538.86	1785
539.287	1792.14
539.715	1805.09
540.143	1807.63
540.57	1803.66
540.998	1799.86
541.425	1778.42
541.852	1758.9
542.28	1756.27
542.707	1740.86
543.134	1727.71
543.561	1722.53
543.988	1714.69
544.415	1713.65
544.842	1708.78
545.269	1703.2
545.696	1705.86
546.123	1719.72
546.549	1709.66
546.976	1699.1
547.403	1699.33
547.829	1700.74
548.256	1703.3
548.682	1700.66
549.108	1694.86
549.535	1695.95
549.961	1697.76
550.387	1685.89
550.813	1679.9
551.24	1686.48
551.666	1687.92
552.092	1679.2
552.518	1674.36
552.943	1668.99
553.369	1675.36
553.795	1680.47
554.221	1680.26
554.646	1677.77
555.072	1687.55
555.498	1692.71
555.923	1701.22
556.349	1715.16
556.774	1723.28
557.199	1723.6
557.625	1729.37
558.05	1724.85
558.475	1733.68
558.9	1732.73
559.325	1725.22
559.75	1718.15
560.175	1710.32
560.6	1703.1
561.025	1698.78
561.449	1697.55
561.874	1702.68
562.299	1704.81
562.723	1708.77
563.148	1698.05
563.572	1700.19
563.997	1707.38
564.421	1710.98
564.846	1710.38
565.27	1712.69
565.694	1709.87
566.118	1719.37
566.542	1723.72
566.966	1716.2
567.39	1710.8
567.814	1698.77
568.238	1695.98
568.662	1698.93
569.086	1698.37
569.509	1702.44
569.933	1686.56
570.357	1677.61
570.78	1655.19
571.204	1641.49
571.627	1628.47
572.05	1624.54
572.474	1621.57
572.897	1608.38
573.32	1598.68
573.743	1587.82
574.166	1569.53
574.589	1566.79
575.012	1558.21
575.435	1556.19
575.858	1545.76
576.281	1535.96
576.704	1520.69
577.126	1509.72
577.549	1498.31
577.972	1488.79
578.394	1478.6
578.817	1470.86
579.239	1452.56
579.661	1439.11
580.084	1425.13
580.506	1412.63
580.928	1406.93
581.35	1395.66
581.772	1391.09
582.194	1378.1
582.616	1365.13
583.038	1352.57
583.46	1343.17
583.882	1340.39
584.303	1342.51
584.725	1337.17
585.147	1340.16
585.568	1348.99
585.99	1359.63
586.411	1363.55
586.833	1375.45
587.254	1376.19
587.675	1386.15
588.096	1395.21
588.518	1388.85
588.939	1373.91
589.36	1370.51
589.781	1357.63
590.202	1332.31
590.623	1322.99
591.043	1319.19
591.464	1306.82
591.885	1301.78
592.305	1295.25
592.726	1283.56
593.147	1284.37
593.567	1277.66
593.987	1270.68
594.408	1264.82
594.828	1261.32
595.248	1256.28
595.669	1240.83
596.089	1234.52
596.509	1228.43
596.929	1217.21
597.349	1216.59
597.769	1207.49
598.189	1203.11
598.608	1203.84
599.028	1205.77
599.448	1205.78
599.867	1192.95
600.287	1187.71
600.706	1183.79
601.126	1174.79
601.545	1173.27
601.965	1171.54
602.384	1165.21
602.803	1165.73
603.222	1161.37
603.641	1154.34
604.061	1149.74
604.48	1146.34
604.898	1152.95
605.317	1156.34
605.736	1157.54
606.155	1154.43
606.574	1145.3
606.992	1149.08
607.411	1145.17
607.829	1136.29
608.248	1132.79
608.666	1130.37
609.085	1128.35
609.503	1120.38
609.921	1113.51
610.339	1114.46
610.758	1112.15
611.176	1107.12
611.594	1099.56
612.012	1095.73
612.43	1098.73
612.847	1102.88
613.265	1103.23
613.683	1106.74
614.101	1107.16
614.518	1103.74
614.936	1094.7
615.353	1082.53
615.771	1079.62
616.188	1079.14
616.606	1075.29
617.023	1068.25
617.44	1055.93
617.857	1046.83
618.274	1037.65
618.691	1030.54
619.108	1020.75
619.525	1014.43
619.942	1018.29
620.359	1020.1
620.776	1014.3
621.192	1010.4
621.609	1008.54
622.026	1013.7
622.442	1019.73
622.859	1022.22
623.275	1016.51
623.691	1021.84
624.108	1030.92
624.524	1042.1
624.94	1040.77
625.356	1049.17
625.772	1059.18
626.188	1067.35
626.604	1068.98
627.02	1065.36
627.436	1063.57
627.852	1068.59
628.268	1078
628.683	1070.49
629.099	1062.75
629.514	1058.83
629.93	1060.65
630.345	1063.44
630.761	1058.42
631.176	1059.06
631.591	1053.21
632.007	1047.39
632.422	1045.12
632.837	1034.39
633.252	1030.95
633.667	1021.38
634.082	1012.35
634.497	1000.62
634.911	983.33
635.326	977.72
635.741	962.02
636.155	951.09
636.57	949.52
636.984	946.34
637.399	944.48
637.813	939.38
638.228	934.69
638.642	933.8
639.056	921.55
639.47	917.85
639.884	908.31
640.298	898.95
640.712	894.17
641.126	880.29
641.54	868.42
641.954	859.97
642.368	847.92
642.781	839.33
643.195	822.2
643.609	819.54
644.022	811.49
644.436	805.14
644.849	793.53
645.262	782
645.676	779.73
646.089	773.68
646.502	760.68
646.915	754.45
647.328	739.54
647.741	736.55
648.154	725.17
648.567	721.97
648.98	711.73
649.393	711.18
649.805	707.95
650.218	701.72
650.631	691.01
651.043	685.7
651.456	681.02
651.868	680.34
652.28	692.03
652.693	701.36
653.105	704.39
653.517	711.06
653.929	710.7
654.341	714.21
654.753	705.86
655.165	709.13
655.577	706.72
655.989	702.66
656.401	696.18
656.813	671.29
657.224	656.65
657.636	636.51
658.047	622.83
658.459	608.3
658.87	600.75
659.282	591.9
659.693	577.13
660.104	566.95
660.515	556.39
660.926	554.31
661.338	550.6
661.749	543.92
662.159	536.54
662.57	532.45
662.981	528.69
663.392	522.96
663.803	524.19
664.213	521.05
664.624	517.26
665.035	518.59
665.445	509.43
665.855	504.48
666.266	500.57
666.676	498.91
667.086	492.85
667.497	491.99
667.907	488.01
668.317	482.24
668.727	481.96
669.137	482.53
669.547	481.3
669.956	482.44
670.366	483.87
670.776	484.87
671.186	488.04
671.595	490.62
672.005	493.18
672.414	494
672.824	494.18
673.233	496.14
673.642	498.45
674.052	501.7
674.461	504.73
674.87	509.08
675.279	509.71
675.688	510.57
676.097	514.17
676.506	513.3
676.915	522.84
677.323	526.28
677.732	528.21
678.141	530.06
678.549	525.27
678.958	526.24
679.366	527.03
679.775	531.01
680.183	541.85
680.592	547.18
681	554.43
681.408	552.7
681.816	559.42
682.224	566.55
682.632	576.44
683.04	599.31
683.448	620.27
683.856	645.88
684.264	675.82
684.671	701.56
685.079	734.59
685.487	770.16
685.894	820.8
686.302	864.17
686.709	901.67
687.116	944.67
687.524	983.79
687.931	1018.57
688.338	1049.7
688.745	1076.23
689.152	1107.17
689.559	1148.41
689.966	1192.22
690.373	1217.2
690.78	1258.8
691.187	1317.14
691.593	1364.5
692	1404.53
692.407	1463.19
692.813	1533.9
693.22	1592.74
693.626	1655.54
694.032	1706.04
694.439	1777.01
694.845	1836.04
695.251	1908.75
695.657	1976.41
696.063	2073.13
696.469	2149.23
696.875	2218.21
697.281	2262.22
697.687	2313.99
698.093	2356.89
698.498	2433.75
698.904	2496.39
699.31	2586.64
699.715	2652.99
