Data from C_3_DEC_ON_6N_Splice17_13-36-26-502.txt Node
Date: Sat Mar 14 13:36:26 EDT 2020
User: sa697716
Spectrometer: FLMS03696
Trigger mode: 0
Integration Time (sec): 3.180400E-1
Scans to average: 20
Electric dark correction enabled: true
Nonlinearity correction enabled: true
Boxcar width: 5
XAxis mode: Wavelengths
Number of Pixels in Spectrum: 2048
>>>>>Begin Spectral Data<<<<<
187.83	-491808.3
188.298	3520.69
188.766	1792.9
189.233	1605.37
189.701	2306.62
190.169	3155.88
190.636	1159.9
191.104	827.25
191.571	114.97
192.039	-127.86
192.506	-221.77
192.974	328.5
193.441	-501.78
193.908	-84.24
194.375	-54.34
194.842	-8.12
195.31	86.1
195.777	194.63
196.244	381.97
196.711	432.53
197.177	503.44
197.644	694.13
198.111	1197.01
198.578	1664.65
199.045	1348.43
199.511	2201.55
199.978	2545.52
200.445	2198.39
200.911	2381.13
201.378	2626.92
201.844	2379.66
202.31	4078.77
202.777	4218.25
203.243	2365.07
203.709	2261.09
204.176	2706.32
204.642	2245
205.108	2116.16
205.574	1709.3
206.04	1553.34
206.506	1465.78
206.972	1384.39
207.438	1340.31
207.903	1521.44
208.369	1333.08
208.835	1335.8
209.301	1393.14
209.766	1405.61
210.232	1407.98
210.697	1725.52
211.163	2102.78
211.628	3179.41
212.094	2674.23
212.559	3321.73
213.024	2093.82
213.49	2578.2
213.955	2506.69
214.42	2429.7
214.885	2277.09
215.35	2181.51
215.815	2156.04
216.28	2311.45
216.745	1882.08
217.21	2027.81
217.675	1827.6
218.14	2036.45
218.604	2243.96
219.069	2545.47
219.534	2676.3
219.998	3083.83
220.463	3709.51
220.927	4478.27
221.392	4212.1
221.856	4255.78
222.32	5335.07
222.785	6607.52
223.249	8302.95
223.713	9259.1
224.177	9251.31
224.642	11823.14
225.106	14530.61
225.57	15906.49
226.034	11881.97
226.497	18042.87
226.961	16342.05
227.425	19054.43
227.889	21172.91
228.353	21193.44
228.816	43856.55
229.28	42071.26
229.744	35597.65
230.207	21759.29
230.671	21402.63
231.134	35388.21
231.597	41031.71
232.061	41000.26
232.524	40089.42
232.987	27634.69
233.45	24931.03
233.914	22367.54
234.377	22959.13
234.84	21028.54
235.303	24778.77
235.766	27756.72
236.229	28705.64
236.691	18046.36
237.154	20311.33
237.617	15335.88
238.08	15715.73
238.542	18416.71
239.005	13207.18
239.468	13141.3
239.93	12406.25
240.393	11292.2
240.855	9929.08
241.317	10196.14
241.78	12437.97
242.242	12873.76
242.704	13935.93
243.166	12161.33
243.629	11089.52
244.091	12799.31
244.553	14017.73
245.015	15090.36
245.477	19555.76
245.939	28660.07
246.4	30440.23
246.862	29647.84
247.324	27987.45
247.786	31287.32
248.247	41045.03
248.709	42336.54
249.17	31681.52
249.632	29928.03
250.093	34742.61
250.555	29988.88
251.016	18305.49
251.477	17374.58
251.939	18738.3
252.4	19647.64
252.861	23326.21
253.322	21706.21
253.783	25819.58
254.244	33433.8
254.705	26327.12
255.166	23369.11
255.627	23032.79
256.088	32475.54
256.549	34457.81
257.009	29641.31
257.47	36007.65
257.931	29366.35
258.391	21998.82
258.852	22650.65
259.312	23762.88
259.773	29353.88
260.233	24817.17
260.694	20933.27
261.154	23722.81
261.614	19070.63
262.074	17041.31
262.534	17692.87
262.994	16663.94
263.455	22189.46
263.915	18691.9
264.374	17586.21
264.834	19170.16
265.294	21215.71
265.754	21960.95
266.214	20787.76
266.673	19455.27
267.133	24551.07
267.593	24308.25
268.052	29714.47
268.512	25768.64
268.971	31109.92
269.431	34080.87
269.89	30530.02
270.349	45793.63
270.809	51014.14
271.268	45776.11
271.727	102506.73
272.186	66359.62
272.645	49789.32
273.104	35863.05
273.563	51938.17
274.022	40731.75
274.481	34683.65
274.94	26691.66
275.399	19806.09
275.857	23013.93
276.316	31128.55
276.775	27667.41
277.233	27239.54
277.692	25503.27
278.15	28859.48
278.609	29724.47
279.067	27528.51
279.525	25568.46
279.984	33011.12
280.442	39669.6
280.9	39232.9
281.358	25848.29
281.816	24122.48
282.274	23589.13
282.732	24350.03
283.19	24466.47
283.648	21088.94
284.106	22474.08
284.564	22848.53
285.021	21210.74
285.479	15802.72
285.937	14352.41
286.394	12609.25
286.852	12977.97
287.309	13666.95
287.767	13240.4
288.224	12618.56
288.682	13865.88
289.139	15221.9
289.596	13936.68
290.053	14499.45
290.511	18297.99
290.968	22211.55
291.425	30063.25
291.882	25086.95
292.339	21840.35
292.796	21631.51
293.252	20368.1
293.709	16220.36
294.166	14534.57
294.623	16067.74
295.079	15397.04
295.536	15518.68
295.992	14096.93
296.449	13965.07
296.905	14509.92
297.362	13943.2
297.818	14690.68
298.274	15262.75
298.731	15528.36
299.187	15383.3
299.643	16514.31
300.099	20020.08
300.555	21928.47
301.011	18336.37
301.467	17734.81
301.923	20733.06
302.379	20262.37
302.835	19898.61
303.291	19948.22
303.746	22752.88
304.202	28801.21
304.658	28946.96
305.113	19463.79
305.569	19106.05
306.024	20359.28
306.479	19356.51
306.935	16349.26
307.39	17836.38
307.845	16495.44
308.301	16597.34
308.756	16159.66
309.211	15576.17
309.666	15968.9
310.121	19890.52
310.576	20205.68
311.031	20078.65
311.486	22956.13
311.94	22996.54
312.395	30764.49
312.85	57898.97
313.305	284595.11
313.759	1478024.75
314.214	107109.71
314.668	84941.83
315.123	71438.57
315.577	25657.87
316.032	22823.23
316.486	28608.16
316.94	22543.53
317.394	15730.46
317.849	12232.45
318.303	11582.01
318.757	10941.01
319.211	12118.19
319.665	10633.55
320.119	10765.99
320.572	15454.7
321.026	14478.69
321.48	12089.89
321.934	13189.6
322.387	13191.44
322.841	14251.31
323.295	12854.91
323.748	14764.66
324.202	14974.8
324.655	17984.44
325.108	25155.39
325.562	17754.08
326.015	21094.56
326.468	15970.64
326.921	17895.99
327.374	16745.56
327.827	17467.45
328.28	19769.84
328.733	13276.25
329.186	11689.38
329.639	11149.65
330.092	9410.27
330.545	8974.6
330.997	9065.95
331.45	9916.27
331.903	11641.81
332.355	20005.63
332.808	19404.95
333.26	16011.23
333.713	17432.67
334.165	17546.56
334.617	23442.92
335.069	18880.78
335.522	34077.04
335.974	37701.95
336.426	34410.82
336.878	23776.54
337.33	12106.27
337.782	11849.57
338.234	14856.24
338.686	17760.36
339.137	21112.28
339.589	19885.86
340.041	15635.08
340.493	13455.17
340.944	13793.31
341.396	14847.45
341.847	12517.31
342.299	14781.99
342.75	18065.68
343.201	15757.64
343.653	18120.92
344.104	22234.41
344.555	17506.63
345.006	27237.67
345.457	20969.67
345.908	16658.47
346.359	15733.78
346.81	12803.39
347.261	13484.77
347.712	13288.9
348.163	14285.45
348.613	14521.06
349.064	13578.7
349.515	11912.94
349.965	12242.62
350.416	14705.33
350.866	16174.16
351.317	18279.54
351.767	30329.38
352.217	38397.61
352.668	31854.1
353.118	29238.71
353.568	28168.77
354.018	22297.82
354.468	23539.44
354.918	16929.16
355.368	14827.78
355.818	20954.56
356.268	60327.93
356.718	253113.87
357.168	63023.48
357.617	31679.19
358.067	35189.68
358.517	32987.1
358.966	38707.85
359.416	43484.37
359.865	46946.31
360.315	55937.53
360.764	26159.17
361.213	14678.67
361.663	13903.6
362.112	17172.44
362.561	27781.03
363.01	21013.41
363.459	17669.66
363.908	19143.58
364.357	16318.62
364.806	27555.33
365.255	18964.45
365.703	17406.09
366.152	17461.56
366.601	14157.39
367.05	11517.07
367.498	10502.15
367.947	10972.02
368.395	11431.97
368.844	10138.72
369.292	12180.47
369.74	8443.28
370.189	12940.86
370.637	15174.56
371.085	13077.38
371.533	15944.78
371.981	15354.95
372.429	14620.06
372.877	15216.46
373.325	12716.24
373.773	12947.04
374.221	11516.07
374.669	14272.72
375.116	12319.23
375.564	12396.03
376.012	13849.88
376.459	11420.45
376.907	13647.08
377.354	16495.39
377.801	15401.08
378.249	17724.48
378.696	22617.98
379.143	27369.5
379.591	29148.07
380.038	49387.14
380.485	35821.37
380.932	38677.59
381.379	35464.95
381.826	26149.83
382.273	18567.87
382.72	16210.13
383.166	15816.06
383.613	10275.67
384.06	9268.22
384.506	10728.99
384.953	7870.91
385.4	7892.48
385.846	6902
386.292	6690.09
386.739	6518.71
387.185	6430.05
387.631	6425.89
388.078	6244.44
388.524	6669.45
388.97	6166.48
389.416	5142.82
389.862	5470.25
390.308	5189.49
390.754	5275.82
391.2	5738.35
391.645	5874.37
392.091	5644.43
392.537	5453.11
392.983	5441.81
393.428	5372.49
393.874	5749.31
394.319	5783.25
394.765	5500.45
395.21	5645.72
395.655	5294.72
396.101	4962.01
396.546	4493.11
396.991	4526.29
397.436	4211.2
397.881	4088.04
398.326	3861.56
398.771	3662.54
399.216	3198.43
399.661	2880.63
400.106	2879.22
400.551	2958.8
400.995	2657.51
401.44	2634.62
401.885	2473.95
402.329	2507.72
402.774	2404.94
403.218	2343.42
403.663	2261.98
404.107	2333.5
404.551	2354.63
404.995	2160.23
405.44	2081.87
405.884	2118.46
406.328	2047.56
406.772	2048.14
407.216	1872.08
407.66	1811.5
408.104	1715.17
408.547	1607.73
408.991	1553.21
409.435	1496.66
409.879	1479.25
410.322	1464.21
410.766	1417.82
411.209	1352.88
411.653	1304
412.096	1279.36
412.54	1282.36
412.983	1278.13
413.426	1288.74
413.869	1292.38
414.312	1274.29
414.756	1229.46
415.199	1174.18
415.642	1142.72
416.085	1147.15
416.527	1139.76
416.97	1158.84
417.413	1101.76
417.856	1092.54
418.298	1079.45
418.741	1072.01
419.184	1068.25
419.626	1114.8
420.069	1114.84
420.511	1122.54
420.953	1097.84
421.396	1087.36
421.838	1057.25
422.28	1083.65
422.722	1090.08
423.164	1107.55
423.606	1092.66
424.048	1089.41
424.49	1038.05
424.932	1032.78
425.374	1014.31
425.816	1032.79
426.258	1054.78
426.699	1068.84
427.141	1054.47
427.582	1070.06
428.024	1064.7
428.465	1056.15
428.907	1031.02
429.348	1017.93
429.789	1022.89
430.231	1005.42
430.672	1022.69
431.113	998.27
431.554	985.64
431.995	958.47
432.436	925.67
432.877	904.89
433.318	891.55
433.759	889.21
434.2	889.27
434.64	877.34
435.081	879.58
435.522	830.37
435.962	801.84
436.403	784.75
436.843	796.8
437.284	780.71
437.724	758.73
438.164	759.78
438.604	744.36
439.045	714.68
439.485	687.11
439.925	674.17
440.365	657.78
440.805	646.81
441.245	640.39
441.685	617.37
442.125	612.59
442.564	617.38
443.004	604.04
443.444	603.23
443.883	608.27
444.323	602.75
444.762	602.92
445.202	612.03
445.641	627.29
446.081	622.9
446.52	627.84
446.959	623.69
447.398	611.26
447.837	606.61
448.276	597.07
448.716	603.42
449.154	608.81
449.593	594.68
450.032	593.82
450.471	581.13
450.91	581.25
451.349	581.68
451.787	578.88
452.226	587.45
452.664	586.37
453.103	587.26
453.541	584.98
453.98	587.32
454.418	593.14
454.856	586.02
455.295	584.94
455.733	592.8
456.171	595.25
456.609	594.28
457.047	593.83
457.485	604.47
457.923	605.8
458.361	596.81
458.798	598.04
459.236	594.24
459.674	596.38
460.111	598.98
460.549	592
460.987	589.23
461.424	587.23
461.862	584.05
462.299	573.02
462.736	572.73
463.173	575.32
463.611	570.36
464.048	570.61
464.485	574.61
464.922	569.32
465.359	564.14
465.796	561.92
466.233	558.79
466.67	554.16
467.106	553.82
467.543	547.08
467.98	539.64
468.416	524.37
468.853	520.18
469.29	504.74
469.726	498.94
470.162	486.2
470.599	476.58
471.035	472.29
471.471	461.5
471.907	458.07
472.344	455.73
472.78	458.15
473.216	463.27
473.652	457.7
474.088	456.63
474.523	456.87
474.959	461.54
475.395	457.86
475.831	456.57
476.266	457.96
476.702	457.18
477.138	452.97
477.573	451.39
478.008	450.93
478.444	456.18
478.879	461.79
479.314	465.08
479.75	465.94
480.185	467.23
480.62	470.74
481.055	474.73
481.49	478.6
481.925	485.04
482.36	495.8
482.795	509.37
483.229	520.59
483.664	531.51
484.099	532.35
484.534	541.11
484.968	547.14
485.403	549.27
485.837	547.85
486.271	546.99
486.706	548.44
487.14	540.51
487.574	532.52
488.009	527.25
488.443	522.91
488.877	529.21
489.311	530.55
489.745	536.96
490.179	541.81
490.613	553.39
491.046	557.74
491.48	561.94
491.914	562.96
492.348	567.28
492.781	571.83
493.215	573.17
493.648	573.96
494.082	579.38
494.515	580.78
494.948	588.83
495.382	592.5
495.815	597.88
496.248	603.42
496.681	616.19
497.114	625.88
497.547	635.9
497.98	648.9
498.413	656.01
498.846	665.45
499.279	674.32
499.711	678.89
500.144	682.39
500.577	693.63
501.009	705.21
501.442	715.86
501.874	719.81
502.306	723.09
502.739	733.57
503.171	748.83
503.603	753.68
504.036	763.25
504.468	770.19
504.9	783.02
505.332	791.24
505.764	796.38
506.196	803.72
506.627	819.39
507.059	833.7
507.491	841.35
507.923	841.78
508.354	858.13
508.786	871.07
509.217	889.91
509.649	905.93
510.08	925.96
510.512	945.56
510.943	962.41
511.374	975.68
511.805	996.55
512.237	1017.8
512.668	1050.49
513.099	1078.57
513.53	1106.35
513.961	1129.34
514.391	1162.71
514.822	1196.68
515.253	1233.26
515.684	1261.12
516.114	1292.09
516.545	1317.17
516.975	1345.45
517.406	1365.83
517.836	1371.84
518.267	1382.34
518.697	1403.07
519.127	1409.41
519.558	1418.41
519.988	1424.03
520.418	1436.27
520.848	1455.36
521.278	1465.12
521.708	1501.57
522.138	1515.93
522.567	1547.78
522.997	1575.04
523.427	1592.18
523.857	1611.06
524.286	1623.85
524.716	1640.12
525.145	1661.63
525.575	1675.78
526.004	1692.7
526.433	1671.25
526.863	1673.39
527.292	1665.85
527.721	1672.11
528.15	1680.04
528.579	1682.03
529.008	1694.85
529.437	1719.6
529.866	1733.48
530.295	1751.54
530.724	1766.02
531.152	1794.67
531.581	1810.56
532.01	1830.05
532.438	1840.19
532.867	1855.31
533.295	1875.38
533.723	1882.59
534.152	1881.91
534.58	1882.86
535.008	1867.86
535.436	1870.2
535.865	1879.52
536.293	1895.27
536.721	1910.89
537.149	1936.94
537.576	1939.58
538.004	1953.08
538.432	1960.48
538.86	1958.35
539.287	1966.21
539.715	1980.37
540.143	1982.75
540.57	1977.77
540.998	1972.92
541.425	1950.09
541.852	1928.82
542.28	1927.64
542.707	1910.75
543.134	1897.3
543.561	1893.45
543.988	1885.57
544.415	1884.16
544.842	1878.96
545.269	1872.44
545.696	1875.42
546.123	1889.96
546.549	1880.22
546.976	1868.81
547.403	1869.09
547.829	1871.21
548.256	1874.84
548.682	1872.14
549.108	1866.02
549.535	1867.45
549.961	1871.52
550.387	1858.65
550.813	1853.17
551.24	1861.59
551.666	1862.36
552.092	1853.82
552.518	1847.9
552.943	1841.66
553.369	1850.94
553.795	1858.4
554.221	1860.09
554.646	1858.15
555.072	1871.11
555.498	1877.32
555.923	1887.66
556.349	1904.71
556.774	1915.29
557.199	1918.66
557.625	1926.32
558.05	1921.03
558.475	1932
558.9	1930.18
559.325	1922.01
559.75	1916.32
560.175	1909.83
560.6	1903.71
561.025	1902.58
561.449	1904.79
561.874	1910.03
562.299	1916.68
562.723	1925.31
563.148	1915.37
563.572	1920.85
563.997	1931.96
564.421	1937.31
564.846	1938.41
565.27	1942.58
565.694	1940.39
566.118	1951.09
566.542	1960.3
566.966	1952.69
567.39	1947.97
567.814	1936.21
568.238	1936.56
568.662	1941.89
569.086	1944.84
569.509	1952.23
569.933	1935.26
570.357	1927.61
570.78	1907.04
571.204	1894.11
571.627	1882.75
572.05	1879.92
572.474	1881.15
572.897	1867.94
573.32	1859.92
573.743	1850.01
574.166	1831.16
574.589	1831.2
575.012	1824.24
575.435	1822.55
575.858	1813.48
576.281	1802.63
576.704	1787.05
577.126	1774.99
577.549	1764.92
577.972	1755.54
578.394	1745.5
578.817	1740.11
579.239	1721.48
579.661	1706.69
580.084	1692.21
580.506	1677.94
580.928	1673.79
581.35	1662.49
581.772	1658.56
582.194	1643.96
582.616	1630.07
583.038	1614.58
583.46	1603.04
583.882	1600.43
584.303	1605.34
584.725	1599.86
585.147	1603.43
585.568	1616.27
585.99	1629.28
586.411	1635.45
586.833	1651.5
587.254	1654.16
587.675	1669.75
588.096	1683.73
588.518	1678.19
588.939	1660.72
589.36	1658.4
589.781	1645.7
590.202	1615.45
590.623	1606.28
591.043	1603.77
591.464	1590.26
591.885	1586.05
592.305	1580.29
592.726	1564.9
593.147	1567.04
593.567	1560.94
593.987	1552.95
594.408	1546.89
594.828	1544.69
595.248	1538.52
595.669	1518.75
596.089	1511.77
596.509	1504.3
596.929	1489.94
597.349	1490.99
597.769	1478.81
598.189	1472.6
598.608	1474.3
599.028	1477.09
599.448	1476.09
599.867	1462.62
600.287	1457.69
600.706	1453.06
601.126	1443.91
601.545	1442.53
601.965	1440.65
602.384	1435.06
602.803	1437.67
603.222	1432.07
603.641	1424.89
604.061	1421.69
604.48	1417.44
604.898	1425.4
605.317	1429.8
605.736	1431.66
606.155	1428.64
606.574	1419.52
606.992	1425.77
607.411	1421.55
607.829	1413.61
608.248	1410.64
608.666	1407.81
609.085	1406.39
609.503	1398.44
609.921	1392.55
610.339	1394.82
610.758	1393.51
611.176	1388.38
611.594	1378.75
612.012	1375
612.43	1378.34
612.847	1384.38
613.265	1384.95
613.683	1388.79
614.101	1389.35
614.518	1384.09
614.936	1372.62
615.353	1358.11
615.771	1354.83
616.188	1355.12
616.606	1351.29
617.023	1342.98
617.44	1328.46
617.857	1320.85
618.274	1312.54
618.691	1306.69
619.108	1298.17
619.525	1291.73
619.942	1297.79
620.359	1300.37
620.776	1293.83
621.192	1288.78
621.609	1287.12
622.026	1294.51
622.442	1300.7
622.859	1304.18
623.275	1296
623.691	1300.97
624.108	1313.58
624.524	1327.72
624.94	1328.22
625.356	1339.13
625.772	1351.48
626.188	1362.45
626.604	1362.31
627.02	1357.79
627.436	1355.27
627.852	1362.9
628.268	1375.4
628.683	1364.05
629.099	1355.34
629.514	1348.54
629.93	1351.18
630.345	1355.84
630.761	1350.84
631.176	1354.24
631.591	1349.32
632.007	1343.4
632.422	1339.18
632.837	1325.46
633.252	1323.42
633.667	1312.7
634.082	1303.36
634.497	1290.81
634.911	1270.16
635.326	1266.15
635.741	1247.83
636.155	1233.54
636.57	1232.28
636.984	1230.58
637.399	1232.05
637.813	1228.77
638.228	1225.3
638.642	1227.61
639.056	1214.25
639.47	1212.01
639.884	1201.4
640.298	1192.01
640.712	1188.91
641.126	1175.1
641.54	1164.66
641.954	1155.61
642.368	1141.87
642.781	1132.36
643.195	1111.46
643.609	1109.92
644.022	1102.04
644.436	1094.44
644.849	1081.13
645.262	1068.49
645.676	1067.11
646.089	1060.73
646.502	1045.77
646.915	1038.38
647.328	1020.07
647.741	1017
648.154	1001.89
648.567	998.55
648.98	985.83
649.393	984.52
649.805	978.69
650.218	970.76
650.631	953.68
651.043	945.86
651.456	939.31
651.868	938.03
652.28	952.21
652.693	964.85
653.105	968.67
653.517	976.63
653.929	975.34
654.341	980.06
654.753	967.77
655.165	973.68
655.577	970.56
655.989	964.86
656.401	956.16
656.813	923.08
657.224	902.09
657.636	873.2
658.047	854.92
658.459	836
658.87	826.14
659.282	813.19
659.693	793.03
660.104	778.14
660.515	763.91
660.926	759.59
661.338	753.49
661.749	745.19
662.159	735.88
662.57	729.21
662.981	723
663.392	714.69
663.803	716.6
664.213	711.75
664.624	704.87
665.035	705.03
665.445	691.46
665.855	684.6
666.266	676.81
666.676	673.01
667.086	663.33
667.497	660.78
667.907	653.96
668.317	644.57
668.727	642.05
669.137	642.44
669.547	639.77
669.956	640.77
670.366	641.25
670.776	642.45
671.186	645.45
671.595	648.77
672.005	651.06
672.414	650.59
672.824	649.12
673.233	650.95
673.642	652.1
674.052	654.98
674.461	659.06
674.87	662.77
675.279	661.12
675.688	661.18
676.097	662.98
676.506	659.72
676.915	671.71
677.323	674.38
677.732	673.44
678.141	673.16
678.549	664.57
678.958	661.81
679.366	662.14
679.775	666.35
680.183	679.56
680.592	685.62
681	693.18
681.408	690.1
681.816	698.63
682.224	708.2
682.632	720.59
683.04	750.81
683.448	778.28
683.856	809.48
684.264	847.91
684.671	880.71
685.079	921.9
685.487	967.7
685.894	1031.5
686.302	1085.9
686.709	1133.34
687.116	1189.28
687.524	1235.25
687.931	1274.8
688.338	1311.01
688.745	1341
689.152	1376.83
689.559	1424.36
689.966	1472.01
690.373	1496.87
690.78	1539.86
691.187	1603.38
691.593	1652.96
692	1697.7
692.407	1764.05
692.813	1842.92
693.22	1905.52
693.626	1970.6
694.032	2023.54
694.439	2101.24
694.845	2161.41
695.251	2238.58
695.657	2309.02
696.063	2411.56
696.469	2485.84
696.875	2554.58
697.281	2594.33
697.687	2643.41
