Data from C_3_HIR_WI_4N_Splice17_13-11-02-528.txt Node
Date: Sat Mar 14 13:11:02 EDT 2020
User: sa697716
Spectrometer: FLMS03696
Trigger mode: 0
Integration Time (sec): 3.180400E-1
Scans to average: 20
Electric dark correction enabled: true
Nonlinearity correction enabled: true
Boxcar width: 5
XAxis mode: Wavelengths
Number of Pixels in Spectrum: 2048
>>>>>Begin Spectral Data<<<<<
187.83	-359206.22
188.298	2516.34
188.766	1354.74
189.233	1161.53
189.701	1742.05
190.169	2322.37
190.636	899.2
191.104	737.58
191.571	141.28
192.039	-45.44
192.506	-79.66
192.974	341.14
193.441	-739.98
193.908	-119.57
194.375	-111.23
194.842	37.2
195.31	112.46
195.777	188.78
196.244	425.43
196.711	481.83
197.177	585.25
197.644	819.68
198.111	1403.57
198.578	1991.25
199.045	1583.34
199.511	2574.13
199.978	2966.56
200.445	2510.68
200.911	2764.19
201.378	3053.44
201.844	2773.32
202.31	4714
202.777	4895.56
203.243	2707.67
203.709	2566.55
204.176	3086.66
204.642	2552.55
205.108	2398.08
205.574	1948.83
206.04	1779.8
206.506	1678.55
206.972	1585
207.438	1542.95
207.903	1756.25
208.369	1529.6
208.835	1531.93
209.301	1599.42
209.766	1653.28
210.232	1633.7
210.697	2028.38
211.163	2495.38
211.628	3758.13
212.094	3162.54
212.559	3906.06
213.024	2431.66
213.49	2988.56
213.955	2931.24
214.42	2864.46
214.885	2648.67
215.35	2549.71
215.815	2454.73
216.28	2604.9
216.745	2128.33
217.21	2304.05
217.675	2121.16
218.14	2410.78
218.604	2694.83
219.069	3078.5
219.534	3255.1
219.998	3820.26
220.463	4633.45
220.927	5735.95
221.392	5427.4
221.856	5502.76
222.32	6950.77
222.785	8576.41
223.249	10798.82
223.713	12099.99
224.177	12082.35
224.642	15472.65
225.106	19004.26
225.57	20767.26
226.034	15419.51
226.497	23449.91
226.961	21203.59
227.425	24704.16
227.889	27406.1
228.353	27387.91
228.816	56466.49
229.28	54111.62
229.744	45653.22
230.207	27700.99
230.671	27247.12
231.134	45139.04
231.597	52021.86
232.061	51963.01
232.524	50631.47
232.987	34894.44
233.45	31401.91
233.914	28159.88
234.377	28824.57
234.84	26353.97
235.303	31116.9
235.766	34695.83
236.229	35781.92
236.691	22518.2
237.154	25279.02
237.617	18994.79
238.08	19428.76
238.542	22693.58
239.005	16233.21
239.468	16100.64
239.93	15164.7
240.393	13757.4
240.855	12076.9
241.317	12366.83
241.78	15038.79
242.242	15537.67
242.704	16777.89
243.166	14586.99
243.629	13248.66
244.091	15229.94
244.553	16674.03
245.015	17901.95
245.477	23165.54
245.939	33937.09
246.4	35984.57
246.862	34942.22
247.324	32922.81
247.786	36821.32
248.247	48265.15
248.709	49828.49
249.17	37302.94
249.632	35174.16
250.093	40761.48
250.555	35174.73
251.016	21439.57
251.477	20346.67
251.939	21936.6
252.4	22999.61
252.861	27318.8
253.322	25412.93
253.783	30203.36
254.244	39166.5
254.705	30825.6
255.166	27412.62
255.627	26985.99
256.088	38070.34
256.549	40391.1
257.009	34830.51
257.47	42216.33
257.931	34368.49
258.391	25736.22
258.852	26547.26
259.312	27803.88
259.773	34336.5
260.233	29009.72
260.694	24461.87
261.154	27715.86
261.614	22236.79
262.074	19890.14
262.534	20694.42
262.994	19517.98
263.455	26000.86
263.915	21893.31
264.374	20615.08
264.834	22518.18
265.294	24969.3
265.754	25892.72
266.214	24525
266.673	22991.56
267.133	28982.06
267.593	28735.45
268.052	35144.03
268.512	30552.09
268.971	36835.09
269.431	40378.98
269.89	36150.76
270.349	54158.94
270.809	60310.73
271.268	54211.52
271.727	121552.42
272.186	78766.8
272.645	59038.75
273.104	42566.34
273.563	61639.26
274.022	48475.15
274.481	41246.84
274.94	31766.04
275.399	23604.44
275.857	27478.8
276.316	37156.64
276.775	33032.51
277.233	32497.07
277.692	30418.34
278.15	34412.24
278.609	35425.42
279.067	32759.01
279.525	30423.21
279.984	39296.91
280.442	47204.82
280.9	46527.37
281.358	30608.82
281.816	28550.35
282.274	27958.54
282.732	28881.34
283.19	29022.28
283.648	25011.06
284.106	26637.29
284.564	27055.93
285.021	25075.12
285.479	18680.87
285.937	16974.58
286.394	14890.76
286.852	15309.64
287.309	16090.46
287.767	15564.05
288.224	14804.78
288.682	16259.59
289.139	17857.19
289.596	16373.44
290.053	17014.55
290.511	21482.62
290.968	26048.04
291.425	35328.99
291.882	29426.31
292.339	25597.24
292.796	25379.78
293.252	23927.78
293.709	18990.31
294.166	17022.11
294.623	18779.01
295.079	18007.42
295.536	18087.28
295.992	16443.62
296.449	16248.34
296.905	16873.44
297.362	16175.37
297.818	17006.6
298.274	17625.19
298.731	17951.39
299.187	17751.21
299.643	19048.36
300.099	23033.2
300.555	25235.4
301.011	21050.6
301.467	20315.37
301.923	23737.85
302.379	23188.02
302.835	22751.36
303.291	22784.77
303.746	25929.08
304.202	32723.78
304.658	32866.35
305.113	22125.21
305.569	21664.03
306.024	23092.74
306.479	21927.54
306.935	18501.4
307.39	20168.12
307.845	18608.82
308.301	18708.86
308.756	18208.62
309.211	17570.35
309.666	17985.84
310.121	22310.6
310.576	22656.19
311.031	22493.24
311.486	25769.66
311.94	25731.01
312.395	34468.89
312.85	64891.32
313.305	318509.42
313.759	1649275.6
314.214	119365.34
314.668	94659.29
315.123	79525.17
315.577	28559.51
316.032	25373.29
316.486	31810.25
316.94	25072.28
317.394	17455.08
317.849	13551.51
318.303	12814.75
318.757	12125.7
319.211	13416.88
319.665	11749.44
320.119	11899.4
320.572	17025.81
321.026	15907.52
321.48	13228.51
321.934	14440.49
322.387	14456.07
322.841	15620.35
323.295	14064.55
323.748	16139.44
324.202	16343.23
324.655	19603.52
325.108	27423.75
325.562	19388.3
326.015	23031.87
326.468	17414.86
326.921	19484.46
327.374	18165.48
327.827	18928.57
328.28	21437.09
328.733	14403.57
329.186	12681.31
329.639	12094.07
330.092	10188.88
330.545	9711.56
330.997	9807.87
331.45	10737
331.903	12597.68
332.355	21678.95
332.808	21053.18
333.26	17377.39
333.713	18856.73
334.165	19016.8
334.617	25401.64
335.069	20490.59
335.522	36971.55
335.974	40923.32
336.426	37300.52
336.878	25786.44
337.33	13080.85
337.782	12793.75
338.234	16004.72
338.686	19152.61
339.137	22648.07
339.589	21301.45
340.041	16710.41
340.493	14370.04
340.944	14728.72
341.396	15893.68
341.847	13392.27
342.299	15810.33
342.75	19281.91
343.201	16833.73
343.653	19359.3
344.104	23823.15
344.555	18738.59
345.006	29158.22
345.457	22350.25
345.908	17740.82
346.359	16716.31
346.81	13584
347.261	14314.92
347.712	14081.28
348.163	15090.27
348.613	15283.76
349.064	14269.19
349.515	12502.08
349.965	12810.89
350.416	15434.85
350.866	16921.55
351.317	19089.91
351.767	31619.01
352.217	39913.03
352.668	33125.7
353.118	30384.06
353.568	29265.31
354.018	23113.62
354.468	24407.98
354.918	17529.89
355.368	15310.51
355.818	21622.43
356.268	62205.86
356.718	260741.55
357.168	64873.29
357.617	32558.72
358.067	36130.99
358.517	33811.33
358.966	39638.53
359.416	44404.19
359.865	47945.59
360.315	57193.14
360.764	26761.17
361.213	14975.79
361.663	14169.78
362.112	17498.98
362.561	28216.33
363.01	21323.21
363.459	17945.62
363.908	19423.13
364.357	16490.95
364.806	27831.99
365.255	19101.2
365.703	17477.2
366.152	17515.8
366.601	14166.27
367.05	11502.32
367.498	10453.75
367.947	10913.26
368.395	11351.43
368.844	10053.28
369.292	12129.36
369.74	8381.2
370.189	12830.03
370.637	15011.79
371.085	12940.49
371.533	15771.57
371.981	15169.56
372.429	14471.9
372.877	15063.89
373.325	12619.05
373.773	12838.84
374.221	11426.96
374.669	14178.97
375.116	12252.58
375.564	12360.57
376.012	13806.6
376.459	11381.37
376.907	13568.35
377.354	16379.13
377.801	15257.01
378.249	17456.38
378.696	22291.34
379.143	26935.65
379.591	28662.8
380.038	48423.96
380.485	34907.11
380.932	37649.68
381.379	34421.59
381.826	25415.45
382.273	18033.31
382.72	15741.36
383.166	15345.27
383.613	9933.96
384.06	8947.22
384.506	10341.83
384.953	7571.4
385.4	7607.21
385.846	6657.68
386.292	6474.66
386.739	6305.79
387.185	6228.47
387.631	6229.53
388.078	6045.05
388.524	6454.76
388.97	5946.74
389.416	4942.7
389.862	5248.52
390.308	4970.47
390.754	5044.31
391.2	5463.15
391.645	5592.13
392.091	5364.56
392.537	5174.77
392.983	5164.41
393.428	5086.5
393.874	5444.81
394.319	5467.23
394.765	5190.33
395.21	5338.72
395.655	5000.09
396.101	4684.82
396.546	4222.61
396.991	4236.65
397.436	3936.9
397.881	3811.83
398.326	3600.56
398.771	3405.8
399.216	2978.72
399.661	2686.77
400.106	2676.56
400.551	2740.86
400.995	2460.26
401.44	2436.57
401.885	2291.41
402.329	2317.31
402.774	2221.24
403.218	2159.57
403.663	2083.09
404.107	2139.76
404.551	2158.86
404.995	1977.47
405.44	1905.24
405.884	1931.15
406.328	1869.19
406.772	1861.54
407.216	1695.49
407.66	1638.68
408.104	1553.93
408.547	1452.27
408.991	1408.34
409.435	1351.93
409.879	1337.28
410.322	1321.36
410.766	1281.42
411.209	1218.58
411.653	1174.39
412.096	1151.39
412.54	1150.78
412.983	1144.69
413.426	1152.85
413.869	1153.04
414.312	1134.32
414.756	1092.09
415.199	1043.01
415.642	1013.39
416.085	1017.87
416.527	1013.55
416.97	1031.39
417.413	980.79
417.856	971.6
418.298	961.48
418.741	956.27
419.184	951.74
419.626	990.22
420.069	991.94
420.511	997.87
420.953	977.26
421.396	966.76
421.838	941.38
422.28	965.83
422.722	970.51
423.164	983.37
423.606	965.67
424.048	966.23
424.49	922.69
424.932	917.58
425.374	901.73
425.816	918.58
426.258	936.54
426.699	947.86
427.141	932.27
427.582	943.9
428.024	938.3
428.465	930.49
428.907	905.43
429.348	890.82
429.789	888.83
430.231	872.83
430.672	882.45
431.113	860.75
431.554	848.25
431.995	827.22
432.436	802.46
432.877	787
433.318	775.93
433.759	772.07
434.2	775.65
434.64	767.64
435.081	769.74
435.522	730.47
435.962	704.29
436.403	689.8
436.843	698.64
437.284	681.64
437.724	661.43
438.164	662.47
438.604	650.37
439.045	624.17
439.485	601.94
439.925	589.31
440.365	574.14
440.805	566.04
441.245	558.62
441.685	539.51
442.125	535.08
442.564	539
443.004	527.8
443.444	526.92
443.883	528.29
444.323	524.14
444.762	524.21
445.202	530.71
445.641	542.16
446.081	539.1
446.52	544.12
446.959	540.25
447.398	528.86
447.837	522.45
448.276	513.06
448.716	518.17
449.154	521.15
449.593	511.08
450.032	511.56
450.471	501.41
450.91	501.19
451.349	498.77
451.787	494.86
452.226	502.07
452.664	502.46
453.103	503.67
453.541	502.47
453.98	503.24
454.418	506.07
454.856	498.25
455.295	497.49
455.733	501.7
456.171	504.96
456.609	505.21
457.047	503.62
457.485	512.3
457.923	513.92
458.361	506.79
458.798	507.93
459.236	506.17
459.674	509.49
460.111	511.69
460.549	507.3
460.987	505.01
461.424	503.92
461.862	501.94
462.299	492.72
462.736	491.5
463.173	492.72
463.611	488.69
464.048	487.77
464.485	490.09
464.922	484.88
465.359	481.28
465.796	479.49
466.233	477.27
466.67	473.49
467.106	473.31
467.543	468.39
467.98	462.5
468.416	449.47
468.853	444.2
469.29	431.23
469.726	426.76
470.162	415.32
470.599	406.2
471.035	402
471.471	392.05
471.907	388.86
472.344	386.04
472.78	387.19
473.216	391.78
473.652	388.48
474.088	386.9
474.523	387.33
474.959	391.54
475.395	387.99
475.831	385.65
476.266	387.55
476.702	385.62
477.138	382.17
477.573	380.93
478.008	378.88
478.444	381.17
478.879	385.57
479.314	386.15
479.75	385.67
480.185	387.56
480.62	390.29
481.055	392.78
481.49	396.47
481.925	402.07
482.36	410.11
482.795	421.5
483.229	432.15
483.664	440.71
484.099	442.54
484.534	449.08
484.968	453.36
485.403	454.44
485.837	453.07
486.271	451.85
486.706	452.74
487.14	447.03
487.574	440.27
488.009	435.74
488.443	432.2
488.877	436.78
489.311	438.58
489.745	443.39
490.179	448.09
490.613	457.46
491.046	461.65
491.48	464.48
491.914	465.38
492.348	469.01
492.781	472.84
493.215	474.43
493.648	474.68
494.082	479.03
494.515	480.94
494.948	487.59
495.382	491.15
495.815	495.04
496.248	500.32
496.681	510.05
497.114	518.41
497.547	526.73
497.98	537.38
498.413	544.84
498.846	553.26
499.279	560.41
499.711	564.63
500.144	567.73
500.577	576.77
501.009	585.45
501.442	594.88
501.874	597.99
502.306	601.62
502.739	610.69
503.171	623.12
503.603	627.38
504.036	635.94
504.468	642.69
504.9	653.33
505.332	660.91
505.764	667.84
506.196	675.74
506.627	689.4
507.059	701.99
507.491	710.19
507.923	712.31
508.354	727.27
508.786	738.73
509.217	755.87
509.649	771.35
510.08	788.89
510.512	804.94
510.943	819.69
511.374	832.46
511.805	851.03
512.237	868.78
512.668	896.36
513.099	919.55
513.53	944.49
513.961	964
514.391	992.05
514.822	1023.07
515.253	1055.27
515.684	1078.67
516.114	1106.75
516.545	1128.67
516.975	1154.98
517.406	1174.29
517.836	1181.74
518.267	1192.1
518.697	1210.94
519.127	1218.02
519.558	1228.19
519.988	1234.76
520.418	1246.8
520.848	1264.33
521.278	1275.28
521.708	1300.64
522.138	1315.18
522.567	1344.13
522.997	1368.54
523.427	1384.96
523.857	1403.52
524.286	1414.63
524.716	1430.6
525.145	1450.77
525.575	1462.88
526.004	1477.27
526.433	1467.26
526.863	1469.8
527.292	1464.68
527.721	1472.18
528.15	1480.29
528.579	1482.46
529.008	1494.34
529.437	1516.54
529.866	1529.89
530.295	1547.82
530.724	1562.19
531.152	1588.52
531.581	1602.65
532.01	1619.28
532.438	1627.97
532.867	1640.36
533.295	1657.66
533.723	1664.02
534.152	1662.79
534.58	1663.49
535.008	1649.03
535.436	1650
535.865	1656.63
536.293	1669.01
536.721	1683.6
537.149	1706.23
537.576	1709.56
538.004	1722.16
538.432	1729.31
538.86	1727.79
539.287	1734.41
539.715	1746.83
540.143	1750.29
540.57	1746.47
540.998	1742.69
541.425	1722.18
541.852	1703.98
542.28	1702.24
542.707	1686.79
543.134	1674.37
543.561	1671.01
543.988	1664.62
544.415	1665.17
544.842	1659.92
545.269	1654.94
545.696	1657.7
546.123	1670.3
546.549	1660.51
546.976	1649.8
547.403	1651.01
547.829	1653.65
548.256	1656.19
548.682	1654.12
549.108	1648.53
549.535	1648.79
549.961	1651.5
550.387	1640.37
550.813	1636.32
551.24	1643.05
551.666	1645.88
552.092	1637.41
552.518	1631.9
552.943	1627.2
553.369	1634.22
553.795	1639.34
554.221	1641.18
554.646	1637.34
555.072	1648.03
555.498	1651.3
555.923	1659.46
556.349	1671.74
556.774	1678.8
557.199	1679.53
557.625	1685.01
558.05	1678.88
558.475	1687.76
558.9	1686.25
559.325	1679.33
559.75	1672.67
560.175	1667.07
560.6	1660.6
561.025	1658.76
561.449	1660.16
561.874	1664.6
562.299	1667.7
562.723	1673.87
563.148	1662.98
563.572	1665.01
563.997	1671.64
564.421	1674.82
564.846	1672.89
565.27	1675.29
565.694	1671.24
566.118	1679.66
566.542	1684.72
566.966	1676.72
567.39	1669.74
567.814	1657.26
568.238	1654.28
568.662	1657.48
569.086	1658.56
569.509	1663.54
569.933	1647.54
570.357	1638.55
570.78	1616.56
571.204	1602.74
571.627	1591.17
572.05	1588.88
572.474	1588.42
572.897	1575.68
573.32	1566.91
573.743	1555.37
574.166	1537.98
574.589	1536.87
575.012	1528.64
575.435	1527.2
575.858	1518.62
576.281	1507.28
576.704	1491.08
577.126	1478.38
577.549	1468.21
577.972	1460.22
578.394	1450.44
578.817	1442.94
579.239	1424.34
579.661	1412.28
580.084	1398.21
580.506	1385.45
580.928	1382.49
581.35	1372.42
581.772	1367.8
582.194	1354.71
582.616	1341.42
583.038	1328.22
583.46	1318.6
583.882	1315.3
584.303	1317.82
584.725	1312.73
585.147	1314.2
585.568	1321.45
585.99	1330.87
586.411	1336.69
586.833	1349.8
587.254	1350.85
587.675	1363.09
588.096	1372.72
588.518	1368.2
588.939	1352.88
589.36	1350.28
589.781	1339.69
590.202	1316.38
590.623	1307.97
591.043	1304.38
591.464	1292.89
591.885	1289.56
592.305	1282.89
592.726	1271.77
593.147	1271.96
593.567	1267.63
593.987	1260.94
594.408	1255.95
594.828	1252.7
595.248	1248.24
595.669	1233.29
596.089	1226.99
596.509	1221.25
596.929	1211.03
597.349	1211.27
597.769	1203.02
598.189	1197.13
598.608	1198.6
599.028	1200.39
599.448	1199.43
599.867	1188.36
600.287	1183.7
600.706	1179.99
601.126	1170.78
601.545	1168.72
601.965	1167.13
602.384	1162.2
602.803	1164.39
603.222	1159.03
603.641	1152.55
604.061	1149.34
604.48	1144.84
604.898	1150.16
605.317	1153.78
605.736	1154.62
606.155	1151.12
606.574	1141.95
606.992	1145.34
607.411	1140.08
607.829	1132.44
608.248	1128.64
608.666	1125.29
609.085	1123.22
609.503	1114.98
609.921	1108.1
610.339	1108.64
610.758	1106.74
611.176	1101.29
611.594	1091.94
612.012	1087.53
612.43	1088.79
612.847	1091.86
613.265	1091.55
613.683	1094.61
614.101	1094.73
614.518	1089.63
614.936	1080.91
615.353	1067.59
615.771	1064.21
616.188	1064.36
616.606	1060.58
617.023	1053.62
617.44	1041.58
617.857	1034.2
618.274	1026.07
618.691	1020.27
619.108	1012.71
619.525	1005.96
619.942	1010.93
620.359	1012.5
620.776	1006.74
621.192	1002.99
621.609	1000.61
622.026	1005.77
622.442	1009.91
622.859	1011.93
623.275	1005.48
623.691	1009.01
624.108	1017.49
624.524	1028.16
624.94	1026.91
625.356	1034.18
625.772	1043.57
626.188	1052.22
626.604	1052.6
627.02	1049.5
627.436	1046.8
627.852	1052.98
628.268	1061.48
628.683	1053.75
629.099	1046
629.514	1042
629.93	1044.66
630.345	1047.44
630.761	1044.31
631.176	1047.15
631.591	1042.66
632.007	1037.77
632.422	1034.84
632.837	1025.08
633.252	1022.9
633.667	1014.48
634.082	1006.47
634.497	995.16
634.911	979.98
635.326	975.27
635.741	960.52
636.155	950.52
636.57	951.04
636.984	948.82
637.399	950.36
637.813	948.31
638.228	945.96
638.642	946.91
639.056	937.63
639.47	935.77
639.884	927.94
640.298	920.97
640.712	918.48
641.126	907.22
641.54	898.81
641.954	891.93
642.368	881.48
642.781	873.91
643.195	858.27
643.609	857.35
644.022	851.83
644.436	847.49
644.849	836.37
645.262	825.99
645.676	824.39
646.089	819.92
646.502	807.79
646.915	800.96
647.328	787.76
647.741	786.65
648.154	775.36
648.567	772.07
648.98	760.81
649.393	760.51
649.805	756.73
650.218	749.59
650.631	736.75
651.043	729.71
651.456	725.12
651.868	722.59
652.28	732.72
652.693	740.64
653.105	743.01
653.517	748.56
653.929	748
654.341	751.24
654.753	742.16
655.165	745.64
655.577	743.73
655.989	740.59
656.401	734.08
656.813	708.01
657.224	691.65
657.636	669.26
658.047	656.28
658.459	639.74
658.87	630.5
659.282	620.73
659.693	604.4
660.104	592.17
660.515	579.91
660.926	576
661.338	571.9
661.749	566.65
662.159	559.28
662.57	554.57
662.981	550.64
663.392	544
663.803	545.17
664.213	543.15
664.624	539.75
665.035	540.89
665.445	532.44
665.855	527.9
666.266	522.48
666.676	520.52
667.086	512.67
667.497	512.12
667.907	508.9
668.317	502.69
668.727	501.48
669.137	501.51
669.547	499.43
669.956	499.66
670.366	499.95
670.776	502.56
671.186	505.66
671.595	509.31
672.005	511.25
672.414	510.48
672.824	510.02
673.233	511.26
673.642	512.69
674.052	517.18
674.461	521.1
674.87	524.82
675.279	523.34
675.688	524.65
676.097	525.86
676.506	524.61
676.915	535.81
677.323	538.26
677.732	538.9
678.141	539.99
678.549	532.61
678.958	532.18
679.366	531.5
679.775	534.7
680.183	543.32
680.592	548.06
681	553.34
681.408	549.72
681.816	556.56
682.224	564.38
682.632	572.69
683.04	593.72
683.448	612.6
683.856	636.75
684.264	663.95
684.671	687.64
685.079	717.39
685.487	750.19
685.894	795.97
686.302	835.65
686.709	867.3
687.116	906.98
687.524	941.15
687.931	969.91
688.338	995.5
688.745	1017.71
689.152	1044.12
689.559	1080.58
689.966	1118.12
690.373	1139.37
690.78	1173.99
691.187	1225.46
691.593	1265.36
692	1302.09
692.407	1355.69
692.813	1422.37
693.22	1476.2
693.626	1531.67
694.032	1577.91
694.439	1644.36
694.845	1696.19
695.251	1762.69
695.657	1824.95
696.063	1912.87
696.469	1981.15
696.875	2046.23
697.281	2084.7
697.687	2131.12
698.093	2172.3
698.498	2243.22
698.904	2299.37
699.31	2382.76
699.715	2444.88
700.12	2530.04
