Data from C_3_DEC_ON_6N_Splice17_13-35-56-820.txt Node
Date: Sat Mar 14 13:35:56 EDT 2020
User: sa697716
Spectrometer: FLMS03696
Trigger mode: 0
Integration Time (sec): 3.180400E-1
Scans to average: 20
Electric dark correction enabled: true
Nonlinearity correction enabled: true
Boxcar width: 5
XAxis mode: Wavelengths
Number of Pixels in Spectrum: 2048
>>>>>Begin Spectral Data<<<<<
187.83	-494624.44
188.298	3427.39
188.766	1756.8
189.233	1579.06
189.701	2247.6
190.169	3098.63
190.636	1130.34
191.104	836.67
191.571	56.7
192.039	-141.98
192.506	-112.89
192.974	520.55
193.441	-827.31
193.908	-359.95
194.375	-88.32
194.842	-51.53
195.31	49.07
195.777	187.57
196.244	537.34
196.711	811.67
197.177	1068.6
197.644	1595.02
198.111	2784.97
198.578	3902.81
199.045	3154.37
199.511	5141.19
199.978	6064.09
200.445	5073.85
200.911	5595.39
201.378	6261.45
201.844	5545.25
202.31	9401.58
202.777	9679.37
203.243	5311.86
203.709	5017.21
204.176	5906.54
204.642	4838.5
205.108	4483.98
205.574	3657.14
206.04	3342.09
206.506	3126.6
206.972	2957.99
207.438	2847.93
207.903	3218.97
208.369	2799.33
208.835	2757.66
209.301	2865.51
209.766	2927.7
210.232	2858.54
210.697	3497.77
211.163	4248.53
211.628	6289.54
212.094	5177.18
212.559	6217.68
213.024	3828.09
213.49	4611.67
213.955	4440.61
214.42	4297.88
214.885	3920.85
215.35	3704.88
215.815	3498.32
216.28	3628.43
216.745	2875.17
217.21	3005.48
217.675	2622.27
218.14	2750.33
218.604	2830.12
219.069	2966.15
219.534	2871.67
219.998	3032.16
220.463	3342.14
220.927	3668.45
221.392	3165.35
221.856	2970.72
222.32	3411.73
222.785	3933.99
223.249	4632.46
223.713	4850.13
224.177	4595.56
224.642	5477.48
225.106	6421.58
225.57	6691.23
226.034	4879.63
226.497	7133.31
226.961	6231.3
227.425	7105.35
227.889	7558.69
228.353	7314.46
228.816	14562.62
229.28	13626.18
229.744	11210.5
230.207	6716.82
230.671	6444.25
231.134	10187.59
231.597	11605.06
232.061	11226.48
232.524	10561.55
232.987	7169.16
233.45	6368.91
233.914	5600.4
234.377	5532.35
234.84	4995.26
235.303	5753.78
235.766	6319.74
236.229	6446.86
236.691	3952.24
237.154	4369.75
237.617	3273.97
238.08	3299.43
238.542	3791.77
239.005	2727.12
239.468	2723.24
239.93	2563.8
240.393	2334.02
240.855	2045.23
241.317	2072.61
241.78	2492.5
242.242	2590.86
242.704	2849.15
243.166	2491.59
243.629	2301.42
244.091	2628.2
244.553	2859.31
245.015	3060.97
245.477	3899.76
245.939	5673.15
246.4	6018.64
246.862	5819.09
247.324	5438.67
247.786	5963.67
248.247	7720.05
248.709	7708.99
249.17	5787.85
249.632	5530.78
250.093	6490.13
250.555	5613.47
251.016	3458.31
251.477	3278.01
251.939	3551.09
252.4	3718.7
252.861	4344.42
253.322	4065.95
253.783	4815.11
254.244	6153.58
254.705	4794.35
255.166	4190.12
255.627	4134.06
256.088	5857.72
256.549	6230.56
257.009	5362.2
257.47	6464.1
257.931	5287.42
258.391	3949.27
258.852	4076.19
259.312	4256.04
259.773	5208.74
260.233	4434.49
260.694	3734.27
261.154	4134
261.614	3357.27
262.074	2939.53
262.534	3057.21
262.994	2876.34
263.455	3756.24
263.915	3149.46
264.374	2921.22
264.834	3133.77
265.294	3363.28
265.754	3437.42
266.214	3223.4
266.673	2934.4
267.133	3667.99
267.593	3541.42
268.052	4269.52
268.512	3655.93
268.971	4450.18
269.431	4874.98
269.89	4331.41
270.349	6501.2
270.809	7212.96
271.268	6487.67
271.727	14342.52
272.186	9325.87
272.645	7043.69
273.104	5011.1
273.563	7247.33
274.022	5549.02
274.481	4797.04
274.94	3758.74
275.399	2784.2
275.857	3226.76
276.316	4351.79
276.775	3898.58
277.233	3850.97
277.692	3693.27
278.15	4271.97
278.609	4546.36
279.067	4256.61
279.525	4005.28
279.984	5158.76
280.442	6295.19
280.9	6427.96
281.358	4287.55
281.816	4082.74
282.274	4047.33
282.732	4134.44
283.19	4178.49
283.648	3607.51
284.106	3892.72
284.564	3984
285.021	3786.02
285.479	2843.23
285.937	2551.32
286.394	2287.91
286.852	2354.71
287.309	2506.17
287.767	2507.3
288.224	2427.47
288.682	2673.19
289.139	2976.6
289.596	2746.79
290.053	2825.01
290.511	3549.73
290.968	4328.22
291.425	5780.33
291.882	4906.09
292.339	4251.08
292.796	4144.21
293.252	3842.03
293.709	3093.91
294.166	2741.96
294.623	2992.3
295.079	2850.06
295.536	2882.35
295.992	2605.67
296.449	2587.08
296.905	2694.92
297.362	2636.36
297.818	2758.62
298.274	2909.21
298.731	2915.74
299.187	2884.46
299.643	3090.92
300.099	3754.79
300.555	4119.42
301.011	3456.18
301.467	3428.87
301.923	3936.19
302.379	3815.27
302.835	3776.49
303.291	3786.34
303.746	4333.92
304.202	5527.25
304.658	5615.52
305.113	3799.37
305.569	3767.84
306.024	4020.08
306.479	3759.72
306.935	3216.51
307.39	3501.48
307.845	3258.69
308.301	3333.07
308.756	3273.22
309.211	3192.04
309.666	3288.54
310.121	4200.16
310.576	4258.87
311.031	4281.84
311.486	4898.33
311.94	4928.97
312.395	6686.99
312.85	12658.99
313.305	61712.04
313.759	329975.59
314.214	24051.26
314.668	19430.66
315.123	16494.79
315.577	6028.61
316.032	5409.05
316.486	6853.14
316.94	5496.33
317.394	3870.88
317.849	3030.98
318.303	2851.62
318.757	2678.08
319.211	2953.7
319.665	2544.86
320.119	2546.47
320.572	3613.35
321.026	3383.06
321.48	2802.12
321.934	2988.24
322.387	2969.46
322.841	3205.8
323.295	2973.62
323.748	3359.16
324.202	3428.51
324.655	4180.42
325.108	5991.79
325.562	4245.25
326.015	5026.51
326.468	3832.63
326.921	4342.04
327.374	4108.37
327.827	4350.64
328.28	4905.24
328.733	3362.8
329.186	2969.11
329.639	2822.04
330.092	2370.88
330.545	2291.66
330.997	2353.25
331.45	2620.64
331.903	3138.14
332.355	5367.71
332.808	5185.89
333.26	4282.2
333.713	4683.23
334.165	4754.2
334.617	6382.28
335.069	5079.3
335.522	9152.05
335.974	10161.72
336.426	9305.96
336.878	6361.95
337.33	3259.62
337.782	3211.94
338.234	4089.32
338.686	4843.11
339.137	5782.77
339.589	5464.14
340.041	4365.37
340.493	3747.6
340.944	3820.14
341.396	4107.09
341.847	3513.58
342.299	4190.06
342.75	5155.24
343.201	4423.86
343.653	5070.13
344.104	6144.7
344.555	4837.05
345.006	7398.25
345.457	5785.95
345.908	4567.56
346.359	4321.1
346.81	3467.48
347.261	3597.59
347.712	3503.11
348.163	3735.8
348.613	3866.84
349.064	3625.97
349.515	3164.11
349.965	3291.9
350.416	3910.54
350.866	4306.14
351.317	4800.69
351.767	7986.65
352.217	10137.55
352.668	8464.28
353.118	7869.41
353.568	7475.4
354.018	5992
354.468	6426.18
354.918	4631.19
355.368	4080.83
355.818	5781.16
356.268	16644.46
356.718	70742.34
357.168	17845.29
357.617	8995.83
358.067	9978.62
358.517	9420.19
358.966	11136.15
359.416	12586.31
359.865	13498.29
360.315	16072.19
360.764	7552.95
361.213	4303.89
361.663	4037.06
362.112	4967.07
362.561	8036.6
363.01	6103.04
363.459	5133.54
363.908	5543.63
364.357	4755.27
364.806	8060.87
365.255	5581.92
365.703	5213.95
366.152	5265.06
366.601	4316
367.05	3545.93
367.498	3252.46
367.947	3391.3
368.395	3538.72
368.844	3160.74
369.292	3747.77
369.74	2615.7
370.189	4012.86
370.637	4697.37
371.085	4016.56
371.533	4897.83
371.981	4693.85
372.429	4498.77
372.877	4717.56
373.325	3963.54
373.773	4027.67
374.221	3606.04
374.669	4472.08
375.116	3842.82
375.564	3862.46
376.012	4338.28
376.459	3589.56
376.907	4298.4
377.354	5160.15
377.801	4886.22
378.249	5713.13
378.696	7311.02
379.143	8930.72
379.591	9540.57
380.038	16325.64
380.485	11996.63
380.932	13118.63
381.379	12384.32
381.826	9387.35
382.273	6866.15
382.72	6119.93
383.166	6127.24
383.613	4146.55
384.06	3874.85
384.506	4699.96
384.953	3618.82
385.4	3818.64
385.846	3554.49
386.292	3679.58
386.739	3872.76
387.185	4140.09
387.631	4506.88
388.078	4815.95
388.524	5588.48
388.97	5555.06
389.416	4913.99
389.862	5454.59
390.308	5386.83
390.754	5753.91
391.2	6662.74
391.645	7373.31
392.091	7653.28
392.537	7945.87
392.983	8402.43
393.428	8625.59
393.874	9687.5
394.319	10407.15
394.765	10866.8
395.21	12441.9
395.655	12978.83
396.101	13384.87
396.546	13187.31
396.991	14513.68
397.436	14664.26
397.881	15485.72
398.326	16140.1
398.771	16692.18
399.216	15888.22
399.661	15374.76
400.106	16268.47
400.551	17566.61
400.995	16527.87
401.44	17063.08
401.885	16623.97
402.329	17364.35
402.774	17124.92
403.218	16967.62
403.663	16827.49
404.107	17782.23
404.551	18462.65
404.995	17541.77
405.44	17573.93
405.884	18537.96
406.328	18581.46
406.772	19103.14
407.216	17938.64
407.66	17986.8
408.104	17858.7
408.547	17383.12
408.991	17422.76
409.435	17316.22
409.879	17476.41
410.322	17638.19
410.766	17406.84
411.209	16961.8
411.653	16781.6
412.096	16893.39
412.54	17360.82
412.983	17622.8
413.426	17982.91
413.869	18359.22
414.312	18317.09
414.756	18035.83
415.199	17550.39
415.642	17346.09
416.085	17643.55
416.527	17782.25
416.97	18336.68
417.413	17572.48
417.856	17596.27
418.298	17575.25
418.741	17547.7
419.184	17610.62
419.626	18457.51
420.069	18531.09
420.511	18720.24
420.953	18435.9
421.396	18409.88
421.838	18123
422.28	18697.49
422.722	18930.53
423.164	19495.24
423.606	19437.33
424.048	19739.94
424.49	18974.53
424.932	19150.76
425.374	19134.94
425.816	19616.32
426.258	19939.95
426.699	19916.6
427.141	19198.44
427.582	19164.39
428.024	18843.15
428.465	18779.24
428.907	18525.69
429.348	18662.39
429.789	18941.97
430.231	18753.73
430.672	19256.14
431.113	19164.78
431.554	19496.34
431.995	19896.44
432.436	19969.13
432.877	20240.35
433.318	20377.32
433.759	20712.52
434.2	21014.27
434.64	21079.03
435.081	21429.01
435.522	20627.31
435.962	20277.39
436.403	20141.77
436.843	20765.21
437.284	20651.97
437.724	20366.2
438.164	20723.85
438.604	20452.94
439.045	19835.3
439.485	19218.06
439.925	19140.86
440.365	18978.48
440.805	18970.91
441.245	18923.48
441.685	18354.62
442.125	18362.01
442.564	18559.76
443.004	18151.19
443.444	18184.08
443.883	18306.81
444.323	18384.87
444.762	18637.72
445.202	19024.05
445.641	19415.45
446.081	19493.63
446.52	19769.88
446.959	19697.73
447.398	19366.85
447.837	19365
448.276	19229.76
448.716	19541.11
449.154	19781.45
449.593	19219.42
450.032	19104.09
450.471	18801.38
450.91	18798.84
451.349	18660.75
451.787	18540.94
452.226	18746.41
452.664	18652.04
453.103	18580.82
453.541	18533.38
453.98	18364.86
454.418	18494.43
454.856	18119.95
455.295	18029.08
455.733	18055.65
456.171	18103.77
456.609	18007.37
457.047	17934.61
457.485	18070.26
457.923	18015.88
458.361	17739.93
458.798	17811.25
459.236	17767.59
459.674	17983.33
460.111	18113.64
460.549	17988.98
460.987	18023.42
461.424	18067.95
461.862	18043
462.299	17855.1
462.736	17882.59
463.173	18000.96
463.611	17757.13
464.048	17743.09
464.485	17936.44
464.922	17889.02
465.359	17958.74
465.796	17580.9
466.233	17570.64
466.67	17484.56
467.106	17539.49
467.543	17553.78
467.98	17499.27
468.416	17327.16
468.853	17432.46
469.29	17116.76
469.726	17086.79
470.162	16771.07
470.599	16937.64
471.035	16962.38
471.471	16739.65
471.907	16856.9
472.344	16871.43
472.78	16956.77
473.216	17230.39
473.652	17021.08
474.088	17013.09
474.523	16948.22
474.959	17125.68
475.395	16962.32
475.831	16805.51
476.266	16866.97
476.702	16781.62
477.138	16542.32
477.573	16452.39
478.008	16327.21
478.444	16314.25
478.879	16330.79
479.314	16304.4
479.75	16180.54
480.185	16161.39
480.62	16195.55
481.055	16141.25
481.49	16080.87
481.925	16124.98
482.36	16085.57
482.795	16241.77
483.229	16364.21
483.664	16389.51
484.099	16179.32
484.534	16168.64
484.968	16095.52
485.403	15962.91
485.837	15802.47
486.271	15644.04
486.706	15577.19
487.14	15435.1
487.574	15207.98
488.009	15110.51
488.443	14996.83
488.877	15080.69
489.311	15077.71
489.745	15175.59
490.179	15226.28
490.613	15371.75
491.046	15430.59
491.48	15464.4
491.914	15396.71
492.348	15428.7
492.781	15440.42
493.215	15431.6
493.648	15464.9
494.082	15553.49
494.515	15506.12
494.948	15587.64
495.382	15644.92
495.815	15644.95
496.248	15648.09
496.681	15816.59
497.114	15956.13
497.547	16027.19
497.98	16113.76
498.413	16034.1
498.846	16046.05
499.279	16083.78
499.711	16065.17
500.144	15997.84
500.577	16047.03
501.009	16130.27
501.442	16157.21
501.874	16040.19
502.306	16008.87
502.739	16037.47
503.171	16281.52
503.603	16275.72
504.036	16352.85
504.468	16324.84
504.9	16394.39
505.332	16398.94
505.764	16340.74
506.196	16343.63
506.627	16445.97
507.059	16493.43
507.491	16508.93
507.923	16246.12
508.354	16288.7
508.786	16266.72
509.217	16357.9
509.649	16394.81
510.08	16489.48
510.512	16503.92
510.943	16498.65
511.374	16432.49
511.805	16501.54
512.237	16560.66
512.668	16815.01
513.099	16955.08
513.53	17033.8
513.961	16991.28
514.391	17100.84
514.822	17191.46
515.253	17360.43
515.684	17386.52
516.114	17478.63
516.545	17455.22
516.975	17504.79
517.406	17455.21
517.836	17250.39
518.267	17132.68
518.697	17168.77
519.127	17054.45
519.558	16983.43
519.988	16855.19
520.418	16813.01
520.848	16844.18
521.278	16773.87
521.708	16344.49
522.138	16319.29
522.567	16484.53
522.997	16562.43
523.427	16526.12
523.857	16489.33
524.286	16406.43
524.716	16386.5
525.145	16404.46
525.575	16357.45
526.004	16366.4
526.433	16555.48
526.863	16429.6
527.292	16200.62
527.721	16162.68
528.15	16164.85
528.579	16121.25
529.008	16169.7
529.437	16320.09
529.866	16365.34
530.295	16433.5
530.724	16433.15
531.152	16581.61
531.581	16611.71
532.01	16698.73
532.438	16703.1
532.867	16764.46
533.295	16858.22
533.723	16842.88
534.152	16761.75
534.58	16707.74
535.008	16525.12
535.436	16498.75
535.865	16534.13
536.293	16626.25
536.721	16715.45
537.149	16869.51
537.576	16820.04
538.004	16883.97
538.432	16925.9
538.86	16885.53
539.287	16936.82
539.715	17039.24
540.143	17073.33
540.57	17043.36
540.998	17029.06
541.425	16829.99
541.852	16695.23
542.28	16733.29
542.707	16645.23
543.134	16559.71
543.561	16562.02
543.988	16530.89
544.415	16570.34
544.842	16554.31
545.269	16518.41
545.696	16559.42
546.123	16731.92
546.549	16670.96
546.976	16581.77
547.403	16601.57
547.829	16654.72
548.256	16713.83
548.682	16712.84
549.108	16671.17
549.535	16706.7
549.961	16759.56
550.387	16667.78
550.813	16628.14
551.24	16713.77
551.666	16757.51
552.092	16698.07
552.518	16669.73
552.943	16626.38
553.369	16722.28
553.795	16791.91
554.221	16807.37
554.646	16792.73
555.072	16878.79
555.498	16937.36
555.923	17011.41
556.349	17131.16
556.774	17199.7
557.199	17196.55
557.625	17269.3
558.05	17210.05
558.475	17316.04
558.9	17305.47
559.325	17226.22
559.75	17187.89
560.175	17146.21
560.6	17115.47
561.025	17118.07
561.449	17143.97
561.874	17207.62
562.299	17229.55
562.723	17295.57
563.148	17186.43
563.572	17223.59
563.997	17316.96
564.421	17372.77
564.846	17370.06
565.27	17377.23
565.694	17340.32
566.118	17421.28
566.542	17464.09
566.966	17389.14
567.39	17319.9
567.814	17196.66
568.238	17179.1
568.662	17227.39
569.086	17253.6
569.509	17352.85
569.933	17239.87
570.357	17230.57
570.78	17100
571.204	17040.53
571.627	17027.2
572.05	17107.08
572.474	17204.02
572.897	17200.76
573.32	17230.48
573.743	17261.23
574.166	17181.96
574.589	17311.68
575.012	17344.74
575.435	17456.02
575.858	17485.37
576.281	17502.91
576.704	17482.49
577.126	17510.08
577.549	17528.81
577.972	17574.97
578.394	17589.96
578.817	17622.5
579.239	17556.63
579.661	17541.85
580.084	17478.89
580.506	17476.26
580.928	17562.47
581.35	17564.07
581.772	17621.44
582.194	17571.67
582.616	17511.97
583.038	17446.58
583.46	17433.13
583.882	17466.99
584.303	17596.92
584.725	17633.11
585.147	17625.74
585.568	17749.3
585.99	17849.88
586.411	17883.35
586.833	18016.45
587.254	18012.69
587.675	18173.32
588.096	18318.89
588.518	18259.21
588.939	18060.3
589.36	18034.01
589.781	18015.88
590.202	17689.1
590.623	17664.58
591.043	17719.07
591.464	17624.98
591.885	17614.83
592.305	17566.83
592.726	17416.81
593.147	17429.48
593.567	17367.54
593.987	17269.95
594.408	17187.68
594.828	17181.11
595.248	17060.95
595.669	16788.01
596.089	16669.75
596.509	16567.21
596.929	16359.17
597.349	16307.54
597.769	16133.02
598.189	15987.58
598.608	15934.75
599.028	15882.41
599.448	15824.87
599.867	15638.85
600.287	15562.41
600.706	15466.8
601.126	15313.51
601.545	15261.94
601.965	15229.81
602.384	15158.5
602.803	15184.25
603.222	15120.77
603.641	15054.4
604.061	15007.61
604.48	14974.76
604.898	15070.53
605.317	15144.56
605.736	15181.82
606.155	15161.31
606.574	15075.01
606.992	15149.42
607.411	15112.41
607.829	15063.72
608.248	15065.03
608.666	15083.26
609.085	15106.78
609.503	15046.33
609.921	15009.42
610.339	15072.48
610.758	15117.5
611.176	15111.53
611.594	15054.92
612.012	15071.85
612.43	15141.15
612.847	15259.04
613.265	15290.08
613.683	15381.3
614.101	15439.77
614.518	15455.66
614.936	15396.38
615.353	15279.27
615.771	15295.58
616.188	15354.1
616.606	15365.68
617.023	15347.04
617.44	15238.16
617.857	15240.11
618.274	15204.71
618.691	15173.89
619.108	15106.18
619.525	15067.96
619.942	15165.82
620.359	15212.71
620.776	15165.9
621.192	15108.18
621.609	15067.31
622.026	15116.48
622.442	15158.3
622.859	15180.35
623.275	15085.4
623.691	15132.55
624.108	15249.71
624.524	15405.49
624.94	15379.57
625.356	15471.58
625.772	15619.69
626.188	15752.21
626.604	15759.52
627.02	15697.45
627.436	15648.48
627.852	15699.78
628.268	15815.5
628.683	15694.42
629.099	15583.31
629.514	15540.04
629.93	15594.12
630.345	15653.41
630.761	15622.03
631.176	15682.66
631.591	15614.5
632.007	15567.63
632.422	15593.37
632.837	15498.56
633.252	15492.98
633.667	15413.33
634.082	15343.41
634.497	15226.64
634.911	15024.36
635.326	15034.9
635.741	14884.78
636.155	14843.92
636.57	14904.4
636.984	14952.22
637.399	15011.54
637.813	15083.3
638.228	15130.39
638.642	15247.52
639.056	15192.26
639.47	15274.14
639.884	15233.4
640.298	15226.77
640.712	15273.01
641.126	15201.6
641.54	15181.61
641.954	15238.57
642.368	15151.97
642.781	15090.35
643.195	14932.24
643.609	14995.44
644.022	14975.43
644.436	14970.32
644.849	14853.66
645.262	14741.49
645.676	14804.48
646.089	14750.48
646.502	14528.78
646.915	14485.82
647.328	14317.9
647.741	14328.41
648.154	14192.96
648.567	14151.63
648.98	13997.24
649.393	14048.23
649.805	14041.93
650.218	13987.39
650.631	13818.88
651.043	13797.21
651.456	13748.52
651.868	13781.38
652.28	14010.57
652.693	14139.9
653.105	14144.87
653.517	14148.98
653.929	14024.96
654.341	14009.36
654.753	13781.13
655.165	13846.39
655.577	13812.05
655.989	13777.61
656.401	13731.2
656.813	13302.27
657.224	13173.99
657.636	12996.85
658.047	12954.9
658.459	12892.74
658.87	12966.52
659.282	12960.39
659.693	12767.95
660.104	12651.63
660.515	12545.61
660.926	12595.99
661.338	12648.51
661.749	12635.78
662.159	12547.77
662.57	12572.83
662.981	12562.69
663.392	12490.24
663.803	12595.07
664.213	12617.62
664.624	12607.45
665.035	12702.01
665.445	12539.32
665.855	12449.88
666.266	12336.54
666.676	12334.63
667.086	12208.34
667.497	12195.88
667.907	12105.82
668.317	11962.36
668.727	11842.01
669.137	11853.82
669.547	11796.35
669.956	11824.92
670.366	11835.81
670.776	11832.26
671.186	11867.5
671.595	11879.11
672.005	11916.2
672.414	11856.5
672.824	11785.04
673.233	11879.09
673.642	11867.71
674.052	11857.43
674.461	11818.57
674.87	11850.4
675.279	11750.63
675.688	11743.48
676.097	11695.07
676.506	11592.34
676.915	11766.13
677.323	11751.42
677.732	11667.65
678.141	11603.86
678.549	11409.08
678.958	11358.72
679.366	11295.27
679.775	11332.96
680.183	11367.21
680.592	11392.78
681	11390.06
681.408	11201.49
681.816	11227.23
682.224	11259.03
