Data from C_3_DIV_OH_2N_Splice17_12-47-57-792.txt Node
Date: Sat Mar 14 12:47:57 EDT 2020
User: sa697716
Spectrometer: FLMS03696
Trigger mode: 0
Integration Time (sec): 3.180400E-1
Scans to average: 20
Electric dark correction enabled: true
Nonlinearity correction enabled: true
Boxcar width: 5
XAxis mode: Wavelengths
Number of Pixels in Spectrum: 2048
>>>>>Begin Spectral Data<<<<<
187.83	-429453.97
188.298	3087.74
188.766	1617.39
189.233	1494.49
189.701	2064.69
190.169	2902.54
190.636	1149.86
191.104	891.11
191.571	171.83
192.039	-25.23
192.506	-57.22
192.974	548.36
193.441	-667.64
193.908	-176.07
194.375	-43.89
194.842	7.9
195.31	93.43
195.777	165.46
196.244	292.25
196.711	177.93
197.177	151.39
197.644	170.52
198.111	302.44
198.578	374.55
199.045	282.79
199.511	444.64
199.978	451.19
200.445	445.31
200.911	462.16
201.378	424.73
201.844	433.15
202.31	739.36
202.777	770.92
203.243	418.34
203.709	399.36
204.176	511.25
204.642	419.63
205.108	398.58
205.574	290.02
206.04	236.15
206.506	225.28
206.972	194.96
207.438	186.49
207.903	184.75
208.369	177.86
208.835	195.43
209.301	214.62
209.766	197.73
210.232	200.96
210.697	240.14
211.163	285.66
211.628	421.39
212.094	412.18
212.559	626.08
213.024	437.66
213.49	553.97
213.955	514.68
214.42	427.48
214.885	415.29
215.35	418.27
215.815	502.67
216.28	552.51
216.745	454.6
217.21	517.07
217.675	447.46
218.14	524.51
218.604	583.36
219.069	714.4
219.534	831.68
219.998	972.98
220.463	1212.44
220.927	1451.23
221.392	1414.67
221.856	1483.79
222.32	1826.58
222.785	2295.2
223.249	2915.74
223.713	3301.87
224.177	3355.74
224.642	4303.67
225.106	5382.6
225.57	5889.28
226.034	4499.45
226.497	6893.16
226.961	6354.83
227.425	7555.86
227.889	8474.2
228.353	8496.55
228.816	17633.55
229.28	16976.31
229.744	14366.67
230.207	8852.83
230.671	8787.58
231.134	14436.75
231.597	16830.84
232.061	16784.41
232.524	16368.91
232.987	11320.93
233.45	10288.14
233.914	9264.15
234.377	9495.53
234.84	8746.03
235.303	10277.09
235.766	11508.03
236.229	11942.61
236.691	7494.7
237.154	8403.28
237.617	6365.95
238.08	6518.9
238.542	7636.32
239.005	5493.74
239.468	5473.14
239.93	5171.8
240.393	4726.09
240.855	4165.31
241.317	4257.53
241.78	5198.4
242.242	5417.73
242.704	5904.69
243.166	5165.62
243.629	4750.01
244.091	5496.34
244.553	6045.84
245.015	6532.64
245.477	8475.79
245.939	12432.91
246.4	13270.54
246.862	12923.94
247.324	12226.03
247.786	13674.89
248.247	17965.84
248.709	18471.4
249.17	13846.6
249.632	13191.96
250.093	15412.27
250.555	13375.16
251.016	8217.85
251.477	7844.86
251.939	8534.53
252.4	8983.58
252.861	10685.16
253.322	10024.69
253.783	11934.76
254.244	15516.45
254.705	12223.64
255.166	10832.63
255.627	10694.35
256.088	15158.26
256.549	16122.97
257.009	13884.84
257.47	16854.31
257.931	13767.7
258.391	10316.03
258.852	10669.57
259.312	11201.81
259.773	13857.84
260.233	11803.39
260.694	10029.33
261.154	11400.81
261.614	9201.47
262.074	8235.34
262.534	8603.46
262.994	8136.81
263.455	10866.71
263.915	9204.35
264.374	8704.17
264.834	9520.96
265.294	10540.7
265.754	10892.33
266.214	10322.21
266.673	9692.22
267.133	12263.31
267.593	12160.9
268.052	14942.33
268.512	12997.52
268.971	15745.62
269.431	17308.65
269.89	15494.09
270.349	23326.96
270.809	26116.68
271.268	23511.23
271.727	52597.22
272.186	34105.8
272.645	25618.49
273.104	18437.69
273.563	26783.73
274.022	21022.79
274.481	17949.7
274.94	13894.85
275.399	10324.58
275.857	12027.3
276.316	16293.39
276.775	14568.31
277.233	14405.24
277.692	13580.44
278.15	15418.75
278.609	15943.34
279.067	14783.22
279.525	13764.42
279.984	17775.34
280.442	21376.12
280.9	21232.25
281.358	14002.48
281.816	13105.45
282.274	12829.81
282.732	13226.92
283.19	13314.9
283.648	11482.44
284.106	12258.94
284.564	12492.08
285.021	11641.45
285.479	8728.19
285.937	7898.48
286.394	6956.09
286.852	7170.98
287.309	7563.41
287.767	7371.78
288.224	7054.53
288.682	7754.97
289.139	8561.97
289.596	7870.63
290.053	8207.78
290.511	10369.76
290.968	12662.98
291.425	17278.09
291.882	14501.91
292.339	12716.94
292.796	12645.69
293.252	11960.05
293.709	9579.46
294.166	8605.03
294.623	9530.48
295.079	9168.16
295.536	9265.83
295.992	8454.47
296.449	8389.2
296.905	8725.78
297.362	8414.93
297.818	8844.6
298.274	9217.31
298.731	9382.27
299.187	9286.34
299.643	9974.7
300.099	12071.01
300.555	13242.67
301.011	11069.76
301.467	10722.49
301.923	12537.27
302.379	12227.44
302.835	12026.27
303.291	12020.03
303.746	13669.68
304.202	17339.54
304.658	17426.92
305.113	11720.57
305.569	11523.68
306.024	12278.32
306.479	11625.81
306.935	9818.06
307.39	10713.75
307.845	9914.48
308.301	10001.77
308.756	9765.28
309.211	9397.3
309.666	9617.2
310.121	11974
310.576	12094.33
311.031	11978.17
311.486	13714.61
311.94	13640.95
312.395	18214.16
312.85	34122.36
313.305	166608.6
313.759	867179.75
314.214	62787.03
314.668	49797.61
315.123	41927.8
315.577	15094.69
316.032	13445.39
316.486	16803.79
316.94	13347.69
317.394	9318.94
317.849	7273.37
318.303	6895.18
318.757	6508.84
319.211	7219.4
319.665	6337.72
320.119	6431.43
320.572	9210.77
321.026	8630.54
321.48	7200.6
321.934	7821.32
322.387	7810.1
322.841	8424.92
323.295	7637.41
323.748	8754.41
324.202	8883.27
324.655	10705.77
325.108	14993.42
325.562	10625.79
326.015	12607.36
326.468	9548.43
326.921	10702.1
327.374	10021.95
327.827	10492.09
328.28	11820.14
328.733	7935.63
329.186	6964.99
329.639	6621.44
330.092	5565.24
330.545	5290.84
330.997	5349.18
331.45	5862.07
331.903	6902.89
332.355	11823.28
332.808	11450.52
333.26	9449.82
333.713	10272.12
334.165	10365.01
334.617	13794.17
335.069	11107.9
335.522	20032.08
335.974	22171.81
336.426	20147.65
336.878	13840.56
337.33	7034.66
337.782	6849.6
338.234	8632.02
338.686	10313.78
339.137	12205.71
339.589	11518.33
340.041	9057.97
340.493	7806.48
340.944	7990.03
341.396	8673.76
341.847	7357.48
342.299	8747.1
342.75	10789.84
343.201	9422.33
343.653	10855.57
344.104	13379.69
344.555	10549.08
345.006	16452.68
345.457	12693.62
345.908	10121.25
346.359	9542.68
346.81	7788.69
347.261	8203.42
347.712	8075.78
348.163	8631.22
348.613	8787.16
349.064	8241.18
349.515	7246.29
349.965	7462.57
350.416	8974.12
350.866	9843.99
351.317	11107.5
351.767	18375.5
352.217	23207.34
352.668	19267.47
353.118	17748.97
353.568	17101.65
354.018	13554.91
354.468	14327.37
354.918	10264.21
355.368	8980.67
355.818	12671.98
356.268	36472.47
356.718	153131.98
357.168	38238.6
357.617	19149.12
358.067	21241.91
358.517	19895.62
358.966	23315.85
359.416	26144.98
359.865	28288.66
360.315	33772.79
360.764	15878.51
361.213	8918.26
361.663	8410.2
362.112	10356.68
362.561	16693.11
363.01	12653.74
363.459	10642.97
363.908	11517.4
364.357	9835.43
364.806	16604.66
365.255	11382.97
365.703	10444.38
366.152	10466.86
366.601	8523.11
367.05	6941.71
367.498	6330.61
367.947	6596.09
368.395	6849.19
368.844	6048.4
369.292	7225.76
369.74	4996.74
370.189	7668.24
370.637	8962.05
371.085	7734.7
371.533	9419.64
371.981	9063.32
372.429	8685.05
372.877	9041.44
373.325	7593.17
373.773	7725.8
374.221	6905.58
374.669	8563.62
375.116	7386.16
375.564	7439.12
376.012	8312.5
376.459	6829.27
376.907	8150.42
377.354	9845.05
377.801	9208.71
378.249	10600.07
378.696	13564.13
379.143	16417.02
379.591	17458.11
380.038	29609.54
380.485	21480.97
380.932	23086.28
381.379	21292.29
381.826	15752.88
382.273	11148.13
382.72	9705.09
383.166	9443.19
383.613	6135.71
384.06	5538.64
384.506	6410.19
384.953	4689.92
385.4	4697.08
385.846	4111.71
386.292	3971.46
386.739	3868.44
387.185	3812.33
387.631	3806.89
388.078	3711.84
388.524	3958.11
388.97	3641
389.416	3037.75
389.862	3230.97
390.308	3055.16
390.754	3111.51
391.2	3360.57
391.645	3422.99
392.091	3296.27
392.537	3175.27
392.983	3146.38
393.428	3113.87
393.874	3318.41
394.319	3338.44
394.765	3174.39
395.21	3248.43
395.655	3025.5
396.101	2832.49
396.546	2561.85
396.991	2557.38
397.436	2368.09
397.881	2283.08
398.326	2127.48
398.771	2012.47
399.216	1735.25
399.661	1542.43
400.106	1536.12
400.551	1569.37
400.995	1404.75
401.44	1382.97
401.885	1293.98
402.329	1307.23
402.774	1257.21
403.218	1234
403.663	1184.13
404.107	1222.4
404.551	1235.14
404.995	1127.14
405.44	1080.86
405.884	1090.2
406.328	1043.64
406.772	1036.54
407.216	940.32
407.66	901.41
408.104	840.11
408.547	781.96
408.991	753.03
409.435	720.52
409.879	711.67
410.322	702.56
410.766	682.51
411.209	650.18
411.653	624.56
412.096	613.4
412.54	612.11
412.983	610.07
413.426	617.47
413.869	614.81
414.312	603.8
414.756	578.15
415.199	547.45
415.642	528.23
416.085	527.53
416.527	520.22
416.97	523.83
417.413	495.28
417.856	485.85
418.298	476.77
418.741	469.12
419.184	463.7
419.626	478.33
420.069	479.43
420.511	483.2
420.953	475.05
421.396	472.02
421.838	457.24
422.28	466.52
422.722	470.88
423.164	473.7
423.606	466.22
424.048	464.08
424.49	442.68
424.932	437.19
425.374	426.68
425.816	429.74
426.258	435.74
426.699	443.29
427.141	439.58
427.582	443.92
428.024	442.29
428.465	437.92
428.907	425.01
429.348	419.15
429.789	421.19
430.231	416.78
430.672	424.82
431.113	416.6
431.554	408.66
431.995	393.23
432.436	380.57
432.877	372.79
433.318	369.07
433.759	367.7
434.2	367.3
434.64	362.09
435.081	361.12
435.522	340.72
435.962	324.32
436.403	317.93
436.843	322.74
437.284	312.95
437.724	301.14
438.164	296.6
438.604	288.07
439.045	278.88
439.485	270.13
439.925	262.37
440.365	253.36
440.805	248.81
441.245	247.23
441.685	235.2
442.125	232.27
442.564	231.65
443.004	228.37
443.444	228.62
443.883	226.34
444.323	220.41
444.762	217.04
445.202	218.14
445.641	224.66
446.081	217.32
446.52	220.22
446.959	218.59
447.398	215.13
447.837	211.63
448.276	205.12
448.716	206.04
449.154	205.83
449.593	202.7
450.032	201.79
450.471	193.01
450.91	193.67
451.349	195.45
451.787	192.28
452.226	193.45
452.664	193.17
453.103	194.39
453.541	193.15
453.98	196.06
454.418	195.93
454.856	194.14
455.295	196.03
455.733	197.69
456.171	196.52
456.609	197.12
457.047	198.09
457.485	202.13
457.923	204.18
458.361	201.37
458.798	200.59
459.236	201.12
459.674	201.42
460.111	201.36
460.549	200.91
460.987	199.13
461.424	197.7
461.862	196.21
462.299	192.7
462.736	192.73
463.173	193.5
463.611	195.64
464.048	195.49
464.485	198.92
464.922	197.27
465.359	194.65
465.796	202.56
466.233	203.78
466.67	204.46
467.106	205.38
467.543	201.18
467.98	197.38
468.416	188.28
468.853	185.33
469.29	178.21
469.726	176.05
470.162	170.57
470.599	158.99
471.035	155.64
471.471	150.02
471.907	146.12
472.344	144.82
472.78	146.52
473.216	147.93
473.652	146.68
474.088	145.92
474.523	146.43
474.959	148.56
475.395	147.77
475.831	147.15
476.266	147.54
476.702	147.19
477.138	146.34
477.573	144.72
478.008	144.01
478.444	145.81
478.879	149.13
479.314	149.87
479.75	149.79
480.185	150.31
480.62	150.45
481.055	151.76
481.49	153.26
481.925	155.71
482.36	161.48
482.795	165.45
483.229	168.14
483.664	170.56
484.099	170.52
484.534	173.7
484.968	175.94
485.403	177.35
485.837	176.25
486.271	175.86
486.706	175.09
487.14	170.93
487.574	168.2
488.009	166.58
488.443	164.3
488.877	166.7
489.311	166.07
489.745	167.86
490.179	169.33
490.613	174.15
491.046	174.35
491.48	175.66
491.914	175.76
492.348	176.63
492.781	177.8
493.215	176.9
493.648	174.94
494.082	175.57
494.515	175.03
494.948	176.85
495.382	175.02
495.815	175.97
496.248	176.35
496.681	177.91
497.114	178.53
497.547	179.56
497.98	183.57
498.413	185.94
498.846	187.56
499.279	187.41
499.711	185.66
500.144	184.31
500.577	186.47
501.009	187.34
501.442	189.61
501.874	189.41
502.306	188.1
502.739	191.39
503.171	192.25
503.603	191.11
504.036	191.58
504.468	191.99
504.9	193.19
505.332	191.67
505.764	191.55
506.196	190.47
506.627	191.54
507.059	191.98
507.491	186.95
507.923	185.47
508.354	187.53
508.786	188.14
509.217	189.32
509.649	190.88
510.08	192.58
510.512	194.1
510.943	194.91
511.374	195.9
511.805	197.63
512.237	199.39
512.668	200.91
513.099	202.22
513.53	204.21
513.961	206.15
514.391	208.77
514.822	214.06
515.253	217.11
515.684	218.86
516.114	221.17
516.545	223.88
516.975	226.66
517.406	227.99
517.836	225.89
518.267	225.81
518.697	227.83
519.127	227.04
519.558	224.6
519.988	222.86
520.418	222.09
520.848	222.07
521.278	220.48
521.708	248.44
522.138	249.61
522.567	252.26
522.997	254.11
523.427	253.21
523.857	253.7
524.286	253.68
524.716	255.4
525.145	258.33
525.575	259.96
526.004	260.3
526.433	230.85
526.863	228.55
527.292	228.26
527.721	228.81
528.15	229.05
528.579	228.81
529.008	230.24
529.437	231.51
529.866	231.01
530.295	231.62
530.724	234.02
531.152	237.1
531.581	239.82
532.01	240.91
532.438	240.4
532.867	240.92
533.295	243.26
533.723	242.78
534.152	242.89
534.58	243.48
535.008	241.45
535.436	242.55
535.865	242.99
536.293	243.6
536.721	244.3
537.149	248.04
537.576	250.45
538.004	251.68
538.432	252.31
538.86	251.94
539.287	252.07
539.715	253.66
540.143	251.51
540.57	250.99
540.998	250.35
541.425	249.28
541.852	245.57
542.28	243.54
542.707	240.66
543.134	238.57
543.561	237.93
543.988	237.28
544.415	236.49
544.842	236.03
545.269	235.23
545.696	236.66
546.123	237.7
546.549	236.67
546.976	235.21
547.403	235.7
547.829	235.1
548.256	235.09
548.682	234.73
549.108	235.61
549.535	235.16
549.961	234.56
550.387	231.9
550.813	232.45
551.24	233.32
551.666	232.75
552.092	231.11
552.518	231.06
552.943	230.75
553.369	230.93
553.795	230.63
554.221	230.42
554.646	230.77
555.072	233.57
555.498	232.23
555.923	232.74
556.349	235.27
556.774	236.45
557.199	236.61
557.625	236.88
558.05	237.07
558.475	238.2
558.9	239.34
559.325	238.81
559.75	238.33
560.175	237.92
560.6	237.79
561.025	237.11
561.449	238.47
561.874	238.8
562.299	240.58
562.723	240.74
563.148	239.82
563.572	239.94
563.997	241.63
564.421	240.67
564.846	240.84
565.27	241.96
565.694	242.97
566.118	244.03
566.542	247.33
566.966	246.66
567.39	247.48
567.814	247.02
568.238	248.17
568.662	249.16
569.086	251.31
569.509	252.25
569.933	252.69
570.357	252.11
570.78	250.31
571.204	250.24
571.627	248.95
572.05	248.89
572.474	250.28
572.897	249.52
573.32	250.56
573.743	249.08
574.166	248.38
574.589	247.23
575.012	246.39
575.435	246.06
575.858	244.77
576.281	243.87
576.704	242
577.126	240.57
577.549	238.58
577.972	236.17
578.394	235.47
578.817	237.28
579.239	234.97
579.661	234.62
580.084	234.99
580.506	233.64
580.928	233.42
581.35	232.52
581.772	231.67
582.194	230.4
582.616	228.87
583.038	226.53
583.46	223.08
583.882	222.72
584.303	222.05
584.725	219.96
585.147	225.7
585.568	228.36
585.99	231.76
586.411	233.48
586.833	237.4
587.254	238.07
587.675	240.77
588.096	243.53
588.518	243.86
588.939	242.84
589.36	243.74
589.781	235.33
590.202	234.14
590.623	232.87
591.043	231.7
591.464	229.42
591.885	229.64
592.305	228.61
592.726	226.05
593.147	226.1
593.567	225.25
593.987	223.84
594.408	223.27
594.828	219.25
595.248	219.61
595.669	218.01
596.089	217.18
596.509	215.96
596.929	214.1
597.349	215.04
597.769	213.33
598.189	212.81
598.608	213.31
599.028	214.68
599.448	215.16
599.867	211.81
600.287	210.59
600.706	210.95
601.126	210.16
601.545	211.46
601.965	210.91
602.384	210.63
602.803	210.85
603.222	210.74
603.641	209.55
604.061	209.87
604.48	209.38
604.898	211.13
605.317	211.4
605.736	211.48
606.155	211.64
606.574	210.61
606.992	211.81
607.411	212.64
607.829	210.06
608.248	209.14
608.666	208.45
609.085	209.61
609.503	209.14
609.921	209.25
610.339	210.12
610.758	209.35
611.176	208.99
611.594	208.52
612.012	207.73
612.43	210.8
612.847	212.56
613.265	214.59
613.683	215.5
614.101	216.09
614.518	214.98
614.936	214.03
615.353	212.65
615.771	213.04
616.188	213.62
616.606	213.57
617.023	212.65
617.44	211.41
617.857	209.29
618.274	207.89
618.691	208.05
619.108	207.35
619.525	206.55
619.942	209.1
620.359	209.42
620.776	208.82
621.192	209.28
621.609	209.36
622.026	211.13
622.442	213.24
622.859	213.39
623.275	211.52
623.691	212.53
624.108	214.35
624.524	215.74
624.94	216.77
625.356	218.01
625.772	218.66
626.188	220.37
626.604	220.78
627.02	219.18
627.436	220.24
627.852	223.21
628.268	225.61
628.683	224.16
629.099	222.33
629.514	219.97
629.93	220.61
630.345	222.23
630.761	220.46
631.176	221.15
631.591	223.07
632.007	222.27
632.422	219.55
632.837	216.29
633.252	218.3
633.667	217.12
634.082	216.73
634.497	216.12
634.911	215.13
635.326	216.52
635.741	213.98
636.155	210.57
636.57	212.78
636.984	214.14
637.399	218.72
637.813	217.03
638.228	217.39
638.642	218.23
639.056	216.41
639.47	215.93
639.884	214.83
640.298	214.41
640.712	216.7
641.126	214.28
641.54	213.42
641.954	209.54
642.368	209.54
642.781	212.98
643.195	211.86
643.609	214.32
644.022	214.19
644.436	214.19
644.849	211.59
645.262	207.89
645.676	207.89
646.089	207.68
646.502	208.62
646.915	207.5
647.328	203.06
647.741	203.69
648.154	201.13
648.567	204.73
648.98	202.31
649.393	204.5
649.805	205.53
650.218	204.98
650.631	202.95
651.043	201.67
651.456	202.41
651.868	201.7
652.28	204.35
652.693	206.65
653.105	205.1
653.517	208.2
653.929	208.43
654.341	210.93
654.753	210.4
655.165	212.8
655.577	212.91
655.989	211.17
656.401	209.22
656.813	204.98
657.224	202.76
657.636	196.55
658.047	194.68
658.459	192.31
658.87	189.86
659.282	187.45
659.693	185.29
660.104	183.78
660.515	182.49
660.926	185.16
661.338	184.65
661.749	182.71
662.159	183.16
662.57	181.3
662.981	180.61
663.392	180.07
663.803	181.56
664.213	180.06
664.624	178.95
665.035	180.18
665.445	176.47
665.855	176.94
666.266	177.69
666.676	177.69
667.086	176.25
667.497	177.87
667.907	178.2
668.317	176.45
668.727	180.49
669.137	180.81
669.547	180.13
669.956	180.63
670.366	180.23
670.776	180.03
671.186	181.73
671.595	183.3
672.005	182.1
672.414	182.72
672.824	183.51
673.233	181.06
673.642	181.94
674.052	184.59
674.461	186.46
674.87	186.75
675.279	188.31
675.688	185.98
676.097	187.89
676.506	187.94
676.915	189
677.323	188.54
677.732	186.42
678.141	184.46
678.549	179.47
678.958	177.07
679.366	176
679.775	173.75
680.183	178.84
680.592	178.45
681	178.51
681.408	176.4
681.816	177.29
682.224	177.72
682.632	181.45
683.04	188.33
683.448	192.51
683.856	197.46
684.264	204.08
684.671	205.25
685.079	209.51
685.487	214.79
685.894	224.38
686.302	229.33
686.709	235.06
687.116	240.04
687.524	244.73
687.931	248.54
688.338	250.68
688.745	249.64
689.152	251.16
689.559	254.7
689.966	260.49
690.373	259.07
690.78	262.53
691.187	267.28
691.593	268.91
692	267.34
692.407	271.42
692.813	280.03
693.22	284.56
693.626	287.13
694.032	289.91
694.439	294.93
694.845	298.04
695.251	302.45
695.657	307.8
696.063	315.2
696.469	319.95
696.875	324.61
697.281	323.5
697.687	325.78
698.093	328.57
698.498	335.26
698.904	336.59
699.31	343.43
699.715	351.61
700.12	358.99
700.526	359.47
700.931	365.79
701.337	369.07
701.742	371.01
702.147	377.56
702.552	378.42
702.957	380.32
703.362	381.09
703.767	382.37
704.172	381.92
704.577	373.9
704.981	375.72
705.386	376.23
705.791	373.81
706.195	378.87
706.6	377.23
707.004	381.95
707.408	376.74
707.813	380.05
708.217	377.44
708.621	375.72
709.025	385.37
709.43	386.63
709.834	391.85
710.237	397.11
710.641	394.64
711.045	397.19
711.449	398.82
711.853	407.06
712.256	407.95
712.66	410.92
713.064	417.51
