Data from C_3_HIR_WI_4N_Splice17_13-10-40-143.txt Node
Date: Sat Mar 14 13:10:40 EDT 2020
User: sa697716
Spectrometer: FLMS03696
Trigger mode: 0
Integration Time (sec): 3.180400E-1
Scans to average: 20
Electric dark correction enabled: true
Nonlinearity correction enabled: true
Boxcar width: 5
XAxis mode: Wavelengths
Number of Pixels in Spectrum: 2048
>>>>>Begin Spectral Data<<<<<
187.83	-282382.01
188.298	2108.42
188.766	1121.61
189.233	993.18
189.701	1393.32
190.169	1926.08
190.636	704.73
191.104	613.18
191.571	104.92
192.039	-65.78
192.506	-59.51
192.974	513.25
193.441	-760.77
193.908	-184.02
194.375	-60.74
194.842	-21.1
195.31	14
195.777	105.81
196.244	349.04
196.711	436.78
197.177	565.21
197.644	806.59
198.111	1403.59
198.578	1975.8
199.045	1575.24
199.511	2603.79
199.978	3037.91
200.445	2599.7
200.911	2890.17
201.378	3211.85
201.844	2909.8
202.31	4953.52
202.777	5195.23
203.243	2880.73
203.709	2720.23
204.176	3235.49
204.642	2647.41
205.108	2465.18
205.574	1991.22
206.04	1816.45
206.506	1703.13
206.972	1607.52
207.438	1557.36
207.903	1761.16
208.369	1544.23
208.835	1569.32
209.301	1652.51
209.766	1689.03
210.232	1683.95
210.697	2090.75
211.163	2557.56
211.628	3855.05
212.094	3233.41
212.559	3973.76
213.024	2475.36
213.49	3029.22
213.955	2936.4
214.42	2864.39
214.885	2675.98
215.35	2566.48
215.815	2483.39
216.28	2651.43
216.745	2158.61
217.21	2353.79
217.675	2165.24
218.14	2451.23
218.604	2758.85
219.069	3161.23
219.534	3338.65
219.998	3900.58
220.463	4741.01
220.927	5843.03
221.392	5506.05
221.856	5588.29
222.32	7037.32
222.785	8721.36
223.249	10980.51
223.713	12233.09
224.177	12240.54
224.642	15694.7
225.106	19322.95
225.57	21112.12
226.034	15719.49
226.497	23909.01
226.961	21585.15
227.425	25126.7
227.889	27833.2
228.353	27838.39
228.816	57426.13
229.28	54836.18
229.744	46171.89
230.207	28037.83
230.671	27564.69
231.134	45558.49
231.597	52624.41
232.061	52568.97
232.524	51193.65
232.987	35233.17
233.45	31653.86
233.914	28387.3
234.377	29067.1
234.84	26593.09
235.303	31320.56
235.766	34922.96
236.229	36054.01
236.691	22657.35
237.154	25421.68
237.617	19127.83
238.08	19571.72
238.542	22908.43
239.005	16350.91
239.468	16226.64
239.93	15295.99
240.393	13891.17
240.855	12185.65
241.317	12480.5
241.78	15180.45
242.242	15711.14
242.704	16955.84
243.166	14747.17
243.629	13393.41
244.091	15444.16
244.553	16912.82
245.015	18156.13
245.477	23464.22
245.939	34405.4
246.4	36436.2
246.862	35390.69
247.324	33349.34
247.786	37326.46
248.247	48961.44
248.709	50509.49
249.17	37772.32
249.632	35627.11
250.093	41313.09
250.555	35666.73
251.016	21754.3
251.477	20643.27
251.939	22283.78
252.4	23363.11
252.861	27733.1
253.322	25772.81
253.783	30655.14
254.244	39676.62
254.705	31239.45
255.166	27765.66
255.627	27348.34
256.088	38541.45
256.549	40945.46
257.009	35253.46
257.47	42723.74
257.931	34795.91
258.391	26099.79
258.852	26912.16
259.312	28214.44
259.773	34863.99
260.233	29444.04
260.694	24848.21
261.154	28178.31
261.614	22633.22
262.074	20208.8
262.534	21004.7
262.994	19802.58
263.455	26379.81
263.915	22215.54
264.374	20954.26
264.834	22884.84
265.294	25373.87
265.754	26278.37
266.214	24873.85
266.673	23264.61
267.133	29387.21
267.593	29168.04
268.052	35720.3
268.512	31026.07
268.971	37410.44
269.431	40976.07
269.89	36653.55
270.349	54925.45
270.809	61226.36
271.268	54999.54
271.727	123446.29
272.186	79917.39
272.645	59901.73
273.104	43139.07
273.563	62453.95
274.022	49136.59
274.481	41790.75
274.94	32185.3
275.399	23910.14
275.857	27801.37
276.316	37577.87
276.775	33402.98
277.233	32881.82
277.692	30770.28
278.15	34816.15
278.609	35764.79
279.067	33036.69
279.525	30677.49
279.984	39610.77
280.442	47563.38
280.9	46897.29
281.358	30833.86
281.816	28729.59
282.274	28116.31
282.732	29009.23
283.19	29129.56
283.648	25160.28
284.106	26782.58
284.564	27212.02
285.021	25185.35
285.479	18742.81
285.937	17012.8
286.394	14928.69
286.852	15340.75
287.309	16103.53
287.767	15558.87
288.224	14785.15
288.682	16225.41
289.139	17812.06
289.596	16302.46
290.053	16960.11
290.511	21411.59
290.968	25996.05
291.425	35263.54
291.882	29368.87
292.339	25572.74
292.796	25354.36
293.252	23879.85
293.709	18939.77
294.166	16959.68
294.623	18729.72
295.079	17947.31
295.536	18022.74
295.992	16353.8
296.449	16151.19
296.905	16763.93
297.362	16045.57
297.818	16856.26
298.274	17480.59
298.731	17801.49
299.187	17600.19
299.643	18870.38
300.099	22808.84
300.555	25006.06
301.011	20870.99
301.467	20130.79
301.923	23547.48
302.379	23010.05
302.835	22616.97
303.291	22621.15
303.746	25732.94
304.202	32512.46
304.658	32651.95
305.113	21945.59
305.569	21482.28
306.024	22885.74
306.479	21769.75
306.935	18355.87
307.39	20030.96
307.845	18485.72
308.301	18606.83
308.756	18141.03
309.211	17474.83
309.666	17899.98
310.121	22206.59
310.576	22519.81
311.031	22328.95
311.486	25535.87
311.94	25491.72
312.395	34074.17
312.85	63987.91
313.305	314083.39
313.759	1626064.75
314.214	117807.06
314.668	93434.54
315.123	78600.32
315.577	28226.5
316.032	25106.02
316.486	31466.45
316.94	24858.2
317.394	17291.15
317.849	13444.03
318.303	12723.31
318.757	12000.45
319.211	13273.31
319.665	11604.73
320.119	11755.22
320.572	16828.51
321.026	15736.76
321.48	13091.07
321.934	14247.42
322.387	14274.99
322.841	15392.31
323.295	13855.95
323.748	15935.25
324.202	16145.83
324.655	19409.4
325.108	27081.42
325.562	19129.71
326.015	22718.43
326.468	17178.89
326.921	19217.77
327.374	17930.9
327.827	18688.54
328.28	21118.38
328.733	14168.56
329.186	12439.65
329.639	11846.71
330.092	9981.12
330.545	9515.04
330.997	9594.54
331.45	10491.2
331.903	12318.74
332.355	21202.04
332.808	20617.81
333.26	17010.66
333.713	18436.36
334.165	18575.58
334.617	24763.8
335.069	20000.41
335.522	36111.87
335.974	39973.33
336.426	36481.93
336.878	25180.27
337.33	12750.57
337.782	12434.39
338.234	15590.47
338.686	18683.2
339.137	22166.71
339.589	20861.2
340.041	16383.29
340.493	14079.47
340.944	14423.71
341.396	15539.8
341.847	13096.62
342.299	15467.93
342.75	18910.12
343.201	16513.81
343.653	18953.31
344.104	23252.06
344.555	18294.11
345.006	28461.79
345.457	21829.4
345.908	17318.81
346.359	16266.87
346.81	13247.11
347.261	13951.81
347.712	13707.95
348.163	14675.01
348.613	14894.87
349.064	13908.83
349.515	12188.41
349.965	12493.76
350.416	15011.03
350.866	16465.02
351.317	18635.06
351.767	30827.68
352.217	38916.7
352.668	32278.05
353.118	29540.1
353.568	28391.14
354.018	22429.17
354.468	23641.62
354.918	16945.48
355.368	14834.72
355.818	20970.13
356.268	60327.66
356.718	252422.84
357.168	62838.81
357.617	31576.73
358.067	35190.68
358.517	32958.18
358.966	38641.72
359.416	43406.01
359.865	46910.72
360.315	56004.31
360.764	26171.95
361.213	14690.07
361.663	13903.53
362.112	17162.52
362.561	27698.06
363.01	20852.54
363.459	17536.98
363.908	18999.53
364.357	16168.87
364.806	27306.59
365.255	18730.25
365.703	17150.55
366.152	17141.6
366.601	13860.25
367.05	11260.96
367.498	10224.74
367.947	10702.7
368.395	11151.29
368.844	9876.14
369.292	11825.65
369.74	8174.55
370.189	12499.73
370.637	14637.64
371.085	12621.14
371.533	15400.22
371.981	14803.45
372.429	14125.22
372.877	14672.83
373.325	12249.69
373.773	12454.14
374.221	11089.17
374.669	13722.42
375.116	11852.68
375.564	11936.84
376.012	13325.39
376.459	10985.33
376.907	13102.66
377.354	15796.65
377.801	14751.34
378.249	16952.39
378.696	21625.52
379.143	26224.79
379.591	27909.45
380.038	47153.49
380.485	34071.79
380.932	36769.48
381.379	33622.83
381.826	24801.86
382.273	17628.22
382.72	15357.14
383.166	14971.89
383.613	9717.67
384.06	8762.38
384.506	10157.11
384.953	7459.32
385.4	7493.88
385.846	6559.07
386.292	6375.47
386.739	6227.81
387.185	6140.07
387.631	6148.77
388.078	5958.05
388.524	6375.36
388.97	5873.57
389.416	4898.06
389.862	5204.02
390.308	4923.84
390.754	4997.49
391.2	5416.81
391.645	5535.19
392.091	5317.45
392.537	5144.72
392.983	5145.13
393.428	5071.37
393.874	5438.5
394.319	5454.17
394.765	5180.64
395.21	5321.02
395.655	4981.79
396.101	4672.24
396.546	4219.61
396.991	4255.71
397.436	3951.26
397.881	3822.23
398.326	3601.71
398.771	3415.12
399.216	2986.16
399.661	2686.48
400.106	2683.89
400.551	2757.12
400.995	2475.03
401.44	2447.26
401.885	2298.61
402.329	2321.68
402.774	2224.81
403.218	2161.78
403.663	2074.2
404.107	2130.86
404.551	2148.67
404.995	1968.5
405.44	1893.99
405.884	1920.95
406.328	1860.21
406.772	1850.84
407.216	1685.1
407.66	1628.87
408.104	1546.71
408.547	1446.63
408.991	1400.57
409.435	1347.55
409.879	1330.43
410.322	1311.88
410.766	1268.18
411.209	1203.96
411.653	1155.82
412.096	1134.63
412.54	1135.92
412.983	1128.21
413.426	1137.46
413.869	1134.17
414.312	1112.01
414.756	1071.96
415.199	1022.23
415.642	993.13
416.085	997.72
416.527	990.71
416.97	1005.09
417.413	954.47
417.856	943.74
418.298	932.22
418.741	926.22
419.184	922.89
419.626	959.93
420.069	960.84
420.511	966.56
420.953	945.31
421.396	937.33
421.838	910.84
422.28	932.13
422.722	937.12
423.164	947.73
423.606	934.23
424.048	934.14
424.49	889.77
424.932	885.92
425.374	870.21
425.816	886.15
426.258	904.59
426.699	916.14
427.141	905.25
427.582	918.36
428.024	913.07
428.465	904.42
428.907	881.98
429.348	868.12
429.789	868.73
430.231	854.75
430.672	864.31
431.113	843.76
431.554	831.58
431.995	808.29
432.436	781.07
432.877	766.82
433.318	757.2
433.759	750.88
434.2	751.6
434.64	743.08
435.081	744.56
435.522	706.56
435.962	680.56
436.403	666.3
436.843	674.28
437.284	658.76
437.724	640.18
438.164	639.21
438.604	627.83
439.045	606.74
439.485	582.86
439.925	569.64
440.365	555.45
440.805	547.9
441.245	541.77
441.685	523.6
442.125	519.23
442.564	522.66
443.004	511.95
443.444	510.05
443.883	509.41
444.323	503.04
444.762	503.34
445.202	509.97
445.641	519.73
446.081	515.59
446.52	518.47
446.959	513.52
447.398	501.47
447.837	495.58
448.276	488.5
448.716	493.63
449.154	498.7
449.593	488.35
450.032	485.9
450.471	475.61
450.91	475.21
451.349	476.31
451.787	474.74
452.226	481.17
452.664	480.99
453.103	480.27
453.541	479.21
453.98	481.07
454.418	484.39
454.856	477.78
455.295	476.75
455.733	481.91
456.171	482.97
456.609	482.02
457.047	481.82
457.485	490.43
457.923	492.39
458.361	485.63
458.798	485.29
459.236	483.46
459.674	485.43
460.111	487.17
460.549	482.01
460.987	478.92
461.424	477.39
461.862	475.07
462.299	466.29
462.736	464.55
463.173	466
463.611	462.4
464.048	461.09
464.485	465.83
464.922	461.7
465.359	457.53
465.796	456.69
466.233	454.85
466.67	452.26
467.106	451.54
467.543	446.78
467.98	439.9
468.416	427.54
468.853	423.71
469.29	410
469.726	404.87
470.162	395.21
470.599	385.54
471.035	380.54
471.471	370.12
471.907	366.47
472.344	365.14
472.78	367.55
473.216	372.08
473.652	368.09
474.088	366.87
474.523	366.84
474.959	370.51
475.395	367.31
475.831	366.17
476.266	367.53
476.702	366.59
477.138	362.23
477.573	360.89
478.008	360.03
478.444	362.28
478.879	366.14
479.314	367.34
479.75	366.53
480.185	368.26
480.62	370.46
481.055	372.73
481.49	376.02
481.925	381.62
482.36	388.98
482.795	398.61
483.229	408.11
483.664	416.21
484.099	417.91
484.534	424.59
484.968	428.06
485.403	429.37
485.837	428.23
486.271	427.75
486.706	428.29
487.14	422.63
487.574	416.34
488.009	412.47
488.443	409.24
488.877	414.41
489.311	415.39
489.745	421.65
490.179	426.36
490.613	435.49
491.046	438.69
491.48	442.14
491.914	442.93
492.348	446.73
492.781	450.76
493.215	452.61
493.648	453.81
494.082	457.78
494.515	458.66
494.948	465.87
495.382	469.01
495.815	473.9
496.248	478
496.681	487.97
497.114	496.02
497.547	504.24
497.98	515.66
498.413	522.05
498.846	531.72
499.279	539.49
499.711	543.72
500.144	548.31
500.577	558.25
501.009	568.67
501.442	578.25
501.874	582.69
502.306	586.62
502.739	595.4
503.171	607.81
503.603	612.64
504.036	622.65
504.468	629.58
504.9	640.53
505.332	647.43
505.764	654.94
506.196	664.01
506.627	678.38
507.059	691.64
507.491	700.98
507.923	704.12
508.354	719.81
508.786	732.03
509.217	749.87
509.649	764.92
510.08	784.2
510.512	800.96
510.943	815.82
511.374	829.23
511.805	849.5
512.237	868.91
512.668	898.68
513.099	924.19
513.53	950.34
513.961	972.8
514.391	1003.74
514.822	1035.44
515.253	1070.55
515.684	1096.42
516.114	1125.68
516.545	1148.61
516.975	1175.72
517.406	1195.32
517.836	1201.82
518.267	1211.9
518.697	1230.27
519.127	1238.84
519.558	1249.04
519.988	1256.12
520.418	1270.28
520.848	1289.14
521.278	1300.59
521.708	1327.07
522.138	1342.64
522.567	1374.47
522.997	1400.45
523.427	1417.57
523.857	1435.95
524.286	1449.6
524.716	1465.35
525.145	1485.22
525.575	1498.15
526.004	1514.32
526.433	1504.89
526.863	1507.87
527.292	1501.72
527.721	1509.65
528.15	1518.63
528.579	1521.93
529.008	1532.53
529.437	1555.75
529.866	1570.15
530.295	1588.47
530.724	1602.27
531.152	1629.28
531.581	1644.2
532.01	1662.15
532.438	1670.8
532.867	1685.22
533.295	1702.91
533.723	1710.48
534.152	1709.41
534.58	1710.78
535.008	1696.53
535.436	1698.98
535.865	1706.54
536.293	1720.57
536.721	1733.96
537.149	1758.27
537.576	1761.71
538.004	1773.87
538.432	1781.12
538.86	1780.26
539.287	1786.26
539.715	1799.05
540.143	1800.85
540.57	1797.63
540.998	1792.47
541.425	1773.59
541.852	1755.51
542.28	1753.94
542.707	1739.66
543.134	1728.28
543.561	1723.93
543.988	1717.78
544.415	1717.37
544.842	1713.51
545.269	1706.57
545.696	1710.6
546.123	1722.31
546.549	1711.98
546.976	1699.58
547.403	1699.85
547.829	1701.64
548.256	1705.64
548.682	1702.31
549.108	1696.75
549.535	1697.51
549.961	1700.49
550.387	1688.54
550.813	1684.09
551.24	1691.1
551.666	1692.38
552.092	1683.57
552.518	1677.87
552.943	1671.5
553.369	1678.93
553.795	1684.24
554.221	1684.01
554.646	1680.78
555.072	1690.48
555.498	1695.44
555.923	1703.66
556.349	1718.77
556.774	1726.38
557.199	1728
557.625	1734.03
558.05	1728.64
558.475	1737.86
558.9	1737.47
559.325	1730.24
559.75	1724
560.175	1717.3
560.6	1710.26
561.025	1707.07
561.449	1708.12
561.874	1712.29
562.299	1716.19
562.723	1721.8
563.148	1712.12
563.572	1714.52
563.997	1722.63
564.421	1726.01
564.846	1724.16
565.27	1726.98
565.694	1723.02
566.118	1731.23
566.542	1735.7
566.966	1726.82
567.39	1719.2
567.814	1707.3
568.238	1703.86
568.662	1705.9
569.086	1706.22
569.509	1711.21
569.933	1694.45
570.357	1685.13
570.78	1664.16
571.204	1650.93
571.627	1638.34
572.05	1635.01
572.474	1632.07
572.897	1618.64
573.32	1609.29
573.743	1598.42
574.166	1579.76
574.589	1578.02
575.012	1569.6
575.435	1566.52
575.858	1556.22
576.281	1545.23
576.704	1530.21
577.126	1517.8
577.549	1506.76
577.972	1497.23
578.394	1486.82
578.817	1480.02
579.239	1461.71
579.661	1448.3
580.084	1433.35
580.506	1420.03
580.928	1414.27
581.35	1403.8
581.772	1398.07
582.194	1385.65
582.616	1372.6
583.038	1358.03
583.46	1346.79
583.882	1342.99
584.303	1346.01
584.725	1341.25
585.147	1343.72
585.568	1353.28
585.99	1363.17
586.411	1368.37
586.833	1380.99
587.254	1381.53
587.675	1393.69
588.096	1404
588.518	1397.15
588.939	1380.67
589.36	1377.71
589.781	1365.89
590.202	1340.16
590.623	1330.88
591.043	1328.37
591.464	1315.38
591.885	1311.75
592.305	1307.09
592.726	1294.59
593.147	1296.56
593.567	1292.75
593.987	1285.58
594.408	1280.98
594.828	1279.01
595.248	1273.64
595.669	1256.76
596.089	1250.37
596.509	1243.24
596.929	1229.91
597.349	1230.75
597.769	1220.69
598.189	1214.69
598.608	1214.66
599.028	1215.81
599.448	1215.74
599.867	1204.07
600.287	1199.73
600.706	1196.25
601.126	1188.36
601.545	1186.98
601.965	1184.46
602.384	1178.86
602.803	1180.03
603.222	1175.71
603.641	1168.69
604.061	1163.57
604.48	1159.25
604.898	1164.96
605.317	1168.08
605.736	1168
606.155	1164.71
606.574	1155.68
606.992	1159.97
607.411	1155.03
607.829	1147.18
608.248	1143.23
608.666	1140.18
609.085	1137.59
609.503	1129.66
609.921	1122.88
610.339	1123.99
610.758	1121.35
611.176	1116
611.594	1106.76
612.012	1101.92
612.43	1103.03
612.847	1106.35
613.265	1105.78
613.683	1107.84
614.101	1107.12
614.518	1102.45
614.936	1092.82
615.353	1079.73
615.771	1076.15
616.188	1075.3
616.606	1071.76
617.023	1065.15
617.44	1052.49
617.857	1045.61
618.274	1037.91
618.691	1032.02
619.108	1022.99
619.525	1016.03
619.942	1020.54
620.359	1020.8
620.776	1015.06
621.192	1010.87
621.609	1006.67
622.026	1011.46
622.442	1015.2
622.859	1016.94
623.275	1010.6
623.691	1014.48
624.108	1022.91
624.524	1033.52
624.94	1033.63
625.356	1041.5
625.772	1050.46
626.188	1059.43
626.604	1059.95
627.02	1057.11
627.436	1055.08
627.852	1060.25
628.268	1069.3
628.683	1061.87
629.099	1054.48
629.514	1049.63
629.93	1051.49
630.345	1054.68
630.761	1051.34
631.176	1053.36
631.591	1048.07
632.007	1043.1
632.422	1039.82
632.837	1030.08
633.252	1027.76
633.667	1018.66
634.082	1010.61
634.497	1000.74
634.911	985.24
635.326	981
635.741	965.98
636.155	955.87
636.57	956.1
636.984	954.94
637.399	953.98
637.813	951.07
638.228	948.03
638.642	949.25
639.056	937.58
639.47	934.93
639.884	926.95
640.298	920.05
640.712	916.59
641.126	903.23
641.54	894.04
641.954	886.97
642.368	875.67
642.781	867.85
643.195	851.8
643.609	849.93
644.022	843.6
644.436	837.44
644.849	825.84
645.262	815.44
645.676	814.26
646.089	807.81
646.502	796.05
646.915	789.87
647.328	775.26
647.741	772.86
648.154	762.75
648.567	759.22
648.98	747.01
649.393	745.4
649.805	741.64
650.218	734.27
650.631	721.32
651.043	715.24
651.456	709.99
651.868	709.06
652.28	719.14
652.693	726.84
653.105	728.92
653.517	735.22
653.929	735.4
654.341	737.25
654.753	728.47
655.165	732.01
655.577	728.72
655.989	723.83
656.401	715.63
656.813	689.73
657.224	672.3
657.636	650.69
658.047	636.73
658.459	620.39
658.87	611.43
659.282	600.62
659.693	584.59
660.104	572.56
660.515	560.29
660.926	556.28
661.338	551.09
661.749	545.98
662.159	538.67
662.57	533.56
662.981	529.43
663.392	522.97
663.803	524.47
664.213	521.59
664.624	517.22
665.035	518.67
665.445	509.44
665.855	504.63
666.266	498.95
666.676	495.42
667.086	489.08
667.497	487.25
667.907	482.22
668.317	474.37
668.727	473.46
669.137	472.51
669.547	469.84
669.956	471.34
670.366	471.58
670.776	472.65
671.186	474.89
671.595	478.19
672.005	479.98
672.414	481.01
672.824	481.96
673.233	482.62
673.642	486.01
674.052	490.31
674.461	493.28
674.87	497.15
675.279	496.21
675.688	497.1
676.097	498.45
676.506	497.72
676.915	506.97
677.323	508.39
677.732	508.48
678.141	508.9
678.549	502.18
678.958	501.84
679.366	501.74
679.775	504.88
680.183	514.71
680.592	519.53
681	525.35
681.408	522.28
681.816	529.77
682.224	536.53
682.632	544.93
683.04	566.69
683.448	585.08
683.856	609.36
684.264	636.46
684.671	661.11
685.079	690.89
685.487	725.02
685.894	772.41
686.302	810.36
686.709	845.21
687.116	885.53
687.524	920.64
687.931	951.95
688.338	979.1
688.745	1004.56
689.152	1033.08
689.559	1069.75
689.966	1107.23
690.373	1130.13
690.78	1169.29
691.187	1223.3
691.593	1267.35
692	1305.67
692.407	1359.87
692.813	1428.96
693.22	1484.34
693.626	1542.06
694.032	1591.96
694.439	1662.12
694.845	1718.5
695.251	1789.46
695.657	1854.13
696.063	1946.09
696.469	2019.4
696.875	2089.02
697.281	2132.1
697.687	2181.95
698.093	2226.61
698.498	2302.23
698.904	2362.74
699.31	2449.83
