Data from C_3_HIR_WI_4N_Splice17_13-10-30-725.txt Node
Date: Sat Mar 14 13:10:30 EDT 2020
User: sa697716
Spectrometer: FLMS03696
Trigger mode: 0
Integration Time (sec): 3.180400E-1
Scans to average: 20
Electric dark correction enabled: true
Nonlinearity correction enabled: true
Boxcar width: 5
XAxis mode: Wavelengths
Number of Pixels in Spectrum: 2048
>>>>>Begin Spectral Data<<<<<
187.83	-361667.95
188.298	2679.76
188.766	1407.05
189.233	1280.66
189.701	1807.74
190.169	2569.64
190.636	1004.61
191.104	817.19
191.571	159.06
192.039	-17.88
192.506	-44.03
192.974	435.91
193.441	-687.23
193.908	-129.84
194.375	-41.83
194.842	39.72
195.31	235.21
195.777	276.92
196.244	496.93
196.711	522.35
197.177	631.26
197.644	887.78
198.111	1513.12
198.578	2120.51
199.045	1669.12
199.511	2694.88
199.978	3138.56
200.445	2636.21
200.911	2868.43
201.378	3214.61
201.844	2934.73
202.31	5020.36
202.777	5201.07
203.243	2868.53
203.709	2722.54
204.176	3241.18
204.642	2705.39
205.108	2523.5
205.574	2068.24
206.04	1909.18
206.506	1776.83
206.972	1673.99
207.438	1619.8
207.903	1848.89
208.369	1611.12
208.835	1608.95
209.301	1706.29
209.766	1740.32
210.232	1713.8
210.697	2117.95
211.163	2581.85
211.628	3906.9
212.094	3299.33
212.559	4051.14
213.024	2534.79
213.49	3144.43
213.955	3066.38
214.42	2976.62
214.885	2762.62
215.35	2666.7
215.815	2569.16
216.28	2731.89
216.745	2220.56
217.21	2399.62
217.675	2204.27
218.14	2467.34
218.604	2753.2
219.069	3164.82
219.534	3342.29
219.998	3906.45
220.463	4747.66
220.927	5856.02
221.392	5514.21
221.856	5597.35
222.32	7052.94
222.785	8727.82
223.249	11001.08
223.713	12259.95
224.177	12215.79
224.642	15663.37
225.106	19262.25
225.57	21014.79
226.034	15623.99
226.497	23800.77
226.961	21440.1
227.425	24930.14
227.889	27643.55
228.353	27603.31
228.816	56890.98
229.28	54450.11
229.744	45854.42
230.207	27829.01
230.671	27389.77
231.134	45239.8
231.597	52063.05
232.061	52052.18
232.524	50831.19
232.987	34964.99
233.45	31477.2
233.914	28211.77
234.377	28891.95
234.84	26443
235.303	31172.56
235.766	34772.19
236.229	35924.55
236.691	22605.73
237.154	25423.15
237.617	19113.8
238.08	19575.91
238.542	22871.8
239.005	16384.41
239.468	16264.49
239.93	15316.44
240.393	13919.62
240.855	12206.22
241.317	12511.35
241.78	15226.49
242.242	15716.92
242.704	16956.4
243.166	14740.39
243.629	13398.25
244.091	15398.56
244.553	16863.54
245.015	18120.76
245.477	23430.71
245.939	34311.77
246.4	36356.27
246.862	35295.34
247.324	33277.87
247.786	37157.04
248.247	48740.83
248.709	50303.8
249.17	37627.24
249.632	35435.83
250.093	41075.71
250.555	35472.53
251.016	21613.07
251.477	20489.56
251.939	22131.84
252.4	23198.53
252.861	27579.92
253.322	25640.83
253.783	30478.64
254.244	39497.54
254.705	31140.51
255.166	27680.19
255.627	27221.54
256.088	38441.41
256.549	40856.39
257.009	35198.93
257.47	42687.65
257.931	34808.22
258.391	26062.84
258.852	26889.38
259.312	28216.13
259.773	34855.56
260.233	29472.27
260.694	24870.06
261.154	28205.05
261.614	22617.17
262.074	20221.14
262.534	21028.26
262.994	19820.61
263.455	26394.08
263.915	22243.37
264.374	20947.42
264.834	22869.18
265.294	25319.56
265.754	26217.26
266.214	24832.57
266.673	23270.69
267.133	29324.17
267.593	29078.51
268.052	35577.35
268.512	30955.71
268.971	37265.16
269.431	40826.38
269.89	36508.7
270.349	54773.18
270.809	61069.6
271.268	54832.18
271.727	122930.22
272.186	79609.25
272.645	59628.24
273.104	42970.93
273.563	62202.92
274.022	48929.01
274.481	41615.2
274.94	32077.27
275.399	23811.32
275.857	27713.54
276.316	37436.17
276.775	33275.4
277.233	32770.77
277.692	30673.61
278.15	34655.46
278.609	35639.7
279.067	32954.87
279.525	30584.95
279.984	39469.3
280.442	47369.16
280.9	46696.7
281.358	30737.1
281.816	28636.48
282.274	28028.51
282.732	28968.3
283.19	29110.92
283.648	25090.48
284.106	26691.49
284.564	27161.36
285.021	25157.6
285.479	18748.62
285.937	17003.19
286.394	14905.44
286.852	15337.24
287.309	16097.58
287.767	15542.71
288.224	14799.79
288.682	16235.75
289.139	17837.83
289.596	16306.61
290.053	16946.04
290.511	21352.04
290.968	25919.39
291.425	35184.59
291.882	29285.53
292.339	25475.69
292.796	25256.81
293.252	23768.86
293.709	18859.98
294.166	16893.85
294.623	18666.65
295.079	17899.84
295.536	17988.53
295.992	16320.73
296.449	16112.38
296.905	16737.51
297.362	16047.81
297.818	16868.45
298.274	17478.4
298.731	17809.59
299.187	17600.95
299.643	18893.26
300.099	22839.93
300.555	25038.09
301.011	20900.03
301.467	20184.52
301.923	23586.4
302.379	23038.91
302.835	22618.74
303.291	22634.95
303.746	25752.77
304.202	32579.75
304.658	32646
305.113	21947.62
305.569	21503.69
306.024	22925.53
306.479	21768.54
306.935	18331.97
307.39	19992.41
307.845	18460.17
308.301	18580.19
308.756	18114.53
309.211	17404.94
309.666	17851.93
310.121	22158.85
310.576	22476.71
311.031	22294.84
311.486	25503.6
311.94	25527.42
312.395	34124.39
312.85	64032.77
313.305	314270.98
313.759	1627198.65
314.214	118082.2
314.668	93558.14
315.123	78536.09
315.577	28165.16
316.032	25041.21
316.486	31403.21
316.94	24765.96
317.394	17260.38
317.849	13431.66
318.303	12715.25
318.757	11976.08
319.211	13239.14
319.665	11570.85
320.119	11736.25
320.572	16819.21
321.026	15715.26
321.48	13068.76
321.934	14227.44
322.387	14229.42
322.841	15343.29
323.295	13812.46
323.748	15898.07
324.202	16123.59
324.655	19396.73
325.108	27132.09
325.562	19130.76
326.015	22714.04
326.468	17160.8
326.921	19208.95
327.374	17953.93
327.827	18717.06
328.28	21166.4
328.733	14216.34
329.186	12487.38
329.639	11888.47
330.092	9994.12
330.545	9532.28
330.997	9621.36
331.45	10521.44
331.903	12320.62
332.355	21119.44
332.808	20520.04
333.26	16922.06
333.713	18331.48
334.165	18472.48
334.617	24651.28
335.069	19919.47
335.522	35980.34
335.974	39799.32
336.426	36372.83
336.878	25229.51
337.33	12830
337.782	12531.7
338.234	15727.84
338.686	18800.85
339.137	22234
339.589	20905.23
340.041	16396.82
340.493	14118.27
340.944	14470.47
341.396	15633.4
341.847	13130.98
342.299	15484.78
342.75	18890.56
343.201	16485.87
343.653	18970.11
344.104	23343.43
344.555	18396.68
345.006	28607.98
345.457	21935.48
345.908	17438.28
346.359	16345.23
346.81	13314.19
347.261	14036.66
347.712	13822.35
348.163	14779.29
348.613	14982.6
349.064	13967.98
349.515	12233.32
349.965	12545.32
350.416	15078.88
350.866	16526.34
351.317	18671.02
351.767	30911.69
352.217	39023.66
352.668	32368.84
353.118	29669.57
353.568	28520.78
354.018	22596.89
354.468	23804.92
354.918	17092.36
355.368	14947.45
355.818	21115.82
356.268	60812.7
356.718	254481
357.168	63394.71
357.617	31779.94
358.067	35308.6
358.517	33135.62
358.966	38853.3
359.416	43555.32
359.865	46998.57
360.315	55962.44
360.764	26151.54
361.213	14664.89
361.663	13885.26
362.112	17079.48
362.561	27585.16
363.01	20854.3
363.459	17517.97
363.908	18906.76
364.357	16083.79
364.806	27094.7
365.255	18630.25
365.703	17067.85
366.152	17097.19
366.601	13845.51
367.05	11260.51
367.498	10221.01
367.947	10650.9
368.395	11095.73
368.844	9846.95
369.292	11841.91
369.74	8185.78
370.189	12502.64
370.637	14627.12
371.085	12582.12
371.533	15329.26
371.981	14745.09
372.429	14088.52
372.877	14674.65
373.325	12259.94
373.773	12455.42
374.221	11061.43
374.669	13733.23
375.116	11883.95
375.564	11987.59
376.012	13403.54
376.459	11025.71
376.907	13148.26
377.354	15842.38
377.801	14743.76
378.249	16952.43
378.696	21651.21
379.143	26188.65
379.591	27886.96
380.038	47118.69
380.485	34063.94
380.932	36717.9
381.379	33583.54
381.826	24781.57
382.273	17611.94
382.72	15414.21
383.166	15005.8
383.613	9715.87
384.06	8781.7
384.506	10148.87
384.953	7442.99
385.4	7457.9
385.846	6524.1
386.292	6356.09
386.739	6199.27
387.185	6116.7
387.631	6117.44
388.078	5930.06
388.524	6344.3
388.97	5856.7
389.416	4894.63
389.862	5201.27
390.308	4923.72
390.754	5003.8
391.2	5429.11
391.645	5556.08
392.091	5337.87
392.537	5152.79
392.983	5166.33
393.428	5095.06
393.874	5454.08
394.319	5475.74
394.765	5209.15
395.21	5354.23
395.655	5013.01
396.101	4697.55
396.546	4243.11
396.991	4277.57
397.436	3968.08
397.881	3829.56
398.326	3623.16
398.771	3426.98
399.216	2993.11
399.661	2686.3
400.106	2686.54
400.551	2757.41
400.995	2470.19
401.44	2447.29
401.885	2299.77
402.329	2325.78
402.774	2228.41
403.218	2160.98
403.663	2078.74
404.107	2135.56
404.551	2156.27
404.995	1972.05
405.44	1896.74
405.884	1929.07
406.328	1862.7
406.772	1853.54
407.216	1692.91
407.66	1638.31
408.104	1550.15
408.547	1452.88
408.991	1406.29
409.435	1351.76
409.879	1335.58
410.322	1320.63
410.766	1273.01
411.209	1214.34
411.653	1166.36
412.096	1143.74
412.54	1143.24
412.983	1138.23
413.426	1144.71
413.869	1141.86
414.312	1120.46
414.756	1078.34
415.199	1026.48
415.642	999.22
416.085	999.34
416.527	992.59
416.97	1006.45
417.413	956.68
417.856	946.52
418.298	935.63
418.741	929.79
419.184	928.16
419.626	966.71
420.069	967.86
420.511	972.67
420.953	952.02
421.396	941.7
421.838	916.82
422.28	938.42
422.722	944.93
423.164	957.71
423.606	945.55
424.048	945.03
424.49	899.82
424.932	894.88
425.374	881.42
425.816	896.69
426.258	915.74
426.699	925.35
427.141	911.47
427.582	921.77
428.024	915.2
428.465	903.93
428.907	878.91
429.348	868.66
429.789	870.78
430.231	855.66
430.672	866.4
431.113	844.68
431.554	831.35
431.995	808.71
432.436	782.93
432.877	768.24
433.318	759.7
433.759	757.21
434.2	756.36
434.64	745.68
435.081	746.6
435.522	707.77
435.962	682.89
436.403	672.93
436.843	682.54
437.284	666.61
437.724	648.32
438.164	647.84
438.604	634.55
439.045	610.64
439.485	588.91
439.925	575.69
440.365	561.62
440.805	553.59
441.245	544.24
441.685	523.92
442.125	519.42
442.564	522.69
443.004	511.84
443.444	510.09
443.883	510.78
444.323	505.58
444.762	504.55
445.202	511.09
445.641	520.86
446.081	517.26
446.52	523.05
446.959	518.62
447.398	506.95
447.837	499.43
448.276	489.71
448.716	494.43
449.154	498.14
449.593	489.71
450.032	489.21
450.471	479.48
450.91	478.92
451.349	477.73
451.787	474.58
452.226	480.95
452.664	483.02
453.103	485.08
453.541	484.39
453.98	485.57
454.418	485.89
454.856	477.91
455.295	477.45
455.733	482.31
456.171	484.87
456.609	485.07
457.047	484.22
457.485	490.54
457.923	491.09
458.361	484.1
458.798	484.29
459.236	484.58
459.674	486.98
460.111	489.31
460.549	483.8
460.987	481.84
461.424	481.48
461.862	479.14
462.299	471.35
462.736	471.33
463.173	472.09
463.611	468.24
464.048	466.45
464.485	470.28
464.922	464.93
465.359	461.26
465.796	458.66
466.233	455.48
466.67	453.07
467.106	452.6
467.543	447.49
467.98	440.94
468.416	428
468.853	423.79
469.29	410.44
469.726	406.43
470.162	396.75
470.599	387.64
471.035	383.77
471.471	373.24
471.907	370.23
472.344	367.07
472.78	368.82
473.216	373.13
473.652	369.19
474.088	368.92
474.523	367.8
474.959	371.8
475.395	368.44
475.831	365.5
476.266	367.59
476.702	366.69
477.138	363.15
477.573	361.83
478.008	360.81
478.444	362.98
478.879	367.26
479.314	369.04
479.75	368.25
480.185	369.9
480.62	372.65
481.055	373.81
481.49	376.69
481.925	382.35
482.36	390.91
482.795	401.62
483.229	411.78
483.664	419.62
484.099	421.48
484.534	427.61
484.968	431.7
485.403	433.64
485.837	433.68
486.271	432.5
486.706	432.62
487.14	426.12
487.574	418.73
488.009	414.27
488.443	409.83
488.877	414.1
489.311	415.54
489.745	421.42
490.179	425.57
490.613	434.56
491.046	437.71
491.48	440.43
491.914	441.5
492.348	445.78
492.781	450.16
493.215	452.24
493.648	453
494.082	457.96
494.515	458.93
494.948	465.01
495.382	467.72
495.815	472.5
496.248	478.44
496.681	488.15
497.114	496.66
497.547	504.82
497.98	516.23
498.413	523.11
498.846	531.12
499.279	538.76
499.711	543.77
500.144	547.88
500.577	558.26
501.009	567.38
501.442	577.02
501.874	580.96
502.306	584.18
502.739	592.9
503.171	605.57
503.603	611.29
504.036	620.83
504.468	628.62
504.9	640.26
505.332	648.01
505.764	656.08
506.196	664.01
506.627	678.61
507.059	692.66
507.491	701.08
507.923	703.3
508.354	717.83
508.786	730.14
509.217	747.44
509.649	762.79
510.08	781.33
510.512	798.07
510.943	814.03
511.374	827.14
511.805	847.82
512.237	867.35
512.668	897.06
513.099	923.71
513.53	949.5
513.961	970.75
514.391	1001.04
514.822	1032.73
515.253	1066.67
515.684	1094.1
516.114	1123.15
516.545	1145.06
516.975	1172.37
517.406	1192.97
517.836	1199.61
518.267	1210.63
518.697	1231.46
519.127	1240.29
519.558	1251.05
519.988	1258.55
520.418	1271.03
520.848	1290.46
521.278	1302.59
521.708	1329.2
522.138	1344.72
522.567	1376.58
522.997	1403.18
523.427	1419.79
523.857	1438.78
524.286	1451.82
524.716	1468.74
525.145	1489.76
525.575	1503.02
526.004	1519.08
526.433	1510.39
526.863	1513.16
527.292	1506.6
527.721	1514.35
528.15	1522.55
528.579	1525.12
529.008	1537.74
529.437	1560.04
529.866	1573.5
530.295	1591.09
530.724	1605.16
531.152	1632.45
531.581	1647.23
532.01	1664.81
532.438	1673.14
532.867	1688.63
533.295	1707.24
533.723	1713.76
534.152	1713.69
534.58	1714.69
535.008	1701.47
535.436	1703.85
535.865	1711.04
536.293	1724.88
536.721	1740.27
537.149	1764.89
537.576	1767.17
538.004	1779.02
538.432	1787.13
538.86	1786.49
539.287	1793.54
539.715	1806.08
540.143	1808.13
540.57	1804.36
540.998	1801.11
541.425	1780.28
541.852	1760.06
542.28	1758.95
542.707	1744.16
543.134	1730.5
543.561	1726.18
543.988	1719.48
544.415	1719.03
544.842	1714.83
545.269	1709.28
545.696	1711.22
546.123	1724.4
546.549	1715.41
546.976	1703.07
547.403	1703.62
547.829	1706.36
548.256	1709.41
548.682	1706.36
549.108	1700.67
549.535	1702
549.961	1704.36
550.387	1693.1
550.813	1687.77
551.24	1694.38
551.666	1696.54
552.092	1688.11
552.518	1681.97
552.943	1676.3
553.369	1683.58
553.795	1689.16
554.221	1688.34
554.646	1685.77
555.072	1696.12
555.498	1700.61
555.923	1709.44
556.349	1723.67
556.774	1730.81
557.199	1732.51
557.625	1737.83
558.05	1732.56
558.475	1741.83
558.9	1740.82
559.325	1732.67
559.75	1726.91
560.175	1720.12
560.6	1713.19
561.025	1710.81
561.449	1711.24
561.874	1715.28
562.299	1718.56
562.723	1724.61
563.148	1713.56
563.572	1716.49
563.997	1723.86
564.421	1727.35
564.846	1725.53
565.27	1727.46
565.694	1722.1
566.118	1730.07
566.542	1734.74
566.966	1726.45
567.39	1719.02
567.814	1708.11
568.238	1706.17
568.662	1709.58
569.086	1708.75
569.509	1713.8
569.933	1697.05
570.357	1688.11
570.78	1667.58
571.204	1653.88
571.627	1642.75
572.05	1639.01
572.474	1635.52
572.897	1621.22
573.32	1610.67
573.743	1599.39
574.166	1580.45
574.589	1578.52
575.012	1569.5
575.435	1567.81
575.858	1557.45
576.281	1544.43
576.704	1528.72
577.126	1515.98
577.549	1504.37
577.972	1494.83
578.394	1485.39
578.817	1479.17
579.239	1461.07
579.661	1448.14
580.084	1432.46
580.506	1418.78
580.928	1414.88
581.35	1404.16
581.772	1400.29
582.194	1387.45
582.616	1374.97
583.038	1360.59
583.46	1348.62
583.882	1345.14
584.303	1347.79
584.725	1342.04
585.147	1345.19
585.568	1354
585.99	1364.62
586.411	1368.56
586.833	1380.88
587.254	1381.02
587.675	1393.02
588.096	1404.57
588.518	1399.99
588.939	1385.26
589.36	1382.64
589.781	1370.63
590.202	1345.13
590.623	1335.84
591.043	1332.32
591.464	1320.5
591.885	1317.45
592.305	1311.68
592.726	1298.01
593.147	1298.88
593.567	1292.85
593.987	1285.79
594.408	1280.62
594.828	1277.83
595.248	1272.59
595.669	1257.23
596.089	1251.6
596.509	1245.75
596.929	1232.66
597.349	1233.65
597.769	1223.87
598.189	1218.92
598.608	1219.2
599.028	1220.92
599.448	1220.49
599.867	1208.95
600.287	1204.76
600.706	1199.73
601.126	1190.75
601.545	1190.04
601.965	1187.76
602.384	1182.28
602.803	1183.82
603.222	1178.97
603.641	1172.42
604.061	1167.97
604.48	1163.33
604.898	1168.94
605.317	1172.38
605.736	1172.62
606.155	1168.73
606.574	1159.3
606.992	1162.31
607.411	1156.47
607.829	1147.93
608.248	1142.83
608.666	1139.56
609.085	1137.28
609.503	1128.48
609.921	1121.66
610.339	1122.09
610.758	1119.91
611.176	1115.31
611.594	1106.24
612.012	1101.83
612.43	1103.95
612.847	1107.77
613.265	1106.94
613.683	1109.1
614.101	1108.81
614.518	1104.3
614.936	1094.57
615.353	1080.77
615.771	1077.14
616.188	1076.24
616.606	1072.72
617.023	1065.66
617.44	1053.16
617.857	1046.25
618.274	1037.98
618.691	1030.66
619.108	1021.92
619.525	1015.02
619.942	1019.42
620.359	1019.74
620.776	1013.98
621.192	1009.55
621.609	1005.65
622.026	1010.17
622.442	1014.07
622.859	1015.71
623.275	1009.79
623.691	1013.09
624.108	1022.4
624.524	1032.59
624.94	1032.21
625.356	1040.46
625.772	1049.97
626.188	1060.16
626.604	1061.49
627.02	1057.75
627.436	1056.91
627.852	1062.53
628.268	1071.94
628.683	1065.01
629.099	1057.71
629.514	1053.32
629.93	1056.24
630.345	1058.74
630.761	1054.17
631.176	1055.37
631.591	1049.95
632.007	1043.2
632.422	1040.85
632.837	1030.52
633.252	1026.93
633.667	1018.32
634.082	1009.87
634.497	998.35
634.911	982.57
635.326	979.37
635.741	965.52
636.155	955.72
636.57	955.76
636.984	953.46
637.399	953.14
637.813	950.11
638.228	947.35
638.642	948.28
639.056	937.12
639.47	933.69
639.884	923.73
640.298	915.88
640.712	912.95
641.126	901.3
641.54	892.66
641.954	885.09
642.368	874.21
642.781	866.55
643.195	851.44
643.609	850.16
644.022	845.06
644.436	840.09
644.849	829.01
645.262	817.66
645.676	815.21
646.089	808.91
646.502	796.91
646.915	790.74
647.328	776.03
647.741	772.38
648.154	760.8
648.567	756.91
648.98	745.31
649.393	742.93
649.805	738.43
650.218	733.02
650.631	720.63
651.043	715.01
651.456	708.93
651.868	707.68
652.28	718.58
652.693	726.36
653.105	728.55
653.517	733.27
653.929	732.89
654.341	736.44
654.753	726.69
655.165	729.82
655.577	727.03
655.989	722.73
656.401	715.11
656.813	688.79
657.224	672.85
657.636	650.83
658.047	637.23
658.459	621.8
658.87	611.72
659.282	599.92
659.693	583.68
660.104	570.69
660.515	559.03
660.926	554.8
661.338	550.17
661.749	543.56
662.159	536.97
662.57	532.71
662.981	528.09
663.392	522.7
663.803	524.26
664.213	520.82
664.624	516.86
665.035	517.01
665.445	508.9
665.855	503.75
666.266	498.35
666.676	495.55
667.086	487.84
667.497	486.42
667.907	482.04
668.317	475.39
668.727	474
669.137	474.2
669.547	472.81
669.956	472.42
670.366	473.07
670.776	473.87
671.186	475.83
671.595	478.91
672.005	481.13
672.414	481.31
672.824	481.85
673.233	483.4
673.642	484.67
674.052	487.43
674.461	491.32
674.87	494.92
675.279	495.5
675.688	496.78
676.097	498.4
676.506	497.62
676.915	508.45
677.323	510.36
677.732	510.35
678.141	511.25
678.549	505
678.958	503.8
679.366	503.71
679.775	506.73
680.183	515.9
680.592	520.25
681	525.07
681.408	520.21
681.816	527.26
682.224	534.88
682.632	543.66
683.04	565.34
683.448	584.15
683.856	608.69
684.264	635.11
684.671	659.03
685.079	689.86
685.487	722.76
685.894	770.73
686.302	808.85
686.709	842.62
687.116	882.23
687.524	917.29
687.931	949.66
688.338	977.86
688.745	1003.18
689.152	1032.17
689.559	1070.81
689.966	1110.89
690.373	1133.05
690.78	1171.86
691.187	1228.7
691.593	1273.15
692	1313.09
692.407	1370.77
692.813	1438.4
693.22	1495.88
693.626	1554.22
694.032	1603.64
694.439	1673.84
694.845	1731.16
695.251	1802.74
695.657	1865.37
696.063	1959.56
696.469	2030.46
696.875	2097.67
697.281	2141.93
697.687	2191.58
698.093	2235.05
698.498	2309.05
698.904	2369.31
699.31	2455.47
699.715	2519.97
