Data from C_3_DIV_PA_2N_Splice17_13-15-31-005.txt Node
Date: Sat Mar 14 13:15:31 EDT 2020
User: sa697716
Spectrometer: FLMS03696
Trigger mode: 0
Integration Time (sec): 3.180400E-1
Scans to average: 20
Electric dark correction enabled: true
Nonlinearity correction enabled: true
Boxcar width: 5
XAxis mode: Wavelengths
Number of Pixels in Spectrum: 2048
>>>>>Begin Spectral Data<<<<<
187.83	-381132.17
188.298	2742.77
188.766	1487.32
189.233	1346.35
189.701	1922.29
190.169	2599.37
190.636	1004.05
191.104	832.54
191.571	190.31
192.039	-12.48
192.506	16.85
192.974	583.86
193.441	-831.89
193.908	-82.55
194.375	4.26
194.842	114.87
195.31	178.53
195.777	196.08
196.244	346.53
196.711	192.28
197.177	166.63
197.644	154.67
198.111	251.33
198.578	294.58
199.045	196.9
199.511	292.88
199.978	224.09
200.445	244.55
200.911	224.1
201.378	153.14
201.844	204.96
202.31	316.33
202.777	316.5
203.243	181
203.709	199.4
204.176	246.05
204.642	186.19
205.108	198.24
205.574	122.81
206.04	66.63
206.506	68.02
206.972	47.28
207.438	37.4
207.903	40.55
208.369	63.37
208.835	64.74
209.301	71.43
209.766	57.61
210.232	72.38
210.697	88.93
211.163	98.12
211.628	98.2
212.094	96.49
212.559	252.8
213.024	171.81
213.49	220.85
213.955	182.53
214.42	125.77
214.885	125.51
215.35	144.89
215.815	249.72
216.28	294.04
216.745	250.72
217.21	298.28
217.675	222.94
218.14	247.37
218.604	237.59
219.069	277.94
219.534	326.79
219.998	348.83
220.463	390.9
220.927	335.9
221.392	306.61
221.856	314.76
222.32	321.34
222.785	410.81
223.249	508.65
223.713	566.68
224.177	550.66
224.642	612.5
225.106	738.05
225.57	752.6
226.034	666.26
226.497	1039.06
226.961	1014.54
227.425	1262.67
227.889	1340.05
228.353	1305.53
228.816	2666.82
229.28	2727.71
229.744	2382.6
230.207	1553.86
230.671	1598
231.134	2487.34
231.597	2963.52
232.061	2838.95
232.524	2654.51
232.987	1907.67
233.45	1805.58
233.914	1631.4
234.377	1580.66
234.84	1451.86
235.303	1642.25
235.766	1769.38
236.229	1829.08
236.691	1102.32
237.154	1218.89
237.617	953.28
238.08	944.47
238.542	1073.18
239.005	783.52
239.468	805.92
239.93	778.49
240.393	718.37
240.855	653.48
241.317	654.87
241.78	780.07
242.242	835.61
242.704	957.44
243.166	850.18
243.629	816.82
244.091	941.16
244.553	1035.71
245.015	1128.43
245.477	1462.06
245.939	2074.05
246.4	2243.18
246.862	2212.54
247.324	2094.75
247.786	2282.71
248.247	2977.9
248.709	2879.68
249.17	2188.56
249.632	2178.64
250.093	2598.42
250.555	2281.65
251.016	1464.26
251.477	1399.14
251.939	1536.13
252.4	1605.36
252.861	1869.21
253.322	1771.45
253.783	2136.95
254.244	2759.03
254.705	2109.63
255.166	1827.19
255.627	1795.02
256.088	2549.63
256.549	2742.76
257.009	2309.54
257.47	2782.51
257.931	2279.91
258.391	1735.3
258.852	1784.19
259.312	1863.21
259.773	2302.51
260.233	2009.94
260.694	1731.3
261.154	1948.18
261.614	1623.64
262.074	1481.66
262.534	1579.91
262.994	1534.9
263.455	2019.39
263.915	1743.36
264.374	1641.32
264.834	1794.91
265.294	1967.66
265.754	2046.53
266.214	1934.45
266.673	1809.14
267.133	2271.03
267.593	2219.63
268.052	2731.11
268.512	2383.62
268.971	2966.75
269.431	3300.36
269.89	2962.23
270.349	4485.91
270.809	5042.4
271.268	4584.51
271.727	10104.59
272.186	6635.47
272.645	5037.35
273.104	3580.51
273.563	5204.86
274.022	3978.87
274.481	3454.73
274.94	2710.49
275.399	1996.72
275.857	2292.74
276.316	3089.18
276.775	2772.39
277.233	2750.6
277.692	2629.91
278.15	3027.74
278.609	3186.38
279.067	2956.44
279.525	2784.31
279.984	3561.93
280.442	4324.15
280.9	4411.73
281.358	2894.94
281.816	2732.27
282.274	2674.96
282.732	2700.51
283.19	2682.04
283.648	2298.2
284.106	2447.68
284.564	2430.76
285.021	2295.08
285.479	1703.45
285.937	1503.62
286.394	1356.19
286.852	1373.38
287.309	1444.73
287.767	1465.85
288.224	1421.31
288.682	1556.07
289.139	1754.81
289.596	1648.29
290.053	1704
290.511	2155.43
290.968	2652.53
291.425	3602.57
291.882	3124.99
292.339	2790.87
292.796	2726.82
293.252	2573.22
293.709	2120.18
294.166	1911.46
294.623	2117.97
295.079	2037
295.536	2085.02
295.992	1919.04
296.449	1911.4
296.905	2002.37
297.362	1950.31
297.818	2060.42
298.274	2178.86
298.731	2184.76
299.187	2149.08
299.643	2299.72
300.099	2791.58
300.555	3055.06
301.011	2564.34
301.467	2556.25
301.923	2916.73
302.379	2836.63
302.835	2794.96
303.291	2787.08
303.746	3182.52
304.202	4043.69
304.658	4067.77
305.113	2758.05
305.569	2712.37
306.024	2861.3
306.479	2635.33
306.935	2256.43
307.39	2425.98
307.845	2237.4
308.301	2274.39
308.756	2195.25
309.211	2104.03
309.666	2133.65
310.121	2690.23
310.576	2713.05
311.031	2686.07
311.486	3047.3
311.94	3034.92
312.395	4013.66
312.85	7466.31
313.305	35419.39
313.759	191083.08
314.214	14078.47
314.668	11339.31
315.123	9584.53
315.577	3495.29
316.032	3148.05
316.486	3959.41
316.94	3175.86
317.394	2287.45
317.849	1803.9
318.303	1718.83
318.757	1602.93
319.211	1773.44
319.665	1562.41
320.119	1585.06
320.572	2245.85
321.026	2111.99
321.48	1770.76
321.934	1887.89
322.387	1863.38
322.841	2030.39
323.295	1902.2
323.748	2143.1
324.202	2178.07
324.655	2637.25
325.108	3755.82
325.562	2677.86
326.015	3156.99
326.468	2382.79
326.921	2711.72
327.374	2567.59
327.827	2695.89
328.28	3017.04
328.733	2065.02
329.186	1820.97
329.639	1744.28
330.092	1461.06
330.545	1408.26
330.997	1443.46
331.45	1623.16
331.903	1922.3
332.355	3254.26
332.808	3128.15
333.26	2572.92
333.713	2803.17
334.165	2825.72
334.617	3700.78
335.069	2896.07
335.522	5132.56
335.974	5637.01
336.426	4982.2
336.878	3364.47
337.33	1741.57
337.782	1697.19
338.234	2160.72
338.686	2553.5
339.137	2999.35
339.589	2829.8
340.041	2239.13
340.493	1933.8
340.944	1999.41
341.396	2199.55
341.847	1892.76
342.299	2281.44
342.75	2837.42
343.201	2423.67
343.653	2802.76
344.104	3455.55
344.555	2727.48
345.006	4188.88
345.457	3347.09
345.908	2648.51
346.359	2519.11
346.81	2043.07
347.261	2095.62
347.712	2031.54
348.163	2177.8
348.613	2297.02
349.064	2153.89
349.515	1909.71
349.965	1993.93
350.416	2354.98
350.866	2573.75
351.317	2875.49
351.767	4819.82
352.217	6080.72
352.668	5080.09
353.118	4670.78
353.568	4330.24
354.018	3464.83
354.468	3647.45
354.918	2648.03
355.368	2306.44
355.818	3239.94
356.268	9214.28
356.718	39005.6
357.168	9784.75
357.617	4895.66
358.067	5378.24
358.517	5038.61
358.966	5993.96
359.416	6797.35
359.865	7310.99
360.315	8618.75
360.764	4126.47
361.213	2328.94
361.663	2159.25
362.112	2669.76
362.561	4359.68
363.01	3328.73
363.459	2843.65
363.908	3017.5
364.357	2604.86
364.806	4301.09
365.255	2955.52
365.703	2739.02
366.152	2769.81
366.601	2260.83
367.05	1876.55
367.498	1713.2
367.947	1763.32
368.395	1814.06
368.844	1626.87
369.292	1892.19
369.74	1330.37
370.189	2024.8
370.637	2358.24
371.085	2005.34
371.533	2416.39
371.981	2286.08
372.429	2229.18
372.877	2346.24
373.325	1972.98
373.773	1977.66
374.221	1768.38
374.669	2182.94
375.116	1878.77
375.564	1888.22
376.012	2137.67
376.459	1794.44
376.907	2114.96
377.354	2485.46
377.801	2380.35
378.249	2790.91
378.696	3546.84
379.143	4294.47
379.591	4582.1
380.038	7970.13
380.485	5799.42
380.932	6248.53
381.379	5888.03
381.826	4432.26
382.273	3135.89
382.72	2684.24
383.166	2596.55
383.613	1705.18
384.06	1536.81
384.506	1793.1
384.953	1305.3
385.4	1300.59
385.846	1137.15
386.292	1048.78
386.739	1009.45
387.185	985.67
387.631	984.93
388.078	974.79
388.524	1033.6
388.97	964.08
389.416	815.85
389.862	869.28
390.308	821.24
390.754	834.19
391.2	912.7
391.645	923.33
392.091	927.41
392.537	899.04
392.983	879.73
393.428	908.91
393.874	960.28
394.319	980.4
394.765	949.76
395.21	964.46
395.655	896.74
396.101	841.34
396.546	762.48
396.991	742.32
397.436	686.84
397.881	656.75
398.326	587.79
398.771	567.77
399.216	479.56
399.661	411.36
400.106	416.33
400.551	435.09
400.995	389.18
401.44	384.88
401.885	358.94
402.329	363.12
402.774	351.68
403.218	361.06
403.663	339.59
404.107	352.97
404.551	370.06
404.995	334.87
405.44	315.41
405.884	316.6
406.328	298.46
406.772	301.12
407.216	273.75
407.66	258.42
408.104	230.28
408.547	213.69
408.991	203.21
409.435	188.41
409.879	189.92
410.322	190.09
410.766	188.95
411.209	184.4
411.653	175.04
412.096	175.71
412.54	175.82
412.983	175.69
413.426	181.04
413.869	180.43
414.312	182.08
414.756	172.23
415.199	160.25
415.642	153.72
416.085	153.76
416.527	151.66
416.97	150.67
417.413	144.21
417.856	141.78
418.298	138.54
418.741	132.48
419.184	128.41
419.626	128.4
420.069	129.61
420.511	131.33
420.953	131.66
421.396	132.9
421.838	126.03
422.28	130.89
422.722	134.51
423.164	133.87
423.606	133.55
424.048	131.64
424.49	130.17
424.932	129.04
425.374	123.85
425.816	121.78
426.258	119.72
426.699	124.31
427.141	123.41
427.582	122.44
428.024	119.31
428.465	117.66
428.907	115.13
429.348	109.77
429.789	113.39
430.231	116.32
430.672	120.98
431.113	120.82
431.554	117.29
431.995	110.07
432.436	109.86
432.877	111.53
433.318	114.31
433.759	111.14
434.2	112.99
434.64	108.33
435.081	108.34
435.522	102.26
435.962	97.06
436.403	98.03
436.843	97.83
437.284	92.52
437.724	85.09
438.164	78.75
438.604	78.94
439.045	78.75
439.485	78.73
439.925	73.9
440.365	70.14
440.805	69.5
441.245	70.21
441.685	69.35
442.125	66.34
442.564	67.49
443.004	67.92
443.444	66.91
443.883	66.49
444.323	62.22
444.762	58.56
445.202	58.33
445.641	60.61
446.081	55.17
446.52	55.24
446.959	56.61
447.398	57.59
447.837	57.86
448.276	56.19
448.716	54.48
449.154	52.3
449.593	54.59
450.032	54.64
450.471	50.34
450.91	49.79
451.349	51.15
451.787	49.59
452.226	47.72
452.664	46.85
453.103	47.2
453.541	46.87
453.98	51.98
454.418	51.59
454.856	54.61
455.295	55.77
455.733	58.1
456.171	57.18
456.609	58.3
457.047	59.79
457.485	63.72
457.923	65.45
458.361	64.59
458.798	63.22
459.236	63.85
459.674	61.02
460.111	61.31
460.549	61.42
460.987	61.05
461.424	60.13
461.862	60.32
462.299	58.21
462.736	59.75
463.173	60.51
463.611	64.13
464.048	65.18
464.485	67.12
464.922	66.54
465.359	65.4
465.796	75.82
466.233	77.2
466.67	80.26
467.106	82.57
467.543	80.01
467.98	78.45
468.416	72.79
468.853	69.43
469.29	65.61
469.726	64.74
470.162	62.79
470.599	52.74
471.035	50.7
471.471	46.95
471.907	43.31
472.344	42.11
472.78	43.35
473.216	43.74
473.652	43.88
474.088	44.18
474.523	45.11
474.959	44.85
475.395	44.41
475.831	45.33
476.266	45.06
476.702	44.47
477.138	44.08
477.573	43.11
478.008	43.9
478.444	45.83
478.879	48.2
479.314	48.31
479.75	49.1
480.185	48.61
480.62	47.67
481.055	48.19
481.49	49.76
481.925	50.96
482.36	55.53
482.795	55.65
483.229	54.91
483.664	55.33
484.099	55.3
484.534	56.49
484.968	58.22
485.403	59.07
485.837	58
486.271	56.95
486.706	56.92
487.14	53.01
487.574	53.01
488.009	52.9
488.443	51.4
488.877	52.55
489.311	51.65
489.745	52.09
490.179	52.56
490.613	55.83
491.046	56.49
491.48	56.5
491.914	56.7
492.348	56.77
492.781	57.62
493.215	57.46
493.648	55.89
494.082	56.44
494.515	56.3
494.948	57.74
495.382	55.69
495.815	55.51
496.248	56.25
496.681	56.72
497.114	55.78
497.547	56.15
497.98	57.97
498.413	60.18
498.846	61.37
499.279	61.09
499.711	59.59
500.144	59.21
500.577	60.6
501.009	60.46
501.442	61.7
501.874	62.7
502.306	61.49
502.739	65.42
503.171	64.55
503.603	63.48
504.036	63.08
504.468	63.41
504.9	64.01
505.332	62.82
505.764	62.96
506.196	61.9
506.627	62.03
507.059	62.3
507.491	57.11
507.923	57.05
508.354	57.33
508.786	57.31
509.217	58.04
509.649	57.78
510.08	57.99
510.512	57.92
510.943	57.95
511.374	58.13
511.805	58.32
512.237	58.05
512.668	57.49
513.099	57.18
513.53	57.47
513.961	56.99
514.391	57.93
514.822	60.31
515.253	61.66
515.684	61.99
516.114	61.95
516.545	62.84
516.975	63.73
517.406	63.91
517.836	62.65
518.267	63.09
518.697	64.24
519.127	63.3
519.558	61.26
519.988	59.5
520.418	58.58
520.848	57.13
521.278	55.91
521.708	98.52
522.138	99.22
522.567	99.95
522.997	99.89
523.427	98.51
523.857	98.97
524.286	98.64
524.716	99.27
525.145	100.26
525.575	101.87
526.004	101.77
526.433	58.98
526.863	57.66
527.292	58.84
527.721	59.78
528.15	59.64
528.579	59.46
529.008	59.78
529.437	58.96
529.866	58.31
530.295	57.7
530.724	59.41
531.152	60.21
531.581	61.9
532.01	61.49
532.438	59.92
532.867	60.04
533.295	61.13
533.723	61.37
534.152	62.47
534.58	63.36
535.008	63.21
535.436	64.25
535.865	64.46
536.293	63.55
536.721	63.78
537.149	66.05
537.576	67.56
538.004	67.72
538.432	67.45
538.86	67.94
539.287	67.39
539.715	68.09
540.143	66.16
540.57	65.89
540.998	65.95
541.425	67.43
541.852	66.36
542.28	65.94
542.707	65.41
543.134	66.09
543.561	66.29
543.988	66.96
544.415	66.76
544.842	66.67
545.269	67.58
545.696	68.96
546.123	68.68
546.549	68.91
546.976	68.83
547.403	69.4
547.829	68.19
548.256	67.75
548.682	68.17
549.108	69.83
549.535	69.74
549.961	68.56
550.387	67.59
550.813	69.02
551.24	69.27
551.666	69.18
552.092	69.21
552.518	69.7
552.943	70.58
553.369	70.58
553.795	70.07
554.221	70.99
554.646	72.08
555.072	74.49
555.498	72.44
555.923	72.02
556.349	72.54
556.774	72.11
557.199	72.8
557.625	71.77
558.05	72.21
558.475	72.5
558.9	72.73
559.325	73.41
559.75	73.27
560.175	73.36
560.6	73.86
561.025	73.43
561.449	74.33
561.874	74.41
562.299	76.47
562.723	76.47
563.148	75.82
563.572	75.89
563.997	75.83
564.421	74.74
564.846	74.79
565.27	75.38
565.694	75.98
566.118	76.28
566.542	78.35
566.966	77.77
567.39	78.38
567.814	79.44
568.238	80.54
568.662	80.91
569.086	82.12
569.509	83.05
569.933	84.49
570.357	84.66
570.78	84.17
571.204	85.09
571.627	84.82
572.05	85.36
572.474	86.81
572.897	86.78
573.32	88.4
573.743	87.63
574.166	88.23
574.589	87.25
575.012	87.4
575.435	87.34
575.858	86.01
576.281	86.16
576.704	85.17
577.126	83.88
577.549	82.81
577.972	81.33
578.394	81.31
578.817	84.08
579.239	83.13
579.661	83.44
580.084	85.59
580.506	85.99
580.928	86.05
581.35	86.44
581.772	86.18
582.194	86.66
582.616	85.97
583.038	84.39
583.46	80.92
583.882	81.59
584.303	80.01
584.725	78
585.147	83.21
585.568	83.96
585.99	85.02
586.411	86.14
586.833	86.59
587.254	87.48
587.675	89.16
588.096	90
588.518	89.58
588.939	89.95
589.36	90.62
589.781	83.16
590.202	85.44
590.623	84.18
591.043	83.01
591.464	82.17
591.885	82.46
592.305	81.59
592.726	81.45
593.147	81.42
593.567	81.65
593.987	80.18
594.408	79.52
594.828	75.17
595.248	76.09
595.669	76.7
596.089	76.42
596.509	74.89
596.929	74.02
597.349	74.09
597.769	74.06
598.189	73.29
598.608	73.87
599.028	74.38
599.448	74.26
599.867	72.53
600.287	70.9
600.706	71.74
601.126	72.32
601.545	73.57
601.965	73.1
602.384	72.39
602.803	72.47
603.222	72.42
603.641	72.13
604.061	73.04
604.48	72.71
604.898	73.32
605.317	73.12
605.736	72.67
606.155	72.91
606.574	72
606.992	72.01
607.411	71.98
607.829	70.78
608.248	70.05
608.666	69.03
609.085	69.67
609.503	69.32
609.921	70.25
610.339	71.32
610.758	70.14
611.176	70.49
611.594	71.66
612.012	71.5
612.43	73.63
612.847	74.56
613.265	76.2
613.683	76.04
614.101	76.44
614.518	74.75
614.936	73.36
615.353	74.15
615.771	74.64
616.188	74.21
616.606	74.52
617.023	74
617.44	73.74
617.857	72.13
618.274	71.87
618.691	72.75
619.108	72.41
619.525	72.61
619.942	73.05
620.359	73.37
620.776	72.85
621.192	73.81
621.609	73.89
622.026	74.77
622.442	76.12
622.859	75.83
623.275	74.79
623.691	75.23
624.108	76.33
624.524	76.88
624.94	76.76
625.356	76.79
625.772	76.84
626.188	77.15
626.604	77.43
627.02	76.43
627.436	77.31
627.852	79.14
628.268	80.4
628.683	78.8
629.099	78.25
629.514	76.83
629.93	77.66
630.345	77.9
630.761	76.77
631.176	76.8
631.591	79.17
632.007	79.72
632.422	78.04
632.837	76.38
633.252	78.18
633.667	77.99
634.082	78.13
634.497	78.84
634.911	80.15
635.326	80.86
635.741	80.21
636.155	78.25
636.57	80.21
636.984	81.31
637.399	84.75
637.813	83.69
638.228	84.44
638.642	85.82
639.056	85.43
639.47	85.4
639.884	85.88
640.298	86.32
640.712	88.51
641.126	87.97
641.54	87.63
641.954	84.96
642.368	86.44
642.781	90.94
643.195	90.62
643.609	91.98
644.022	91.99
644.436	91.94
644.849	91.15
645.262	88.93
645.676	88.46
646.089	89.22
646.502	90.72
646.915	90.41
647.328	86.69
647.741	87.82
648.154	87.14
648.567	91.11
648.98	92.45
649.393	93.2
649.805	94.93
650.218	94.88
650.631	94.52
651.043	94.66
651.456	95.38
651.868	95.38
652.28	96.35
652.693	96.7
653.105	94.53
653.517	93.76
653.929	94.28
654.341	94.19
654.753	93.94
655.165	94.24
655.577	94.4
655.989	93.71
656.401	91.71
656.813	91.08
657.224	89.91
657.636	86.29
658.047	87.59
658.459	86.96
658.87	86.35
659.282	84.94
659.693	84.98
660.104	84.35
660.515	83.3
660.926	83.68
661.338	82.3
661.749	81.56
662.159	82.78
662.57	81.2
662.981	81.08
663.392	80.81
663.803	81.44
664.213	80.47
664.624	79.88
665.035	79.75
665.445	78.26
665.855	79.44
666.266	81.62
666.676	80.6
667.086	78.7
667.497	78.76
667.907	77.77
668.317	76.97
668.727	80.34
669.137	78.72
669.547	78.77
669.956	78.21
670.366	77.47
670.776	76.4
671.186	76.52
671.595	77.19
672.005	76.15
672.414	77.74
672.824	78.78
673.233	74.9
673.642	75.28
674.052	76.13
674.461	78.48
674.87	77.78
675.279	78.36
675.688	76.21
676.097	78.18
676.506	78.44
676.915	78.03
677.323	77.62
677.732	76.8
678.141	77.04
678.549	75.15
678.958	73.5
679.366	73.02
679.775	71.28
680.183	75.67
680.592	75.12
681	74.68
681.408	74.03
681.816	74.35
682.224	74.06
682.632	76.51
683.04	78.42
683.448	79.53
683.856	82.69
684.264	85.76
684.671	85.38
685.079	85.94
685.487	88.84
685.894	91.94
686.302	92.78
686.709	95.82
687.116	96.83
687.524	99.91
687.931	102.66
688.338	103.42
688.745	101.82
689.152	102.11
689.559	103.94
689.966	106.58
690.373	106.08
690.78	107.66
691.187	109.26
691.593	109.43
692	108.52
692.407	109.74
692.813	114.57
693.22	117.31
693.626	116.88
694.032	118.83
694.439	119.68
694.845	120.86
695.251	121.93
695.657	123.53
696.063	125.64
696.469	125.7
696.875	127.21
697.281	123.97
697.687	122.41
698.093	123.04
698.498	124.07
698.904	123.36
699.31	125.58
699.715	130.08
700.12	131.97
700.526	131.81
700.931	133.65
701.337	134.74
701.742	135.92
702.147	138.64
702.552	139.64
702.957	140.18
703.362	141.4
703.767	140.77
704.172	138.05
704.577	135.04
704.981	135.23
705.386	136.73
705.791	135.35
706.195	135.07
706.6	135.63
707.004	136.65
707.408	133.32
707.813	134.89
708.217	136.12
708.621	136.04
709.025	139.07
709.43	140.61
709.834	142.45
710.237	143.96
710.641	143.49
711.045	144.42
711.449	145.75
711.853	152.86
712.256	152.75
712.66	151.92
713.064	153.87
713.467	156.99
713.87	159.88
714.274	160.48
714.677	164.32
715.08	170.33
715.484	175.41
715.887	185.02
716.29	184.13
716.693	191.51
717.096	199.12
717.499	204.21
717.901	201.64
718.304	200.97
718.707	200.59
719.109	196.77
719.512	193.07
719.915	191.3
720.317	185.65
720.719	185.96
721.122	183.12
721.524	181.65
721.926	184.72
722.328	188.25
722.731	186.72
723.133	187.58
723.535	192.84
723.937	194.13
724.338	194.86
724.74	197.25
725.142	269.33
725.544	274.7
725.945	292.72
726.347	286.58
726.748	287.18
727.15	289.28
727.551	292.63
727.952	289.96
728.354	287.35
728.755	285.98
729.156	282.82
729.557	212.12
729.958	202.48
730.359	183.88
730.76	184.1
731.161	181.69
731.562	178.93
731.962	174.35
732.363	173.28
732.763	172.21
733.164	170.59
733.564	168.07
733.965	165.78
734.365	165.27
734.766	167.24
735.166	166.92
