Data from C_3_DEC_ON_6N_Splice17_13-35-57-255.txt Node
Date: Sat Mar 14 13:35:57 EDT 2020
User: sa697716
Spectrometer: FLMS03696
Trigger mode: 0
Integration Time (sec): 3.180400E-1
Scans to average: 20
Electric dark correction enabled: true
Nonlinearity correction enabled: true
Boxcar width: 5
XAxis mode: Wavelengths
Number of Pixels in Spectrum: 2048
>>>>>Begin Spectral Data<<<<<
187.83	-385274.55
188.298	2866.25
188.766	1560.61
189.233	1397.44
189.701	1988.04
190.169	2756.5
190.636	1042.38
191.104	883.34
191.571	162.08
192.039	-93.6
192.506	-96.46
192.974	683.77
193.441	-1117.26
193.908	-242.61
194.375	-65.82
194.842	19.86
195.31	107.39
195.777	174.68
196.244	415.4
196.711	438.36
197.177	530.33
197.644	734.16
198.111	1285.49
198.578	1825.38
199.045	1446.92
199.511	2343.53
199.978	2714.75
200.445	2301.89
200.911	2544.02
201.378	2824.24
201.844	2595.02
202.31	4397.77
202.777	4563.84
203.243	2535.97
203.709	2377.19
204.176	2839.64
204.642	2342.43
205.108	2178.94
205.574	1769.9
206.04	1589.42
206.506	1480.76
206.972	1385.15
207.438	1339.13
207.903	1510.28
208.369	1322.94
208.835	1332.93
209.301	1388.36
209.766	1398.93
210.232	1389.69
210.697	1718.37
211.163	2110.76
211.628	3150.72
212.094	2624.71
212.559	3260.5
213.024	2047.73
213.49	2481.12
213.955	2392.16
214.42	2304.37
214.885	2155.17
215.35	2048.97
215.815	2017.1
216.28	2154.13
216.745	1737.24
217.21	1861.04
217.675	1652.39
218.14	1810.29
218.604	1969.66
219.069	2235.68
219.534	2347.68
219.998	2663.71
220.463	3180.93
220.927	3774.53
221.392	3479.87
221.856	3506.2
222.32	4352.09
222.785	5358.47
223.249	6722.16
223.713	7517.02
224.177	7471
224.642	9435.34
225.106	11618.9
225.57	12626.96
226.034	9448.63
226.497	14455.87
226.961	13085.44
227.425	15271.28
227.889	16887.78
228.353	16822.2
228.816	34572.88
229.28	33041.74
229.744	27891.19
230.207	16969.27
230.671	16700.47
231.134	27529.48
231.597	31734.78
232.061	31624.48
232.524	30797.72
232.987	21230.04
233.45	19168.65
233.914	17212.42
234.377	17599.69
234.84	16132.64
235.303	18961.61
235.766	21215.35
236.229	21870.15
236.691	13733.68
237.154	15429.72
237.617	11650.91
238.08	11933.93
238.542	13959.15
239.005	9990.21
239.468	9951.19
239.93	9394.68
240.393	8565.25
240.855	7531.54
241.317	7735.92
241.78	9429.98
242.242	9798.1
242.704	10623.15
243.166	9284.88
243.629	8486
244.091	9809.71
244.553	10756.38
245.015	11581.22
245.477	15007.51
245.939	22004.95
246.4	23439.24
246.862	22802.69
247.324	21487.6
247.786	23991.38
248.247	31426.8
248.709	32330.95
249.17	24218.44
249.632	22959.91
250.093	26720.55
250.555	23104.4
251.016	14120.73
251.477	13383.96
251.939	14505.68
252.4	15232.21
252.861	18116.05
253.322	16887.51
253.783	20111.65
254.244	26062.4
254.705	20489.71
255.166	18171.45
255.627	17890.25
256.088	25250.46
256.549	26803.67
257.009	23017.43
257.47	27916.86
257.931	22720.94
258.391	16989.53
258.852	17498.95
259.312	18304.62
259.773	22608.47
260.233	19113.3
260.694	16130.19
261.154	18266.42
261.614	14700.77
262.074	13125.66
262.534	13627.48
262.994	12842.95
263.455	17084.97
263.915	14404.38
264.374	13571.99
264.834	14783.37
265.294	16359.01
265.754	16910.53
266.214	15975.3
266.673	14915.92
267.133	18822.33
267.593	18631.52
268.052	22776.35
268.512	19815.3
268.971	23917.12
269.431	26189.14
269.89	23435.54
270.349	35155.94
270.809	39250.48
271.268	35292.25
271.727	79043.11
272.186	51145.42
272.645	38374.07
273.104	27637.65
273.563	39943.93
274.022	31304.62
274.481	26672.01
274.94	20552.15
275.399	15233.14
275.857	17693.81
276.316	23886.87
276.775	21291.42
277.233	20972.85
277.692	19665.13
278.15	22297.27
278.609	23006.78
279.067	21282.34
279.525	19770.73
279.984	25506.86
280.442	30682.49
280.9	30319.41
281.358	19971.34
281.816	18619.18
282.274	18242.62
282.732	18792.18
283.19	18846.98
283.648	16223.49
284.106	17318.53
284.564	17588.14
285.021	16345.86
285.479	12176.15
285.937	11030.68
286.394	9707.31
286.852	9973.7
287.309	10478.65
287.767	10166.04
288.224	9678.88
288.682	10641.74
289.139	11692.59
289.596	10723.27
290.053	11116.6
290.511	14029.06
290.968	17079.56
291.425	23163.51
291.882	19360.6
292.339	16866.75
292.796	16711.69
293.252	15740.16
293.709	12533.19
294.166	11221.03
294.623	12397.71
295.079	11907.19
295.536	11981.87
295.992	10865.62
296.449	10736.27
296.905	11162.62
297.362	10742.29
297.818	11310.21
298.274	11781.59
298.731	11982.65
299.187	11870.53
299.643	12751.11
300.099	15446.62
300.555	16943.05
301.011	14191.88
301.467	13748.79
301.923	16047.69
302.379	15659.92
302.835	15371.62
303.291	15369.85
303.746	17509.31
304.202	22112.32
304.658	22229.16
305.113	14938.99
305.569	14647.78
306.024	15607.34
306.479	14812.9
306.935	12534.18
307.39	13642.76
307.845	12636.92
308.301	12743.3
308.756	12415.9
309.211	11982.91
309.666	12289.62
310.121	15336.74
310.576	15588.01
311.031	15480.03
311.486	17698.89
311.94	17652.86
312.395	23673.62
312.85	44448.09
313.305	218212.15
313.759	1134020.13
314.214	82313.7
314.668	65314.15
315.123	54968.61
315.577	19747.62
316.032	17599.97
316.486	22110.97
316.94	17525.94
317.394	12242
317.849	9527.97
318.303	9010.01
318.757	8532.12
319.211	9458.22
319.665	8291.31
320.119	8390.59
320.572	12014.48
321.026	11238.19
321.48	9360.16
321.934	10186.33
322.387	10206.67
322.841	11056.59
323.295	10013.18
323.748	11490.54
324.202	11624.3
324.655	13979.91
325.108	19619.06
325.562	13888.29
326.015	16511.56
326.468	12514.06
326.921	14017.16
327.374	13092.99
327.827	13655.52
328.28	15438.88
328.733	10368.86
329.186	9150.01
329.639	8727.47
330.092	7358.98
330.545	7031.96
330.997	7108.59
331.45	7798.64
331.903	9165
332.355	15733.69
332.808	15284.98
333.26	12593.13
333.713	13736.63
334.165	13830.38
334.617	18421.99
335.069	14849.03
335.522	26856.9
335.974	29742.33
336.426	27111.45
336.878	18740.91
337.33	9564.86
337.782	9363.51
338.234	11802.41
338.686	14080.44
339.137	16709.63
339.589	15760.77
340.041	12349.51
340.493	10616.04
340.944	10878.12
341.396	11715.56
341.847	9926.44
342.299	11743.36
342.75	14358.59
343.201	12491.55
343.653	14363.61
344.104	17643.19
344.555	13913.04
345.006	21662.25
345.457	16688.58
345.908	13259.77
346.359	12524.25
346.81	10168.2
347.261	10670.77
347.712	10489.9
348.163	11259.28
348.613	11472.38
349.064	10750.66
349.515	9427.16
349.965	9693.81
350.416	11644.35
350.866	12775.1
351.317	14434.15
351.767	23956.87
352.217	30396.24
352.668	25266.08
353.118	23173.74
353.568	22223.98
354.018	17622.83
354.468	18604.45
354.918	13369.15
355.368	11693.43
355.818	16575.39
356.268	47702.1
356.718	199982.79
357.168	49757.06
357.617	24957.22
358.067	27802.11
358.517	26147.29
358.966	30752.1
359.416	34601.34
359.865	37412.96
360.315	44579.39
360.764	20889.94
361.213	11734.93
361.663	11113.26
362.112	13715.74
362.561	22203.59
363.01	16754.96
363.459	14094.25
363.908	15178.69
364.357	12920.87
364.806	21838.89
365.255	15073.55
365.703	13822.48
366.152	13850.92
366.601	11250.58
367.05	9182.33
367.498	8359.64
367.947	8718.63
368.395	9071.96
368.844	8070.8
369.292	9694.32
369.74	6715.59
370.189	10264.9
370.637	12016.4
371.085	10357.13
371.533	12584.05
371.981	12081.01
372.429	11549.08
372.877	12046.68
373.325	10099.35
373.773	10282.42
374.221	9148.78
374.669	11352.34
375.116	9823.91
375.564	9933.28
376.012	11116.73
376.459	9214.65
376.907	11018.73
377.354	13339.81
377.801	12497.66
378.249	14424.76
378.696	18399.62
379.143	22316.07
379.591	23666.27
380.038	40063.78
380.485	28969.43
380.932	31396.76
381.379	28795.85
381.826	21341.03
382.273	15174.56
382.72	13231.51
383.166	12911.17
383.613	8406.4
384.06	7614.19
384.506	8868.3
384.953	6528.98
385.4	6579.11
385.846	5787.85
386.292	5636.73
386.739	5538.09
387.185	5510.82
387.631	5574.34
388.078	5487.79
388.524	5949.07
388.97	5539.73
389.416	4666.9
389.862	5009.97
390.308	4776.59
390.754	4888.67
391.2	5392.36
391.645	5606.54
392.091	5484.61
392.537	5404.02
392.983	5468.6
393.428	5459.6
393.874	5930.81
394.319	6082.47
394.765	5935.07
395.21	6317.27
395.655	6143.45
396.101	5952.02
396.546	5559.06
396.991	5799.97
397.436	5578.44
397.881	5607.12
398.326	5534.51
398.771	5476.07
399.216	4994.11
399.661	4670.93
400.106	4812.85
400.551	5082.18
400.995	4685.51
401.44	4745.51
401.885	4551.56
402.329	4690.85
402.774	4576.2
403.218	4499.44
403.663	4406.09
404.107	4603.4
404.551	4715.39
404.995	4417.02
405.44	4352.96
405.884	4519.43
406.328	4471.59
406.772	4543.7
407.216	4218.77
407.66	4172.04
408.104	4072.42
408.547	3912.77
408.991	3877.13
409.435	3814.8
409.879	3822.78
410.322	3831.81
410.766	3760.77
411.209	3637.33
411.653	3568.45
412.096	3569.51
412.54	3642.25
412.983	3681.21
413.426	3741.27
413.869	3795.39
414.312	3772.25
414.756	3690.68
415.199	3572.16
415.642	3517.14
416.085	3566.33
416.527	3579.38
416.97	3674.66
417.413	3512.93
417.856	3503.18
418.298	3489
418.741	3475.12
419.184	3481.7
419.626	3643.65
420.069	3651.39
420.511	3678.3
420.953	3616.69
421.396	3607.69
421.838	3538.63
422.28	3641.2
422.722	3682.53
423.164	3778.83
423.606	3760.63
424.048	3800.75
424.49	3646.17
424.932	3672.78
425.374	3659.88
425.816	3745.43
426.258	3804.78
426.699	3808.17
427.141	3688.45
427.582	3690.03
428.024	3634.37
428.465	3618.4
428.907	3565
429.348	3576.74
429.789	3624.53
430.231	3583.8
430.672	3670.56
431.113	3642.93
431.554	3686.21
431.995	3731.24
432.436	3723.28
432.877	3753.19
433.318	3770.37
433.759	3819.34
434.2	3865.11
434.64	3866.06
435.081	3926.71
435.522	3772.69
435.962	3695.37
436.403	3664.33
436.843	3769.18
437.284	3737.83
437.724	3680.75
438.164	3731.41
438.604	3679.72
439.045	3568.57
439.485	3453.72
439.925	3429.74
440.365	3392.31
440.805	3387.16
441.245	3377.31
441.685	3274
442.125	3273.44
442.564	3307.14
443.004	3234.37
443.444	3237.14
443.883	3257.25
444.323	3263.96
444.762	3301.07
445.202	3367.04
445.641	3439.43
446.081	3446.6
446.52	3493.41
446.959	3480.52
447.398	3421.45
447.837	3421.54
448.276	3396.43
448.716	3451.95
449.154	3495.79
449.593	3399.15
450.032	3376.97
450.471	3319.09
450.91	3316.72
451.349	3295.14
451.787	3272.84
452.226	3310.5
452.664	3292.54
453.103	3282.31
453.541	3274.47
453.98	3252.18
454.418	3282.01
454.856	3224.31
455.295	3209.16
455.733	3222.04
456.171	3234.12
456.609	3219.79
457.047	3212.83
457.485	3244.24
457.923	3239.06
458.361	3191.14
458.798	3202.97
459.236	3193.81
459.674	3229.23
460.111	3256.29
460.549	3234.44
460.987	3238.13
461.424	3245.92
461.862	3239.05
462.299	3204.84
462.736	3210.24
463.173	3229.9
463.611	3190.27
464.048	3186.66
464.485	3221.52
464.922	3210.99
465.359	3220.16
465.796	3162.73
466.233	3161.39
466.67	3148.71
467.106	3158.11
467.543	3155.53
467.98	3145.56
468.416	3109.84
468.853	3129.59
469.29	3075.67
469.726	3070.75
470.162	3015.91
470.599	3039.25
471.035	3045.57
471.471	3005.57
471.907	3027.96
472.344	3035.78
472.78	3056.47
473.216	3110.16
473.652	3077.54
474.088	3079.21
474.523	3075.96
474.959	3115.33
475.395	3093.02
475.831	3070.91
476.266	3089.62
476.702	3081.67
477.138	3047.43
477.573	3039.24
478.008	3025.72
478.444	3036.66
478.879	3051.88
479.314	3055.42
479.75	3039.53
480.185	3044.16
480.62	3059.29
481.055	3058.76
481.49	3056.25
481.925	3071.82
482.36	3072.68
482.795	3105.77
483.229	3127.87
483.664	3133.04
484.099	3094.79
484.534	3100.44
484.968	3090.43
485.403	3069.6
485.837	3039.67
486.271	3013.36
486.706	3006.24
487.14	2983.44
487.574	2946.65
488.009	2935.18
488.443	2920.1
488.877	2943.93
489.311	2946.41
489.745	2970.92
490.179	2985.66
490.613	3022.35
491.046	3036.96
491.48	3045.4
491.914	3032.92
492.348	3041.17
492.781	3044.76
493.215	3043.25
493.648	3048.44
494.082	3067.76
494.515	3057.81
494.948	3072.65
495.382	3079.88
495.815	3078.12
496.248	3076.13
496.681	3107.29
497.114	3130.52
497.547	3142.33
497.98	3158.61
498.413	3141.36
498.846	3139.72
499.279	3143.69
499.711	3137.9
500.144	3121.82
500.577	3129.77
501.009	3143.84
501.442	3147.39
501.874	3124.86
502.306	3116.65
502.739	3123.56
503.171	3169
503.603	3166.52
504.036	3179.75
504.468	3171.96
504.9	3183.86
505.332	3183.51
505.764	3173.58
506.196	3175.86
506.627	3198.16
507.059	3210.09
507.491	3212.4
507.923	3168.17
508.354	3183.88
508.786	3187.41
509.217	3213.98
509.649	3228.5
510.08	3254.16
510.512	3264.63
510.943	3267.51
511.374	3259.16
511.805	3280.31
512.237	3299.49
512.668	3355.27
513.099	3385.03
513.53	3402.08
513.961	3393.86
514.391	3418.41
514.822	3443.9
515.253	3482.67
515.684	3498.13
516.114	3527.16
516.545	3536.9
516.975	3562.28
517.406	3569.84
517.836	3548.69
518.267	3550.55
518.697	3585.54
519.127	3586.92
519.558	3593.84
519.988	3589.98
520.418	3602.38
520.848	3633.49
521.278	3637.85
521.708	3610.61
522.138	3623.45
522.567	3674.91
522.997	3704.97
523.427	3706.25
523.857	3708.99
524.286	3699.96
524.716	3708.55
525.145	3727.43
525.575	3728.71
526.004	3742.45
526.433	3752.29
526.863	3732.72
527.292	3694.99
527.721	3700.72
528.15	3716.74
528.579	3721.68
529.008	3745.43
529.437	3786.9
529.866	3802.25
530.295	3821.18
530.724	3828.46
531.152	3865.61
531.581	3878.97
532.01	3901.38
532.438	3905.66
532.867	3923.39
533.295	3948.03
533.723	3948.97
534.152	3933.94
534.58	3927.28
535.008	3889.61
535.436	3884.98
535.865	3896.63
536.293	3919.18
536.721	3940.12
537.149	3974
537.576	3959.08
538.004	3971.08
538.432	3977.04
538.86	3966.76
539.287	3976.25
539.715	3998.57
540.143	4001.75
540.57	3990.67
540.998	3983.36
541.425	3940.37
541.852	3907.15
542.28	3916.14
542.707	3893.74
543.134	3873.96
543.561	3874.66
543.988	3865.05
544.415	3870.29
544.842	3864.61
545.269	3855.51
545.696	3865.03
546.123	3898.81
546.549	3882.82
546.976	3860.41
547.403	3865
547.829	3874.38
548.256	3884.69
548.682	3884.96
549.108	3875.37
549.535	3881.95
549.961	3891.94
550.387	3869.08
550.813	3861.16
551.24	3880.01
551.666	3888.76
552.092	3873.38
552.518	3865.8
552.943	3854.55
553.369	3872.22
553.795	3884.75
554.221	3886.21
554.646	3878.71
555.072	3897.15
555.498	3904.45
555.923	3915.19
556.349	3936.7
556.774	3945.98
557.199	3941.74
557.625	3952.1
558.05	3937.17
558.475	3959.37
558.9	3955.43
559.325	3937.75
559.75	3926.5
560.175	3914.82
560.6	3907.92
561.025	3910.03
561.449	3918.65
561.874	3932.59
562.299	3940.59
562.723	3953.19
563.148	3928.22
563.572	3936.53
563.997	3957.98
564.421	3971.64
564.846	3972.15
565.27	3976.83
565.694	3967.43
566.118	3986.52
566.542	3999.3
566.966	3983.64
567.39	3970.42
567.814	3945.1
568.238	3940.82
568.662	3952.58
569.086	3958.45
569.509	3981.7
569.933	3956.8
570.357	3954.35
570.78	3923.12
571.204	3907.46
571.627	3900.08
572.05	3914.4
572.474	3929.33
572.897	3920.21
573.32	3917.47
573.743	3913.28
574.166	3884.36
574.589	3896.71
575.012	3889.46
575.435	3897.49
575.858	3886.92
576.281	3872.69
576.704	3849.71
577.126	3839.9
577.549	3829.69
577.972	3824.11
578.394	3814.12
578.817	3811.7
579.239	3785.77
579.661	3771.68
580.084	3752.1
580.506	3741.1
580.928	3750.3
581.35	3739.79
581.772	3740.91
582.194	3720.17
582.616	3696.52
583.038	3668.38
583.46	3649.29
583.882	3645.16
584.303	3659.07
584.725	3648.66
585.147	3639.25
585.568	3648.74
585.99	3652.64
586.411	3642.25
586.833	3652.69
587.254	3637.29
587.675	3656.27
588.096	3672.2
588.518	3648.36
588.939	3596.83
589.36	3582.63
589.781	3563.15
590.202	3499.76
590.623	3494.33
591.043	3505.8
591.464	3487.96
591.885	3484.85
592.305	3474.92
592.726	3445.28
593.147	3449.48
593.567	3441
593.987	3424.49
594.408	3412.74
594.828	3410.19
595.248	3391.72
595.669	3344.69
596.089	3329.99
596.509	3318.52
596.929	3287.91
597.349	3287.13
597.769	3260.9
598.189	3240.6
598.608	3237.14
599.028	3236.23
599.448	3232.02
599.867	3202.49
600.287	3191.64
600.706	3179.45
601.126	3155.39
601.545	3150.61
601.965	3148.1
602.384	3136.7
602.803	3144.51
603.222	3135.52
603.641	3121.79
604.061	3113.75
604.48	3105.14
604.898	3122.86
605.317	3133.6
605.736	3136.33
606.155	3127.67
606.574	3104.41
606.992	3112.26
607.411	3096.68
607.829	3076.89
608.248	3069.16
608.666	3064.32
609.085	3061.18
609.503	3041.71
609.921	3025.79
610.339	3029.54
610.758	3027.17
611.176	3015.84
611.594	2996.07
612.012	2989.81
612.43	2995.93
612.847	3007.34
613.265	3004.62
613.683	3011.78
614.101	3011.1
614.518	3002.45
614.936	2982.49
615.353	2951.33
615.771	2948.66
616.188	2953.05
616.606	2949.92
617.023	2939.35
617.44	2913.83
617.857	2909.02
618.274	2897.02
618.691	2889.96
619.108	2872.72
619.525	2858.38
619.942	2873.55
620.359	2876.77
620.776	2861.64
621.192	2846.65
621.609	2834.98
622.026	2842.43
622.442	2843.81
622.859	2842.84
623.275	2820.17
623.691	2826.7
624.108	2845.6
624.524	2870.17
624.94	2861.44
625.356	2876.22
625.772	2899.51
626.188	2919.11
626.604	2916.43
627.02	2901.62
627.436	2891.33
627.852	2898.86
628.268	2917.93
628.683	2892.83
629.099	2869.31
629.514	2857.61
629.93	2864.91
630.345	2873.41
630.761	2865.3
631.176	2872.72
631.591	2860.48
632.007	2847.84
632.422	2846.89
632.837	2825.4
633.252	2822.29
633.667	2804.45
634.082	2789.84
634.497	2766.22
634.911	2727.83
635.326	2727.83
635.741	2696.84
636.155	2683.33
636.57	2693.14
636.984	2698.72
637.399	2706.99
637.813	2715.83
638.228	2721.07
638.642	2738.4
639.056	2723.33
639.47	2732.29
639.884	2721.43
640.298	2717.19
640.712	2724.31
641.126	2709.07
641.54	2701.84
641.954	2706.1
642.368	2690
642.781	2681.4
643.195	2650.75
643.609	2661.49
644.022	2656.47
644.436	2653.41
644.849	2630.8
645.262	2609.69
645.676	2618.92
646.089	2611.03
646.502	2575.12
646.915	2566.38
647.328	2532.16
647.741	2534.78
648.154	2510.63
648.567	2508.75
648.98	2483.6
649.393	2493.69
649.805	2493.44
650.218	2484.8
650.631	2455.79
651.043	2452.9
651.456	2444.63
651.868	2451.17
652.28	2493.31
652.693	2518.11
653.105	2520.18
653.517	2522.99
653.929	2504.73
654.341	2503.85
654.753	2465.76
655.165	2478.49
655.577	2473.86
655.989	2469.3
656.401	2463
656.813	2387.64
657.224	2363.95
657.636	2328.04
658.047	2319.87
658.459	2307.16
658.87	2319.77
659.282	2318.15
659.693	2287.74
660.104	2267.02
660.515	2248.64
660.926	2258.36
661.338	2268.84
661.749	2268.59
662.159	2255.34
662.57	2259.86
662.981	2260.14
663.392	2249.9
663.803	2270.79
664.213	2276
664.624	2276.73
665.035	2295.76
665.445	2268.63
665.855	2254.5
666.266	2236.63
666.676	2238.7
667.086	2218.72
667.497	2219.28
667.907	2204.08
668.317	2178.94
668.727	2161.6
669.137	2163.63
669.547	2154.45
669.956	2159.69
670.366	2164.48
670.776	2166.37
671.186	2171.68
671.595	2174.23
672.005	2180.45
672.414	2170.89
672.824	2158.94
673.233	2171.12
673.642	2169.86
674.052	2169.57
674.461	2165.17
674.87	2170.44
675.279	2152.45
675.688	2151.77
676.097	2146.39
676.506	2128.84
676.915	2160.51
677.323	2159.76
677.732	2142.77
678.141	2131.35
678.549	2094.08
678.958	2083.52
679.366	2070.43
679.775	2074.17
680.183	2084.05
680.592	2086.66
681	2084.59
681.408	2049.39
681.816	2050.71
682.224	2055.46
682.632	2056.52
683.04	2104.65
683.448	2128.74
683.856	2153.39
684.264	2178.9
684.671	2193.39
685.079	2218.72
685.487	2252
685.894	2318.66
686.302	2355.92
686.709	2369.2
687.116	2396.61
687.524	2406.69
687.931	2411.37
688.338	2419.94
688.745	2425.96
689.152	2439.16
689.559	2467.56
689.966	2488.1
690.373	2467.47
690.78	2478.86
691.187	2523.92
691.593	2538.55
692	2543.3
692.407	2579.62
