Data from C_3_DIV_OH_2N_Splice17_12-47-49-569.txt Node
Date: Sat Mar 14 12:47:49 EDT 2020
User: sa697716
Spectrometer: FLMS03696
Trigger mode: 0
Integration Time (sec): 3.180400E-1
Scans to average: 20
Electric dark correction enabled: true
Nonlinearity correction enabled: true
Boxcar width: 5
XAxis mode: Wavelengths
Number of Pixels in Spectrum: 2048
>>>>>Begin Spectral Data<<<<<
187.83	-364505.62
188.298	2551.32
188.766	1322.06
189.233	1210.09
189.701	1718.11
190.169	2343.03
190.636	843.72
191.104	678.24
191.571	64.26
192.039	-139.99
192.506	-215.91
192.974	269.95
193.441	-575.05
193.908	-156.31
194.375	-35.19
194.842	-16.51
195.31	40.78
195.777	138.1
196.244	334.72
196.711	279.71
197.177	316.35
197.644	387.65
198.111	685.73
198.578	949.88
199.045	761.74
199.511	1225.71
199.978	1433.56
200.445	1263.78
200.911	1376.82
201.378	1449.93
201.844	1328.32
202.31	2262.58
202.777	2391.33
203.243	1316.97
203.709	1267.22
204.176	1494.04
204.642	1250.5
205.108	1162.34
205.574	925.83
206.04	807.37
206.506	778.24
206.972	732.75
207.438	713.98
207.903	805.57
208.369	731.77
208.835	736.49
209.301	789.69
209.766	792.34
210.232	797.75
210.697	975.07
211.163	1214.86
211.628	1816.3
212.094	1549.36
212.559	1965.83
213.024	1234.27
213.49	1534.06
213.955	1495.76
214.42	1420.29
214.885	1346.22
215.35	1291.38
215.815	1324.05
216.28	1423.32
216.745	1162.54
217.21	1271.62
217.675	1149.28
218.14	1312.01
218.604	1450.28
219.069	1686.35
219.534	1826.19
219.998	2129.49
220.463	2596.37
220.927	3164.26
221.392	3008.81
221.856	3079.85
222.32	3886.3
222.785	4854.59
223.249	6136.75
223.713	6921.71
224.177	6965.86
224.642	8910.85
225.106	11007.69
225.57	12068.97
226.034	9036.68
226.497	13773.73
226.961	12507.72
227.425	14651.13
227.889	16235.63
228.353	16269.7
228.816	33633.72
229.28	32258.36
229.744	27264.33
230.207	16670.84
230.671	16463.78
231.134	27171.2
231.597	31443.4
232.061	31450.61
232.524	30579.73
232.987	21116
233.45	19057.93
233.914	17085.03
234.377	17486.12
234.84	16041.9
235.303	18856.21
235.766	21008.97
236.229	21743.61
236.691	13690.81
237.154	15351.42
237.617	11584.22
238.08	11849.05
238.542	13849.77
239.005	9915.85
239.468	9860.27
239.93	9292.92
240.393	8463.91
240.855	7444.24
241.317	7613.89
241.78	9247.89
242.242	9578.94
242.704	10375.87
243.166	9040.52
243.629	8247.93
244.091	9524.33
244.553	10435.2
245.015	11239.99
245.477	14544.68
245.939	21343.9
246.4	22718.45
246.862	22137.84
247.324	20925.29
247.786	23421.76
248.247	30760.88
248.709	31690.48
249.17	23697.93
249.632	22422.59
250.093	26080.53
250.555	22541.37
251.016	13775.39
251.477	13078.95
251.939	14130.51
252.4	14845.11
252.861	17629.69
253.322	16450.82
253.783	19614.58
254.244	25501.06
254.705	20112.27
255.166	17881.65
255.627	17610.57
256.088	24898.66
256.549	26453.12
257.009	22789.6
257.47	27628.61
257.931	22542.7
258.391	16892.53
258.852	17422.2
259.312	18225.97
259.773	22475.23
260.233	19019.56
260.694	16081.49
261.154	18231.51
261.614	14682.16
262.074	13140.86
262.534	13688.5
262.994	12923.45
263.455	17217.66
263.915	14541.16
264.374	13719.65
264.834	14990.71
265.294	16586.17
265.754	17197.47
266.214	16279.25
266.673	15264.03
267.133	19275.98
267.593	19121.27
268.052	23415.83
268.512	20405.54
268.971	24664.14
269.431	27106.75
269.89	24314.16
270.349	36558.74
270.809	40851.2
271.268	36811.82
271.727	82449.17
272.186	53410.12
272.645	40080.78
273.104	28904.72
273.563	41817.12
274.022	32795.22
274.481	27938.95
274.94	21555.4
275.399	16018.37
275.857	18629.6
276.316	25191.24
276.775	22436.47
277.233	22140.59
277.692	20793.77
278.15	23548.94
278.609	24311.9
279.067	22544.25
279.525	20973
279.984	27102.07
280.442	32627.34
280.9	32287.59
281.358	21254.77
281.816	19842.28
282.274	19423.52
282.732	20013.06
283.19	20121.09
283.648	17322.39
284.106	18453.63
284.564	18748.72
285.021	17402.48
285.479	12949.71
285.937	11758.36
286.394	10336.43
286.852	10651.11
287.309	11227.46
287.767	10903.01
288.224	10407.54
288.682	11445.65
289.139	12590.09
289.596	11561.11
290.053	12051.23
290.511	15228.89
290.968	18522.38
291.425	25150.35
291.882	21011.86
292.339	18304.24
292.796	18152.05
293.252	17104.98
293.709	13636.85
294.166	12233.61
294.623	13533.54
295.079	12970.89
295.536	13076.42
295.992	11883.27
296.449	11783.22
296.905	12254.61
297.362	11781.57
297.818	12412.23
298.274	12927.86
298.731	13187.41
299.187	13079.87
299.643	14020.86
300.099	16988.57
300.555	18634.01
301.011	15576.86
301.467	15056.84
301.923	17611.29
302.379	17220.89
302.835	16906.79
303.291	16894.12
303.746	19216.62
304.202	24265.22
304.658	24387.26
305.113	16396.81
305.569	16065.12
306.024	17118.81
306.479	16236.63
306.935	13705.17
307.39	14934.32
307.845	13785.43
308.301	13897.44
308.756	13529.05
309.211	13033.67
309.666	13343.81
310.121	16599.59
310.576	16853.42
311.031	16723.13
311.486	19148.95
311.94	19082.32
312.395	25511.29
312.85	48025.74
313.305	235190.16
313.759	1220429.18
314.214	88367.97
314.668	70143.26
315.123	58929.68
315.577	21124.24
316.032	18779.97
316.486	23524.91
316.94	18614.66
317.394	12977.27
317.849	10083.68
318.303	9544.49
318.757	9002.98
319.211	9988.94
319.665	8752.66
320.119	8852.84
320.572	12693.95
321.026	11880.81
321.48	9913.78
321.934	10764.87
322.387	10770.81
322.841	11658.58
323.295	10530.76
323.748	12128.63
324.202	12282.91
324.655	14756.6
325.108	20710.54
325.562	14641.68
326.015	17357.82
326.468	13117.43
326.921	14731.06
327.374	13773.32
327.827	14336.12
328.28	16221.2
328.733	10873.09
329.186	9549.28
329.639	9102.67
330.092	7659.56
330.545	7298.91
330.997	7381.27
331.45	8079.39
331.903	9482.95
332.355	16284.05
332.808	15821.22
333.26	13010.28
333.713	14128.56
334.165	14269.35
334.617	19039.2
335.069	15331.92
335.522	27750.24
335.974	30764.92
336.426	28097.59
336.878	19419.39
337.33	9852.08
337.782	9636.62
338.234	12121.19
338.686	14519.22
339.137	17173.81
339.589	16179.56
340.041	12727.22
340.493	10927.17
340.944	11181.66
341.396	12049.74
341.847	10165.13
342.299	12051.1
342.75	14755.59
343.201	12886.52
343.653	14787.89
344.104	18167.83
344.555	14303.46
345.006	22224.52
345.457	17131.22
345.908	13608.52
346.359	12809.95
346.81	10447.14
347.261	11005.85
347.712	10817.73
348.163	11622.61
348.613	11825.89
349.064	11062.52
349.515	9695.58
349.965	9974.28
350.416	11984.65
350.866	13173.18
351.317	14880.47
351.767	24679.88
352.217	31159.01
352.668	25936.98
353.118	23722.17
353.568	22819.97
354.018	18072.64
354.468	19104.1
354.918	13722.28
355.368	12002.8
355.818	16986.06
356.268	49006.33
356.718	205057.81
357.168	51169.77
357.617	25534.32
358.067	28356.01
358.517	26630.95
358.966	31362.17
359.416	35170.97
359.865	37910.64
360.315	45078.02
360.764	21071.03
361.213	11819.9
361.663	11181.13
362.112	13831.89
362.561	22433.43
363.01	16975.53
363.459	14272.32
363.908	15405.38
364.357	13135.62
364.806	22244.47
365.255	15351.43
365.703	14083.73
366.152	14123.41
366.601	11462.6
367.05	9317.97
367.498	8483.23
367.947	8857.38
368.395	9214.44
368.844	8187.63
369.292	9817.97
369.74	6801.82
370.189	10406.31
370.637	12169.88
371.085	10456.66
371.533	12699.19
371.981	12175.32
372.429	11637.69
372.877	12124.73
373.325	10190.49
373.773	10381.63
374.221	9262.49
374.669	11461.35
375.116	9893.14
375.564	9979.99
376.012	11186.3
376.459	9268.11
376.907	11089.7
377.354	13357.41
377.801	12518.09
378.249	14380.26
378.696	18384.58
379.143	22251.32
379.591	23706.25
380.038	40331.11
380.485	29279.07
380.932	31652.75
381.379	29123.31
381.826	21552.78
382.273	15352.53
382.72	13401.51
383.166	13084.92
383.613	8494.26
384.06	7697.67
384.506	8956.08
384.953	6577.8
385.4	6629.69
385.846	5825.48
386.292	5668.1
386.739	5533
387.185	5469.03
387.631	5481.16
388.078	5338.81
388.524	5731.55
388.97	5284.44
389.416	4412.17
389.862	4696.16
390.308	4458.57
390.754	4531.44
391.2	4919.04
391.645	5045.76
392.091	4870.33
392.537	4716.64
392.983	4716.64
393.428	4645.56
393.874	4985.29
394.319	5016.43
394.765	4765.87
395.21	4889.97
395.655	4587.49
396.101	4300.12
396.546	3883.29
396.991	3906.82
397.436	3620.61
397.881	3490.73
398.326	3299.2
398.771	3123.43
399.216	2715.88
399.661	2441.6
400.106	2436.06
400.551	2497.42
400.995	2233.59
401.44	2210.31
401.885	2068.74
402.329	2089.63
402.774	2008.26
403.218	1950.82
403.663	1878.54
404.107	1935.79
404.551	1949.41
404.995	1782.19
405.44	1712.82
405.884	1735.68
406.328	1672.27
406.772	1667.15
407.216	1517.81
407.66	1462.69
408.104	1377.89
408.547	1286.69
408.991	1239.61
409.435	1189.33
409.879	1173.6
410.322	1155.25
410.766	1116.51
411.209	1062.53
411.653	1018.41
412.096	996.92
412.54	996.11
412.983	989.84
413.426	994.7
413.869	994.21
414.312	977.7
414.756	938.94
415.199	893.25
415.642	866.61
416.085	865.43
416.527	855.89
416.97	868.33
417.413	821.02
417.856	811.35
418.298	800.16
418.741	790.41
419.184	785.09
419.626	814.23
420.069	816.87
420.511	822.8
420.953	808.03
421.396	801.25
421.838	779.45
422.28	798.46
422.722	803.27
423.164	814.23
423.606	803.16
424.048	799.15
424.49	761.7
424.932	752.75
425.374	738.66
425.816	747.97
426.258	761.01
426.699	768.68
427.141	758.44
427.582	763.93
428.024	759.56
428.465	752.54
428.907	734.5
429.348	724.89
429.789	726.94
430.231	713.28
430.672	723.69
431.113	704.46
431.554	692.49
431.995	668.92
432.436	650.22
432.877	633.25
433.318	624.29
433.759	620.15
434.2	617.89
434.64	610.04
435.081	612.33
435.522	578.68
435.962	556.07
436.403	543.9
436.843	552.26
437.284	536.19
437.724	519.97
438.164	517.33
438.604	504.64
439.045	486.45
439.485	468.37
439.925	455.58
440.365	443.61
440.805	437.92
441.245	434.89
441.685	419.84
442.125	417.22
442.564	419.79
443.004	410.91
443.444	412.11
443.883	413.03
444.323	408.63
444.762	407.73
445.202	412.35
445.641	422.61
446.081	416.73
446.52	420.02
446.959	416.03
447.398	408.09
447.837	405.26
448.276	395.77
448.716	398.55
449.154	400.46
449.593	392.55
450.032	391.49
450.471	382.86
450.91	383.67
451.349	383.75
451.787	382.7
452.226	387.35
452.664	387.31
453.103	390.19
453.541	389.47
453.98	391
454.418	394.55
454.856	389.58
455.295	389.61
455.733	393.58
456.171	395.61
456.609	394.6
457.047	394.9
457.485	401.7
457.923	402.6
458.361	396.92
458.798	397.91
459.236	395.54
459.674	396.45
460.111	397.01
460.549	394.51
460.987	392.27
461.424	391.41
461.862	389.32
462.299	382.26
462.736	382.38
463.173	383.51
463.611	380.58
464.048	380.31
464.485	384.22
464.922	380.24
465.359	375.95
465.796	378.02
466.233	376.44
466.67	374.93
467.106	375.12
467.543	369.98
467.98	365.59
468.416	353.73
468.853	349.7
469.29	338.8
469.726	335.47
470.162	327.34
470.599	317.53
471.035	313.66
471.471	304.22
471.907	300.78
472.344	298.96
472.78	300.17
473.216	304.52
473.652	301.83
474.088	300.65
474.523	301.15
474.959	302.85
475.395	299.55
475.831	298.64
476.266	300.95
476.702	299.99
477.138	296.23
477.573	294.76
478.008	293.68
478.444	295.84
478.879	300.03
479.314	301.02
479.75	301.49
480.185	302.88
480.62	305.31
481.055	306.98
481.49	309.31
481.925	315.05
482.36	322.71
482.795	331.57
483.229	339.15
483.664	345.82
484.099	347.05
484.534	352.07
484.968	356.31
485.403	356.32
485.837	355.08
486.271	354.96
486.706	354.73
487.14	349.07
487.574	343.63
488.009	340.71
488.443	337.41
488.877	341.86
489.311	343.09
489.745	347.19
490.179	351.46
490.613	359.45
491.046	361.84
491.48	364.84
491.914	365.47
492.348	368.09
492.781	370.98
493.215	372.77
493.648	372.37
494.082	375.76
494.515	376.51
494.948	381.87
495.382	383.97
495.815	387.27
496.248	390.33
496.681	397.55
497.114	403.65
497.547	409.51
497.98	417.43
498.413	421.84
498.846	427.34
499.279	431.9
499.711	433.25
500.144	434.52
500.577	441.36
501.009	447.16
501.442	453.82
501.874	455.68
502.306	457.21
502.739	463.41
503.171	472.14
503.603	473.99
504.036	478.8
504.468	482.45
504.9	488.78
505.332	491.58
505.764	493.96
506.196	496.58
506.627	504.56
507.059	511.13
507.491	512.96
507.923	510.96
508.354	519.09
508.786	525.17
509.217	534.47
509.649	542.08
510.08	551.87
510.512	561.71
510.943	570.25
511.374	575.7
511.805	585.81
512.237	595.64
512.668	611.2
513.099	624.07
513.53	636.4
513.961	646.13
514.391	661.28
514.822	677.54
515.253	694.31
515.684	705.61
516.114	719.99
516.545	730.46
516.975	742
517.406	750.37
517.836	750.53
518.267	753.64
518.697	762.24
519.127	763.71
519.558	765.1
519.988	765.12
520.418	768.59
520.848	774.54
521.278	776.92
521.708	797.44
522.138	803.04
522.567	817.83
522.997	829.65
523.427	834.83
523.857	841.75
524.286	845.82
524.716	853
525.145	861.98
525.575	867.59
526.004	873.01
526.433	855.48
526.863	853.93
527.292	848.37
527.721	849.59
528.15	852.05
528.579	851.71
529.008	857.13
529.437	866.57
529.866	871.96
530.295	878.76
530.724	885.3
531.152	898.12
531.581	905.31
532.01	912.65
532.438	915.94
532.867	921.67
533.295	929.67
533.723	932.12
534.152	931.01
534.58	930.47
535.008	922.76
535.436	924.17
535.865	927.88
536.293	933.43
536.721	940.31
537.149	952.6
537.576	955.09
538.004	961.61
538.432	964.57
538.86	963.4
539.287	965.66
539.715	972.08
540.143	971.83
540.57	969.85
540.998	968.41
541.425	958.45
541.852	948.1
542.28	946.65
542.707	937.8
543.134	931.09
543.561	928.86
543.988	925.91
544.415	925
544.842	921.56
545.269	917.43
545.696	919
546.123	925.01
546.549	919.72
546.976	912.87
547.403	912.46
547.829	912.34
548.256	913.36
548.682	911.3
549.108	909.13
549.535	909.52
549.961	910.19
550.387	902.78
550.813	900.55
551.24	903.31
551.666	903.61
552.092	899.09
552.518	896.01
552.943	893.54
553.369	897.09
553.795	899.13
554.221	899.78
554.646	898.02
555.072	904.73
555.498	905.51
555.923	909.63
556.349	917.67
556.774	922.44
557.199	923.34
557.625	926.59
558.05	924.2
558.475	929.11
558.9	928.74
559.325	925.97
559.75	922.75
560.175	920.01
560.6	918
561.025	917.08
561.449	918.76
561.874	922.22
562.299	924.39
562.723	928.15
563.148	924.18
563.572	925.69
563.997	931.27
564.421	933.55
564.846	934.66
565.27	937.8
565.694	937.47
566.118	943.03
566.542	948.01
566.966	945.21
567.39	944.04
567.814	939.07
568.238	940.48
568.662	943.58
569.086	946.34
569.509	950.08
569.933	943.5
570.357	940.73
570.78	931.72
571.204	927.36
571.627	922.62
572.05	922.68
572.474	923.64
572.897	917.7
573.32	915.77
573.743	910.49
574.166	902.68
574.589	902.18
575.012	898.6
575.435	897.7
575.858	891.89
576.281	886.96
576.704	879.15
577.126	873.7
577.549	868.87
577.972	862.42
578.394	858.61
578.817	856.76
579.239	847.38
579.661	841.69
580.084	835.27
580.506	829.66
580.928	827.87
581.35	823.27
581.772	820.96
582.194	815.03
582.616	809.27
583.038	800.72
583.46	793.92
583.882	792.59
584.303	793.96
584.725	790.82
585.147	795
585.568	801.48
585.99	808.24
586.411	812.5
586.833	820.13
587.254	821.55
587.675	830.53
588.096	838.72
588.518	837.27
588.939	829.4
589.36	829.11
589.781	819.47
590.202	807.16
590.623	802.23
591.043	799.54
591.464	792.91
591.885	791.56
592.305	788.1
592.726	779.78
593.147	780.2
593.567	777.7
593.987	774.13
594.408	772.35
594.828	768.58
595.248	766.17
595.669	758.16
596.089	754.85
596.509	750.95
596.929	744.43
597.349	745.53
597.769	739.53
598.189	736.18
598.608	737.29
599.028	737.94
599.448	737.61
599.867	730.31
600.287	726.87
600.706	724.84
601.126	719.89
601.545	719.56
601.965	718.97
602.384	716.24
602.803	717.34
603.222	714.69
603.641	710.83
604.061	709.65
604.48	707.78
604.898	712.7
605.317	715.61
605.736	716.61
606.155	715.83
606.574	710.74
606.992	714.1
607.411	712.72
607.829	707.61
608.248	706.15
608.666	704.23
609.085	704.35
609.503	700.22
609.921	697.48
610.339	699.5
610.758	698.79
611.176	696.86
611.594	693.06
612.012	691.77
612.43	694.52
612.847	698.3
613.265	700.55
613.683	703.7
614.101	704.95
614.518	701.92
614.936	696.65
615.353	689.5
615.771	688.4
616.188	688.85
616.606	687.04
617.023	684.12
617.44	677.47
617.857	673.28
618.274	668.08
618.691	665.25
619.108	661.51
619.525	657.45
619.942	661.06
620.359	662.48
620.776	659.35
621.192	658.05
621.609	656.58
622.026	660.15
622.442	664.18
622.859	665.75
623.275	660.8
623.691	662.92
624.108	671.28
624.524	678.66
624.94	679.39
625.356	685.08
625.772	690.67
626.188	697.18
626.604	699.19
627.02	696.6
627.436	695.93
627.852	701.55
628.268	709.17
628.683	703.52
629.099	699.38
629.514	696.54
629.93	698.71
630.345	700.5
630.761	697.99
631.176	698.92
631.591	696.95
632.007	694.82
632.422	692.26
632.837	684.81
633.252	684.14
633.667	678.64
634.082	674.31
634.497	667.93
634.911	659.65
635.326	657.37
635.741	647.97
636.155	641.25
636.57	642.26
636.984	642.64
637.399	645.4
637.813	644.41
638.228	643.09
638.642	644.54
639.056	638.73
639.47	638.64
639.884	634.71
640.298	631.89
640.712	632.32
641.126	625.49
641.54	621.25
641.954	616.73
642.368	610.46
642.781	608.82
643.195	599.4
643.609	600.49
644.022	597.18
644.436	595.56
644.849	588.45
645.262	580.79
645.676	580.73
646.089	577.29
646.502	571.5
646.915	567.84
647.328	557.81
647.741	557.89
648.154	550.21
648.567	550.14
648.98	543.25
649.393	544.29
649.805	543.59
650.218	540.58
650.631	534.34
651.043	529.9
651.456	527.59
651.868	527.4
652.28	535.26
652.693	542.09
653.105	543.65
653.517	548.32
653.929	548.62
654.341	551.71
654.753	544.99
655.165	547.11
655.577	546.2
655.989	544.14
656.401	539.06
656.813	521.58
657.224	511.18
657.636	495.57
658.047	487.11
658.459	475.54
658.87	469.56
659.282	463.18
659.693	452.84
660.104	444.45
660.515	436.44
660.926	436.34
661.338	433
661.749	428.81
662.159	424.24
662.57	420.39
662.981	418.38
663.392	414.96
663.803	416.53
664.213	414.31
664.624	412.04
665.035	412.97
665.445	404.11
665.855	401.72
666.266	397.89
666.676	396.71
667.086	391.35
667.497	391.96
667.907	388.6
668.317	382.82
668.727	383.45
669.137	383.27
669.547	381.96
669.956	383.08
670.366	382.94
670.776	383.51
671.186	384.43
671.595	385.93
672.005	385.49
672.414	384.94
672.824	385.14
673.233	383.53
673.642	384.37
674.052	385.29
674.461	387.49
674.87	388.93
675.279	388.67
675.688	388.28
676.097	389.3
676.506	388.1
676.915	393.75
677.323	394.57
677.732	393.16
678.141	392.56
678.549	386.62
678.958	384.52
679.366	384.37
679.775	384.4
680.183	392.29
680.592	396.05
681	398.75
681.408	396.61
681.816	400.34
682.224	405.74
682.632	412.91
683.04	429.91
683.448	443.78
683.856	461.28
684.264	482.8
684.671	498.66
685.079	518.78
685.487	543.02
685.894	575.28
686.302	601.63
686.709	623.47
687.116	649.01
687.524	669.88
687.931	688.43
688.338	702.95
688.745	713.64
689.152	727.12
689.559	748.35
689.966	768.28
690.373	775.62
690.78	794.02
691.187	822.69
691.593	842.1
692	859.26
692.407	886.18
692.813	922.48
693.22	949.15
693.626	975.98
694.032	994.67
694.439	1027.28
694.845	1052.37
695.251	1084.29
695.657	1112.66
696.063	1156.43
696.469	1187.34
696.875	1216.58
697.281	1227.57
697.687	1244.35
698.093	1257.59
698.498	1289.88
698.904	1311.22
699.31	1349.42
699.715	1376.44
700.12	1415.97
700.526	1420.67
700.931	1450.63
701.337	1470.96
701.742	1482.54
702.147	1518.73
702.552	1531.01
702.957	1555.14
703.362	1563.57
703.767	1571.9
704.172	1585.78
704.577	1559.29
704.981	1577.09
705.386	1580.43
705.791	1573.57
706.195	1605.28
706.6	1607.26
707.004	1641.04
707.408	1623.92
707.813	1634.01
708.217	1628.06
