Data from C_3_HIR_IL_4N_Splice17_13-39-36-452.txt Node
Date: Sat Mar 14 13:39:36 EDT 2020
User: sa697716
Spectrometer: FLMS03696
Trigger mode: 0
Integration Time (sec): 3.180400E-1
Scans to average: 20
Electric dark correction enabled: true
Nonlinearity correction enabled: true
Boxcar width: 5
XAxis mode: Wavelengths
Number of Pixels in Spectrum: 2048
>>>>>Begin Spectral Data<<<<<
187.83	-510769.18
188.298	3591.3
188.766	1920.3
189.233	1662.22
189.701	2309.84
190.169	3219
190.636	1238.73
191.104	969.56
191.571	178.62
192.039	-48.54
192.506	-5.45
192.974	563.31
193.441	-973.96
193.908	-201.88
194.375	-90.2
194.842	-2.58
195.31	182.72
195.777	232.69
196.244	433.5
196.711	313.33
197.177	302.74
197.644	324.73
198.111	526.18
198.578	694.28
199.045	523.85
199.511	763.91
199.978	790.89
200.445	681.88
200.911	681.51
201.378	628.24
201.844	606.85
202.31	1020.54
202.777	1108.31
203.243	599.3
203.709	543
204.176	624.74
204.642	519.71
205.108	478.09
205.574	346.71
206.04	286.68
206.506	275.72
206.972	218.5
207.438	199.84
207.903	208.54
208.369	201.81
208.835	227.71
209.301	258.37
209.766	251.36
210.232	266.62
210.697	331.23
211.163	412.98
211.628	599.43
212.094	564.67
212.559	845.52
213.024	569.72
213.49	727.81
213.955	691.98
214.42	621.91
214.885	584.63
215.35	583.03
215.815	700.6
216.28	777.94
216.745	649.91
217.21	752.18
217.675	644.6
218.14	728.38
218.604	800.42
219.069	954.64
219.534	1093.15
219.998	1285.8
220.463	1597.06
220.927	1892.27
221.392	1809.73
221.856	1876.32
222.32	2335.91
222.785	2977.75
223.249	3806.91
223.713	4316.43
224.177	4371.86
224.642	5571.88
225.106	6928.75
225.57	7556.47
226.034	5744.57
226.497	8789.89
226.961	8063.39
227.425	9530.94
227.889	10561.21
228.353	10629.06
228.816	22059.16
229.28	21280.35
229.744	18002.17
230.207	11070.45
230.671	10997.92
231.134	18098.54
231.597	21101.77
232.061	21008.21
232.524	20503.45
232.987	14190.41
233.45	12843.37
233.914	11565.33
234.377	11834.17
234.84	10871.38
235.303	12787.43
235.766	14306.49
236.229	14805.32
236.691	9319.8
237.154	10471.98
237.617	7897.98
238.08	8092.9
238.542	9472.67
239.005	6795.89
239.468	6768.74
239.93	6411.18
240.393	5851.95
240.855	5143.75
241.317	5262.84
241.78	6378.52
242.242	6655.18
242.704	7262.98
243.166	6345.39
243.629	5817.33
244.091	6724.59
244.553	7386.28
245.015	7963.13
245.477	10306.82
245.939	15126.59
246.4	16124.16
246.862	15707.87
247.324	14854.46
247.786	16561.36
248.247	21756.28
248.709	22318.11
249.17	16739.35
249.632	15931.26
250.093	18615.15
250.555	16161.25
251.016	9921.17
251.477	9456.04
251.939	10288.69
252.4	10796.32
252.861	12883.73
253.322	12032.27
253.783	14378.69
254.244	18667.15
254.705	14715.31
255.166	13058.25
255.627	12870.1
256.088	18236.14
256.549	19391.36
257.009	16694.14
257.47	20294.48
257.931	16521.51
258.391	12418.69
258.852	12817.65
259.312	13456.59
259.773	16611.15
260.233	14160.27
260.694	12020.04
261.154	13645.89
261.614	11043.24
262.074	9906.6
262.534	10349.21
262.994	9801.81
263.455	13086.59
263.915	11080.58
264.374	10490.29
264.834	11488.85
265.294	12690.76
265.754	13161.68
266.214	12492.77
266.673	11704.5
267.133	14815.35
267.593	14708.91
268.052	18059.33
268.512	15754.14
268.971	19100.1
269.431	20985.09
269.89	18826.17
270.349	28343.54
270.809	31750.4
271.268	28578.84
271.727	64077.67
272.186	41571.75
272.645	31253.35
273.104	22553.37
273.563	32684.74
274.022	25682.39
274.481	21986.3
274.94	17008.13
275.399	12673.52
275.857	14763.69
276.316	19999.92
276.775	17888.62
277.233	17684.03
277.692	16648.07
278.15	18910.12
278.609	19570.99
279.067	18174.83
279.525	16916.24
279.984	21865.98
280.442	26313.49
280.9	26029.97
281.358	17192.66
281.816	16055.98
282.274	15733.32
282.732	16207.53
283.19	16277.98
283.648	14024.41
284.106	14914.91
284.564	15145.28
285.021	14103.22
285.479	10506.76
285.937	9538.08
286.394	8394.53
286.852	8653.48
287.309	9131.26
287.767	8907.84
288.224	8511.15
288.682	9375.95
289.139	10374.59
289.596	9539.87
290.053	9940.85
290.511	12602.71
290.968	15379.74
291.425	20944.6
291.882	17555.46
292.339	15355.32
292.796	15228.52
293.252	14387.66
293.709	11518.09
294.166	10351.99
294.623	11479.58
295.079	11017.18
295.536	11124.65
295.992	10136.52
296.449	10039.98
296.905	10447.71
297.362	10050.43
297.818	10598.9
298.274	11053.58
298.731	11225.05
299.187	11109.09
299.643	11912.49
300.099	14450.6
300.555	15844.68
301.011	13237.9
301.467	12833.27
301.923	14992.77
302.379	14631.83
302.835	14373.59
303.291	14374.96
303.746	16386.72
304.202	20707.22
304.658	20803.88
305.113	14005.42
305.569	13755.1
306.024	14641.37
306.479	13876.62
306.935	11730.09
307.39	12773.83
307.845	11808.2
308.301	11909.68
308.756	11590.16
309.211	11191.56
309.666	11460.86
310.121	14257.23
310.576	14423.61
311.031	14305.16
311.486	16302.15
311.94	16261.07
312.395	21738.57
312.85	40708.75
313.305	198651.7
313.759	1034867.82
314.214	74721.21
314.668	59205.96
315.123	49753.78
315.577	17883.54
316.032	15932.26
316.486	20015.44
316.94	15819.83
317.394	11036.34
317.849	8580.73
318.303	8135.02
318.757	7662.44
319.211	8512.37
319.665	7456.39
320.119	7548.33
320.572	10800.66
321.026	10125.83
321.48	8433.62
321.934	9156.82
322.387	9170.77
322.841	9939.53
323.295	8975.05
323.748	10299.78
324.202	10429.33
324.655	12547.4
325.108	17605.01
325.562	12463.66
326.015	14745.79
326.468	11150.48
326.921	12492.79
327.374	11659.65
327.827	12138.83
328.28	13747.18
328.733	9218.87
329.186	8112.01
329.639	7724.04
330.092	6494.34
330.545	6181.32
330.997	6271.89
331.45	6881.69
331.903	8078.86
332.355	13852.03
332.808	13450.26
333.26	11037.37
333.713	11994.79
334.165	12039.51
334.617	16048.07
335.069	12860.41
335.522	23122.17
335.974	25537.84
336.426	23225.57
336.878	15997.89
337.33	8138.97
337.782	7926.81
338.234	9990.41
338.686	11947.28
339.137	14176.4
339.589	13383.48
340.041	10555.54
340.493	9116.32
340.944	9344.4
341.396	10109.91
341.847	8568.45
342.299	10151.22
342.75	12494.06
343.201	10885.84
343.653	12532.18
344.104	15432.19
344.555	12152.41
345.006	18871.53
345.457	14585.08
345.908	11567.38
346.359	10896.71
346.81	8868.35
347.261	9337.39
347.712	9172.72
348.163	9857.26
348.613	10049.58
349.064	9404.25
349.515	8235.34
349.965	8489.67
350.416	10179.75
350.866	11186.34
351.317	12633.88
351.767	20960.8
352.217	26550.96
352.668	22045.17
353.118	20238.6
353.568	19338.96
354.018	15294.16
354.468	16195.77
354.918	11605.49
355.368	10152.02
355.818	14350.75
356.268	41208.06
356.718	173010.9
357.168	43047.11
357.617	21550.59
358.067	23862.39
358.517	22492.04
358.966	26413.07
359.416	29652.79
359.865	31972.3
360.315	37958.96
360.764	17748.69
361.213	9979.59
361.663	9401.68
362.112	11590.89
362.561	18789.48
363.01	14222.77
363.459	11950.16
363.908	12930.65
364.357	11033.48
364.806	18657.75
365.255	12868.53
365.703	11802.55
366.152	11811.28
366.601	9581.97
367.05	7792.26
367.498	7069.97
367.947	7354.7
368.395	7651.06
368.844	6762.23
369.292	8073.76
369.74	5604.24
370.189	8569.99
370.637	10042.06
371.085	8631
371.533	10534.49
371.981	10128.43
372.429	9695.54
372.877	10101.75
373.325	8462.57
373.773	8618.1
374.221	7655.85
374.669	9426.02
375.116	8138.41
375.564	8191.69
376.012	9171.73
376.459	7537.67
376.907	9000.87
377.354	10819.18
377.801	10130.7
378.249	11612.3
378.696	14846.57
379.143	17987.49
379.591	19176.73
380.038	32359.31
380.485	23382.23
380.932	25230.75
381.379	23239.12
381.826	17191.02
382.273	12228.35
382.72	10638.34
383.166	10374.37
383.613	6718.31
384.06	6047.62
384.506	7011.94
384.953	5140.29
385.4	5138.58
385.846	4480.21
386.292	4309.92
386.739	4178.87
387.185	4101.84
387.631	4086.95
388.078	3973.61
388.524	4223.37
388.97	3896.5
389.416	3231.42
389.862	3441.3
390.308	3259.48
390.754	3306.45
391.2	3588.04
391.645	3649.58
392.091	3525.52
392.537	3399.19
392.983	3360.1
393.428	3327.98
393.874	3544.32
394.319	3569.63
394.765	3375.34
395.21	3447.93
395.655	3215.77
396.101	2989.27
396.546	2694.16
396.991	2673.63
397.436	2479.15
397.881	2392.55
398.326	2235.52
398.771	2104.47
399.216	1813.25
399.661	1618.5
400.106	1611.6
400.551	1647.96
400.995	1477.26
401.44	1449.59
401.885	1354.52
402.329	1361.39
402.774	1301.16
403.218	1270.07
403.663	1220.23
404.107	1255.14
404.551	1266.67
404.995	1154.38
405.44	1104.39
405.884	1113.1
406.328	1071.26
406.772	1066.64
407.216	968.63
407.66	931.88
408.104	868.57
408.547	807.37
408.991	778.44
409.435	740.59
409.879	729.56
410.322	718.68
410.766	697.07
411.209	665.08
411.653	635.76
412.096	626.55
412.54	621.77
412.983	619.06
413.426	626.34
413.869	620.42
414.312	612.09
414.756	587.88
415.199	560.05
415.642	544.69
416.085	545.08
416.527	540.08
416.97	541.39
417.413	513.33
417.856	504.12
418.298	494.66
418.741	488.36
419.184	482.49
419.626	495.77
420.069	494.2
420.511	496.5
420.953	484.53
421.396	478.37
421.838	463.7
422.28	476.46
422.722	480.39
423.164	482.89
423.606	475.8
424.048	474.64
424.49	457.27
424.932	452.55
425.374	441.31
425.816	445.78
426.258	454.41
426.699	461.23
427.141	456.89
427.582	460.59
428.024	457.38
428.465	454.49
428.907	441.79
429.348	433.59
429.789	436.98
430.231	430.4
430.672	438.05
431.113	427.15
431.554	418.46
431.995	402.83
432.436	392.42
432.877	387.91
433.318	383.66
433.759	381.81
434.2	378.97
434.64	371.73
435.081	372.16
435.522	351.24
435.962	335.95
436.403	329.51
436.843	331.55
437.284	319.92
437.724	304.95
438.164	298.49
438.604	289.36
439.045	280.22
439.485	270.81
439.925	260.39
440.365	251.17
440.805	246.88
441.245	244.58
441.685	235.54
442.125	231.14
442.564	232.1
443.004	227.82
443.444	225.39
443.883	225.5
444.323	216.72
444.762	212.25
445.202	214.21
445.641	220.71
446.081	215.1
446.52	215.49
446.959	214.74
447.398	210.38
447.837	207.37
448.276	202
448.716	200.9
449.154	202.24
449.593	200.29
450.032	199.21
450.471	190.96
450.91	189.77
451.349	189.96
451.787	186.26
452.226	187.7
452.664	186.7
453.103	187.88
453.541	185.58
453.98	189.95
454.418	190.47
454.856	190.33
455.295	190.81
455.733	194.34
456.171	195.29
456.609	196.17
457.047	195.73
457.485	200.32
457.923	200.98
458.361	199.06
458.798	197.31
459.236	197.35
459.674	195.75
460.111	195.85
460.549	193.56
460.987	190.93
461.424	190.05
461.862	189.9
462.299	185.74
462.736	187.62
463.173	188.18
463.611	189.99
464.048	190.52
464.485	192.59
464.922	190.09
465.359	186.33
465.796	197.04
466.233	195.87
466.67	196.67
467.106	199.16
467.543	193.92
467.98	189.37
468.416	180.8
468.853	176.72
469.29	170.63
469.726	169.22
470.162	165.84
470.599	152.9
471.035	149.98
471.471	143.77
471.907	139.31
472.344	138.16
472.78	140.43
473.216	141.09
473.652	138.8
474.088	137
474.523	137.28
474.959	138.29
475.395	136.38
475.831	137.23
476.266	137.95
476.702	137.63
477.138	137.33
477.573	136.6
478.008	136.59
478.444	139.41
478.879	143.01
479.314	144.41
479.75	144.39
480.185	144.96
480.62	145.1
481.055	145.84
481.49	148.07
481.925	149.83
482.36	154.75
482.795	158.37
483.229	160.56
483.664	162.84
484.099	162.36
484.534	165.27
484.968	167.8
485.403	168.28
485.837	166.57
486.271	165.36
486.706	165.01
487.14	160.3
487.574	157.69
488.009	156
488.443	153.87
488.877	155.87
489.311	154.43
489.745	155.12
490.179	156.64
490.613	161.6
491.046	161.13
491.48	161.11
491.914	160.95
492.348	161.02
492.781	161.76
493.215	161.31
493.648	159.03
494.082	159.15
494.515	158.16
494.948	159.1
495.382	157.01
495.815	157.21
496.248	157.27
496.681	157.73
497.114	157.79
497.547	158.07
497.98	160.44
498.413	161.75
498.846	162.74
499.279	162.02
499.711	159.63
500.144	157.13
500.577	158.45
501.009	158.58
501.442	160.14
501.874	158.86
502.306	156.41
502.739	159.18
503.171	158.74
503.603	156.86
504.036	155.79
504.468	154.69
504.9	154.87
505.332	152.46
505.764	150.93
506.196	148.59
506.627	148.58
507.059	148.16
507.491	141.06
507.923	138.54
508.354	139.03
508.786	138.46
509.217	138.66
509.649	138.35
510.08	137.63
510.512	138.33
510.943	137.67
511.374	136.38
511.805	136.12
512.237	136.77
512.668	136.31
513.099	135.3
513.53	135.37
513.961	134.73
514.391	136
514.822	140.21
515.253	141.02
515.684	140.84
516.114	141.81
516.545	142.67
516.975	142.74
517.406	142.6
517.836	139.66
518.267	138.37
518.697	139.61
519.127	137.29
519.558	133.32
519.988	130
520.418	127.76
520.848	125.93
521.278	123.74
521.708	175.83
522.138	176.95
522.567	177.64
522.997	178.67
523.427	176.39
523.857	176.17
524.286	174.84
524.716	175.96
525.145	177.5
525.575	178.14
526.004	177.23
526.433	122.99
526.863	119.6
527.292	120.1
527.721	119.88
528.15	119.03
528.579	117.95
529.008	118.75
529.437	118.05
529.866	117.15
530.295	116.39
530.724	118.59
531.152	120.23
531.581	122.16
532.01	121.75
532.438	119.81
532.867	119.63
533.295	120.82
533.723	120.64
534.152	120.33
534.58	120.74
535.008	119.56
535.436	119.67
535.865	118.61
536.293	117.28
536.721	117.2
537.149	119.64
537.576	121.52
538.004	122.38
538.432	121.28
538.86	121.96
539.287	121.24
539.715	122.37
540.143	120.65
540.57	120.77
540.998	120.66
541.425	121.77
541.852	119.19
542.28	118.19
542.707	115.82
543.134	114.97
543.561	114.03
543.988	114.39
544.415	113.62
544.842	112.73
545.269	112.37
545.696	113.51
546.123	113.25
546.549	113.46
546.976	112.11
547.403	112.27
547.829	111.45
548.256	110.61
548.682	109.69
549.108	110.73
549.535	110.81
549.961	110.37
550.387	108.92
550.813	109.95
551.24	110.55
551.666	110.28
552.092	109.52
552.518	109.84
552.943	110.73
553.369	111.2
553.795	110.46
554.221	111.17
554.646	111.32
555.072	113.82
555.498	111.41
555.923	110.8
556.349	112.45
556.774	113.19
557.199	112.99
557.625	111.8
558.05	112.27
558.475	113.37
558.9	113.19
559.325	114.26
559.75	113.29
560.175	113.41
560.6	113.38
561.025	112.58
561.449	113.11
561.874	113.84
562.299	116.4
562.723	116.59
563.148	116.1
563.572	116.08
563.997	116.56
564.421	115.92
564.846	116.14
565.27	117.45
565.694	118.16
566.118	119.88
566.542	122.94
566.966	122.22
567.39	122.97
567.814	123.33
568.238	125.32
568.662	125.26
569.086	127.35
569.509	128.19
569.933	129.77
570.357	130.2
570.78	129.69
571.204	130.41
571.627	130.54
572.05	131.53
572.474	133.42
572.897	132.62
573.32	134.75
573.743	133.73
574.166	134.64
574.589	133.73
575.012	134.34
575.435	133.78
575.858	132.76
576.281	132.56
576.704	131.42
577.126	129.56
577.549	129.18
577.972	126.88
578.394	127.44
578.817	130.09
579.239	128.64
579.661	128.85
580.084	131.07
580.506	130.8
580.928	130.77
581.35	130.79
581.772	131.56
582.194	131.44
582.616	131.69
583.038	129.74
583.46	126.03
583.882	126.86
584.303	125.66
584.725	123.69
585.147	130.87
585.568	133.51
585.99	135.77
586.411	137.58
586.833	139.62
587.254	140.35
587.675	142.02
588.096	144.78
588.518	145.34
588.939	145.51
589.36	146.66
589.781	137.6
590.202	139.18
590.623	138.36
591.043	136.82
591.464	136.12
591.885	136.59
592.305	136.72
592.726	135.15
593.147	135.26
593.567	135.4
593.987	134.05
594.408	134.01
594.828	129.11
595.248	129.39
595.669	130.01
596.089	129.13
596.509	127.62
596.929	126.4
597.349	126.95
597.769	125.83
598.189	124.98
598.608	124.95
599.028	125.97
599.448	125.92
599.867	123.78
600.287	121.77
600.706	122.84
601.126	123.43
601.545	124.74
601.965	125.03
602.384	125.41
602.803	125.95
603.222	127.78
603.641	127.06
604.061	129.25
604.48	129.85
604.898	131.57
605.317	131.64
605.736	131.59
606.155	132.41
606.574	131.58
606.992	132.5
607.411	133.03
607.829	130.15
608.248	130.06
608.666	128.35
609.085	129
609.503	128.35
609.921	129.59
610.339	131.11
610.758	130.47
611.176	130.69
611.594	130.81
612.012	130.59
612.43	133.85
612.847	135.1
613.265	137.97
613.683	138.87
614.101	140.97
614.518	139.68
614.936	139.34
615.353	138.93
615.771	140.29
616.188	140.68
616.606	141.06
617.023	140.97
617.44	140.4
617.857	137.72
618.274	136.99
618.691	137.49
619.108	137.53
619.525	136.78
619.942	138.98
620.359	139.37
620.776	139.06
621.192	140.39
621.609	140.32
622.026	142.01
622.442	144.29
622.859	144.68
623.275	142.43
623.691	142.54
624.108	144.42
624.524	144.92
624.94	144.75
625.356	145.38
625.772	145.87
626.188	146.7
626.604	147.05
627.02	146
627.436	146.51
627.852	150.1
628.268	152.17
628.683	150.56
629.099	149.58
629.514	148.85
629.93	150.55
630.345	151.35
630.761	150.01
631.176	150.72
631.591	153.52
632.007	153.49
632.422	151.61
632.837	150.09
633.252	151.74
633.667	151.27
634.082	150.42
634.497	150.06
634.911	151.03
635.326	152.1
635.741	150.69
636.155	147.23
636.57	149.8
636.984	150.53
637.399	154.85
637.813	154.71
638.228	155.66
638.642	156.9
639.056	155.9
639.47	155.82
639.884	156.66
640.298	157.15
640.712	160.21
641.126	159.31
641.54	158.26
641.954	155.04
642.368	156.15
642.781	161.23
643.195	160.85
643.609	163.48
644.022	163.68
644.436	162.98
644.849	162.14
645.262	160.61
645.676	160.76
646.089	162.97
646.502	164.23
646.915	164.11
647.328	159.94
647.741	162.11
648.154	161.53
648.567	166.26
648.98	167.3
649.393	168.73
649.805	171.07
650.218	171.77
650.631	170.83
651.043	170.58
651.456	171.37
651.868	171.41
652.28	173.65
652.693	175.29
653.105	173.86
653.517	175.32
653.929	176.99
654.341	178.31
654.753	177.65
655.165	179.78
655.577	180.92
655.989	180.62
656.401	179.9
656.813	177.14
657.224	175.39
657.636	169.91
658.047	170.35
658.459	168.3
658.87	166.35
659.282	164.88
659.693	163.77
660.104	163.52
660.515	161.78
660.926	162.44
661.338	162.3
661.749	161.78
662.159	163.4
662.57	162.42
662.981	163.21
663.392	163.94
663.803	166.96
664.213	166.31
664.624	164.98
665.035	167.68
665.445	166.12
665.855	166.99
666.266	168.69
666.676	168.48
667.086	166.54
667.497	167.9
667.907	167.32
668.317	165.27
668.727	170.88
669.137	171.49
669.547	170.77
669.956	171.24
670.366	171.8
670.776	173.13
671.186	173.82
671.595	175.66
672.005	174.9
672.414	175.11
672.824	176.19
673.233	171.52
673.642	171.97
674.052	174.34
674.461	177.27
674.87	176.86
675.279	176.9
675.688	175.91
676.097	176.97
676.506	176.27
676.915	179.13
677.323	178.71
677.732	177.8
678.141	176.67
678.549	171.55
678.958	168.63
679.366	167.55
679.775	164.14
680.183	168.51
680.592	166.73
681	166.84
681.408	164.57
681.816	164.26
682.224	164.1
682.632	167.16
683.04	170.8
683.448	173.61
683.856	178.51
684.264	184.43
684.671	184.02
685.079	187.91
685.487	191.04
685.894	196.05
686.302	196.95
686.709	198.27
687.116	199.41
687.524	202.19
687.931	202.92
688.338	200.86
688.745	195.55
689.152	193
689.559	192.92
689.966	193.23
690.373	189.35
690.78	188.74
691.187	188.75
691.593	186.6
692	182.47
692.407	182.49
692.813	186.93
693.22	187.28
693.626	185.51
694.032	184.53
694.439	185.04
694.845	182.96
695.251	182.95
695.657	183.17
696.063	183.38
696.469	183.11
696.875	181.4
697.281	174.99
697.687	172.96
698.093	171.45
698.498	171.6
698.904	168.86
699.31	170.49
699.715	174.98
700.12	176.85
700.526	174.63
700.931	175.06
701.337	175.88
701.742	176.09
702.147	176.98
702.552	176.21
702.957	174.04
703.362	172.73
703.767	171.74
704.172	167.84
704.577	160.99
704.981	159.76
705.386	159.81
705.791	156.23
706.195	155.08
706.6	154.88
707.004	155
707.408	152.26
707.813	153.64
708.217	152.34
708.621	150.25
709.025	153.44
709.43	155.28
709.834	155.91
710.237	157.16
710.641	155.75
711.045	155.41
711.449	156.68
