Data from C_3_DIV_OH_2N_Splice17_12-48-15-012.txt Node
Date: Sat Mar 14 12:48:15 EDT 2020
User: sa697716
Spectrometer: FLMS03696
Trigger mode: 0
Integration Time (sec): 3.180400E-1
Scans to average: 20
Electric dark correction enabled: true
Nonlinearity correction enabled: true
Boxcar width: 5
XAxis mode: Wavelengths
Number of Pixels in Spectrum: 2048
>>>>>Begin Spectral Data<<<<<
187.83	-341238.08
188.298	2600.37
188.766	1332.2
189.233	1190.47
189.701	1706.82
190.169	2263.02
190.636	828.44
191.104	649.79
191.571	59.82
192.039	-113.31
192.506	-113.38
192.974	548.56
193.441	-776.17
193.908	-278.72
194.375	-51.87
194.842	7.35
195.31	97.28
195.777	174.11
196.244	321.84
196.711	179.57
197.177	173.11
197.644	183.23
198.111	312.22
198.578	385.99
199.045	310.39
199.511	439.09
199.978	435.26
200.445	381.34
200.911	373.47
201.378	326.6
201.844	341.96
202.31	519.66
202.777	520.56
203.243	287.79
203.709	275.9
204.176	286.35
204.642	237.39
205.108	250.3
205.574	172.1
206.04	108.83
206.506	103.38
206.972	57.59
207.438	63.27
207.903	81.26
208.369	94.93
208.835	111.9
209.301	132.86
209.766	109.03
210.232	110.59
210.697	124.36
211.163	150.77
211.628	220.59
212.094	281.76
212.559	479.76
213.024	328.58
213.49	438.44
213.955	421.41
214.42	346
214.885	347.36
215.35	356.84
215.815	464.69
216.28	532.33
216.745	426.59
217.21	499.8
217.675	415.78
218.14	475.39
218.604	514.96
219.069	632.66
219.534	766.54
219.998	916.54
220.463	1126.73
220.927	1301.85
221.392	1256.23
221.856	1341.36
222.32	1664.06
222.785	2135.25
223.249	2727.7
223.713	3092.19
224.177	3147.71
224.642	3977.9
225.106	4889.21
225.57	5405.23
226.034	4167.09
226.497	6455.21
226.961	5929.73
227.425	7017.91
227.889	7768.35
228.353	7841.12
228.816	16368.01
229.28	15866.62
229.744	13516.84
230.207	8377.66
230.671	8300.04
231.134	13643.96
231.597	15912.65
232.061	15924.21
232.524	15566.13
232.987	10873.35
233.45	9885.2
233.914	8905.06
234.377	9065.79
234.84	8334.6
235.303	9822.7
235.766	10997.47
236.229	11414.5
236.691	7162.65
237.154	8053.02
237.617	6093.1
238.08	6215.15
238.542	7273.23
239.005	5217.46
239.468	5227.12
239.93	4939.64
240.393	4515.66
240.855	3988.68
241.317	4089.69
241.78	4968.43
242.242	5162.65
242.704	5624.52
243.166	4939.31
243.629	4542.07
244.091	5260.36
244.553	5787.67
245.015	6254.9
245.477	8091.26
245.939	11872.8
246.4	12690.76
246.862	12414.28
247.324	11764.74
247.786	13165.03
248.247	17301.96
248.709	17771.41
249.17	13369.56
249.632	12730.52
250.093	14938.52
250.555	13023.91
251.016	8001.21
251.477	7619.72
251.939	8257.6
252.4	8704.02
252.861	10373.85
253.322	9698.19
253.783	11585.88
254.244	15048.13
254.705	11851.56
255.166	10503.15
255.627	10330.56
256.088	14668.83
256.549	15633.78
257.009	13505.07
257.47	16372.21
257.931	13341.46
258.391	10040.37
258.852	10379.39
259.312	10883.19
259.773	13462.5
260.233	11479.42
260.694	9747.75
261.154	11030.77
261.614	8936.9
262.074	8012.13
262.534	8381.61
262.994	7946.05
263.455	10584.64
263.915	8946.63
264.374	8466.18
264.834	9265.95
265.294	10256.48
265.754	10648.99
266.214	10123.74
266.673	9496.38
267.133	12006.27
267.593	11946.83
268.052	14669.08
268.512	12814.83
268.971	15585.06
269.431	17158.7
269.89	15413.4
270.349	23155.83
270.809	25890.17
271.268	23335.99
271.727	52224.09
272.186	33918.26
272.645	25428.39
273.104	18308.61
273.563	26518.51
274.022	20798.28
274.481	17767.13
274.94	13739.46
275.399	10248.09
275.857	11942.67
276.316	16178.81
276.775	14473.04
277.233	14326.54
277.692	13481.95
278.15	15344.73
278.609	15900.54
279.067	14757.65
279.525	13736.26
279.984	17755.71
280.442	21348.58
280.9	21178.53
281.358	13983.56
281.816	13063.49
282.274	12771.22
282.732	13190.01
283.19	13245.37
283.648	11384.26
284.106	12106.48
284.564	12302.7
285.021	11432.69
285.479	8524.95
285.937	7722.82
286.394	6787.14
286.852	6994.23
287.309	7379.21
287.767	7181.98
288.224	6877.02
288.682	7589.64
289.139	8405.03
289.596	7745.86
290.053	8078.81
290.511	10246.53
290.968	12536.17
291.425	17109.08
291.882	14364.34
292.339	12589.97
292.796	12527.32
293.252	11843.01
293.709	9497.29
294.166	8538.18
294.623	9471.15
295.079	9103.68
295.536	9205.94
295.992	8391.82
296.449	8309.07
296.905	8667.16
297.362	8363.43
297.818	8806.29
298.274	9170.07
298.731	9317.73
299.187	9246.01
299.643	9930.13
300.099	12056.2
300.555	13202.31
301.011	11036.05
301.467	10717.53
301.923	12510.95
302.379	12189.79
302.835	11993.75
303.291	12005.21
303.746	13693.65
304.202	17283.57
304.658	17336.19
305.113	11657.57
305.569	11467.19
306.024	12201.37
306.479	11549.25
306.935	9736.17
307.39	10592.87
307.845	9757.34
308.301	9832.53
308.756	9559.46
309.211	9198.3
309.666	9428.54
310.121	11757.04
310.576	11900.85
311.031	11782.21
311.486	13444.32
311.94	13363.85
312.395	17845.55
312.85	33474.3
313.305	163627.68
313.759	849569.76
314.214	61467.06
314.668	48687.3
315.123	40807.53
315.577	14599
316.032	13039.33
316.486	16375.54
316.94	12993.41
317.394	9092.43
317.849	7097.96
318.303	6727.37
318.757	6346.69
319.211	7044.16
319.665	6173.47
320.119	6247.04
320.572	8966.62
321.026	8389.49
321.48	6980.16
321.934	7606.53
322.387	7610.9
322.841	8236.48
323.295	7455.39
323.748	8554.42
324.202	8668.79
324.655	10420.76
325.108	14631.2
325.562	10347.41
326.015	12265.65
326.468	9304.15
326.921	10406.48
327.374	9743.23
327.827	10172.62
328.28	11487.76
328.733	7716.4
329.186	6781.22
329.639	6484.71
330.092	5449.23
330.545	5195.5
330.997	5259.84
331.45	5760.42
331.903	6759.82
332.355	11589.16
332.808	11203.32
333.26	9235.39
333.713	10032.11
334.165	10092.75
334.617	13407.58
335.069	10808.78
335.522	19431.25
335.974	21422.56
336.426	19426.84
336.878	13385.45
337.33	6772.05
337.782	6618.27
338.234	8319.13
338.686	9907.65
339.137	11763.05
339.589	11063.71
340.041	8680.2
340.493	7493.76
340.944	7690.74
341.396	8309.95
341.847	7046.3
342.299	8384.36
342.75	10304.27
343.201	8983.89
343.653	10412.42
344.104	12804.51
344.555	10127.97
345.006	15758.34
345.457	12218.98
345.908	9705.79
346.359	9208.8
346.81	7506.48
347.261	7896.03
347.712	7757.28
348.163	8310.09
348.613	8441.29
349.064	7920.66
349.515	6930.44
349.965	7143.48
350.416	8531.01
350.866	9388.94
351.317	10570.28
351.767	17508.45
352.217	22168.56
352.668	18397.4
353.118	16924.54
353.568	16315.36
354.018	12930.06
354.468	13680.57
354.918	9797.93
355.368	8568.79
355.818	12100.62
356.268	34756.99
356.718	146300.08
357.168	36442.5
357.617	18284.59
358.067	20226.73
358.517	18873.81
358.966	22130.18
359.416	24840.11
359.865	26852.45
360.315	32018.21
360.764	14992.02
361.213	8419.28
361.663	7922.23
362.112	9763.6
362.561	15766.02
363.01	11961.62
363.459	10093.98
363.908	10905.47
364.357	9304.51
364.806	15657.52
365.255	10751.8
365.703	9880.45
366.152	9896.98
366.601	8039.34
367.05	6559.15
367.498	5977.8
367.947	6244.75
368.395	6475.75
368.844	5755.3
369.292	6898.4
369.74	4787.16
370.189	7338.29
370.637	8562.31
371.085	7392.25
371.533	9000.71
371.981	8596.5
372.429	8224.03
372.877	8522.2
373.325	7136.24
373.773	7251.2
374.221	6450.66
374.669	7991.97
375.116	6895.61
375.564	6969.4
376.012	7783.7
376.459	6413.44
376.907	7676.78
377.354	9244.77
377.801	8655.3
378.249	9970.51
378.696	12691.82
379.143	15347.8
379.591	16315.03
380.038	27645.72
380.485	20020.62
380.932	21503.94
381.379	19731.37
381.826	14599.86
382.273	10341.45
382.72	8982.84
383.166	8734.33
383.613	5672.43
384.06	5097.04
384.506	5906.07
384.953	4332.69
385.4	4317.46
385.846	3779
386.292	3642.23
386.739	3537.15
387.185	3482.95
387.631	3472.8
388.078	3373.97
388.524	3584.37
388.97	3307.8
389.416	2751.7
389.862	2919.15
390.308	2769.17
390.754	2810.98
391.2	3045.86
391.645	3091.21
392.091	2978.69
392.537	2881.96
392.983	2852.24
393.428	2829.97
393.874	3017.45
394.319	3034.91
394.765	2873.57
395.21	2935.84
395.655	2737.87
396.101	2559.89
396.546	2317.87
396.991	2301.86
397.436	2132.39
397.881	2056.07
398.326	1914.15
398.771	1804.41
399.216	1549.48
399.661	1381.25
400.106	1373.32
400.551	1406.6
400.995	1255.39
401.44	1231.32
401.885	1154.32
402.329	1162.24
402.774	1112.46
403.218	1087.64
403.663	1041.74
404.107	1073.94
404.551	1083.8
404.995	984.04
405.44	941.18
405.884	947.94
406.328	911.95
406.772	907.77
407.216	821.81
407.66	788.22
408.104	732.62
408.547	685.39
408.991	657.05
409.435	627.9
409.879	622.36
410.322	610.29
410.766	590.99
411.209	564.02
411.653	541.12
412.096	532.58
412.54	529.72
412.983	527.07
413.426	530.11
413.869	528.61
414.312	517.83
414.756	495.92
415.199	469.78
415.642	456.21
416.085	455.85
416.527	448.23
416.97	449.32
417.413	427.16
417.856	420.64
418.298	413.81
418.741	407.68
419.184	405.05
419.626	416.15
420.069	417.02
420.511	417.89
420.953	409.55
421.396	407.41
421.838	393.93
422.28	403.79
422.722	406.5
423.164	408.26
423.606	404.45
424.048	400.24
424.49	382.9
424.932	379.33
425.374	370.71
425.816	372.29
426.258	376.86
426.699	382.98
427.141	377.9
427.582	384.1
428.024	382.93
428.465	377.28
428.907	368.28
429.348	361.28
429.789	365.2
430.231	359.91
430.672	365.12
431.113	356.98
431.554	351.81
431.995	338.95
432.436	328.85
432.877	322.01
433.318	319.94
433.759	316.15
434.2	316.87
434.64	311.13
435.081	311.93
435.522	296.29
435.962	282.67
436.403	276.56
436.843	278.93
437.284	269.39
437.724	257.94
438.164	252.38
438.604	245.54
439.045	236.63
439.485	226.42
439.925	218.41
440.365	209.38
440.805	204.94
441.245	203.06
441.685	195.66
442.125	191.22
442.564	190.77
443.004	188.31
443.444	187.79
443.883	186.78
444.323	181.42
444.762	177.66
445.202	178.44
445.641	184.07
446.081	178.61
446.52	179.7
446.959	179.05
447.398	177.38
447.837	173.98
448.276	168.58
448.716	168.53
449.154	168.02
449.593	165.49
450.032	164.33
450.471	157.22
450.91	155.32
451.349	156.01
451.787	152.52
452.226	154.03
452.664	152.26
453.103	153.7
453.541	151.21
453.98	155.52
454.418	156.59
454.856	157.57
455.295	156.7
455.733	159.76
456.171	158.48
456.609	159.22
457.047	158.88
457.485	163.32
457.923	165.26
458.361	164.23
458.798	161.71
459.236	160.61
459.674	159.11
460.111	161.77
460.549	160.99
460.987	159.03
461.424	159.07
461.862	157.01
462.299	153.91
462.736	154.02
463.173	154.71
463.611	158.64
464.048	159.74
464.485	162.5
464.922	159.93
465.359	157.56
465.796	166.83
466.233	166.9
466.67	168.54
467.106	170.25
467.543	166.36
467.98	162.71
468.416	153.99
468.853	151.63
469.29	145.83
469.726	143.43
470.162	139.98
470.599	129.15
471.035	125.72
471.471	121.17
471.907	117.64
472.344	116.44
472.78	117.45
473.216	118.66
473.652	116.64
474.088	115.48
474.523	116.56
474.959	116.96
475.395	115.62
475.831	114.9
476.266	115.46
476.702	114.52
477.138	114.09
477.573	113.2
478.008	112.21
478.444	114.94
478.879	118.59
479.314	119.6
479.75	119.38
480.185	119.55
480.62	120.25
481.055	120.69
481.49	123.04
481.925	124.87
482.36	130.42
482.795	134.32
483.229	135.25
483.664	136.52
484.099	135.78
484.534	138.69
484.968	141.23
485.403	142.12
485.837	140.27
486.271	138.38
486.706	137.57
487.14	133.46
487.574	131.02
488.009	129.78
488.443	127.24
488.877	128.98
489.311	127.88
489.745	128.43
490.179	129.82
490.613	134.44
491.046	134.93
491.48	135.4
491.914	135.03
492.348	135.54
492.781	136.4
493.215	136.18
493.648	134.5
494.082	134.8
494.515	134.64
494.948	135.87
495.382	133.15
495.815	133.07
496.248	133.5
496.681	133.61
497.114	133.33
497.547	133.77
497.98	136.17
498.413	137.12
498.846	137.62
499.279	136.46
499.711	134.06
500.144	133.01
500.577	134.92
501.009	134.39
501.442	136.41
501.874	135.32
502.306	132.74
502.739	134.95
503.171	134.59
503.603	133.41
504.036	132.75
504.468	131.47
504.9	131.31
505.332	128.59
505.764	127.55
506.196	124.96
506.627	125.14
507.059	125.29
507.491	119.38
507.923	117.4
508.354	117.4
508.786	117.07
509.217	117.87
509.649	117.71
510.08	117.95
510.512	118.93
510.943	118.55
511.374	117.65
511.805	117.4
512.237	117.62
512.668	117.89
513.099	117.23
513.53	117.18
513.961	116.89
514.391	117.38
514.822	120.24
515.253	120.91
515.684	121.24
516.114	121.75
516.545	122.56
516.975	123.01
517.406	122.81
517.836	120.57
518.267	119.48
518.697	120.17
519.127	118.47
519.558	115.33
519.988	112.77
520.418	110.96
520.848	109.35
521.278	107.19
521.708	137.19
522.138	136.84
522.567	137.77
522.997	137.49
523.427	135.2
523.857	134.91
524.286	134.08
524.716	134.17
525.145	135.39
525.575	136.25
526.004	135.53
526.433	103.57
526.863	102.4
527.292	102.26
527.721	102.54
528.15	102.45
528.579	102.02
529.008	102.35
529.437	101.73
529.866	100.89
530.295	100.28
530.724	101.74
531.152	103.44
531.581	104.16
532.01	104.03
532.438	103.06
532.867	103.08
533.295	104.41
533.723	104.39
534.152	104.64
534.58	104.82
535.008	103.68
535.436	104.87
535.865	103.76
536.293	102.98
536.721	102.82
537.149	104.87
537.576	106.05
538.004	106.36
538.432	104.99
538.86	105.18
539.287	104.66
539.715	105.47
540.143	103.13
540.57	103.85
540.998	104.04
541.425	104.91
541.852	103.19
542.28	101.8
542.707	100.08
543.134	100.22
543.561	99.37
543.988	99.26
544.415	98.59
544.842	97.71
545.269	96.99
545.696	97.55
546.123	97.44
546.549	97.11
546.976	97.01
547.403	97.22
547.829	96.53
548.256	96.49
548.682	96.33
549.108	97.72
549.535	98.24
549.961	97.68
550.387	96.25
550.813	96.98
551.24	97.34
551.666	96.59
552.092	96.2
552.518	96.42
552.943	97.67
553.369	97.38
553.795	96.98
554.221	97.21
554.646	97.43
555.072	99.7
555.498	97.43
555.923	96.8
556.349	98.18
556.774	98.3
557.199	98.03
557.625	96.28
558.05	96.69
558.475	97.06
558.9	97.71
559.325	98.3
559.75	97.61
560.175	97.67
560.6	97.5
561.025	96.9
561.449	97.39
561.874	97.46
562.299	99.6
562.723	99.9
563.148	99.16
563.572	99.02
563.997	99.38
564.421	98.9
564.846	99.36
565.27	100.69
565.694	101.18
566.118	102.22
566.542	104.77
566.966	104.44
567.39	105.45
567.814	105.73
568.238	106.85
568.662	107.41
569.086	108.95
569.509	110.23
569.933	111.42
570.357	111.87
570.78	111.47
571.204	112.9
571.627	112.91
572.05	113.53
572.474	115.83
572.897	115.11
573.32	116.37
573.743	116.11
574.166	116.42
574.589	115.47
575.012	115.61
575.435	115.7
575.858	114.09
576.281	113.87
576.704	112.71
577.126	112.24
577.549	111.82
577.972	110.58
578.394	110.53
578.817	112.68
579.239	111.7
579.661	111.92
580.084	113.4
580.506	113.33
580.928	112.58
581.35	112.73
581.772	111.79
582.194	111.99
582.616	110.99
583.038	109.55
583.46	106.67
583.882	107.2
584.303	106.35
584.725	104.33
585.147	111.11
585.568	113.61
585.99	115.4
586.411	116.52
586.833	118.43
587.254	119.64
587.675	121.09
588.096	122.99
588.518	123.99
588.939	123.74
589.36	124.83
589.781	115.9
590.202	117.33
590.623	116.84
591.043	116.26
591.464	115.46
591.885	116.45
592.305	115.93
592.726	114.37
593.147	114.54
593.567	114.61
593.987	113.66
594.408	113.25
594.828	109.46
595.248	109.91
595.669	109.92
596.089	108.94
596.509	106.97
596.929	106.2
597.349	107.28
597.769	105.89
598.189	105.46
598.608	105.44
599.028	106.76
599.448	106.47
599.867	104.36
600.287	102.89
600.706	103.68
601.126	104.5
601.545	106.2
601.965	105.6
602.384	106.02
602.803	105.87
603.222	106.56
603.641	105.88
604.061	106.96
604.48	107.39
604.898	108.61
605.317	108.82
605.736	109.25
606.155	109.68
606.574	109.28
606.992	110.42
607.411	111.82
607.829	110.52
608.248	110.92
608.666	109.97
609.085	110.72
609.503	110.61
609.921	112.05
610.339	112.87
610.758	112.15
611.176	112.6
611.594	112.22
612.012	112.04
612.43	114.77
612.847	115.42
613.265	118.2
613.683	118.47
614.101	118.88
614.518	117.65
614.936	116.72
615.353	116.91
615.771	117.29
616.188	117.59
616.606	117.53
617.023	116.46
617.44	116.12
617.857	113.32
618.274	113.05
618.691	113.87
619.108	113.42
619.525	113.2
619.942	114.32
620.359	115.21
620.776	115.49
621.192	116.79
621.609	117.72
622.026	118.77
622.442	121.14
622.859	120.81
623.275	120.04
623.691	120.79
624.108	123.1
624.524	124.07
624.94	124.09
625.356	124.23
625.772	124.09
626.188	124.39
626.604	124.54
627.02	124.07
627.436	125.46
627.852	127.91
628.268	129.23
628.683	127.26
629.099	125.69
629.514	124.83
629.93	126.07
630.345	127.76
630.761	126.43
631.176	127.22
631.591	128.83
632.007	129.06
632.422	127.27
632.837	126.17
633.252	127.22
633.667	126.86
634.082	126.2
634.497	125.92
634.911	126.34
635.326	127.38
635.741	126.9
636.155	124.65
636.57	126.75
636.984	128.19
637.399	131.6
637.813	130.97
638.228	132.34
638.642	133.91
639.056	133.55
639.47	132.21
639.884	132.75
640.298	132.33
640.712	134.21
641.126	133.28
641.54	131.91
641.954	128.67
642.368	130.43
642.781	134.12
643.195	133.15
643.609	134.98
644.022	136.02
644.436	135.89
644.849	134.89
645.262	133.7
645.676	133.53
646.089	135.25
646.502	137.05
646.915	136.28
647.328	133.18
647.741	135.44
648.154	133.92
648.567	137.55
648.98	137.93
649.393	139.66
649.805	140.73
650.218	140.32
650.631	139.34
651.043	138.14
651.456	138.99
651.868	138.66
652.28	139.44
652.693	141.65
653.105	140.57
653.517	142.07
653.929	142.26
654.341	144.51
654.753	143.8
655.165	144.78
655.577	146.09
655.989	146.24
656.401	144.32
656.813	142.95
657.224	141.49
657.636	136.72
658.047	136.7
658.459	135.92
658.87	133.21
659.282	132.85
659.693	132.94
660.104	132.52
660.515	131.03
660.926	134.31
661.338	134.01
661.749	133.48
662.159	135.83
662.57	134.2
662.981	134.76
663.392	136.02
663.803	138.19
664.213	137.98
664.624	137.79
665.035	138.8
665.445	135.76
665.855	136.02
666.266	137.77
666.676	137.39
667.086	137.16
667.497	138.12
667.907	137.98
668.317	137.21
668.727	141.19
669.137	141.09
669.547	141.38
669.956	142.05
670.366	143.14
670.776	143.36
671.186	143.57
671.595	145.01
672.005	144.4
672.414	144.01
672.824	144.67
673.233	140.64
673.642	141.56
674.052	143.55
674.461	145.12
674.87	144.81
675.279	144.92
675.688	144.15
676.097	145.42
676.506	145.67
676.915	147.84
677.323	147.16
677.732	147.07
678.141	145.3
678.549	141.37
678.958	138.95
679.366	136.49
679.775	134.08
680.183	138.11
680.592	137.13
681	136.69
681.408	134.43
681.816	133.73
682.224	131.84
682.632	134.53
683.04	137.94
683.448	140.93
683.856	146.33
684.264	151.55
684.671	151.64
685.079	153.51
685.487	156.83
685.894	161.23
686.302	163.46
686.709	165.75
687.116	166.48
687.524	168.58
687.931	168.64
688.338	166.22
688.745	161.62
689.152	158.4
689.559	157.01
689.966	157.63
690.373	156.22
690.78	155.75
691.187	156.83
691.593	155.64
692	151.57
692.407	150.64
692.813	154.3
693.22	154.45
693.626	153.51
694.032	154.22
694.439	154.08
694.845	152.39
695.251	151.63
695.657	151.53
696.063	151.1
696.469	150.26
696.875	149.89
697.281	144.95
697.687	142.5
698.093	141.03
698.498	139.72
698.904	136.5
699.31	136.13
699.715	140.42
700.12	141.7
700.526	140.9
700.931	142.44
701.337	142.95
701.742	143.01
702.147	144.97
702.552	144.26
702.957	144.32
703.362	144.07
703.767	142.88
704.172	138.25
704.577	132.83
704.981	131.61
705.386	131.17
705.791	128.91
706.195	128.45
706.6	127.76
707.004	128.03
707.408	124.31
707.813	125.64
708.217	125.54
708.621	124.61
709.025	127.14
709.43	129.39
709.834	130.11
710.237	130.92
710.641	129.99
711.045	129.63
711.449	130.24
711.853	137.34
712.256	135.93
712.66	135.89
713.064	137
713.467	138.42
713.87	139.88
714.274	140.51
714.677	143.75
715.08	148.32
