Data from C_3_DEC_ON_6N_Splice17_13-36-09-976.txt Node
Date: Sat Mar 14 13:36:09 EDT 2020
User: sa697716
Spectrometer: FLMS03696
Trigger mode: 0
Integration Time (sec): 3.180400E-1
Scans to average: 20
Electric dark correction enabled: true
Nonlinearity correction enabled: true
Boxcar width: 5
XAxis mode: Wavelengths
Number of Pixels in Spectrum: 2048
>>>>>Begin Spectral Data<<<<<
187.83	-482177.78
188.298	3368.04
188.766	1756.18
189.233	1511.02
189.701	2176.58
190.169	3073.85
190.636	1177.66
191.104	898.06
191.571	131.14
192.039	-71.95
192.506	-114.15
192.974	518.17
193.441	-1057.63
193.908	-261.15
194.375	-138.71
194.842	-58.58
195.31	57.91
195.777	171.25
196.244	403.45
196.711	439.43
197.177	554.52
197.644	744.72
198.111	1290.48
198.578	1850.19
199.045	1454.28
199.511	2386.07
199.978	2767.09
200.445	2377.69
200.911	2613.23
201.378	2869.42
201.844	2584.54
202.31	4402.02
202.777	4578.16
203.243	2527.04
203.709	2386.93
204.176	2836.81
204.642	2339.34
205.108	2188.56
205.574	1743.37
206.04	1577.21
206.506	1476.87
206.972	1402.68
207.438	1355.55
207.903	1540
208.369	1368.91
208.835	1380.44
209.301	1455.37
209.766	1474.6
210.232	1461.45
210.697	1809.55
211.163	2214.7
211.628	3326.43
212.094	2791.84
212.559	3488.59
213.024	2192.85
213.49	2674.33
213.955	2582.6
214.42	2489.04
214.885	2304.27
215.35	2207.4
215.815	2180.98
216.28	2328.97
216.745	1885.85
217.21	2049.99
217.675	1851.14
218.14	2083.28
218.604	2295.83
219.069	2615.81
219.534	2769.4
219.998	3191.45
220.463	3853.49
220.927	4686.68
221.392	4400.36
221.856	4461.55
222.32	5592.95
222.785	6914.97
223.249	8641.08
223.713	9653.95
224.177	9667.82
224.642	12350.26
225.106	15211.99
225.57	16653.33
226.034	12416.18
226.497	18911.48
226.961	17132.82
227.425	19995.67
227.889	22161.18
228.353	22204.43
228.816	45858.52
229.28	43962.97
229.744	37152.19
230.207	22687.81
230.671	22312.22
231.134	36904.47
231.597	42673.27
232.061	42684.98
232.524	41631.74
232.987	28750.46
233.45	25974.13
233.914	23361.85
234.377	23937.42
234.84	21983.19
235.303	25922.59
235.766	28982.57
236.229	29936.44
236.691	18852.69
237.154	21207.29
237.617	15986.61
238.08	16382.91
238.542	19178.02
239.005	13724.07
239.468	13646.63
239.93	12854.54
240.393	11708.03
240.855	10295.62
241.317	10569.49
241.78	12871.19
242.242	13330.93
242.704	14451.3
243.166	12594.82
243.629	11482.86
244.091	13259.58
244.553	14518.26
245.015	15634.52
245.477	20216.33
245.939	29643.13
246.4	31487.12
246.862	30667.07
247.324	28946.09
247.786	32337.39
248.247	42428.34
248.709	43728.88
249.17	32709.59
249.632	30949.32
250.093	35923.14
250.555	31071.36
251.016	18976.08
251.477	18014.75
251.939	19443.55
252.4	20403.5
252.861	24235.75
253.322	22566.43
253.783	26842.79
254.244	34814.08
254.705	27402.86
255.166	24335.58
255.627	23981.16
256.088	33876.66
256.549	36002.77
257.009	30956.62
257.47	37520.64
257.931	30560.17
258.391	22864.55
258.852	23602.88
259.312	24722.22
259.773	30537.09
260.233	25838.71
260.694	21780.53
261.154	24661.58
261.614	19796.74
262.074	17694.42
262.534	18391.67
262.994	17323.67
263.455	23082.4
263.915	19405.67
264.374	18279
264.834	19951
265.294	22080.88
265.754	22864.08
266.214	21632.24
266.673	20254.72
267.133	25565.28
267.593	25329.24
268.052	31033.63
268.512	26984.09
268.971	32593.6
269.431	35710.76
269.89	31936.8
270.349	47862.75
270.809	53355.24
271.268	47943.58
271.727	107364.28
272.186	69519.32
272.645	52137.64
273.104	37502.39
273.563	54221.83
274.022	42559.09
274.481	36235.16
274.94	27913.42
275.399	20728.02
275.857	24097.35
276.316	32587.83
276.775	29019.79
277.233	28606.89
277.692	26791.31
278.15	30372.22
278.609	31290.6
279.067	28968.29
279.525	26914.81
279.984	34749.27
280.442	41768.18
280.9	41247.86
281.358	27135.81
281.816	25286
282.274	24726.37
282.732	25545.06
283.19	25634.93
283.648	22131.59
284.106	23566.37
284.564	23961.44
285.021	22236.73
285.479	16556.49
285.937	15036.21
286.394	13202.79
286.852	13574.33
287.309	14287.69
287.767	13837.17
288.224	13182.45
288.682	14470.22
289.139	15897.05
289.596	14565.07
290.053	15131.19
290.511	19118.03
290.968	23224.33
291.425	31511.87
291.882	26344.7
292.339	22937.53
292.796	22729.83
293.252	21424.66
293.709	17046.74
294.166	15299.78
294.623	16904.87
295.079	16224.35
295.536	16330.63
295.992	14834.89
296.449	14682.6
296.905	15231.34
297.362	14634.56
297.818	15410.71
298.274	16000.11
298.731	16285.65
299.187	16105.61
299.643	17309.24
300.099	20955.88
300.555	22969.43
301.011	19195.67
301.467	18540.18
301.923	21683.87
302.379	21158.61
302.835	20766.93
303.291	20820.11
303.746	23693.46
304.202	29957.4
304.658	30071.48
305.113	20239.86
305.569	19856.5
306.024	21175.78
306.479	20139.02
306.935	17025.25
307.39	18589.5
307.845	17195.59
308.301	17302.2
308.756	16890.39
309.211	16284.04
309.666	16681.83
310.121	20748.89
310.576	21049.8
311.031	20917.22
311.486	23962.44
311.94	23958.67
312.395	32100.12
312.85	60390.04
313.305	296906.2
313.759	1539230.57
314.214	111705.49
314.668	88867.8
315.123	74878.04
315.577	26914.32
316.032	23967.52
316.486	30130.4
316.94	23808.72
317.394	16603.58
317.849	12907.8
318.303	12228.17
318.757	11553.47
319.211	12789.95
319.665	11188.73
320.119	11340.19
320.572	16272.87
321.026	15221.23
321.48	12660.19
321.934	13791.45
322.387	13808.82
322.841	14936.69
323.295	13475.53
323.748	15495.73
324.202	15708.29
324.655	18856.49
325.108	26422.38
325.562	18675.2
326.015	22192.94
326.468	16790.59
326.921	18818.96
327.374	17577.43
327.827	18338.03
328.28	20746.31
328.733	13952.42
329.186	12289.12
329.639	11735.41
330.092	9863.77
330.545	9399.17
330.997	9472.32
331.45	10359.87
331.903	12152.39
332.355	20911.29
332.808	20300.76
333.26	16750.87
333.713	18200.42
334.165	18345.99
334.617	24473.95
335.069	19785.52
335.522	35806.31
335.974	39741.35
336.426	36302.25
336.878	25159.78
337.33	12781.02
337.782	12490.69
338.234	15647.25
338.686	18657.81
339.137	22092.07
339.589	20810.42
340.041	16288.83
340.493	14037.73
340.944	14378.86
341.396	15538.61
341.847	13076.84
342.299	15440.38
342.75	18854.26
343.201	16464.7
343.653	18966.78
344.104	23330.99
344.555	18361.1
345.006	28640.07
345.457	21966.07
345.908	17470.98
346.359	16423.84
346.81	13355.85
347.261	14064.02
347.712	13836.82
348.163	14851.52
348.613	15091.42
349.064	14110.48
349.515	12392.59
349.965	12718.69
350.416	15323.84
350.866	16843.28
351.317	19070.23
351.767	31642.05
352.217	40002.15
352.668	33241.85
353.118	30519.15
353.568	29370.65
354.018	23256.45
354.468	24555.29
354.918	17634.68
355.368	15397.93
355.818	21726.1
356.268	62520.34
356.718	261940.42
357.168	65435.7
357.617	32940.93
358.067	36598.81
358.517	34398.71
358.966	40361.02
359.416	45338.71
359.865	48977.48
360.315	58327.47
360.764	27303.14
361.213	15275.64
361.663	14480.35
362.112	17822.83
362.561	28781.62
363.01	21746.06
363.459	18307.97
363.908	19854.96
364.357	16902.15
364.806	28561.33
365.255	19685.4
365.703	18061.69
366.152	18178.84
366.601	14760.93
367.05	12029.52
367.498	10948.98
367.947	11449
368.395	11903.95
368.844	10524.37
369.292	12650.29
369.74	8762.88
370.189	13417.09
370.637	15731.37
371.085	13543.89
371.533	16505.34
371.981	15874.46
372.429	15142.44
372.877	15767.27
373.325	13186.99
373.773	13448.88
374.221	11947.4
374.669	14806.13
375.116	12807.46
375.564	12917.39
376.012	14454.44
376.459	11902.42
376.907	14221.95
377.354	17175.05
377.801	16045.02
378.249	18463.05
378.696	23569.75
379.143	28565.9
379.591	30419.65
380.038	51296.52
380.485	37068.8
380.932	39946.32
381.379	36641.03
381.826	26969.54
382.273	19159.92
382.72	16734.49
383.166	16305.64
383.613	10567.64
384.06	9556.35
384.506	11087
384.953	8145.07
385.4	8177.57
385.846	7167.27
386.292	6956.8
386.739	6811.91
387.185	6731.51
387.631	6732.1
388.078	6540.15
388.524	7001.74
388.97	6458.31
389.416	5387.5
389.862	5743.09
390.308	5446.71
390.754	5532.2
391.2	5990.73
391.645	6121.75
392.091	5869.12
392.537	5667.27
392.983	5670.44
393.428	5600.02
393.874	5998.57
394.319	6028.59
394.765	5728.36
395.21	5888.5
395.655	5523.75
396.101	5191.92
396.546	4698.61
396.991	4735.13
397.436	4406.95
397.881	4268.31
398.326	4036.53
398.771	3829.58
399.216	3340.11
399.661	3005.07
400.106	3009.28
400.551	3094.08
400.995	2780.72
401.44	2756.63
401.885	2601.98
402.329	2633.95
402.774	2529.1
403.218	2456.89
403.663	2369.35
404.107	2449.72
404.551	2472.52
404.995	2262.47
405.44	2181.02
405.884	2216.76
406.328	2145.82
406.772	2136.96
407.216	1948.55
407.66	1888.25
408.104	1790.63
408.547	1683.16
408.991	1626.69
409.435	1569.7
409.879	1553.9
410.322	1535.14
410.766	1489.78
411.209	1420.31
411.653	1365.72
412.096	1342.32
412.54	1343.43
412.983	1339.77
413.426	1346.27
413.869	1346.87
414.312	1328.21
414.756	1281.24
415.199	1223.8
415.642	1187.1
416.085	1191.08
416.527	1184.53
416.97	1202.1
417.413	1139.75
417.856	1130.76
418.298	1116.08
418.741	1108.71
419.184	1102.8
419.626	1148.26
420.069	1151.71
420.511	1163.69
420.953	1142.19
421.396	1134.45
421.838	1107.07
422.28	1134.84
422.722	1141.85
423.164	1160.09
423.606	1143.45
424.048	1141.06
424.49	1085.95
424.932	1077.49
425.374	1059.56
425.816	1076.26
426.258	1098.34
426.699	1113.67
427.141	1100.11
427.582	1113.02
428.024	1109.28
428.465	1102.35
428.907	1077.28
429.348	1067.44
429.789	1069.64
430.231	1050.03
430.672	1063.91
431.113	1039.95
431.554	1023.94
431.995	995.29
432.436	962.74
432.877	942.29
433.318	928.37
433.759	924.96
434.2	921.86
434.64	912.65
435.081	914.52
435.522	868.02
435.962	834.18
436.403	817.06
436.843	830.15
437.284	812.27
437.724	787.83
438.164	789.1
438.604	771.84
439.045	744.98
439.485	717.14
439.925	700.41
440.365	682.87
440.805	673.89
441.245	665.35
441.685	640.71
442.125	636.02
442.564	641.45
443.004	627.12
443.444	625.22
443.883	627.54
444.323	621.2
444.762	622
445.202	631.54
445.641	644.48
446.081	641.72
446.52	648.59
446.959	643.03
447.398	629.1
447.837	621.78
448.276	610.98
448.716	617.49
449.154	623.5
449.593	612.02
450.032	610.64
450.471	598.51
450.91	599.24
451.349	599.53
451.787	596.07
452.226	604.9
452.664	605.73
453.103	608.85
453.541	605.8
453.98	605.38
454.418	607.24
454.856	598.27
455.295	598.22
455.733	603.28
456.171	605.89
456.609	607.79
457.047	606.47
457.485	615.99
457.923	615.56
458.361	606.95
458.798	608.34
459.236	606.63
459.674	610.28
460.111	614.02
460.549	608.26
460.987	604.73
461.424	602.14
461.862	599.34
462.299	589.06
462.736	589.59
463.173	592.43
463.611	587.95
464.048	586.99
464.485	590.67
464.922	583.04
465.359	578.11
465.796	575.67
466.233	570.97
466.67	566.81
467.106	566.24
467.543	559.31
467.98	551.08
468.416	535.65
468.853	530.14
469.29	514.2
469.726	508.61
470.162	495.65
470.599	485.82
471.035	480.83
471.471	468.8
471.907	465.67
472.344	462.8
472.78	465.45
473.216	470.43
473.652	467.13
474.088	466.35
474.523	466.77
474.959	471.98
475.395	467.85
475.831	466.45
476.266	469.95
476.702	468.98
477.138	464.35
477.573	462.3
478.008	461.72
478.444	464.88
478.879	469.98
479.314	471.84
479.75	471.4
480.185	473.35
480.62	476.98
481.055	479.32
481.49	483.32
481.925	491.25
482.36	502.31
482.795	515.99
483.229	528.29
483.664	539.46
484.099	540.52
484.534	549.19
484.968	554.89
485.403	557.5
485.837	556.34
486.271	555.64
486.706	556.77
487.14	548.23
487.574	539.66
488.009	535.11
488.443	529.93
488.877	536.68
489.311	538.08
489.745	544.92
490.179	550.18
490.613	561.82
491.046	565.88
491.48	570.41
491.914	572.56
492.348	577.38
492.781	581.69
493.215	584.03
493.648	585.71
494.082	591.23
494.515	591.6
494.948	599.46
495.382	603.43
495.815	608.94
496.248	613.73
496.681	624.8
497.114	635.62
497.547	645.73
497.98	659.17
498.413	665.9
498.846	675.21
499.279	684.15
499.711	688.36
500.144	691.87
500.577	702.64
501.009	714.12
501.442	725.75
501.874	728.71
502.306	731.93
502.739	741.17
503.171	755.92
503.603	761.8
504.036	772.62
504.468	780.72
504.9	793.07
505.332	801.21
505.764	807.11
506.196	814.45
506.627	829.46
507.059	843.51
507.491	853.29
507.923	853.52
508.354	869.25
508.786	881.68
509.217	899.21
509.649	915.44
510.08	935.05
510.512	953.1
510.943	969.73
511.374	983.09
511.805	1004.38
512.237	1022.92
512.668	1055.59
513.099	1083.6
513.53	1111.05
513.961	1133.18
514.391	1166.03
514.822	1200.24
515.253	1236.23
515.684	1263.16
516.114	1293.35
516.545	1317.61
516.975	1346.83
517.406	1367.23
517.836	1371.83
518.267	1381.19
518.697	1403.14
519.127	1408.83
519.558	1417.84
519.988	1425.08
520.418	1437.5
520.848	1456.44
521.278	1465.9
521.708	1500.66
522.138	1514.41
522.567	1546.99
522.997	1573.64
523.427	1589.26
523.857	1608.16
524.286	1620.38
524.716	1637.03
525.145	1657.44
525.575	1670.93
526.004	1687.44
526.433	1667.5
526.863	1669.2
527.292	1661.11
527.721	1668.49
528.15	1677.31
528.579	1679.77
529.008	1691.67
529.437	1713.94
529.866	1728.43
530.295	1745.8
530.724	1759.93
531.152	1787.78
531.581	1803.77
532.01	1823.06
532.438	1832.37
532.867	1847.09
533.295	1866.44
533.723	1873.58
534.152	1873.26
534.58	1874.17
535.008	1859.35
535.436	1862.29
535.865	1871.08
536.293	1886.2
536.721	1901.48
537.149	1927.65
537.576	1930.78
538.004	1943.63
538.432	1951.45
538.86	1949.89
539.287	1958.21
539.715	1973.48
540.143	1974.65
540.57	1970.06
540.998	1966.16
541.425	1943.38
541.852	1922.08
542.28	1919.8
542.707	1903.33
543.134	1890.97
543.561	1887.54
543.988	1879.04
544.415	1877.58
544.842	1873.11
545.269	1866.26
545.696	1868.89
546.123	1883.3
546.549	1873.76
546.976	1861.89
547.403	1863.16
547.829	1864.96
548.256	1868.1
548.682	1864.97
549.108	1860.12
549.535	1860.16
549.961	1864.26
550.387	1851.77
550.813	1846.81
551.24	1853.94
551.666	1856.26
552.092	1846.75
552.518	1839.92
552.943	1834.4
553.369	1843.9
553.795	1849.26
554.221	1851.65
554.646	1848.92
555.072	1861.21
555.498	1867.27
555.923	1878.04
556.349	1895.14
556.774	1905.35
557.199	1908.63
557.625	1915.73
558.05	1910.24
558.475	1923.31
558.9	1923.1
559.325	1917.19
559.75	1911.63
560.175	1904.83
560.6	1899.2
561.025	1896.82
561.449	1899.33
561.874	1906.59
562.299	1912.55
562.723	1921.27
563.148	1910.73
563.572	1915.8
563.997	1924.27
564.421	1930.44
564.846	1933.79
565.27	1938.11
565.694	1935.49
566.118	1947.88
566.542	1956.25
566.966	1948.94
567.39	1944.22
567.814	1932.7
568.238	1933.01
568.662	1940.18
569.086	1942.48
569.509	1949.13
569.933	1934.19
570.357	1926.73
570.78	1904.08
571.204	1890.5
571.627	1880.33
572.05	1878.75
572.474	1879.48
572.897	1866.26
573.32	1858.15
573.743	1848.24
574.166	1829.29
574.589	1828.79
575.012	1821.98
575.435	1821.74
575.858	1812.57
576.281	1801.38
576.704	1785.18
577.126	1772.25
577.549	1762.07
577.972	1752.83
578.394	1743.36
578.817	1738.38
579.239	1718.33
579.661	1704.83
580.084	1690.45
580.506	1677.21
580.928	1673.49
581.35	1662.7
581.772	1658.19
582.194	1645.02
582.616	1632.34
583.038	1616.85
583.46	1604.77
583.882	1601.88
584.303	1606.72
584.725	1600.29
585.147	1605.32
585.568	1616.67
585.99	1630.88
586.411	1639.15
586.833	1654.23
587.254	1654.68
587.675	1670.61
588.096	1683.65
588.518	1679.82
588.939	1661.82
589.36	1660.6
589.781	1646.1
590.202	1616.86
590.623	1607.42
591.043	1604.41
591.464	1590.69
591.885	1587.16
592.305	1580.57
592.726	1565.7
593.147	1566.38
593.567	1561.33
593.987	1553.63
594.408	1547.8
594.828	1544.78
595.248	1537.78
595.669	1518.39
596.089	1511.57
596.509	1505.21
596.929	1491.79
597.349	1494.06
597.769	1482.66
598.189	1476.19
598.608	1477.75
599.028	1480.64
599.448	1481.21
599.867	1467.41
600.287	1463.24
600.706	1459.17
601.126	1448.86
601.545	1447.06
601.965	1444.66
602.384	1440
602.803	1443.16
603.222	1438.25
603.641	1431.41
604.061	1427.18
604.48	1423.47
604.898	1432.21
605.317	1436.7
605.736	1438.53
606.155	1436.39
606.574	1426.82
606.992	1433.04
607.411	1427.01
607.829	1418.16
608.248	1414.46
608.666	1411.73
609.085	1411.56
609.503	1402.14
609.921	1396.55
610.339	1399.43
610.758	1398.48
611.176	1393.13
611.594	1382
612.012	1378.49
612.43	1382.14
612.847	1389.29
613.265	1390.91
613.683	1395.15
614.101	1396.53
614.518	1391.22
614.936	1380.96
615.353	1365.17
615.771	1361.97
616.188	1362.1
616.606	1359.18
617.023	1350.92
617.44	1335.9
617.857	1328.22
618.274	1318.28
618.691	1311.85
619.108	1302
619.525	1294.59
619.942	1301.63
620.359	1304.62
620.776	1299.17
621.192	1295.14
621.609	1291.73
622.026	1297.29
622.442	1303.1
622.859	1306.68
623.275	1298.22
623.691	1304.38
624.108	1316.66
624.524	1329.39
624.94	1329.3
625.356	1339.52
625.772	1351.78
626.188	1364.4
626.604	1366.62
627.02	1362.65
627.436	1360.76
627.852	1368.77
628.268	1381.56
628.683	1371.58
629.099	1364.05
629.514	1358.4
629.93	1362.08
630.345	1366.61
630.761	1362.71
631.176	1366.66
631.591	1360.05
632.007	1352.22
632.422	1348.11
632.837	1333.32
633.252	1330.44
633.667	1319.12
634.082	1308.7
634.497	1294.3
634.911	1274.48
635.326	1269.57
635.741	1250.08
636.155	1237.82
636.57	1238.91
636.984	1238.01
637.399	1240.51
637.813	1237.28
638.228	1234.44
638.642	1237.25
639.056	1225.27
639.47	1222.6
639.884	1212.03
640.298	1203.75
640.712	1201.13
641.126	1186.34
641.54	1174.59
641.954	1165.45
642.368	1151.31
642.781	1142.06
643.195	1122.51
643.609	1120.99
644.022	1112.74
644.436	1106.44
644.849	1091.41
645.262	1076.17
645.676	1074.83
646.089	1069.68
646.502	1054.8
646.915	1047.91
647.328	1028.5
647.741	1025.44
648.154	1010.78
648.567	1008.01
648.98	993.66
649.393	992.85
649.805	988.21
650.218	980.1
650.631	963.86
651.043	956.53
651.456	949.21
651.868	949.95
652.28	963.78
652.693	975.19
653.105	978.87
653.517	986.99
653.929	986.28
654.341	992.08
654.753	979.25
655.165	982.36
655.577	978.4
655.989	974.17
656.401	964.11
656.813	928.95
657.224	909.67
657.636	880.68
658.047	862.79
658.459	843.7
658.87	832.63
659.282	819.6
659.693	800.5
660.104	784.34
660.515	768.5
660.926	763.39
661.338	759.76
661.749	752.3
662.159	742.45
662.57	735.86
662.981	729.62
663.392	721.03
663.803	723.03
664.213	717.37
664.624	711.47
665.035	712.95
665.445	700.79
665.855	691.83
666.266	683.4
666.676	679.44
667.086	670.15
667.497	668.66
667.907	662.71
668.317	654
668.727	651.7
669.137	651.2
669.547	649.35
669.956	649.04
670.366	650.91
670.776	651.2
671.186	654.59
671.595	657.14
672.005	658.43
672.414	658.01
672.824	656.2
673.233	657.13
673.642	658.43
674.052	661.09
674.461	665.05
674.87	668.23
675.279	667.39
675.688	667.72
676.097	669.12
676.506	666.63
676.915	679.07
677.323	681.64
677.732	681.3
678.141	681.66
678.549	672.13
678.958	671.49
679.366	672.46
679.775	676.12
680.183	687.45
680.592	693.99
681	701.98
681.408	698.31
681.816	707.76
682.224	719.23
682.632	732.79
683.04	762.17
683.448	788.13
683.856	819.74
684.264	857.3
684.671	891.59
685.079	933.11
685.487	979.06
685.894	1042.47
686.302	1096.21
686.709	1142.05
687.116	1194.7
687.524	1242.45
687.931	1282.35
688.338	1319.78
688.745	1349.44
689.152	1384.36
689.559	1432.61
689.966	1479.87
690.373	1504.63
690.78	1549.21
691.187	1615.68
691.593	1665.36
692	1708.51
692.407	1772.35
692.813	1850
693.22	1913.41
693.626	1977.01
694.032	2026.54
694.439	2103.64
694.845	2163.01
695.251	2238.96
695.657	2305.19
696.063	2409.04
696.469	2484.57
696.875	2555.43
697.281	2594.37
697.687	2641.06
