Data from C_3_DEC_CT_2N_Splice17_13-01-16-212.txt Node
Date: Sat Mar 14 13:01:16 EDT 2020
User: sa697716
Spectrometer: FLMS03696
Trigger mode: 0
Integration Time (sec): 3.180400E-1
Scans to average: 20
Electric dark correction enabled: true
Nonlinearity correction enabled: true
Boxcar width: 5
XAxis mode: Wavelengths
Number of Pixels in Spectrum: 2048
>>>>>Begin Spectral Data<<<<<
187.83	-247586.02
188.298	1835.63
188.766	1022
189.233	958.91
189.701	1292.14
190.169	1787.65
190.636	633.38
191.104	529.92
191.571	35.58
192.039	-128.95
192.506	-109.85
192.974	412.33
193.441	-816.56
193.908	-241.79
194.375	-22.1
194.842	3.94
195.31	112.99
195.777	183.92
196.244	443.03
196.711	570.74
197.177	741.68
197.644	1083.64
198.111	1886.78
198.578	2697.11
199.045	2160.14
199.511	3512.56
199.978	4147.29
200.445	3528.16
200.911	3909.84
201.378	4400.52
201.844	3968.8
202.31	6766.28
202.777	7065.25
203.243	3921.88
203.709	3709.66
204.176	4429.12
204.642	3669.75
205.108	3413.63
205.574	2798.08
206.04	2561.14
206.506	2398.47
206.972	2301.26
207.438	2228.31
207.903	2551.07
208.369	2248.93
208.835	2248.23
209.301	2360.36
209.766	2435.83
210.232	2418.03
210.697	2990.73
211.163	3709.64
211.628	5642.62
212.094	4717.4
212.559	5818.56
213.024	3628.69
213.49	4416.4
213.955	4337.39
214.42	4291.3
214.885	4006.39
215.35	3856.39
215.815	3700.51
216.28	3949
216.745	3256.23
217.21	3575.68
217.675	3367.51
218.14	3860.27
218.604	4412.3
219.069	5144.61
219.534	5453.72
219.998	6456.49
220.463	7964.19
220.927	10010.98
221.392	9554.18
221.856	9772.34
222.32	12443.91
222.785	15424.15
223.249	19509.44
223.713	21905.51
224.177	21997.17
224.642	28399.91
225.106	35086.12
225.57	38433.4
226.034	28550.61
226.497	43517.4
226.961	39306.46
227.425	45750.84
227.889	50869.16
228.353	50979.07
228.816	105384.55
229.28	100850.42
229.744	85241.75
230.207	51819.31
230.671	51079.38
231.134	84822.05
231.597	97731.69
232.061	97794.57
232.524	95606.56
232.987	65911.86
233.45	59322.54
233.914	53199
234.377	54576.66
234.84	49922.89
235.303	58907.28
235.766	65692.43
236.229	67829.47
236.691	42756.41
237.154	48034.67
237.617	36087.72
238.08	36984.5
238.542	43290.54
239.005	30947.17
239.468	30711.59
239.93	28924.74
240.393	26268.17
240.855	23034.24
241.317	23598
241.78	28712.05
242.242	29683.59
242.704	32016.06
243.166	27841.38
243.629	25239.09
244.091	29057.99
244.553	31810.26
245.015	34201.21
245.477	44242.68
245.939	64894.37
246.4	68878.75
246.862	66933.6
247.324	63092.93
247.786	70714.56
248.247	92738.2
248.709	95870.98
249.17	71709.98
249.632	67542.96
250.093	78235.1
250.555	67548.16
251.016	41219.08
251.477	39074.58
251.939	42182.39
252.4	44307.9
252.861	52694.55
253.322	49003.15
253.783	58428.08
254.244	75831.63
254.705	59824.8
255.166	53274.44
255.627	52530.37
256.088	74047.62
256.549	78656.15
257.009	67797.28
257.47	82278.01
257.931	67050.59
258.391	50243.23
258.852	51760.5
259.312	54370.39
259.773	67220.74
260.233	56728.52
260.694	47841.25
261.154	54334.93
261.614	43563.43
262.074	38998.98
262.534	40506.34
262.994	38165.8
263.455	50941.8
263.915	42945.51
264.374	40446.44
264.834	44197.91
265.294	49083.67
265.754	50871.92
266.214	48151.55
266.673	45209.65
267.133	57078.7
267.593	56703.99
268.052	69400.93
268.512	60370.9
268.971	72751.17
269.431	79804.06
269.89	71523.93
270.349	107212.11
270.809	119552.86
271.268	107549.45
271.727	241383.68
272.186	156419.41
272.645	117366.39
273.104	84817.71
273.563	122829.48
274.022	96691.35
274.481	82240.03
274.94	63310.75
275.399	47115.19
275.857	54919.53
276.316	74345.53
276.775	66184.23
277.233	65198.79
277.692	60984.88
278.15	68992.18
278.609	70947.74
279.067	65691.21
279.525	61020.41
279.984	78873.49
280.442	94685.93
280.9	93250.57
281.358	61345.34
281.816	57124.63
282.274	55918.46
282.732	57798.98
283.19	58083.82
283.648	50142.64
284.106	53421.02
284.564	54317.04
285.021	50356.02
285.479	37544.13
285.937	34166.49
286.394	29944.12
286.852	30845.95
287.309	32400.72
287.767	31280.41
288.224	29702.81
288.682	32589.61
289.139	35753.4
289.596	32707.99
290.053	33982.06
290.511	42881.74
290.968	51991.66
291.425	70626.86
291.882	58699.82
292.339	51074.46
292.796	50715.66
293.252	47815.59
293.709	37917.33
294.166	33990.36
294.623	37591.77
295.079	36081.09
295.536	36251.1
295.992	32904.6
296.449	32529.01
296.905	33812.02
297.362	32399.71
297.818	34087.41
298.274	35353.06
298.731	36071.86
299.187	35680.48
299.643	38308.26
300.099	46289.15
300.555	50715.49
301.011	42367.26
301.467	40770.22
301.923	47779.57
302.379	46680.01
302.835	45844.31
303.291	45864.82
303.746	52191.16
304.202	65943.61
304.658	66205.26
305.113	44564.38
305.569	43695.19
306.024	46584.36
306.479	44379.5
306.935	37343.62
307.39	40800.14
307.845	37652.3
308.301	37902.05
308.756	36952.67
309.211	35585.63
309.666	36442.25
310.121	45197.75
310.576	45858.7
311.031	45527.62
311.486	52221.56
311.94	52269.71
312.395	69906.55
312.85	131302.68
313.305	645337.59
313.759	3334055.2
314.214	241515.93
314.668	191236.34
315.123	160537.85
315.577	57525.88
316.032	51159.66
316.486	64001.3
316.94	50387.64
317.394	35026.21
317.849	27253.98
318.303	25804.25
318.757	24354.71
319.211	26902.99
319.665	23547.41
320.119	23867.56
320.572	34238.05
321.026	31928.84
321.48	26564.52
321.934	29026.68
322.387	29112.46
322.841	31399.36
323.295	28158.43
323.748	32494.74
324.202	32967.72
324.655	39563.66
325.108	55169.03
325.562	38958.54
326.015	46321.57
326.468	35008.95
326.921	39065.49
327.374	36378.18
327.827	37850.43
328.28	42840.2
328.733	28639.01
329.186	25159.2
329.639	23946.68
330.092	20188.59
330.545	19214.18
330.997	19363.49
331.45	21131.24
331.903	24724.5
332.355	42548.11
332.808	41348.23
333.26	34097.24
333.713	37003.68
334.165	37261.53
334.617	49822.57
335.069	40322.47
335.522	72940.06
335.974	80711.42
336.426	73777.65
336.878	51193.6
337.33	25966.45
337.782	25346.67
338.234	31736.07
338.686	37988.58
339.137	45017.35
339.589	42384.68
340.041	33157.75
340.493	28500.62
340.944	29207.99
341.396	31409.07
341.847	26376.12
342.299	31054.98
342.75	37854.69
343.201	33156.05
343.653	38101.48
344.104	46878.57
344.555	36870.24
345.006	57449.92
345.457	43907.21
345.908	34870.04
346.359	32807.13
346.81	26716.16
347.261	28176.59
347.712	27767.25
348.163	29731.2
348.613	30059.57
349.064	28019.86
349.515	24524.93
349.965	25131.27
350.416	30229.76
350.866	33183.62
351.317	37534.25
351.767	62141.32
352.217	78444.95
352.668	65100.99
353.118	59630.03
353.568	57576.77
354.018	45512.59
354.468	48001.02
354.918	34391.47
355.368	30123.36
355.818	42558.28
356.268	122510.33
356.718	512382.07
357.168	127480.67
357.617	63955.84
358.067	71138.54
358.517	66564.58
358.966	78005.87
359.416	87312.69
359.865	94481.51
360.315	112607.03
360.764	52570.88
361.213	29441.45
361.663	27905.62
362.112	34475.25
362.561	55676.19
363.01	41999.39
363.459	35382.94
363.908	38314.09
364.357	32550.89
364.806	54972.25
365.255	37782.52
365.703	34523.05
366.152	34545.74
366.601	28009.53
367.05	22703.47
367.498	20606.09
367.947	21510.27
368.395	22355.37
368.844	19758.62
369.292	23847.5
369.74	16462.19
370.189	25226.55
370.637	29611.78
371.085	25572.52
371.533	31109.35
371.981	30023.46
372.429	28588.47
372.877	29769.69
373.325	24929.32
373.773	25425.3
374.221	22619.94
374.669	28061.8
375.116	24236.24
375.564	24393.12
376.012	27238.02
376.459	22452.32
376.907	26797.87
377.354	32431.78
377.801	30185.65
378.249	34576.82
378.696	44163.2
379.143	53473.93
379.591	56966.86
380.038	96201.43
380.485	69484.8
380.932	74867.87
381.379	68275.19
381.826	50136.19
382.273	35575.46
382.72	31144.72
383.166	30352.61
383.613	19669.9
384.06	17702.68
384.506	20467.78
384.953	15018.36
385.4	15116.24
385.846	13252.64
386.292	12934.94
386.739	12661.85
387.185	12525.09
387.631	12510.37
388.078	12110.95
388.524	12941.61
388.97	11931.03
389.416	9926.46
389.862	10539.66
390.308	9974.12
390.754	10095.11
391.2	10937.35
391.645	11182.08
392.091	10644.7
392.537	10269
392.983	10281.1
393.428	10061.55
393.874	10781.14
394.319	10800.8
394.765	10206.9
395.21	10458.33
395.655	9793.45
396.101	9148.92
396.546	8239.34
396.991	8316.32
397.436	7714.75
397.881	7444.5
398.326	7059.29
398.771	6658.33
399.216	5807.81
399.661	5224.67
400.106	5192.31
400.551	5310.09
400.995	4759.13
401.44	4704.46
401.885	4414.68
402.329	4453.46
402.774	4267.97
403.218	4119.65
403.663	3963.81
404.107	4068.27
404.551	4093.6
404.995	3758.38
405.44	3622.12
405.884	3678.69
406.328	3560.47
406.772	3551.66
407.216	3230.09
407.66	3120.08
408.104	2966.37
408.547	2775.73
408.991	2688.1
409.435	2589.06
409.879	2551.04
410.322	2514.24
410.766	2423.16
411.209	2297.45
411.653	2200.87
412.096	2155.32
412.54	2153.84
412.983	2139.19
413.426	2141.96
413.869	2139.13
414.312	2097.52
414.756	2018.94
415.199	1924.07
415.642	1868.97
416.085	1873.08
416.527	1862.89
416.97	1889.75
417.413	1792.12
417.856	1771.5
418.298	1756.07
418.741	1743.45
419.184	1738.83
419.626	1813.35
420.069	1815.12
420.511	1821.45
420.953	1779.48
421.396	1758.78
421.838	1714.62
422.28	1753.18
422.722	1762.78
423.164	1789.39
423.606	1759.74
424.048	1758.45
424.49	1669.2
424.932	1662.15
425.374	1641.42
425.816	1673.35
426.258	1709.53
426.699	1729.57
427.141	1704.06
427.582	1732.56
428.024	1721.79
428.465	1711.48
428.907	1666.84
429.348	1648.57
429.789	1647.86
430.231	1611.91
430.672	1631.31
431.113	1592.83
431.554	1568.05
431.995	1529
432.436	1471.98
432.877	1438.88
433.318	1413.84
433.759	1406.98
434.2	1406.02
434.64	1390.31
435.081	1394.47
435.522	1321.86
435.962	1272.22
436.403	1244.42
436.843	1262.58
437.284	1234.26
437.724	1202.71
438.164	1207.04
438.604	1182.22
439.045	1136.64
439.485	1087.86
439.925	1063.74
440.365	1037.44
440.805	1023.07
441.245	1010.66
441.685	972.38
442.125	965.38
442.564	968.47
443.004	946.25
443.444	942.16
443.883	942.41
444.323	936.19
444.762	937.55
445.202	948.05
445.641	962.71
446.081	956.94
446.52	963.27
446.959	953.57
447.398	930.74
447.837	916.97
448.276	899.92
448.716	906.19
449.154	911.59
449.593	888.74
450.032	885.44
450.471	868.27
450.91	866.95
451.349	862.91
451.787	857.51
452.226	868.26
452.664	868.32
453.103	868.42
453.541	866.65
453.98	864.04
454.418	869.48
454.856	853.29
455.295	851.1
455.733	855.95
456.171	860.17
456.609	859.32
457.047	858.55
457.485	869.09
457.923	869.44
458.361	856.28
458.798	858.97
459.236	856.51
459.674	863.13
460.111	865.74
460.549	857.42
460.987	854.14
461.424	851.01
461.862	845.89
462.299	832.43
462.736	830.38
463.173	834.33
463.611	824.43
464.048	820.97
464.485	826.07
464.922	817.31
465.359	811.78
465.796	798.97
466.233	791.56
466.67	782.22
467.106	779.74
467.543	772.64
467.98	761.16
468.416	740.67
468.853	735.79
469.29	713.15
469.726	706.69
470.162	688.05
470.599	679.4
471.035	674.22
471.471	659.73
471.907	656.24
472.344	651.35
472.78	652.57
473.216	659.65
473.652	650.38
474.088	648.86
474.523	645.73
474.959	650.77
475.395	644.9
475.831	640.28
476.266	643.7
476.702	640.09
477.138	632.03
477.573	629.4
478.008	626.84
478.444	628.87
478.879	634.19
479.314	636.54
479.75	635.67
480.185	638.21
480.62	643.36
481.055	644.95
481.49	649.23
481.925	658.88
482.36	669.64
482.795	688.03
483.229	705.07
483.664	717.88
484.099	719.04
484.534	728.94
484.968	734.03
485.403	735.35
485.837	733.26
486.271	730.67
486.706	729.47
487.14	719.27
487.574	705.53
488.009	696.86
488.443	689.17
488.877	694.68
489.311	694.66
489.745	700.76
490.179	705.12
490.613	715.49
491.046	718.51
491.48	721.2
491.914	719.58
492.348	722.62
492.781	725.29
493.215	724.14
493.648	722.03
494.082	724.43
494.515	721.78
494.948	726.07
495.382	727.62
495.815	729.08
496.248	731.17
496.681	740.81
497.114	748.79
497.547	754.55
497.98	763.8
498.413	766.31
498.846	772.76
499.279	778
499.711	777.28
500.144	775.86
500.577	782.36
501.009	787.69
501.442	792.36
501.874	788.81
502.306	786.38
502.739	789.5
503.171	798.58
503.603	797.11
504.036	801.2
504.468	802.87
504.9	808.5
505.332	810.23
505.764	811.24
506.196	813.97
506.627	824.09
507.059	832.82
507.491	836.93
507.923	831.86
508.354	841.24
508.786	846.63
509.217	858.75
509.649	869.55
510.08	883.68
510.512	896.17
510.943	907.03
511.374	914.85
511.805	929.91
512.237	945.26
512.668	971.37
513.099	993.99
513.53	1016.52
513.961	1034.53
514.391	1060.58
514.822	1089.02
515.253	1119.92
515.684	1141.91
516.114	1167.59
516.545	1187.18
516.975	1210.52
517.406	1227.85
517.836	1231.04
518.267	1239.95
518.697	1257.44
519.127	1263.76
519.558	1271.6
519.988	1276.29
520.418	1288.24
520.848	1305.52
521.278	1316.56
521.708	1344.21
522.138	1358.82
522.567	1390.49
522.997	1415.33
523.427	1432.3
523.857	1450.59
524.286	1463.77
524.716	1481.71
525.145	1502.94
525.575	1516.97
526.004	1534.65
526.433	1524.84
526.863	1527.88
527.292	1522.56
527.721	1532.38
528.15	1541.78
528.579	1545.75
529.008	1559.32
529.437	1583.68
529.866	1599.63
530.295	1619.1
530.724	1632.41
531.152	1660.11
531.581	1677.33
532.01	1697.31
532.438	1706.86
532.867	1723.2
533.295	1744.17
533.723	1751.73
534.152	1751.72
534.58	1752.21
535.008	1738.13
535.436	1741.72
535.865	1750.57
536.293	1765.59
536.721	1781.27
537.149	1808.28
537.576	1811.43
538.004	1824.03
538.432	1832.91
538.86	1832.07
539.287	1840.22
539.715	1856.31
540.143	1860.55
540.57	1857.32
540.998	1854.85
541.425	1833.39
541.852	1811.77
542.28	1811.42
542.707	1796.6
543.134	1784.21
543.561	1781.51
543.988	1776.19
544.415	1774.9
544.842	1769.93
545.269	1763.8
545.696	1765.68
546.123	1779.52
546.549	1771.41
546.976	1760.29
547.403	1761.63
547.829	1764.06
548.256	1767.43
548.682	1765.09
549.108	1758.94
549.535	1760.13
549.961	1763.93
550.387	1752.78
550.813	1746.88
551.24	1754.71
551.666	1756.85
552.092	1748.57
552.518	1743.17
552.943	1737.69
553.369	1744.16
553.795	1750.22
554.221	1752.1
554.646	1748.71
555.072	1758.76
555.498	1765.2
555.923	1773.8
556.349	1786.79
556.774	1793.45
557.199	1794.13
557.625	1798.26
558.05	1792.36
558.475	1800.75
558.9	1797.31
559.325	1787.84
559.75	1779.88
560.175	1769.9
560.6	1761.82
561.025	1757.48
561.449	1755.7
561.874	1758.31
562.299	1760.74
562.723	1764.27
563.148	1751.33
563.572	1752.49
563.997	1759.09
564.421	1761.41
564.846	1759.06
565.27	1758.05
565.694	1752.59
566.118	1760.45
566.542	1763.88
566.966	1754.05
567.39	1746.1
567.814	1732.52
568.238	1727.32
568.662	1727.89
569.086	1726.02
569.509	1729.14
569.933	1711.16
570.357	1700.25
570.78	1677.11
571.204	1661.53
571.627	1647.2
572.05	1642.54
572.474	1639.97
572.897	1625.44
573.32	1615.88
573.743	1604.29
574.166	1584.25
574.589	1581.65
575.012	1572.84
575.435	1569.05
575.858	1558.87
576.281	1548.62
576.704	1530.9
577.126	1517.86
577.549	1506.15
577.972	1496.25
578.394	1484.77
578.817	1478.91
579.239	1460.77
579.661	1447.07
580.084	1432.9
580.506	1419.76
580.928	1414.09
581.35	1403.85
581.772	1398.99
582.194	1388.21
582.616	1375.1
583.038	1362.84
583.46	1351.86
583.882	1347.81
584.303	1351.5
584.725	1346.49
585.147	1349.27
585.568	1358.3
585.99	1369.11
586.411	1374.21
586.833	1386.33
587.254	1388.05
587.675	1399.72
588.096	1410.76
588.518	1406.03
588.939	1390.79
589.36	1388.07
589.781	1377.15
590.202	1351.83
590.623	1343.58
591.043	1340.38
591.464	1328.26
591.885	1324.53
592.305	1318.63
592.726	1305.84
593.147	1306.86
593.567	1302.07
593.987	1295.49
594.408	1289.71
594.828	1287.02
595.248	1281.43
595.669	1264.84
596.089	1258.86
596.509	1252.22
596.929	1239.61
597.349	1239.99
597.769	1230.19
598.189	1223.52
598.608	1224.32
599.028	1224.86
599.448	1223.67
599.867	1212.11
600.287	1208.03
600.706	1202.93
601.126	1193.99
601.545	1192.68
601.965	1190.51
602.384	1185.15
602.803	1186.19
603.222	1180.87
603.641	1173.92
604.061	1170.82
604.48	1165.82
604.898	1171.16
605.317	1173.36
605.736	1173.97
606.155	1169.95
606.574	1160.59
606.992	1164.21
607.411	1159.84
607.829	1156.87
608.248	1153.71
608.666	1150.02
609.085	1149.45
609.503	1142.11
609.921	1136.48
610.339	1136.99
610.758	1135.37
611.176	1130.55
611.594	1122.98
612.012	1118.65
612.43	1115.62
612.847	1120.21
613.265	1119.95
613.683	1122.62
614.101	1122.48
614.518	1118.19
614.936	1108.7
615.353	1096.84
615.771	1094.23
616.188	1092.51
616.606	1089.58
617.023	1083.76
617.44	1072.04
617.857	1065.6
618.274	1058.06
618.691	1053.69
619.108	1046.55
619.525	1041.79
619.942	1047.35
620.359	1049.25
620.776	1046.5
621.192	1043.31
621.609	1040.91
622.026	1046.62
622.442	1052.51
622.859	1054.92
623.275	1047.99
623.691	1052.49
624.108	1062.15
624.524	1073.76
624.94	1074.53
625.356	1081.96
625.772	1092.82
626.188	1103.67
626.604	1105.44
627.02	1102.46
627.436	1100.52
627.852	1106.95
628.268	1117.22
628.683	1108.86
629.099	1102.74
629.514	1097.51
629.93	1101.43
630.345	1105.81
630.761	1102.28
631.176	1105.72
631.591	1100.56
632.007	1096.15
632.422	1094.28
632.837	1084.73
633.252	1084.05
633.667	1073.52
634.082	1066.83
634.497	1056.02
634.911	1039.71
635.326	1036.24
635.741	1022.05
636.155	1014.49
636.57	1015.96
636.984	1015.95
637.399	1018.72
637.813	1018.02
638.228	1019.6
638.642	1024.38
639.056	1016.26
639.47	1016.58
639.884	1009.82
640.298	1003.89
640.712	1003.41
641.126	994.15
641.54	987.7
641.954	983.3
642.368	975.29
642.781	969.78
643.195	955.27
643.609	957.93
644.022	954.94
644.436	953.1
644.849	944.49
645.262	935.29
645.676	937.91
646.089	936.11
646.502	925.69
646.915	922.78
647.328	909.52
647.741	909.19
648.154	898.71
648.567	898.71
648.98	889.75
649.393	891.55
649.805	891.22
650.218	885.48
650.631	872.12
651.043	867.06
651.456	862.77
651.868	863.51
652.28	879.79
652.693	891.99
653.105	896.97
653.517	904.89
653.929	906.4
654.341	910.94
654.753	902.93
655.165	910.8
655.577	910.27
655.989	907.94
656.401	902.96
656.813	873.16
657.224	857.15
657.636	834.27
658.047	821.72
658.459	806.94
658.87	801.02
659.282	793.28
659.693	777.3
660.104	767.33
660.515	757.7
660.926	760.17
661.338	760.38
661.749	759.37
662.159	754.57
662.57	754.14
662.981	753.53
663.392	750.71
663.803	758.04
664.213	760.87
664.624	760.77
665.035	768.15
665.445	757.37
665.855	754.68
666.266	749.87
666.676	751.16
667.086	745.81
667.497	748.86
667.907	747.25
668.317	741.19
668.727	739.34
669.137	743.53
669.547	743.13
669.956	748.88
670.366	752.3
670.776	755.89
671.186	762.22
671.595	766.87
672.005	771.32
672.414	771.26
672.824	769.89
673.233	774.5
673.642	776.66
674.052	780.01
674.461	781.83
674.87	786.63
675.279	784.02
675.688	784.53
676.097	786.22
676.506	783.67
676.915	796.85
677.323	799.3
677.732	797.53
678.141	795.75
678.549	784.58
678.958	783.54
679.366	782.51
679.775	787.3
680.183	796.02
680.592	800.33
681	802.85
681.408	794.96
681.816	800.88
682.224	806.54
682.632	812.78
683.04	836.67
683.448	856.85
683.856	881.26
684.264	909.61
684.671	934.71
685.079	964.76
685.487	997.86
685.894	1045.71
686.302	1079.98
686.709	1107.62
687.116	1141.01
687.524	1167.38
687.931	1184.8
688.338	1198.9
688.745	1208.46
689.152	1222.41
689.559	1247.47
689.966	1274.22
690.373	1282.31
690.78	1309.36
691.187	1355.5
691.593	1390.71
692	1420.69
692.407	1469.91
692.813	1533.72
693.22	1584.12
693.626	1639.87
694.032	1687.1
694.439	1758.02
694.845	1816.8
695.251	1889.48
695.657	1957.93
696.063	2057.02
