Data from C_3_DIV_PA_2N_Splice17_13-16-06-620.txt Node
Date: Sat Mar 14 13:16:06 EDT 2020
User: sa697716
Spectrometer: FLMS03696
Trigger mode: 0
Integration Time (sec): 3.180400E-1
Scans to average: 20
Electric dark correction enabled: true
Nonlinearity correction enabled: true
Boxcar width: 5
XAxis mode: Wavelengths
Number of Pixels in Spectrum: 2048
>>>>>Begin Spectral Data<<<<<
187.83	-294624.86
188.298	2184.86
188.766	1223.38
189.233	1182.01
189.701	1601.84
190.169	2221.53
190.636	813.48
191.104	668.07
191.571	83.53
192.039	-98.39
192.506	-43.76
192.974	540.38
193.441	-702.6
193.908	-32.3
194.375	94.13
194.842	89.04
195.31	198.94
195.777	204.09
196.244	362.5
196.711	280.4
197.177	304
197.644	411.26
198.111	721.84
198.578	974.3
199.045	764.8
199.511	1199.98
199.978	1380.99
200.445	1172.28
200.911	1268.64
201.378	1370.77
201.844	1298.19
202.31	2211.6
202.777	2286.61
203.243	1262.38
203.709	1194.3
204.176	1423.14
204.642	1173.8
205.108	1104.99
205.574	894.01
206.04	786.34
206.506	730.41
206.972	673.96
207.438	639.09
207.903	716.91
208.369	646.54
208.835	656.89
209.301	703.05
209.766	710.51
210.232	708.56
210.697	870.85
211.163	1075.46
211.628	1609.91
212.094	1339.31
212.559	1744.95
213.024	1121.05
213.49	1372.01
213.955	1328.07
214.42	1242.95
214.885	1186.13
215.35	1128.78
215.815	1159.51
216.28	1246.03
216.745	1023.64
217.21	1132.39
217.675	1015.51
218.14	1148.22
218.604	1277.24
219.069	1465.84
219.534	1601.01
219.998	1858.17
220.463	2284.53
220.927	2784.87
221.392	2647.43
221.856	2723.09
222.32	3438.93
222.785	4285.56
223.249	5432.32
223.713	6129
224.177	6210.87
224.642	7982.09
225.106	9891.26
225.57	10852.26
226.034	8160.17
226.497	12541.64
226.961	11463.47
227.425	13480.21
227.889	15096.06
228.353	15167.43
228.816	31430.2
229.28	30225.18
229.744	25675.57
230.207	15730.44
230.671	15592.29
231.134	25897.4
231.597	30046.49
232.061	30056.29
232.524	29442.85
232.987	20375.84
233.45	18513.54
233.914	16726.38
234.377	17232.11
234.84	15840.58
235.303	18796.42
235.766	21097.49
236.229	21906.96
236.691	13870.68
237.154	15699.07
237.617	11883.17
238.08	12245.67
238.542	14372.77
239.005	10323.31
239.468	10281
239.93	9716.95
240.393	8868.18
240.855	7816.88
241.317	8030.86
241.78	9797.55
242.242	10169.24
242.704	11024.35
243.166	9614.53
243.629	8795.28
244.091	10183.94
244.553	11216.38
245.015	12118.8
245.477	15710.64
245.939	23094.51
246.4	24607.92
246.862	23976.1
247.324	22666.34
247.786	25460.12
248.247	33484.26
248.709	34582.97
249.17	25952.35
249.632	24604.67
250.093	28675.34
250.555	24877.78
251.016	15281.32
251.477	14562.84
251.939	15800.19
252.4	16663.24
252.861	19869.84
253.322	18598.4
253.783	22243.2
254.244	28955.16
254.705	22913.04
255.166	20427.67
255.627	20199.54
256.088	28559.81
256.549	30439.1
257.009	26264.19
257.47	31901.76
257.931	26056.68
258.391	19573.29
258.852	20241.56
259.312	21292.1
259.773	26367.42
260.233	22407
260.694	18988.77
261.154	21616.88
261.614	17464.68
262.074	15722.44
262.534	16445.89
262.994	15606.04
263.455	20903.29
263.915	17738.67
264.374	16785.88
264.834	18428.35
265.294	20530.42
265.754	21378.5
266.214	20383.48
266.673	19203.77
267.133	24342.19
267.593	24291.86
268.052	29886.34
268.512	26112.16
268.971	31642.37
269.431	34882.2
269.89	31395.77
270.349	47318.78
270.809	53028.39
271.268	47828.83
271.727	107622.01
272.186	70071.58
272.645	52735.14
273.104	38195.4
273.563	55530.04
274.022	43816.33
274.481	37472.36
274.94	28959.83
275.399	21608.69
275.857	25280.42
276.316	34359.13
276.775	30733.77
277.233	30385.12
277.692	28576.7
278.15	32486.45
278.609	33591.57
279.067	31203.86
279.525	29101.34
279.984	37760.13
280.442	45541.79
280.9	45012.1
281.358	29697.68
281.816	27747.57
282.274	27215.84
282.732	28208.49
283.19	28403.64
283.648	24590.12
284.106	26276.36
284.564	26795.77
285.021	24913.75
285.479	18613.66
285.937	16971.36
286.394	14921.33
286.852	15402.86
287.309	16267.56
287.767	15792.84
288.224	15112.34
288.682	16665.09
289.139	18405.61
289.596	16951.08
290.053	17762.85
290.511	22567.23
290.968	27601.28
291.425	37793.01
291.882	31713.55
292.339	27810.67
292.796	27776.13
293.252	26281.18
293.709	20998.9
294.166	18896.61
294.623	20975.43
295.079	20193.72
295.536	20364.13
295.992	18536.26
296.449	18393.88
296.905	19180.22
297.362	18442.12
297.818	19438.07
298.274	20230.53
298.731	20675.87
299.187	20541.85
299.643	22109.42
300.099	26808.67
300.555	29499.28
301.011	24751.57
301.467	23894.77
301.923	28021.31
302.379	27466.99
302.835	27057.18
303.291	27149.35
303.746	30973.21
304.202	39188.98
304.658	39452.59
305.113	26606.3
305.569	26117.57
306.024	27872.47
306.479	26641.71
306.935	22513.99
307.39	24610.25
307.845	22761.69
308.301	22954.69
308.756	22386.56
309.211	21602.96
309.666	22151.53
310.121	27534.16
310.576	27975.99
311.031	27823.53
311.486	31882.61
311.94	31908.89
312.395	42766.74
312.85	80543.51
313.305	396560.82
313.759	2058802.48
314.214	149530.32
314.668	118795.42
315.123	100093.65
315.577	36013.51
316.032	32090.51
316.486	40354.56
316.94	31931.32
317.394	22295.08
317.849	17422.63
318.303	16581.56
318.757	15691.76
319.211	17445.03
319.665	15335.85
320.119	15606.44
320.572	22474.62
321.026	21085.21
321.48	17601.56
321.934	19271.31
322.387	19386.32
322.841	20975.56
323.295	18889.36
323.748	21851.63
324.202	22188.93
324.655	26719.68
325.108	37366.04
325.562	26416.35
326.015	31490.07
326.468	23856.81
326.921	26699.19
327.374	24913.33
327.827	25954.23
328.28	29407.91
328.733	19721.16
329.186	17391.5
329.639	16599.38
330.092	14019.22
330.545	13376.13
330.997	13498.62
331.45	14771.9
331.903	17362.39
332.355	29913.15
332.808	29110.26
333.26	24038.45
333.713	26116.83
334.165	26293.42
334.617	35117.97
335.069	28445.72
335.522	51425
335.974	56924.87
336.426	52046.05
336.878	36069.51
337.33	18313.52
337.782	17924.41
338.234	22501.93
338.686	26966.54
339.137	32012.93
339.589	30231.9
340.041	23713.5
340.493	20489.73
340.944	21064.22
341.396	22747.28
341.847	19187.36
342.299	22720.07
342.75	27828.17
343.201	24400.78
343.653	28189.26
344.104	34831.94
344.555	27530.88
345.006	43090.24
345.457	33089.87
345.908	26385.87
346.359	24888.47
346.81	20313.23
347.261	21510.47
347.712	21220.77
348.163	22821.06
348.613	23113.02
349.064	21603
349.515	18948.67
349.965	19421.23
350.416	23431.68
350.866	25763.01
351.317	29194.8
351.767	48397.78
352.217	61133.45
352.668	50842.02
353.118	46616.86
353.568	45036.78
354.018	35631.22
354.468	37574.05
354.918	27018.85
355.368	23668.19
355.818	33446.86
356.268	96458.39
356.718	404581.16
357.168	100656.15
357.617	50556.13
358.067	56325.47
358.517	52836.87
358.966	62038.43
359.416	69708.37
359.865	75478.5
360.315	89984.54
360.764	42102.52
361.213	23640.14
361.663	22447.09
362.112	27823.55
362.561	45043.06
363.01	34086.28
363.459	28777.29
363.908	31258.62
364.357	26612.07
364.806	44983.58
365.255	30986.46
365.703	28443.85
366.152	28520.26
366.601	23158.09
367.05	18807.94
367.498	17123.14
367.947	17900.12
368.395	18662.35
368.844	16529.94
369.292	19980.98
369.74	13846.92
370.189	21275.61
370.637	24981.39
371.085	21603.34
371.533	26396.84
371.981	25564.68
372.429	24434.28
372.877	25532.71
373.325	21417.03
373.773	21928.36
374.221	19586.06
374.669	24371.73
375.116	21127.87
375.564	21369.94
376.012	23961.55
376.459	19776.94
376.907	23654.17
377.354	28636.9
377.801	26750.67
378.249	30777.21
378.696	39377.2
379.143	47777.93
379.591	51036.63
380.038	86530.4
380.485	62617.75
380.932	67711.86
381.379	62050.51
381.826	45749.45
382.273	32585.03
382.72	28552.29
383.166	27920.05
383.613	18137.46
384.06	16392.43
384.506	19005.08
384.953	13966.54
385.4	14098.52
385.846	12372.47
386.292	12096.71
386.739	11832
387.185	11725.61
387.631	11731.47
388.078	11359.19
388.524	12148.25
388.97	11200.41
389.416	9333
389.862	9937.88
390.308	9398.48
390.754	9524.91
391.2	10311.16
391.645	10551.44
392.091	10052.89
392.537	9686.3
392.983	9701.6
393.428	9503.13
393.874	10168.54
394.319	10164.54
394.765	9591.72
395.21	9842.96
395.655	9211.7
396.101	8616.14
396.546	7768.58
396.991	7827.94
397.436	7262.8
397.881	6999.97
398.326	6628.54
398.771	6259.57
399.216	5466.92
399.661	4915.56
400.106	4885.66
400.551	4988.77
400.995	4465.5
401.44	4412.25
401.885	4148.3
402.329	4190.2
402.774	4008.06
403.218	3869.32
403.663	3717.33
404.107	3810.66
404.551	3828.57
404.995	3504.04
405.44	3375.07
405.884	3419.94
406.328	3301.82
406.772	3283.74
407.216	2981.74
407.66	2881.79
408.104	2733.62
408.547	2554.79
408.991	2470.65
409.435	2374.86
409.879	2338.72
410.322	2299.52
410.766	2212.65
411.209	2098.3
411.653	2008
412.096	1961.54
412.54	1956.43
412.983	1937.98
413.426	1939.07
413.869	1933.27
414.312	1890.77
414.756	1814.82
415.199	1728.83
415.642	1676.57
416.085	1677.5
416.527	1662.89
416.97	1689.42
417.413	1603.46
417.856	1591.57
418.298	1579.7
418.741	1571.61
419.184	1572.14
419.626	1642.43
420.069	1644.07
420.511	1654.04
420.953	1619.09
421.396	1609.17
421.838	1570.21
422.28	1605.58
422.722	1611.79
423.164	1632.79
423.606	1605.55
424.048	1603.22
424.49	1526.31
424.932	1521.82
425.374	1501.21
425.816	1530.62
426.258	1561.89
426.699	1583.42
427.141	1565.09
427.582	1590.36
428.024	1581.97
428.465	1572.53
428.907	1531.78
429.348	1508.14
429.789	1505.18
430.231	1472.79
430.672	1490.07
431.113	1449.43
431.554	1422.48
431.995	1379.24
432.436	1324.47
432.877	1290.68
433.318	1263.58
433.759	1256.16
434.2	1256.3
434.64	1238.14
435.081	1238.94
435.522	1168.95
435.962	1122.45
436.403	1092.31
436.843	1104.54
437.284	1077.3
437.724	1048.04
438.164	1050.28
438.604	1023.83
439.045	983.33
439.485	943.3
439.925	923.49
440.365	900
440.805	888.44
441.245	877.84
441.685	846.53
442.125	841.79
442.564	844.08
443.004	822.48
443.444	819.7
443.883	818.93
444.323	811.16
444.762	809
445.202	819
445.641	832.67
446.081	825.95
446.52	829.4
446.959	817.74
447.398	796.39
447.837	785.59
448.276	769.25
448.716	773.51
449.154	777.14
449.593	758.51
450.032	752.35
450.471	735.42
450.91	733.84
451.349	730.18
451.787	727.31
452.226	737.71
452.664	737.45
453.103	739.25
453.541	738.99
453.98	739.08
454.418	743.84
454.856	732.1
455.295	729.61
455.733	735.61
456.171	741.14
456.609	740.24
457.047	741.73
457.485	753.5
457.923	754.31
458.361	743.87
458.798	745.75
459.236	743.43
459.674	749.26
460.111	754.22
460.549	747.18
460.987	744.59
461.424	744.13
461.862	739.09
462.299	726.07
462.736	725.7
463.173	726.64
463.611	718.21
464.048	716.69
464.485	721.89
464.922	715.09
465.359	711.12
465.796	702.61
466.233	697.42
466.67	691.11
467.106	690.1
467.543	683.34
467.98	676.99
468.416	660.5
468.853	655.73
469.29	637.73
469.726	630.56
470.162	615.2
470.599	607.92
471.035	602.61
471.471	590.8
471.907	588.99
472.344	586.28
472.78	587.99
473.216	595.95
473.652	589.79
474.088	588.32
474.523	588.01
474.959	593.42
475.395	588.18
475.831	586.14
476.266	588.92
476.702	588.03
477.138	583.22
477.573	581.47
478.008	580.54
478.444	584.09
478.879	591.49
479.314	594.88
479.75	596.3
480.185	600.11
480.62	606.67
481.055	611.31
481.49	616.13
481.925	624.52
482.36	637.08
482.795	655.06
483.229	673.35
483.664	686.02
484.099	689.53
484.534	699.73
484.968	706.58
485.403	708.98
485.837	707.78
486.271	707.13
486.706	708.27
487.14	699.94
487.574	689.33
488.009	682.84
488.443	677.18
488.877	683.15
489.311	684.83
489.745	691.78
490.179	696.28
490.613	707.26
491.046	710.62
491.48	713.67
491.914	712.28
492.348	714.4
492.781	715.16
493.215	714.05
493.648	712.09
494.082	714.06
494.515	710.86
494.948	715.15
495.382	714.87
495.815	715.36
496.248	717.06
496.681	725.02
497.114	731.16
497.547	735.81
497.98	743.37
498.413	743.1
498.846	746.76
499.279	747.99
499.711	744.38
500.144	740.2
500.577	742.35
501.009	744.74
501.442	745.89
501.874	739.14
502.306	733.44
502.739	732.21
503.171	736.44
503.603	730.41
504.036	729.87
504.468	726.22
504.9	727.04
505.332	723.44
505.764	717.38
506.196	712.29
506.627	714.4
507.059	713.96
507.491	708.76
507.923	697.86
508.354	697.93
508.786	694.96
509.217	697.43
509.649	696.58
510.08	698.74
510.512	699.73
510.943	699.93
511.374	696.03
511.805	698.87
512.237	699.52
512.668	707.68
513.099	712.82
513.53	717.73
513.961	717.05
514.391	724.02
514.822	732.38
515.253	740.49
515.684	742.41
516.114	747.4
516.545	747.85
516.975	750.58
517.406	749.22
517.836	739.31
518.267	732.88
518.697	733.72
519.127	726.77
519.558	718.74
519.988	710.87
520.418	706.47
520.848	704.78
521.278	699.48
521.708	725
522.138	724.08
522.567	731.01
522.997	735.49
523.427	733.18
523.857	733.68
524.286	732.47
524.716	732.97
525.145	736.1
525.575	736.27
526.004	736.97
526.433	703.35
526.863	698.23
527.292	691.38
527.721	690.09
528.15	691.31
528.579	688.68
529.008	690.72
529.437	696.43
529.866	699.66
530.295	704.05
530.724	708.33
531.152	717.61
531.581	721.7
532.01	726.63
532.438	727.43
532.867	731.05
533.295	737.83
533.723	739.78
534.152	740.04
534.58	739.52
535.008	733.35
535.436	734.48
535.865	737.57
536.293	743
536.721	749.89
537.149	760.77
537.576	762.76
538.004	767.97
538.432	770.78
538.86	770.19
539.287	773.39
539.715	779.99
540.143	781.12
540.57	780.42
540.998	780.14
541.425	772.91
541.852	766.16
542.28	766.11
542.707	761.01
543.134	757.31
543.561	757.77
543.988	756.62
544.415	757.44
544.842	756.31
545.269	754.82
545.696	757.7
546.123	764.73
546.549	762.08
546.976	759.16
547.403	760.37
547.829	762.51
548.256	763.89
548.682	763.95
549.108	763.11
549.535	764.55
549.961	767.6
550.387	764.05
550.813	763.56
551.24	768.08
551.666	770.49
552.092	768.08
552.518	767.35
552.943	768.18
553.369	772.91
553.795	777.43
554.221	780.74
554.646	781.92
555.072	789.91
555.498	793.48
555.923	799.29
556.349	808.65
556.774	815.38
557.199	818.72
557.625	823.06
558.05	824.06
558.475	831.65
558.9	835.16
559.325	834.47
559.75	834.19
560.175	835.23
560.6	836.45
561.025	838.28
561.449	842.99
561.874	849.03
562.299	855.46
562.723	862.51
563.148	861.36
563.572	866.94
563.997	875.82
564.421	882.9
564.846	887.43
565.27	893.74
565.694	897.41
566.118	908.15
566.542	917.33
566.966	920.44
567.39	923.99
567.814	924.88
568.238	929.9
568.662	937.99
569.086	944.76
569.509	954.08
569.933	954.25
570.357	956.02
570.78	950.89
571.204	951.1
571.627	950.12
572.05	954.99
572.474	960.56
572.897	959.98
573.32	962.51
573.743	963.04
574.166	959.74
574.589	964.23
575.012	966.31
575.435	970.76
575.858	971.63
576.281	971.43
576.704	967.88
577.126	966.08
577.549	964.65
577.972	963.55
578.394	963.33
578.817	964.85
579.239	958.61
579.661	955.79
580.084	952.37
580.506	948.13
580.928	950.29
581.35	948.83
581.772	950.47
582.194	946.89
582.616	943.95
583.038	938.29
583.46	934.54
583.882	936.15
584.303	941.76
584.725	942.04
585.147	949.41
585.568	958.99
585.99	968.38
586.411	975.39
586.833	987.22
587.254	989.79
587.675	1001.3
588.096	1011.17
588.518	1009.74
588.939	1001.16
589.36	1002.2
589.781	994.36
590.202	979.61
590.623	976.82
591.043	977.71
591.464	971.28
591.885	971.04
592.305	969.25
592.726	961.91
593.147	965.04
593.567	964.08
593.987	959.84
594.408	958
594.828	956.87
595.248	954.93
595.669	944.76
596.089	941.72
596.509	937.27
596.929	928.87
597.349	930.67
597.769	924.57
598.189	921.33
598.608	922.78
599.028	925.89
599.448	927.11
599.867	919.06
600.287	916.83
600.706	914.92
601.126	911.87
601.545	913.25
601.965	914.2
602.384	912.1
602.803	914.93
603.222	915.01
603.641	911.08
604.061	910.78
604.48	909.16
604.898	915.95
605.317	921.33
605.736	923.27
606.155	924
606.574	919.57
606.992	925.29
607.411	924.43
607.829	919.92
608.248	920.55
608.666	920.97
609.085	924.63
609.503	922.18
609.921	921.07
610.339	926.41
610.758	928.53
611.176	928.86
611.594	926.61
612.012	927.85
612.43	934.51
612.847	942.92
613.265	948.58
613.683	955.16
614.101	960.77
614.518	961.96
614.936	958.73
615.353	952.42
615.771	953.72
616.188	957.69
616.606	959.53
617.023	958.05
617.44	950.99
617.857	947.86
618.274	944.87
618.691	943.92
619.108	940.07
619.525	938.62
619.942	946.82
620.359	951.86
620.776	950.39
621.192	949.93
621.609	949.98
622.026	957.32
622.442	964.35
622.859	967.83
623.275	962.75
623.691	967.92
624.108	977.2
624.524	988.79
624.94	989.52
625.356	998.05
625.772	1007.99
626.188	1017.75
626.604	1019.03
627.02	1016.38
627.436	1016.29
627.852	1022.88
628.268	1033.52
628.683	1027.09
629.099	1020.38
629.514	1017.5
629.93	1021.76
630.345	1027.27
630.761	1026.83
631.176	1032.87
631.591	1031.2
632.007	1029.62
632.422	1030.45
632.837	1024.42
633.252	1026.96
633.667	1024.54
634.082	1022.16
634.497	1016.84
634.911	1007.96
635.326	1009.5
635.741	1000.93
636.155	998.4
636.57	1005.75
636.984	1013.65
637.399	1024.09
637.813	1031.59
638.228	1038.97
638.642	1052.18
639.056	1053.86
639.47	1062.53
639.884	1067.21
640.298	1072.97
640.712	1083.12
641.126	1084.03
641.54	1087.44
641.954	1094.48
642.368	1096.37
642.781	1101.6
643.195	1096.68
643.609	1109.36
644.022	1116.02
644.436	1123.46
644.849	1124.04
645.262	1126.1
645.676	1140.71
646.089	1146.97
646.502	1142.8
646.915	1147.67
647.328	1140.67
647.741	1149.88
648.154	1145.71
648.567	1151.7
648.98	1145.67
649.393	1153.43
649.805	1156.65
650.218	1154.05
650.631	1142.86
651.043	1141.38
651.456	1140.76
651.868	1146.16
652.28	1169.68
652.693	1189.93
653.105	1202.6
653.517	1218.32
653.929	1222.86
654.341	1233.79
654.753	1224.47
655.165	1238.46
655.577	1241.92
655.989	1243.19
656.401	1240.91
656.813	1204.99
657.224	1188.08
657.636	1162.31
658.047	1150.24
658.459	1135.31
658.87	1132.92
659.282	1127.31
659.693	1110.76
660.104	1100.54
660.515	1091.76
660.926	1096.62
661.338	1101.6
661.749	1102.25
662.159	1097.62
662.57	1099.02
662.981	1100.71
663.392	1098.08
663.803	1111.76
664.213	1114.32
664.624	1115.23
665.035	1126.22
665.445	1114.93
665.855	1110.9
666.266	1104.75
666.676	1105.4
667.086	1096.61
667.497	1099.07
667.907	1094.05
668.317	1082.76
668.727	1078.95
669.137	1081.84
669.547	1078.58
669.956	1083.26
670.366	1086.51
670.776	1088.62
671.186	1096.19
671.595	1100.74
672.005	1105.89
672.414	1104.65
672.824	1100.51
673.233	1106.14
673.642	1107.78
674.052	1110.4
674.461	1111.04
674.87	1114.39
675.279	1107.86
675.688	1106.04
676.097	1103.92
676.506	1095.68
676.915	1110.84
677.323	1110.42
677.732	1103.68
678.141	1098.27
678.549	1078
678.958	1072.24
679.366	1066.72
679.775	1067.99
680.183	1076.06
680.592	1078.79
681	1079.24
681.408	1063.43
681.816	1067.55
682.224	1070.62
682.632	1075.09
683.04	1104.8
683.448	1125.06
683.856	1150.32
684.264	1179.54
684.671	1203.58
685.079	1232.83
685.487	1266.09
685.894	1315.88
686.302	1348.24
686.709	1367.69
687.116	1390.79
687.524	1400.63
687.931	1403.4
688.338	1397.96
688.745	1387.76
689.152	1377.98
689.559	1379.13
689.966	1377.36
690.373	1355.48
690.78	1349.87
691.187	1362.07
691.593	1359.06
692	1350.54
692.407	1356.43
692.813	1374.92
693.22	1378.19
693.626	1383.34
694.032	1379.03
694.439	1393.39
694.845	1395.15
695.251	1408.34
695.657	1415.95
696.063	1443.74
696.469	1456.02
696.875	1463.94
697.281	1453.71
697.687	1450.58
698.093	1443.87
698.498	1457.14
698.904	1459.37
699.31	1480.68
699.715	1490.04
700.12	1514.09
700.526	1500.68
700.931	1513.22
701.337	1519.74
701.742	1516.57
