Data from C_3_DEC_CT_2N_Splice17_13-00-43-563.txt Node
Date: Sat Mar 14 13:00:43 EDT 2020
User: sa697716
Spectrometer: FLMS03696
Trigger mode: 0
Integration Time (sec): 3.180400E-1
Scans to average: 20
Electric dark correction enabled: true
Nonlinearity correction enabled: true
Boxcar width: 5
XAxis mode: Wavelengths
Number of Pixels in Spectrum: 2048
>>>>>Begin Spectral Data<<<<<
187.83	-350564.83
188.298	2500.57
188.766	1348.26
189.233	1160.88
189.701	1611.33
190.169	2210.07
190.636	761.93
191.104	552.7
191.571	48.16
192.039	-153.77
192.506	-99.76
192.974	532.78
193.441	-806.05
193.908	-244.15
194.375	-103.51
194.842	-80.59
195.31	-57.94
195.777	81.93
196.244	321.05
196.711	505.72
197.177	661.51
197.644	997.04
198.111	1750.99
198.578	2488.74
199.045	2036.94
199.511	3309.12
199.978	3921.26
200.445	3339.62
200.911	3721.39
201.378	4174.66
201.844	3771.9
202.31	6465.89
202.777	6724.89
203.243	3737.49
203.709	3553.44
204.176	4200.02
204.642	3482.28
205.108	3244.67
205.574	2651.48
206.04	2427.37
206.506	2279.44
206.972	2169.56
207.438	2106.34
207.903	2398.49
208.369	2119.65
208.835	2115.82
209.301	2232.99
209.766	2313.98
210.232	2301.25
210.697	2871.99
211.163	3586.58
211.628	5494.86
212.094	4629.38
212.559	5674.55
213.024	3561.81
213.49	4339.98
213.955	4278.75
214.42	4245.4
214.885	3957.01
215.35	3828.45
215.815	3694.99
216.28	3958.87
216.745	3268.57
217.21	3580.38
217.675	3402.14
218.14	3934.83
218.604	4535.78
219.069	5317.32
219.534	5697.41
219.998	6811.2
220.463	8455.62
220.927	10691.43
221.392	10226.05
221.856	10471.07
222.32	13430.56
222.785	16684.29
223.249	21165.98
223.713	23817.82
224.177	23968.73
224.642	30973.53
225.106	38306.46
225.57	42037.82
226.034	31314.26
226.497	47823.9
226.961	43260.08
227.425	50470.12
227.889	56259.42
228.353	56489.93
228.816	116982.8
229.28	111939.56
229.744	94584.85
230.207	57446.38
230.671	56594.97
231.134	93907.39
231.597	108293.64
232.061	108575.8
232.524	106056.94
232.987	73163.02
233.45	65868.44
233.914	59084.16
234.377	60793.35
234.84	55699.38
235.303	65806.97
235.766	73495.15
236.229	76026.89
236.691	47987.62
237.154	54010.27
237.617	40624.43
238.08	41625.47
238.542	48736.91
239.005	34888.36
239.468	34586.51
239.93	32581.37
240.393	29643.79
240.855	26026.58
241.317	26678.64
241.78	32504.34
242.242	33583.3
242.704	36249.16
243.166	31556.37
243.629	28640.83
244.091	33025.06
244.553	36229.69
245.015	38974.8
245.477	50458.6
245.939	74064.73
246.4	78628.47
246.862	76427.52
247.324	72123.99
247.786	80871.76
248.247	106269.19
248.709	109951.28
249.17	82307.07
249.632	77521.49
250.093	89906.6
250.555	77717.42
251.016	47426.82
251.477	45017.13
251.939	48625.6
252.4	51100.87
252.861	60853.92
253.322	56595.21
253.783	67471.29
254.244	87591.1
254.705	69203.08
255.166	61664.34
255.627	60807.13
256.088	85826.87
256.549	91246.93
257.009	78638.16
257.47	95560.77
257.931	77921.39
258.391	58461.3
258.852	60345.07
259.312	63355.72
259.773	78367.96
260.233	66196.86
260.694	55851.6
261.154	63444.73
261.614	50939.41
262.074	45665.86
262.534	47461.47
262.994	44779.5
263.455	59808.53
263.915	50459.7
264.374	47616.92
264.834	52103.65
265.294	57937.99
265.754	60111.14
266.214	57032.06
266.673	53554.7
267.133	67675.5
267.593	67304.78
268.052	82504.71
268.512	71857.4
268.971	86685.4
269.431	95094.85
269.89	85238.69
270.349	127887.18
270.809	142724.01
271.268	128385.41
271.727	288536.37
272.186	187110.23
272.645	140438.51
273.104	101464.3
273.563	147050.4
274.022	115925.67
274.481	98719.22
274.94	76065.09
275.399	56595.44
275.857	65988.96
276.316	89383.09
276.775	79523.06
277.233	78345.22
277.692	73315.65
278.15	82929.45
278.609	85212.76
279.067	78850.49
279.525	73201.97
279.984	94662.77
280.442	113758.69
280.9	112017.02
281.358	73618.1
281.816	68628.88
282.274	67193.58
282.732	69497.12
283.19	69867.66
283.648	60366.38
284.106	64329.36
284.564	65517.44
285.021	60694.18
285.479	45252.09
285.937	41258.98
286.394	36193.92
286.852	37272.68
287.309	39201.05
287.767	37828.91
288.224	35968.49
288.682	39481.76
289.139	43315.71
289.596	39628.86
290.053	41262.62
290.511	52151.34
290.968	63248.43
291.425	86031.39
291.882	71609.9
292.339	62351.46
292.796	61971.71
293.252	58487.51
293.709	46468.58
294.166	41670.31
294.623	46087.8
295.079	44237.81
295.536	44400.3
295.992	40286.79
296.449	39826.63
296.905	41372.3
297.362	39651.33
297.818	41743.36
298.274	43252.87
298.731	44108.5
299.187	43682.24
299.643	46903.41
300.099	56734.94
300.555	62259.53
301.011	52078.97
301.467	50109.99
301.923	58799.28
302.379	57462.92
302.835	56444.12
303.291	56529.33
303.746	64386.51
304.202	81322.23
304.658	81693.26
305.113	54931.27
305.569	53851.68
306.024	57385.44
306.479	54772.34
306.935	46076.39
307.39	50372.63
307.845	46507.99
308.301	46793.21
308.756	45584.46
309.211	43913.66
309.666	44979.01
310.121	55724.04
310.576	56525.04
311.031	56079.37
311.486	64186.09
311.94	64179.7
312.395	85743.53
312.85	161205.85
313.305	792239.51
313.759	4090514.37
314.214	296321.91
314.668	234475.22
315.123	197366.68
315.577	70714.69
316.032	62927.51
316.486	78925.17
316.94	62197.61
317.394	43267.96
317.849	33588.71
318.303	31828.46
318.757	30041
319.211	33205.16
319.665	29108.96
320.119	29469.3
320.572	42316.86
321.026	39538.28
321.48	32868.89
321.934	35910.18
322.387	36011.7
322.841	38925.99
323.295	34911.9
323.748	40307.53
324.202	40852.75
324.655	49026.14
325.108	68403.53
325.562	48283.38
326.015	57386.1
326.468	43393.48
326.921	48485.22
327.374	45156.56
327.827	46911.39
328.28	53083.46
328.733	35479.07
329.186	31227.03
329.639	29738.53
330.092	25065.02
330.545	23831.1
330.997	24010.04
331.45	26189.55
331.903	30627.75
332.355	52699.36
332.808	51240.96
333.26	42297.45
333.713	45894.93
334.165	46173.37
334.617	61672.6
335.069	49865.42
335.522	90248.73
335.974	99763.07
336.426	91166.23
336.878	63216.99
337.33	32033.83
337.782	31286.44
338.234	39104.59
338.686	46811.34
339.137	55472.68
339.589	52215.5
340.041	40900.52
340.493	35136.06
340.944	36000.39
341.396	38756.15
341.847	32563.91
342.299	38373.38
342.75	46760.43
343.201	40983.48
343.653	47152.64
344.104	58035.88
344.555	45690.29
345.006	71301.28
345.457	54545.21
345.908	43386.7
346.359	40843.51
346.81	33298.16
347.261	35157.27
347.712	34652.88
348.163	37105.78
348.613	37475.45
349.064	34924.79
349.515	30568.64
349.965	31286.33
350.416	37677.92
350.866	41312.08
351.317	46703.24
351.767	77233.2
352.217	97493.09
352.668	80909.91
353.118	74112.17
353.568	71580.44
354.018	56562.34
354.468	59655.35
354.918	42731.98
355.368	37378.22
355.818	52831.33
356.268	152035.33
356.718	635862.36
357.168	158125.81
357.617	79367.62
358.067	88284.88
358.517	82655.54
358.966	96854.41
359.416	108267.74
359.865	117168.72
360.315	139675.89
360.764	65140.5
361.213	36462.7
361.663	34609.28
362.112	42769.5
362.561	69046.68
363.01	52109.35
363.459	43896.56
363.908	47562.53
364.357	40405.37
364.806	68267.12
365.255	46903.3
365.703	42940.29
366.152	42978.08
366.601	34767.28
367.05	28180.84
367.498	25582.13
367.947	26730.32
368.395	27782.91
368.844	24570.7
369.292	29690.37
369.74	20496.25
370.189	31417.81
370.637	36830.35
371.085	31794.7
371.533	38750.94
371.981	37371.22
372.429	35582.49
372.877	37048.82
373.325	31010.62
373.773	31618.21
374.221	28148.82
374.669	34933.29
375.116	30189.28
375.564	30441.51
376.012	34067.82
376.459	28056.68
376.907	33510.14
377.354	40570.11
377.801	37772.73
378.249	43387.55
378.696	55470.18
379.143	67140.67
379.591	71547.18
380.038	120825.05
380.485	87163.06
380.932	93986.61
381.379	85819.98
381.826	63052.23
382.273	44771.76
382.72	39156.88
383.166	38120.51
383.613	24687.29
384.06	22227.46
384.506	25698.3
384.953	18860.83
385.4	18997.22
385.846	16611.25
386.292	16209.99
386.739	15875.91
387.185	15691.86
387.631	15675.49
388.078	15157.04
388.524	16196.79
388.97	14934.31
389.416	12416.28
389.862	13179.05
390.308	12460.58
390.754	12627.53
391.2	13685.81
391.645	13990.28
392.091	13312.22
392.537	12838.97
392.983	12868.17
393.428	12591.95
393.874	13471.79
394.319	13466.94
394.765	12724.83
395.21	13060.46
395.655	12225.53
396.101	11403.3
396.546	10256.24
396.991	10344.71
397.436	9590.62
397.881	9245.01
398.326	8757.48
398.771	8256.25
399.216	7221.01
399.661	6497.61
400.106	6452.9
400.551	6586.58
400.995	5893.25
401.44	5819.92
401.885	5463.13
402.329	5506.61
402.774	5265.18
403.218	5065.51
403.663	4870.68
404.107	4989.42
404.551	5012.28
404.995	4588.68
405.44	4417.93
405.884	4484.52
406.328	4336.55
406.772	4310.29
407.216	3915.42
407.66	3777.64
408.104	3596.85
408.547	3364.52
408.991	3250.04
409.435	3121.72
409.879	3070.66
410.322	3021.83
410.766	2909.89
411.209	2756.5
411.653	2642.76
412.096	2583.66
412.54	2584.03
412.983	2561.07
413.426	2562.01
413.869	2559.7
414.312	2508.67
414.756	2413.68
415.199	2299.7
415.642	2230.31
416.085	2231.34
416.527	2214.26
416.97	2247.97
417.413	2128.94
417.856	2108.43
418.298	2086.76
418.741	2072.92
419.184	2067.94
419.626	2153.1
420.069	2150.46
420.511	2158.55
420.953	2110.86
421.396	2091.06
421.838	2037.29
422.28	2082.79
422.722	2087.67
423.164	2116.45
423.606	2075.58
424.048	2072.61
424.49	1969.52
424.932	1960.05
425.374	1935.63
425.816	1967.03
426.258	2003.77
426.699	2023.86
427.141	1991.5
427.582	2023.59
428.024	2013.81
428.465	2002.32
428.907	1948.29
429.348	1923.4
429.789	1920.99
430.231	1875.12
430.672	1898.03
431.113	1848.4
431.554	1815.79
431.995	1767.59
432.436	1698.66
432.877	1653.28
433.318	1620.41
433.759	1609.61
434.2	1607.41
434.64	1590.82
435.081	1592.45
435.522	1508.57
435.962	1452.18
436.403	1420.74
436.843	1440.57
437.284	1408.48
437.724	1372.98
438.164	1377.85
438.604	1346.71
439.045	1293.58
439.485	1234.59
439.925	1208.5
440.365	1176.35
440.805	1159.12
441.245	1141.72
441.685	1096.79
442.125	1087.36
442.564	1092.55
443.004	1064.15
443.444	1059.84
443.883	1058.81
444.323	1051.76
444.762	1052.07
445.202	1063.72
445.641	1078.75
446.081	1071.76
446.52	1076.58
446.959	1061.16
447.398	1030.72
447.837	1014.92
448.276	995.2
448.716	1001.4
449.154	1006.12
449.593	978.75
450.032	973.84
450.471	954.79
450.91	952.04
451.349	947.61
451.787	942.14
452.226	956.37
452.664	955.68
453.103	955.99
453.541	952.65
453.98	949.44
454.418	954.08
454.856	934.59
455.295	932.76
455.733	938.67
456.171	942.28
456.609	940.94
457.047	936.38
457.485	947.33
457.923	946.85
458.361	932.95
458.798	933.33
459.236	930.75
459.674	936.97
460.111	939.91
460.549	930.51
460.987	926.22
461.424	923.4
461.862	919.63
462.299	904.55
462.736	902.01
463.173	904.16
463.611	894.59
464.048	890.66
464.485	896.56
464.922	887.13
465.359	882.11
465.796	869.02
466.233	861.66
466.67	851.07
467.106	849.17
467.543	841.69
467.98	831.69
468.416	809.39
468.853	803.94
469.29	780.79
469.726	773.2
470.162	752.45
470.599	743.58
471.035	739.07
471.471	722.9
471.907	719.76
472.344	714.76
472.78	716.39
473.216	726.19
473.652	716.9
474.088	715.05
474.523	710.85
474.959	716.3
475.395	709.26
475.831	702.77
476.266	705.89
476.702	703.32
477.138	694.42
477.573	691.31
478.008	687.93
478.444	690.82
478.879	695.69
479.314	698.32
479.75	697.44
480.185	700.2
480.62	705.12
481.055	708.28
481.49	712.23
481.925	721.75
482.36	733.09
482.795	753.1
483.229	771.88
483.664	787.03
484.099	788.51
484.534	799.23
484.968	805.46
485.403	807.79
485.837	805.23
486.271	800.76
486.706	800.57
487.14	790.15
487.574	775.04
488.009	765.96
488.443	758.07
488.877	763.74
489.311	763.97
489.745	770.7
490.179	774.48
490.613	785.1
491.046	790.12
491.48	792.56
491.914	790.02
492.348	793.06
492.781	795.05
493.215	792.8
493.648	791.42
494.082	794.45
494.515	791.28
494.948	796.49
495.382	798.74
495.815	799.81
496.248	803.06
496.681	813.02
497.114	820.37
497.547	826.18
497.98	836.92
498.413	838.44
498.846	843.98
499.279	849.2
499.711	849.17
500.144	846.84
500.577	853.03
501.009	858.89
501.442	864.49
501.874	861.74
502.306	859.27
502.739	861.18
503.171	871.54
503.603	869.69
504.036	873.6
504.468	874.89
504.9	880.39
505.332	882.24
505.764	880.91
506.196	882.18
506.627	891.55
507.059	899.57
507.491	903.66
507.923	897.51
508.354	907.29
508.786	912.69
509.217	924.56
509.649	934.73
510.08	948.29
510.512	960.35
510.943	971.41
511.374	978.66
511.805	994.33
512.237	1008.4
512.668	1034.51
513.099	1056.13
513.53	1078.51
513.961	1094.71
514.391	1121.81
514.822	1149.96
515.253	1180.37
515.684	1201.68
516.114	1227.39
516.545	1246.07
516.975	1270.12
517.406	1286.12
517.836	1289.69
518.267	1296.39
518.697	1314.45
519.127	1319.66
519.558	1327.91
519.988	1333.18
520.418	1344.29
520.848	1361.14
521.278	1371.65
521.708	1398.19
522.138	1412.78
522.567	1443.07
522.997	1469.37
523.427	1485.78
523.857	1503.96
524.286	1515.64
524.716	1532.31
525.145	1552.99
525.575	1566.55
526.004	1582.2
526.433	1570.82
526.863	1573.47
527.292	1567.55
527.721	1575.4
528.15	1583.46
528.579	1587.36
529.008	1601.02
529.437	1625.91
529.866	1641.6
530.295	1659.54
530.724	1674.37
531.152	1702.81
531.581	1718.7
532.01	1737.46
532.438	1748.17
532.867	1764.61
533.295	1784.28
533.723	1791.57
534.152	1791.19
534.58	1792.93
535.008	1779.9
535.436	1783.73
535.865	1792.59
536.293	1808.38
536.721	1824.85
537.149	1850.93
537.576	1854.63
538.004	1868.18
538.432	1875.83
538.86	1874.07
539.287	1880.96
539.715	1896.24
540.143	1899.66
540.57	1896.77
540.998	1894.58
541.425	1873.23
541.852	1853.43
542.28	1852.22
542.707	1837.64
543.134	1825.76
543.561	1823.86
543.988	1818.07
544.415	1818.39
544.842	1813.56
545.269	1807.16
545.696	1809.12
546.123	1822.19
546.549	1811.91
546.976	1800.18
547.403	1799.26
547.829	1803.39
548.256	1806.45
548.682	1803.71
549.108	1797.82
549.535	1798.61
549.961	1802.03
550.387	1789.83
550.813	1786.28
551.24	1793.44
551.666	1796.45
552.092	1788.89
552.518	1781.65
552.943	1776.15
553.369	1783.28
553.795	1788.65
554.221	1789.51
554.646	1786.01
555.072	1796.1
555.498	1800.22
555.923	1808.44
556.349	1821.94
556.774	1829.9
557.199	1830.26
557.625	1834.33
558.05	1828.42
558.475	1836.26
558.9	1834.1
559.325	1825
559.75	1817.23
560.175	1809.45
560.6	1800.84
561.025	1796.65
561.449	1795.1
561.874	1798.54
562.299	1801.3
562.723	1805.79
563.148	1794.4
563.572	1795.87
563.997	1802.77
564.421	1805.76
564.846	1803.12
565.27	1804.39
565.694	1800.53
566.118	1807.67
566.542	1812.24
566.966	1801.84
567.39	1793.56
567.814	1779.51
568.238	1775.34
568.662	1776.58
569.086	1775.78
569.509	1779.82
569.933	1762.23
570.357	1750.73
570.78	1728.4
571.204	1713.61
571.627	1701.47
572.05	1696.44
572.474	1692.91
572.897	1678.16
573.32	1669.77
573.743	1658.01
574.166	1638.87
574.589	1636.78
575.012	1628.63
575.435	1625.72
575.858	1614.54
576.281	1602.56
576.704	1587.15
577.126	1575.96
577.549	1565.57
577.972	1554.36
578.394	1544.26
578.817	1537.5
579.239	1520.06
579.661	1506.61
580.084	1491.67
580.506	1479.4
580.928	1474.77
581.35	1464.04
581.772	1458.48
582.194	1444.5
582.616	1432.99
583.038	1418.78
583.46	1406.62
583.882	1403.45
584.303	1406.91
584.725	1401.69
585.147	1402.71
585.568	1412.03
585.99	1422.79
586.411	1428.11
586.833	1443.01
587.254	1442.97
587.675	1455.71
588.096	1467.91
588.518	1461.74
588.939	1445.71
589.36	1444.5
589.781	1434.27
590.202	1408.04
590.623	1400.41
591.043	1397.86
591.464	1384.37
591.885	1380.94
592.305	1376.1
592.726	1363.34
593.147	1365.12
593.567	1359.98
593.987	1352.95
594.408	1349.15
594.828	1348.05
595.248	1342.28
595.669	1325.7
596.089	1319.04
596.509	1312.7
596.929	1299.73
597.349	1300.2
597.769	1289.39
598.189	1282.77
598.608	1283.3
599.028	1284.82
599.448	1283.15
599.867	1270.88
600.287	1266.09
600.706	1261.39
601.126	1251.91
601.545	1249.52
601.965	1246.67
602.384	1241.45
602.803	1243.08
603.222	1237.52
603.641	1228.99
604.061	1225.22
604.48	1220.2
604.898	1226.74
605.317	1231.57
605.736	1231.94
606.155	1228.73
606.574	1220.84
606.992	1224.99
607.411	1220.6
607.829	1217.56
608.248	1214.56
608.666	1211.19
609.085	1211.02
609.503	1202.92
609.921	1195.67
610.339	1196.79
610.758	1196.37
611.176	1190.99
611.594	1182.59
612.012	1178.33
612.43	1176.69
612.847	1181.54
613.265	1182.27
613.683	1185.41
614.101	1186.65
614.518	1183.07
614.936	1174.9
615.353	1160.4
615.771	1157.27
616.188	1157.08
616.606	1154.61
617.023	1147.72
617.44	1135.88
617.857	1130.13
618.274	1122.68
618.691	1116.93
619.108	1108.4
619.525	1102.5
619.942	1109.59
620.359	1112.51
620.776	1108.17
621.192	1105.19
621.609	1102.18
622.026	1107.22
622.442	1112.78
622.859	1114.75
623.275	1107.91
623.691	1113.13
624.108	1123.87
624.524	1136.24
624.94	1136.46
625.356	1144.99
625.772	1156.76
626.188	1168.26
626.604	1169.78
627.02	1165.67
627.436	1164.87
627.852	1171.97
628.268	1183.13
628.683	1175.49
629.099	1168.38
629.514	1163.67
629.93	1167.68
630.345	1170.37
630.761	1167.29
631.176	1170.82
631.591	1167.46
632.007	1162.6
632.422	1161.15
632.837	1151.16
633.252	1149.86
633.667	1140.82
634.082	1133.89
634.497	1123.89
634.911	1109.02
635.326	1106.15
635.741	1092.02
636.155	1082.88
636.57	1084.5
636.984	1084.25
637.399	1087.29
637.813	1087.11
638.228	1086.99
638.642	1091.25
639.056	1082.45
639.47	1082.37
639.884	1075.88
640.298	1072.77
640.712	1073.4
641.126	1063.72
641.54	1058.12
641.954	1054.69
642.368	1045.03
642.781	1040.97
643.195	1027.37
643.609	1029.85
644.022	1026.49
644.436	1024.97
644.849	1015.28
645.262	1005.83
645.676	1009.22
646.089	1006.75
646.502	994.81
646.915	992.99
647.328	977.34
647.741	976.5
648.154	966.46
648.567	964.98
648.98	954.77
649.393	955.31
649.805	954.19
650.218	948.21
650.631	933.65
651.043	929.23
651.456	923.84
651.868	926.73
652.28	944.01
652.693	957.71
653.105	965.58
653.517	974.41
653.929	976.15
654.341	981.91
654.753	972.5
655.165	981.03
655.577	980.25
655.989	978.7
656.401	972.64
656.813	941.88
657.224	924.14
657.636	899.71
658.047	886.82
658.459	872.32
658.87	866.87
659.282	858.74
659.693	841.49
660.104	830.41
660.515	821.31
660.926	824.21
661.338	824.44
661.749	822.61
662.159	816.47
662.57	815.59
662.981	814.67
663.392	812.13
663.803	820.31
664.213	823.48
664.624	823.97
665.035	830.71
665.445	819.28
665.855	817.05
666.266	812.57
666.676	814.53
667.086	808.89
667.497	811.24
667.907	807.04
668.317	801.59
668.727	800.34
669.137	802.36
669.547	801.69
669.956	806.06
670.366	808.63
670.776	811.92
671.186	817.37
671.595	821.87
672.005	826.69
672.414	826.84
672.824	824.49
673.233	829.45
673.642	833.78
674.052	837.21
674.461	840.56
674.87	845.1
675.279	843.69
675.688	845.91
676.097	847.57
676.506	844.09
676.915	859.02
677.323	862.52
677.732	860.43
678.141	858.06
678.549	845.07
678.958	842.91
679.366	840.51
679.775	842.61
680.183	851.08
680.592	854.37
681	858.18
681.408	848.49
681.816	853.15
682.224	858.24
682.632	865.79
683.04	894.19
683.448	915.51
683.856	942.18
684.264	973.6
684.671	999.41
685.079	1032.72
685.487	1067.62
685.894	1119.59
686.302	1158.09
686.709	1187.48
687.116	1222.35
687.524	1247.26
687.931	1267.07
688.338	1282.59
688.745	1291.85
689.152	1306.66
689.559	1331.32
689.966	1358.07
690.373	1365.78
690.78	1392.37
691.187	1438.48
691.593	1472.08
692	1501.58
692.407	1550.14
692.813	1612.84
693.22	1663.17
693.626	1718.89
694.032	1764.11
694.439	1832.05
