Data from C_3_DEC_CT_2N_Splice17_13-00-51-916.txt Node
Date: Sat Mar 14 13:00:51 EDT 2020
User: sa697716
Spectrometer: FLMS03696
Trigger mode: 0
Integration Time (sec): 3.180400E-1
Scans to average: 20
Electric dark correction enabled: true
Nonlinearity correction enabled: true
Boxcar width: 5
XAxis mode: Wavelengths
Number of Pixels in Spectrum: 2048
>>>>>Begin Spectral Data<<<<<
187.83	-288376.61
188.298	2120.92
188.766	1160.27
189.233	1075.88
189.701	1498.97
190.169	2077.71
190.636	753.98
191.104	552.92
191.571	4.97
192.039	-99.53
192.506	-146.98
192.974	321.1
193.441	-641.85
193.908	-240.64
194.375	-44.11
194.842	31.18
195.31	139.8
195.777	171.89
196.244	408.7
196.711	528.13
197.177	701.11
197.644	996.04
198.111	1725.82
198.578	2482.61
199.045	2013.84
199.511	3331.76
199.978	3916.69
200.445	3313.46
200.911	3682.44
201.378	4099.85
201.844	3728.2
202.31	6374
202.777	6702.16
203.243	3736.28
203.709	3562.56
204.176	4298.12
204.642	3535.59
205.108	3298.96
205.574	2708.74
206.04	2488.88
206.506	2353.99
206.972	2212.33
207.438	2148.06
207.903	2469.96
208.369	2169.8
208.835	2155.1
209.301	2253.04
209.766	2332.56
210.232	2305.58
210.697	2864.13
211.163	3561.33
211.628	5428.81
212.094	4602.34
212.559	5640.06
213.024	3505.32
213.49	4291.83
213.955	4249.37
214.42	4178.46
214.885	3889.7
215.35	3752.13
215.815	3596.04
216.28	3824.92
216.745	3154.08
217.21	3451.08
217.675	3264.23
218.14	3733.19
218.604	4298.9
219.069	5009.98
219.534	5351
219.998	6370.28
220.463	7896.18
220.927	9969.4
221.392	9530.31
221.856	9750.69
222.32	12442.8
222.785	15458.19
223.249	19648.79
223.713	22031.12
224.177	22147.73
224.642	28603.14
225.106	35315.84
225.57	38680.86
226.034	28784.06
226.497	43947.96
226.961	39743.32
227.425	46356.58
227.889	51578.97
228.353	51634.72
228.816	106818.55
229.28	102135.74
229.744	86231.5
230.207	52394.75
230.671	51622.21
231.134	85628.97
231.597	98728.02
232.061	98889.14
232.524	96602.13
232.987	66542.41
233.45	59863.57
233.914	53741.15
234.377	55225.8
234.84	50585.98
235.303	59810.47
235.766	66767.93
236.229	68966.16
236.691	43472.91
237.154	48862.25
237.617	36742.3
238.08	37666.59
238.542	44151.09
239.005	31558.77
239.468	31279.1
239.93	29463.1
240.393	26741.21
240.855	23460.98
241.317	24048.68
241.78	29282.06
242.242	30244.79
242.704	32599.42
243.166	28367.12
243.629	25724
244.091	29643.1
244.553	32504.44
245.015	34954.89
245.477	45289.39
245.939	66484.71
246.4	70600.88
246.862	68643.46
247.324	64821.35
247.786	72722.94
248.247	95508.61
248.709	98826.63
249.17	73987.19
249.632	69729.24
250.093	80877.07
250.555	69856.56
251.016	42595.83
251.477	40423.6
251.939	43663.72
252.4	45847.65
252.861	54544.03
253.322	50774.97
253.783	60566.37
254.244	78670.87
254.705	62146.72
255.166	55354.22
255.627	54544.98
256.088	77014.36
256.549	81887.68
257.009	70573.32
257.47	85728.58
257.931	69917.37
258.391	52387.55
258.852	53995.94
259.312	56641.69
259.773	70076.24
260.233	59218.62
260.694	50052.87
261.154	56898.22
261.614	45661.07
262.074	40932.85
262.534	42566.37
262.994	40166.05
263.455	53654.97
263.915	45233.81
264.374	42651.39
264.834	46611.68
265.294	51787.61
265.754	53693.34
266.214	50867.82
266.673	47739.81
267.133	60327.39
267.593	59969.77
268.052	73512.94
268.512	63970.24
268.971	77206.32
269.431	84742.52
269.89	75971.77
270.349	113952.95
270.809	127116.51
271.268	114363.23
271.727	256971.08
272.186	166435.44
272.645	124858.03
273.104	90175.95
273.563	130732.61
274.022	102948.9
274.481	87659.97
274.94	67543.2
275.399	50258.2
275.857	58561.09
276.316	79291.18
276.775	70606.75
277.233	69578.66
277.692	65138.15
278.15	73649.34
278.609	75694.44
279.067	70093.55
279.525	65059.89
279.984	84119.62
280.442	101078.14
280.9	99619.18
281.358	65514.73
281.816	61023.93
282.274	59742.13
282.732	61754.01
283.19	62094.93
283.648	53614.83
284.106	57106.1
284.564	58145.6
285.021	53901.63
285.479	40155.53
285.937	36558.84
286.394	32061.54
286.852	33013.97
287.309	34713.19
287.767	33531.28
288.224	31833.89
288.682	34947.29
289.139	38353.41
289.596	35070.92
290.053	36481.4
290.511	46098.34
290.968	55906.38
291.425	76021.04
291.882	63262.39
292.339	55057.13
292.796	54672.12
293.252	51625.63
293.709	40984.44
294.166	36749.33
294.623	40640.45
295.079	38985.3
295.536	39168.83
295.992	35553.06
296.449	35140.09
296.905	36501.21
297.362	35001.45
297.818	36808.41
298.274	38129.94
298.731	38898.02
299.187	38503.02
299.643	41335.88
300.099	49991.49
300.555	54781.8
301.011	45819.45
301.467	44073.63
301.923	51640.07
302.379	50411.33
302.835	49521.82
303.291	49630.83
303.746	56430.45
304.202	71294.2
304.658	71591.74
305.113	48119.96
305.569	47152.54
306.024	50237.37
306.479	47900.15
306.935	40327.7
307.39	44050.23
307.845	40647.49
308.301	40856.45
308.756	39812.68
309.211	38307.57
309.666	39212.9
310.121	48612.81
310.576	49339.78
311.031	48936.41
311.486	56065.26
311.94	56015.46
312.395	74906.73
312.85	140741.54
313.305	692226.97
313.759	3578783.7
314.214	259472.49
314.668	205788.37
315.123	173012.39
315.577	62007.91
316.032	55126.12
316.486	69059.39
316.94	54455.73
317.394	37879.32
317.849	29443.67
318.303	27879.14
318.757	26315.07
319.211	29069.1
319.665	25451.43
320.119	25782.01
320.572	36999.94
321.026	34531.48
321.48	28747.2
321.934	31399.24
322.387	31512.69
322.841	34046.65
323.295	30561.35
323.748	35262.85
324.202	35760.74
324.655	42913.32
325.108	59897.5
325.562	42287.58
326.015	50311.8
326.468	37993.27
326.921	42452.74
327.374	39508.58
327.827	41091.88
328.28	46501.57
328.733	31120.23
329.186	27363.23
329.639	26055
330.092	21949.77
330.545	20895.02
330.997	21048.01
331.45	22975.25
331.903	26876.07
332.355	46281.3
332.808	44935.08
333.26	37058.87
333.713	40172.73
334.165	40473.46
334.617	54098.6
335.069	43785.44
335.522	79125.42
335.974	87635.63
336.426	80102.09
336.878	55517.86
337.33	28108.95
337.782	27459.7
338.234	34344.04
338.686	41111.19
339.137	48629.31
339.589	45746.27
340.041	35793.83
340.493	30768.27
340.944	31462.66
341.396	33860.43
341.847	28456.65
342.299	33554.85
342.75	40893.21
343.201	35807.97
343.653	41171.81
344.104	50739.54
344.555	39980.38
345.006	62366.25
345.457	47663.65
345.908	37927.65
346.359	35670.46
346.81	29081.91
347.261	30683.39
347.712	30277.39
348.163	32427.74
348.613	32769.78
349.064	30556.79
349.515	26731.1
349.965	27377.57
350.416	32996.17
350.866	36162.89
351.317	40882.36
351.767	67634.12
352.217	85386.46
352.668	70806.72
353.118	64850.25
353.568	62638.01
354.018	49455.42
354.468	52093.32
354.918	37330.81
355.368	32638.82
355.818	46121.4
356.268	132908.33
356.718	555330.03
357.168	138075.07
357.617	69286.85
358.067	77112.56
358.517	72217.47
358.966	84597.42
359.416	94764.55
359.865	102539.67
360.315	122204.63
360.764	57085.88
361.213	31928.18
361.663	30325.15
362.112	37482.2
362.561	60528.83
363.01	45624.96
363.459	38404.06
363.908	41605.76
364.357	35310.6
364.806	59626.31
365.255	40956.19
365.703	37416.79
366.152	37440.87
366.601	30317.88
367.05	24568.98
367.498	22293.74
367.947	23296.74
368.395	24211.73
368.844	21402.47
369.292	25836.02
369.74	17836.02
370.189	27331.54
370.637	32055.51
371.085	27659.45
371.533	33679.43
371.981	32440.01
372.429	30873.44
372.877	32142.14
373.325	26909.74
373.773	27450.3
374.221	24416.01
374.669	30275.85
375.116	26184.08
375.564	26353.31
376.012	29472.87
376.459	24275.67
376.907	29007.37
377.354	35131.55
377.801	32699.79
378.249	37503.56
378.696	47919.56
379.143	58016.23
379.591	61740.84
380.038	104316.86
380.485	75446.73
380.932	81462.31
381.379	74357.56
381.826	54603.6
382.273	38732.2
382.72	33866.99
383.166	32979.43
383.613	21352.42
384.06	19235.91
384.506	22261.63
384.953	16326.85
385.4	16421.16
385.846	14370.51
386.292	14009.52
386.739	13726.85
387.185	13568.41
387.631	13569.83
388.078	13138.15
388.524	14024.79
388.97	12923.9
389.416	10737.3
389.862	11383.33
390.308	10754.24
390.754	10875.99
391.2	11789.64
391.645	12052.04
392.091	11483.47
392.537	11055.82
392.983	11076.27
393.428	10865.68
393.874	11643.3
394.319	11660
394.765	11016.43
395.21	11327.84
395.655	10610.53
396.101	9904.37
396.546	8907.13
396.991	8982.4
397.436	8330.54
397.881	8038.59
398.326	7611.63
398.771	7165.65
399.216	6257.3
399.661	5639.71
400.106	5600.08
400.551	5725.78
400.995	5134.96
401.44	5080.81
401.885	4774.47
402.329	4821.22
402.774	4611.89
403.218	4445.36
403.663	4283.99
404.107	4403.7
404.551	4425.59
404.995	4056.7
405.44	3905.26
405.884	3959.44
406.328	3829.94
406.772	3810.2
407.216	3464.38
407.66	3344.67
408.104	3185.64
408.547	2983.01
408.991	2884.52
409.435	2778.07
409.879	2737.53
410.322	2699.59
410.766	2603.73
411.209	2470.98
411.653	2370.51
412.096	2320.6
412.54	2319.3
412.983	2300.33
413.426	2302.34
413.869	2299.14
414.312	2252.55
414.756	2166.63
415.199	2063.81
415.642	2001.56
416.085	2001.01
416.527	1987.98
416.97	2018.95
417.413	1914.54
417.856	1896.91
418.298	1875.93
418.741	1862.48
419.184	1858.25
419.626	1935.98
420.069	1936.68
420.511	1947.3
420.953	1904.23
421.396	1884.79
421.838	1835.35
422.28	1877.8
422.722	1882
423.164	1912.19
423.606	1881.81
424.048	1877.5
424.49	1785.74
424.932	1777.6
425.374	1751.12
425.816	1786.32
426.258	1819.89
426.699	1841.85
427.141	1813.02
427.582	1843.59
428.024	1833.25
428.465	1818.69
428.907	1773.07
429.348	1751.57
429.789	1748.59
430.231	1711.65
430.672	1732.57
431.113	1691.31
431.554	1662.4
431.995	1619.55
432.436	1554.9
432.877	1516.65
433.318	1489.28
433.759	1481.97
434.2	1482.26
434.64	1466.75
435.081	1470.64
435.522	1390.34
435.962	1338.33
436.403	1309.23
436.843	1328.22
437.284	1302.19
437.724	1266.6
438.164	1270.17
438.604	1240.96
439.045	1191.1
439.485	1139.95
439.925	1113.44
440.365	1084.02
440.805	1069.83
441.245	1052.25
441.685	1010.7
442.125	1001.82
442.564	1007.62
443.004	981.83
443.444	978.26
443.883	977.13
444.323	969.7
444.762	971.85
445.202	983.4
445.641	998.63
446.081	994.49
446.52	1002.31
446.959	989.66
447.398	961.83
447.837	949.31
448.276	930.22
448.716	936.5
449.154	941.58
449.593	917.52
450.032	912.81
450.471	893.24
450.91	890.37
451.349	883.86
451.787	879.02
452.226	891.92
452.664	889.54
453.103	888.44
453.541	885.05
453.98	882.51
454.418	886.81
454.856	870.63
455.295	867.45
455.733	873.12
456.171	878.22
456.609	875.95
457.047	873.85
457.485	885.02
457.923	887.46
458.361	875.21
458.798	875.82
459.236	871.85
459.674	877.45
460.111	880.24
460.549	870.56
460.987	867.01
461.424	864.11
461.862	859.76
462.299	846.92
462.736	843.81
463.173	845.01
463.611	835.02
464.048	832.3
464.485	838.71
464.922	831.58
465.359	828.17
465.796	815.06
466.233	810.23
466.67	801.25
467.106	798.62
467.543	791.72
467.98	782.62
468.416	763.37
468.853	757.49
469.29	735.24
469.726	726.14
470.162	705.71
470.599	698.11
471.035	691.22
471.471	674.64
471.907	669.89
472.344	664.41
472.78	665.76
473.216	673.41
473.652	665.79
474.088	663.09
474.523	660.92
474.959	667.52
475.395	661.18
475.831	656.64
476.266	659.98
476.702	658.37
477.138	651.29
477.573	647.88
478.008	644.73
478.444	646.31
478.879	651.8
479.314	654.16
479.75	652.51
480.185	654.36
480.62	659.55
481.055	661.75
481.49	665.06
481.925	674.12
482.36	685.9
482.795	704.52
483.229	721.69
483.664	735.84
484.099	737.07
484.534	746.49
484.968	752.57
485.403	753.87
485.837	752
486.271	749.71
486.706	748.57
487.14	737.72
487.574	723.86
488.009	716.43
488.443	707.87
488.877	713.06
489.311	714.1
489.745	719.42
490.179	722.99
490.613	733.82
491.046	737.45
491.48	739.58
491.914	737.59
492.348	740.22
492.781	741.72
493.215	740.82
493.648	739.31
494.082	740.36
494.515	738.26
494.948	743.08
495.382	744.1
495.815	744.67
496.248	746.51
496.681	755.98
497.114	762.97
497.547	768.32
497.98	776.96
498.413	778.44
498.846	784.97
499.279	789.04
499.711	788.46
500.144	787.11
500.577	793.11
501.009	799.27
501.442	804.23
501.874	801.14
502.306	798.96
502.739	801.84
503.171	811.39
503.603	809.36
504.036	813.2
504.468	813.42
504.9	819.11
505.332	820.45
505.764	820.88
506.196	822.33
506.627	831.71
507.059	839.95
507.491	843.12
507.923	837.59
508.354	847.35
508.786	853.08
509.217	865.57
509.649	874.9
510.08	889.16
510.512	900.59
510.943	911.75
511.374	919.26
511.805	934.06
512.237	948.11
512.668	973.65
513.099	995.63
513.53	1017.27
513.961	1033.82
514.391	1059.38
514.822	1086.27
515.253	1116.18
515.684	1136.57
516.114	1161.75
516.545	1179.73
516.975	1202.47
517.406	1218.7
517.836	1222.01
518.267	1229.94
518.697	1247.6
519.127	1252.8
519.558	1260.87
519.988	1265.68
520.418	1277.03
520.848	1294.29
521.278	1304.83
521.708	1334.2
522.138	1348.08
522.567	1377.18
522.997	1403.1
523.427	1419.39
523.857	1438.6
524.286	1450.49
524.716	1467.28
525.145	1488.25
525.575	1501.61
526.004	1518.01
526.433	1506.71
526.863	1511.14
527.292	1506.8
527.721	1513.99
528.15	1522.53
528.579	1526.79
529.008	1540.25
529.437	1564.71
529.866	1579.85
530.295	1598.18
530.724	1613.02
531.152	1639.24
531.581	1653.93
532.01	1672.67
532.438	1684.22
532.867	1700.07
533.295	1719.6
533.723	1727.14
534.152	1726.39
534.58	1728.47
535.008	1715.7
535.436	1718.59
535.865	1728.6
536.293	1744.79
536.721	1760.38
537.149	1784.57
537.576	1789.02
538.004	1800.74
538.432	1809.81
538.86	1808.64
539.287	1816.01
539.715	1829.42
540.143	1833.62
540.57	1830.1
540.998	1825.75
541.425	1805.63
541.852	1786.44
542.28	1784.95
542.707	1770.94
543.134	1758.74
543.561	1756.5
543.988	1750.57
544.415	1751.85
544.842	1747.15
545.269	1741.64
545.696	1746.01
546.123	1758.58
546.549	1749.66
546.976	1739.33
547.403	1740.43
547.829	1743.38
548.256	1746.15
548.682	1743.56
549.108	1737.31
549.535	1737.48
549.961	1739.86
550.387	1728.12
550.813	1723.44
551.24	1731.18
551.666	1732.02
552.092	1722.9
552.518	1716.61
552.943	1711.51
553.369	1719.06
553.795	1723.77
554.221	1725.23
554.646	1722.44
555.072	1731.69
555.498	1736.31
555.923	1744.42
556.349	1757.88
556.774	1765.89
557.199	1766.54
557.625	1771.07
558.05	1763.21
558.475	1771.46
558.9	1767.95
559.325	1758.6
559.75	1750.88
560.175	1741.6
560.6	1732.48
561.025	1729.39
561.449	1727.85
561.874	1730.13
562.299	1731.99
562.723	1737.07
563.148	1725.61
563.572	1727
563.997	1733.16
564.421	1735.15
564.846	1733.98
565.27	1733.19
565.694	1727.55
566.118	1734.7
566.542	1739.11
566.966	1729.57
567.39	1721.2
567.814	1707.91
568.238	1704.04
568.662	1705.28
569.086	1704.21
569.509	1706.46
569.933	1689.17
570.357	1678.87
570.78	1656.52
571.204	1641.67
571.627	1628.63
572.05	1624.08
572.474	1620.84
572.897	1606.85
573.32	1596.72
573.743	1584.9
574.166	1566.88
574.589	1565.8
575.012	1556.53
575.435	1553.62
575.858	1542.93
576.281	1531.67
576.704	1515.88
577.126	1502.96
577.549	1491.36
577.972	1482.28
578.394	1471.62
578.817	1463.92
579.239	1446.29
579.661	1431.94
580.084	1416.47
580.506	1403.01
580.928	1397.81
581.35	1386.84
581.772	1381.49
582.194	1369.13
582.616	1356.84
583.038	1343.66
583.46	1333.53
583.882	1328.91
584.303	1332.92
584.725	1328.25
585.147	1331.47
585.568	1340.54
585.99	1351.36
586.411	1357.44
586.833	1370.34
587.254	1370.93
587.675	1382.56
588.096	1394.5
588.518	1389.89
588.939	1375.54
589.36	1373.21
589.781	1362.21
590.202	1337.55
590.623	1328.99
591.043	1325.77
591.464	1314.04
591.885	1310.94
592.305	1305.72
592.726	1292
593.147	1292.62
593.567	1287
593.987	1281.04
594.408	1275.65
594.828	1272.69
595.248	1267.95
595.669	1252.38
596.089	1244.96
596.509	1238.39
596.929	1225.71
597.349	1226.73
597.769	1217.82
598.189	1212.35
598.608	1212.17
599.028	1213.12
599.448	1212.26
599.867	1199.66
600.287	1193.89
600.706	1190.06
601.126	1180.74
601.545	1179.28
601.965	1175.68
602.384	1170.36
602.803	1171.89
603.222	1167.37
603.641	1161.3
604.061	1157.53
604.48	1153.54
604.898	1160.63
605.317	1163.85
605.736	1164.53
606.155	1161.68
606.574	1153.4
606.992	1156.75
607.411	1151.46
607.829	1148.97
608.248	1144.88
608.666	1142.54
609.085	1141.41
609.503	1132.95
609.921	1127.76
610.339	1129.29
610.758	1127.29
611.176	1124.2
611.594	1115.98
612.012	1112.66
612.43	1109.2
612.847	1114.27
613.265	1114.36
613.683	1118.25
614.101	1119.83
614.518	1115.19
614.936	1106.71
615.353	1095.45
615.771	1092.07
616.188	1092.83
616.606	1089.75
617.023	1084.34
617.44	1072.19
617.857	1066.14
618.274	1058.41
618.691	1053.15
619.108	1045.8
619.525	1040.22
619.942	1045.33
620.359	1047.81
620.776	1042.85
621.192	1039.64
621.609	1037.35
622.026	1042.73
622.442	1048.2
622.859	1051.23
623.275	1044.53
623.691	1049.16
624.108	1059.7
624.524	1071.27
624.94	1071.68
625.356	1080.38
625.772	1090.96
626.188	1100.89
626.604	1104.1
627.02	1099.99
627.436	1097.47
627.852	1105.05
628.268	1114.94
628.683	1106.82
629.099	1100.25
629.514	1096.35
629.93	1099.74
630.345	1104.46
630.761	1101.55
631.176	1103.92
631.591	1099.65
632.007	1095.79
632.422	1092.32
632.837	1083.56
633.252	1082.99
633.667	1074.9
634.082	1067.42
634.497	1056.64
634.911	1040.67
635.326	1037.18
635.741	1023.1
636.155	1015.84
636.57	1017.34
636.984	1018.49
637.399	1020.99
637.813	1020.26
638.228	1019.22
638.642	1022.3
639.056	1014.41
639.47	1015.3
639.884	1009.27
640.298	1004.69
640.712	1004.91
641.126	994.65
641.54	988.78
641.954	985.03
642.368	975.99
642.781	970.98
643.195	959.32
643.609	962.29
644.022	958.7
644.436	958.26
644.849	949.89
645.262	941.12
645.676	945.37
646.089	942.92
646.502	932.64
646.915	930
647.328	918.15
647.741	917.97
648.154	908.81
648.567	909.62
648.98	899.95
649.393	902.53
649.805	901.32
650.218	895.96
650.631	883.6
651.043	878.95
651.456	875.52
651.868	876.18
652.28	891.51
652.693	905.12
653.105	910.73
653.517	919.66
653.929	920.62
654.341	926.95
654.753	917.53
655.165	924.99
655.577	925.52
655.989	922.82
656.401	918.26
656.813	888.8
657.224	872.36
657.636	849.19
658.047	836.39
658.459	821.22
658.87	816.08
659.282	809
659.693	792.95
660.104	782.78
660.515	773.55
660.926	776.52
661.338	777.87
661.749	775.85
662.159	771.6
662.57	771.66
662.981	771.59
663.392	768.42
663.803	775.81
664.213	778.59
664.624	777.68
665.035	784.69
665.445	775.29
665.855	773
666.266	769.16
666.676	770.75
667.086	763.84
667.497	766.63
667.907	764.23
668.317	758.64
668.727	758.68
669.137	762.43
669.547	762.03
669.956	766.61
670.366	769.36
670.776	772
671.186	777.93
671.595	784.67
672.005	789.79
672.414	790.68
672.824	791.36
673.233	795.13
673.642	798.42
674.052	802.71
674.461	805.86
674.87	810.55
675.279	809.41
675.688	809.76
676.097	810.11
676.506	805.04
676.915	818.42
677.323	819.68
677.732	818.97
678.141	817.86
678.549	807.33
678.958	805.88
679.366	805.75
679.775	808.32
680.183	818.91
680.592	823.23
681	828.85
681.408	819.41
681.816	824.53
682.224	828.69
682.632	834.62
683.04	859.2
683.448	877.21
683.856	900.98
684.264	929.77
684.671	952.63
685.079	982.65
685.487	1015.25
685.894	1064.32
686.302	1100.02
686.709	1126.48
687.116	1158.22
687.524	1181.55
687.931	1199.9
688.338	1212.06
688.745	1220.99
689.152	1233.99
689.559	1257.5
689.966	1282.54
690.373	1287.91
690.78	1312.36
691.187	1358.23
691.593	1390.18
692	1418.35
692.407	1466.21
692.813	1528
693.22	1577.54
693.626	1629.25
694.032	1673.02
694.439	1740.73
694.845	1796.35
695.251	1868.87
695.657	1932.38
696.063	2029.7
696.469	2107.19
696.875	2178.37
