Data from C_3_DEC_OH_4N_Splice17_13-33-55-131.txt Node
Date: Sat Mar 14 13:33:55 EDT 2020
User: sa697716
Spectrometer: FLMS03696
Trigger mode: 0
Integration Time (sec): 3.180400E-1
Scans to average: 20
Electric dark correction enabled: true
Nonlinearity correction enabled: true
Boxcar width: 5
XAxis mode: Wavelengths
Number of Pixels in Spectrum: 2048
>>>>>Begin Spectral Data<<<<<
187.83	-350044.75
188.298	2534.59
188.766	1361.92
189.233	1255.28
189.701	1732.91
190.169	2344.37
190.636	840.14
191.104	693.9
191.571	55.47
192.039	-155.42
192.506	-181.07
192.974	357.76
193.441	-711.96
193.908	-225.21
194.375	-54.76
194.842	-18.5
195.31	51.13
195.777	133.72
196.244	367.57
196.711	440.55
197.177	572.7
197.644	822.43
198.111	1451.31
198.578	2071.45
199.045	1676.13
199.511	2711.96
199.978	3164.72
200.445	2673.64
200.911	2962.75
201.378	3306.08
201.844	3004.42
202.31	5108.85
202.777	5288.26
203.243	2896.36
203.709	2775.2
204.176	3325.59
204.642	2762.45
205.108	2593.73
205.574	2141.26
206.04	1966.08
206.506	1865.3
206.972	1770.78
207.438	1742.58
207.903	2015.22
208.369	1801.43
208.835	1815.17
209.301	1921.66
209.766	2001.48
210.232	2018.57
210.697	2540.04
211.163	3207.29
211.628	4943.84
212.094	4237.53
212.559	5313.84
213.024	3377
213.49	4203.75
213.955	4158.29
214.42	4143.32
214.885	3938.03
215.35	3853.65
215.815	3782.25
216.28	4117.65
216.745	3481.27
217.21	3932.1
217.675	3848.21
218.14	4608.04
218.604	5516.49
219.069	6727.06
219.534	7449.74
219.998	9128.61
220.463	11585.16
220.927	14935.54
221.392	14490.4
221.856	15038.47
222.32	19454.78
222.785	24406.29
223.249	31180.92
223.713	35195.2
224.177	35519.08
224.642	46036.24
225.106	57083.06
225.57	62771.94
226.034	46796.2
226.497	71596.82
226.961	64825.89
227.425	75767.75
227.889	84448.73
228.353	84753.97
228.816	175695.63
229.28	168388.84
229.744	142344.92
230.207	86433.27
230.671	85117.12
231.134	141358.96
231.597	163013.77
232.061	163369.46
232.524	159498.72
232.987	109909.86
233.45	98892.43
233.914	88686.67
234.377	91049.06
234.84	83375.92
235.303	98541.18
235.766	110043.97
236.229	113711.54
236.691	71704.84
237.154	80568.21
237.617	60565.78
238.08	62028.56
238.542	72609.87
239.005	51845.83
239.468	51365.69
239.93	48317.27
240.393	43829.86
240.855	38420.51
241.317	39352.5
241.78	47918.68
242.242	49494.73
242.704	53346.03
243.166	46412.25
243.629	42084.53
244.091	48490.02
244.553	53150
245.015	57120.42
245.477	74000.72
245.939	108620.28
246.4	115256.51
246.862	111899.89
247.324	105514.72
247.786	118294.49
248.247	155272.14
248.709	160665.36
249.17	120286.07
249.632	113279.54
250.093	131391
250.555	113448.21
251.016	69127.19
251.477	65588.01
251.939	70844.33
252.4	74386.95
252.861	88495.37
253.322	82275
253.783	97994.82
254.244	127169.9
254.705	100359.22
255.166	89300.92
255.627	87969.11
256.088	124097.33
256.549	131896.24
257.009	113663.1
257.47	138134.82
257.931	112637.92
258.391	84509.82
258.852	87218.61
259.312	91608.43
259.773	113472.16
260.233	96015.54
260.694	81133.54
261.154	92283.87
261.614	74097.08
262.074	66420.49
262.534	69072.4
262.994	65190.55
263.455	87071.89
263.915	73475.39
264.374	69343.07
264.834	75842.46
265.294	84276.4
265.754	87412.93
266.214	82926.56
266.673	77903.26
267.133	98560.05
267.593	98005.38
268.052	120118.36
268.512	104640.27
268.971	126171.29
269.431	138493.46
269.89	124156.66
270.349	186300.65
270.809	207955.84
271.268	187018.42
271.727	419780.97
272.186	271878.31
272.645	204051.1
273.104	147391.42
273.563	213491.08
274.022	168214.09
274.481	143014.7
274.94	110180.04
275.399	81980.37
275.857	95516.96
276.316	129325.11
276.775	115208.15
277.233	113539.78
277.692	106213.06
278.15	120080.81
278.609	123436.45
279.067	114261.86
279.525	106195.85
279.984	137250.39
280.442	164759.16
280.9	162181.74
281.358	106644.23
281.816	99320.03
282.274	97229.02
282.732	100568.14
283.19	101095.7
283.648	87328.86
284.106	92995.29
284.564	94549.42
285.021	87571.06
285.479	65255.37
285.937	59467.08
286.394	52119.97
286.852	53651.56
287.309	56382.44
287.767	54402.08
288.224	51708.42
288.682	56786.88
289.139	62373.16
289.596	57143.16
290.053	59533.99
290.511	75312.43
290.968	91400.19
291.425	124462.23
291.882	103576.4
292.339	90287.31
292.796	89824.4
293.252	84868.33
293.709	67370.13
294.166	60431.6
294.623	66876.24
295.079	64213.49
295.536	64496.66
295.992	58598.4
296.449	57922.16
296.905	60236.57
297.362	57674.39
297.818	60693.33
298.274	62912.82
298.731	64216.74
299.187	63588.79
299.643	68290.28
300.099	82562.44
300.555	90598.77
301.011	75737.24
301.467	72812.16
301.923	85383.06
302.379	83472.8
302.835	81998.17
303.291	82126.41
303.746	93516.26
304.202	118134.46
304.658	118681.74
305.113	79855.62
305.569	78221.81
306.024	83438.84
306.479	79698.62
306.935	67100.27
307.39	73309.14
307.845	67647.24
308.301	68060.29
308.756	66321.39
309.211	63876.42
309.666	65400.99
310.121	81104.23
310.576	82426.14
311.031	81789.21
311.486	93753.49
311.94	93810.55
312.395	125458.56
312.85	235937.95
313.305	1160504.67
313.759	5990456.97
314.214	434021
314.668	343624.35
315.123	288627.55
315.577	103303.45
316.032	91757.04
316.486	114896.75
316.94	90473.36
317.394	62977.5
317.849	48941
318.303	46394.6
318.757	43839.7
319.211	48554.1
319.665	42587.3
320.119	43192.71
320.572	62095.95
321.026	58058.35
321.48	48346.76
321.934	52852.6
322.387	53011.55
322.841	57206.52
323.295	51243.98
323.748	59141.1
324.202	59899.7
324.655	71821.59
325.108	100052.43
325.562	70615.98
326.015	83969.89
326.468	63448.37
326.921	70952.85
327.374	66092.96
327.827	68823.78
328.28	78023.11
328.733	52206.19
329.186	45931.73
329.639	43791.24
330.092	37002.73
330.545	35219.89
330.997	35470.45
331.45	38711.91
331.903	45257.42
332.355	78039.57
332.808	75944.35
333.26	62667.82
333.713	67968.09
334.165	68458.08
334.617	91466.64
335.069	73969.37
335.522	133903.81
335.974	148305.25
336.426	135620.97
336.878	94105.48
337.33	47620.44
337.782	46462.46
338.234	58096.72
338.686	69599.91
339.137	82514.21
339.589	77719.45
340.041	60861.01
340.493	52313.07
340.944	53596.88
341.396	57694.05
341.847	48453.02
342.299	57184.45
342.75	69747.6
343.201	61128.26
343.653	70411.55
344.104	86742.09
344.555	68338.85
345.006	106792.63
345.457	81607.85
345.908	65003.57
346.359	61200.61
346.81	49966.03
347.261	52768.65
347.712	52094.02
348.163	55931.84
348.613	56492.51
349.064	52740.83
349.515	46213.69
349.965	47330.28
350.416	57131.62
350.866	62732.25
351.317	71091.74
351.767	117759.84
352.217	148676.91
352.668	123313.88
353.118	112929.74
353.568	109227.37
354.018	86229.09
354.468	90808.49
354.918	65110.27
355.368	56989.86
355.818	80499.82
356.268	231628.95
356.718	968221.95
357.168	240926.74
357.617	121085.12
358.067	134822.32
358.517	126288.07
358.966	148131.76
359.416	166143.78
359.865	179767.95
360.315	214354.49
360.764	100043.04
361.213	56031.27
361.663	53236.68
362.112	65830.04
362.561	106350.91
363.01	80218.03
363.459	67553.56
363.908	73220.96
364.357	62091.62
364.806	105028.53
365.255	72243.29
365.703	66134.3
366.152	66182.37
366.601	53576.09
367.05	43396.01
367.498	39399.64
367.947	41155.31
368.395	42813.96
368.844	37852.99
369.292	45806.2
369.74	31575.31
370.189	48353.83
370.637	56691
371.085	48904.64
371.533	59604.52
371.981	57573.83
372.429	54807.83
372.877	57104.52
373.325	47771.45
373.773	48740.31
374.221	43408.8
374.669	53863.21
375.116	46560.62
375.564	46929.5
376.012	52525.6
376.459	43231.08
376.907	51619.06
377.354	62469.88
377.801	58097.48
378.249	66648.73
378.696	85067.98
379.143	102764.47
379.591	109568.26
380.038	184927.96
380.485	133417.96
380.932	143800.94
381.379	131126.31
381.826	96203.33
382.273	68259.95
382.72	59712.75
383.166	58084.92
383.613	37582.11
384.06	33812.67
384.506	39009.5
384.953	28624.95
385.4	28787.11
385.846	25163.11
386.292	24521.89
386.739	23986.2
387.185	23684.95
387.631	23626.72
388.078	22833.48
388.524	24381.35
388.97	22468.36
389.416	18685.88
389.862	19799.1
390.308	18688.72
390.754	18901.25
391.2	20461.04
391.645	20898.94
392.091	19853.52
392.537	19104.9
392.983	19114.39
393.428	18674.77
393.874	19967.17
394.319	19933.57
394.765	18790.4
395.21	19296.42
395.655	18057.6
396.101	16861.08
396.546	15136.14
396.991	15274.31
397.436	14158.33
397.881	13645.5
398.326	12927.73
398.771	12179.81
399.216	10640.29
399.661	9571.81
400.106	9487.01
400.551	9680.54
400.995	8660.52
401.44	8565.68
401.885	8029.48
402.329	8094.36
402.774	7741.38
403.218	7458.87
403.663	7173.16
404.107	7353.82
404.551	7386.91
404.995	6776.18
405.44	6521.52
405.884	6619.55
406.328	6399.7
406.772	6375.33
407.216	5801.39
407.66	5611.58
408.104	5338.29
408.547	4995.56
408.991	4831.96
409.435	4654.52
409.879	4576.27
410.322	4511.31
410.766	4343.56
411.209	4121.24
411.653	3948.93
412.096	3856.53
412.54	3849.84
412.983	3816.27
413.426	3816.64
413.869	3808.17
414.312	3722.65
414.756	3584.81
415.199	3416.44
415.642	3310.12
416.085	3307.58
416.527	3284.95
416.97	3340.98
417.413	3170.09
417.856	3142.18
418.298	3116.13
418.741	3102.54
419.184	3105.03
419.626	3243.52
420.069	3245.43
420.511	3264.98
420.953	3191.93
421.396	3161.65
421.838	3080.3
422.28	3145.83
422.722	3153.16
423.164	3191.07
423.606	3129.73
424.048	3122.16
424.49	2959.95
424.932	2944.31
425.374	2904.83
425.816	2961.69
426.258	3016.8
426.699	3053.53
427.141	3008.15
427.582	3062.53
428.024	3050.72
428.465	3033.01
428.907	2951.34
429.348	2912.6
429.789	2904.5
430.231	2835.94
430.672	2868.32
431.113	2795.64
431.554	2747.16
431.995	2673.34
432.436	2564.08
432.877	2498.58
433.318	2445.69
433.759	2432.31
434.2	2429.72
434.64	2400.52
435.081	2403.17
435.522	2268.32
435.962	2180.89
436.403	2124.31
436.843	2152.82
437.284	2105.29
437.724	2050.17
438.164	2061.76
438.604	2014.45
439.045	1929.72
439.485	1846.16
439.925	1804.01
440.365	1758.62
440.805	1732.97
441.245	1707.32
441.685	1639.74
442.125	1625.74
442.564	1632.13
443.004	1589.33
443.444	1583.63
443.883	1583.97
444.323	1572.8
444.762	1576.48
445.202	1596.69
445.641	1620.65
446.081	1612.02
446.52	1623.93
446.959	1603.29
447.398	1558.82
447.837	1536.36
448.276	1506.66
448.716	1518.32
449.154	1530.47
449.593	1490.55
450.032	1485.15
450.471	1458.06
450.91	1457.61
451.349	1449.14
451.787	1445
452.226	1466.29
452.664	1465.52
453.103	1465.8
453.541	1465.42
453.98	1458.41
454.418	1471.76
454.856	1443.98
455.295	1441.35
455.733	1451.09
456.171	1460.32
456.609	1459.25
457.047	1457.72
457.485	1475.9
457.923	1475.97
458.361	1453.68
458.798	1457.34
459.236	1448.64
459.674	1459.92
460.111	1464.36
460.549	1448.57
460.987	1442.61
461.424	1438.1
461.862	1430.41
462.299	1407.01
462.736	1403.69
463.173	1406.75
463.611	1388.39
464.048	1382.93
464.485	1390.77
464.922	1377.02
465.359	1368.99
465.796	1342.18
466.233	1328.76
466.67	1311.31
467.106	1306.99
467.543	1294.84
467.98	1278.64
468.416	1247.06
468.853	1238.73
469.29	1202.57
469.726	1189.49
470.162	1158.62
470.599	1150.85
471.035	1142.69
471.471	1119.46
471.907	1115
472.344	1109.36
472.78	1112.62
473.216	1128.7
473.652	1117.71
474.088	1116.33
474.523	1114.11
474.959	1126
475.395	1116.07
475.831	1110.29
476.266	1117.12
476.702	1115.74
477.138	1103.61
477.573	1101.39
478.008	1098.47
478.444	1103.16
478.879	1113.08
479.314	1118.96
479.75	1118.79
480.185	1125.26
480.62	1137.1
481.055	1143.57
481.49	1151.88
481.925	1169.56
482.36	1188.35
482.795	1222.15
483.229	1256.95
483.664	1283.95
484.099	1288.04
484.534	1306.97
484.968	1317.83
485.403	1319.98
485.837	1318.02
486.271	1313.89
486.706	1314.02
487.14	1299.44
487.574	1276.27
488.009	1261.74
488.443	1248.44
488.877	1258.16
489.311	1260.38
489.745	1272.41
490.179	1279.76
490.613	1298.38
491.046	1305.76
491.48	1311.24
491.914	1307.21
492.348	1310.82
492.781	1312.93
493.215	1310.26
493.648	1308.14
494.082	1312.68
494.515	1307.29
494.948	1316.03
495.382	1319.2
495.815	1321.93
496.248	1324.96
496.681	1342.36
497.114	1357.43
497.547	1367.54
497.98	1383.12
498.413	1385.2
498.846	1394.04
499.279	1402.72
499.711	1401.76
500.144	1397.58
500.577	1405.66
501.009	1415.45
501.442	1421.62
501.874	1413.15
502.306	1407.65
502.739	1409.23
503.171	1423.83
503.603	1416.89
504.036	1420.33
504.468	1418.89
504.9	1425.45
505.332	1424.79
505.764	1419.58
506.196	1418.77
506.627	1428.53
507.059	1436.45
507.491	1437.47
507.923	1420.73
508.354	1430.04
508.786	1431.74
509.217	1444.59
509.649	1451.73
510.08	1465.44
510.512	1476.12
510.943	1483.91
511.374	1486.41
511.805	1499.29
512.237	1511.76
512.668	1541.66
513.099	1565.3
513.53	1587.44
513.961	1599.36
514.391	1626.22
514.822	1653.35
515.253	1684.78
515.684	1700.59
516.114	1723.52
516.545	1736.02
516.975	1753.92
517.406	1761.62
517.836	1749.99
518.267	1745.57
518.697	1753.73
519.127	1747.48
519.558	1744.24
519.988	1735.41
520.418	1737.37
520.848	1745.9
521.278	1745.05
521.708	1761.24
522.138	1766.36
522.567	1792.78
522.997	1810.93
523.427	1818.48
523.857	1827.36
524.286	1829.61
524.716	1837.72
525.145	1849.66
525.575	1854.36
526.004	1863.79
526.433	1839.32
526.863	1831.48
527.292	1812.72
527.721	1812.33
528.15	1812.98
528.579	1808.33
529.008	1813.91
529.437	1833.11
529.866	1843.02
530.295	1855.77
530.724	1863.21
531.152	1888.33
531.581	1900.01
532.01	1914.29
532.438	1918.88
532.867	1930.72
533.295	1946.91
533.723	1950.86
534.152	1945.99
534.58	1942.05
535.008	1921.76
535.436	1921.61
535.865	1925.61
536.293	1937.63
536.721	1952.62
537.149	1977.19
537.576	1977.86
538.004	1989.02
538.432	1994.33
538.86	1990.41
539.287	1996.12
539.715	2009.45
540.143	2009.43
540.57	2004.33
540.998	1999.28
541.425	1974.96
541.852	1951.76
542.28	1949.01
542.707	1930.65
543.134	1915.87
543.561	1909.63
543.988	1902.84
544.415	1901.93
544.842	1895.96
545.269	1889.47
545.696	1890.44
546.123	1902.84
546.549	1891.75
546.976	1877.3
547.403	1876.07
547.829	1876.98
548.256	1880.55
548.682	1875.82
549.108	1868.27
549.535	1869.2
549.961	1871.42
550.387	1858.81
550.813	1854.01
551.24	1861.35
551.666	1864.62
552.092	1856.16
552.518	1852.26
552.943	1846.64
553.369	1855.72
553.795	1863.25
554.221	1864.84
554.646	1863.6
555.072	1877.2
555.498	1883.63
555.923	1895.4
556.349	1913.25
556.774	1923.99
557.199	1926.58
557.625	1934.74
558.05	1931.32
558.475	1944.5
558.9	1945.3
559.325	1939.44
559.75	1935.66
560.175	1931.52
560.6	1927.05
561.025	1926.98
561.449	1931.52
561.874	1939.57
562.299	1948.38
562.723	1959.85
563.148	1952.96
563.572	1962.8
563.997	1976.88
564.421	1986.2
564.846	1991.2
565.27	1999.14
565.694	2001.12
566.118	2018.65
566.542	2032.82
566.966	2029.56
567.39	2028.18
567.814	2020.87
568.238	2024.67
568.662	2036.44
569.086	2044.24
569.509	2056.73
569.933	2045
570.357	2042.01
570.78	2022.62
571.204	2012.81
571.627	2007.16
572.05	2010.88
572.474	2015.99
572.897	2006.81
573.32	2003.09
573.743	1996.88
574.166	1981.56
574.589	1987.43
575.012	1983.88
575.435	1988.9
575.858	1983.62
576.281	1975.45
576.704	1962.25
577.126	1955
577.549	1947.84
577.972	1940.27
578.394	1933.97
578.817	1931.53
579.239	1913.91
579.661	1903.57
580.084	1890.68
580.506	1880.01
580.928	1880.77
581.35	1873.05
581.772	1871.19
582.194	1859.52
582.616	1847.9
583.038	1834.23
583.46	1825.13
583.882	1825.96
584.303	1834.92
584.725	1832.54
585.147	1838.85
585.568	1854.22
585.99	1871.78
586.411	1882.45
586.833	1903.18
587.254	1910.33
587.675	1930.55
588.096	1948.7
588.518	1946.02
588.939	1928.66
589.36	1929.24
589.781	1918.16
590.202	1886.87
590.623	1879.05
591.043	1877.52
591.464	1864.76
591.885	1861.59
592.305	1857.31
592.726	1842.54
593.147	1845.41
593.567	1840.34
593.987	1833
594.408	1829.67
594.828	1827.84
595.248	1822.51
595.669	1801.64
596.089	1794.32
596.509	1787.3
596.929	1772.22
597.349	1776.38
597.769	1766.62
598.189	1760.93
598.608	1764.26
599.028	1768.26
599.448	1770.2
599.867	1755.85
600.287	1753.19
600.706	1749.55
601.126	1739.38
601.545	1738.77
601.965	1738.4
602.384	1732.75
602.803	1738.9
603.222	1736.16
603.641	1730.31
604.061	1729.04
604.48	1726.55
604.898	1740.34
605.317	1750.07
605.736	1756.74
606.155	1758.57
606.574	1749.29
606.992	1760.23
607.411	1757.48
607.829	1749.6
608.248	1750.19
608.666	1751.34
609.085	1754.99
609.503	1747.23
609.921	1743.19
610.339	1749.66
610.758	1751.76
611.176	1751.87
611.594	1744.54
612.012	1745
612.43	1754.15
612.847	1766.61
613.265	1773.31
613.683	1784.74
614.101	1790.82
614.518	1791.42
614.936	1782.74
615.353	1768.02
615.771	1767.25
616.188	1771.71
616.606	1771.02
617.023	1765.58
617.44	1750.24
617.857	1743.21
618.274	1734.21
618.691	1730.36
619.108	1720.65
619.525	1715.73
619.942	1728.11
620.359	1734.68
620.776	1731.42
621.192	1727.22
621.609	1726.72
622.026	1738.09
622.442	1748.84
622.859	1755.19
623.275	1746.79
623.691	1755.31
624.108	1773.31
624.524	1793.66
624.94	1795.17
625.356	1808.39
625.772	1828.84
626.188	1845.71
626.604	1847.83
627.02	1843.1
627.436	1839.74
627.852	1849.51
628.268	1866.77
628.683	1854.07
629.099	1843.33
629.514	1837.64
629.93	1844.48
630.345	1850.15
630.761	1845.94
631.176	1852.39
631.591	1844.21
632.007	1838.19
632.422	1837.18
632.837	1823.79
633.252	1820.58
633.667	1807.64
634.082	1796.27
634.497	1780.49
634.911	1756.92
635.326	1754.38
635.741	1734.11
636.155	1724.96
636.57	1732.29
636.984	1737.72
637.399	1745.64
637.813	1752.81
638.228	1759.35
638.642	1773.29
639.056	1766.99
639.47	1776.06
639.884	1772.11
640.298	1772.38
640.712	1779.49
641.126	1768.24
641.54	1762.88
641.954	1764.03
642.368	1754.8
642.781	1750.84
643.195	1733.53
643.609	1742.6
644.022	1741.1
644.436	1744.42
644.849	1733.42
645.262	1724.75
645.676	1737.49
646.089	1740.22
646.502	1725.2
646.915	1724.55
647.328	1707.12
647.741	1711.14
648.154	1696.52
648.567	1698.57
648.98	1682.37
649.393	1689.33
649.805	1689.13
650.218	1681.35
650.631	1658.02
651.043	1652.22
651.456	1648.04
651.868	1650.78
652.28	1684.54
652.693	1713.38
653.105	1729.29
653.517	1751.69
653.929	1757.41
654.341	1769.97
654.753	1754.28
655.165	1771.65
655.577	1774.07
655.989	1772.56
656.401	1769.38
656.813	1712.66
657.224	1686.36
657.636	1644.13
658.047	1620.26
658.459	1594.86
658.87	1591.04
659.282	1578.84
659.693	1550.55
660.104	1533.31
660.515	1517.53
660.926	1522.59
661.338	1527.26
661.749	1523.01
662.159	1513.94
662.57	1515.61
662.981	1514.81
663.392	1507.51
663.803	1524.26
664.213	1528.08
664.624	1528.09
665.035	1542.85
665.445	1524.5
665.855	1517.66
666.266	1509.54
666.676	1513.44
667.086	1502.58
667.497	1505.95
667.907	1498.36
668.317	1485.1
668.727	1479.79
669.137	1484.86
669.547	1482.57
669.956	1490.16
670.366	1495.1
670.776	1498.86
671.186	1507.67
671.595	1513.34
672.005	1521.24
672.414	1517.79
672.824	1513.37
673.233	1523.94
673.642	1525.25
674.052	1527.69
674.461	1527.97
674.87	1534.79
675.279	1527.66
675.688	1529.39
676.097	1529.11
676.506	1520.97
676.915	1548.85
677.323	1550.26
677.732	1544.01
678.141	1540.28
678.549	1516.2
678.958	1512.84
679.366	1507.79
679.775	1512.89
680.183	1524.21
680.592	1530.38
681	1534.73
681.408	1513.99
681.816	1521.29
682.224	1530.89
682.632	1540.81
683.04	1587.42
683.448	1620.38
683.856	1664.31
684.264	1714.03
684.671	1758
685.079	1810.79
685.487	1868.03
685.894	1955.13
686.302	2018.97
686.709	2061.81
687.116	2114.86
687.524	2146.8
