Data from C_3_DIV_WI_4N_Splice17_12-56-40-184.txt Node
Date: Sat Mar 14 12:56:40 EDT 2020
User: sa697716
Spectrometer: FLMS03696
Trigger mode: 0
Integration Time (sec): 3.180400E-1
Scans to average: 20
Electric dark correction enabled: true
Nonlinearity correction enabled: true
Boxcar width: 5
XAxis mode: Wavelengths
Number of Pixels in Spectrum: 2048
>>>>>Begin Spectral Data<<<<<
187.83	-373437.28
188.298	2735.81
188.766	1424.51
189.233	1296.45
189.701	1754.19
190.169	2389.65
190.636	928.14
191.104	756.15
191.571	139.4
192.039	-44.9
192.506	-73.87
192.974	502.26
193.441	-812.33
193.908	-216.74
194.375	-37.06
194.842	17.01
195.31	68.77
195.777	147.61
196.244	350.02
196.711	409.55
197.177	482.72
197.644	697.46
198.111	1239.19
198.578	1746.6
199.045	1388.04
199.511	2265.29
199.978	2627.69
200.445	2264.59
200.911	2517.97
201.378	2809.34
201.844	2554.77
202.31	4454.35
202.777	4602.47
203.243	2543.42
203.709	2414.42
204.176	2863.33
204.642	2379.21
205.108	2236.79
205.574	1800.21
206.04	1625.45
206.506	1507.04
206.972	1408.44
207.438	1344.73
207.903	1542.49
208.369	1356.54
208.835	1351.8
209.301	1420.1
209.766	1423.78
210.232	1395.04
210.697	1722.48
211.163	2120.19
211.628	3228.35
212.094	2756.7
212.559	3434.39
213.024	2111.53
213.49	2563.02
213.955	2495.92
214.42	2417.33
214.885	2246.88
215.35	2146.26
215.815	2082.82
216.28	2212.16
216.745	1785.94
217.21	1896.1
217.675	1697.38
218.14	1888.84
218.604	2067.97
219.069	2307.02
219.534	2391.47
219.998	2733.69
220.463	3238.75
220.927	3873.68
221.392	3574.11
221.856	3583.81
222.32	4446.27
222.785	5426.11
223.249	6773.49
223.713	7526.75
224.177	7507.45
224.642	9540.92
225.106	11690.24
225.57	12731.76
226.034	9507.08
226.497	14436.51
226.961	13011.11
227.425	15089.95
227.889	16669.77
228.353	16601.16
228.816	34082.41
229.28	32414.04
229.744	27320.75
230.207	16596.71
230.671	16298.98
231.134	26807.73
231.597	30990.1
232.061	30814.54
232.524	29966.96
232.987	20631.68
233.45	18573.76
233.914	16669.35
234.377	17087.17
234.84	15620.09
235.303	18362.12
235.766	20462.92
236.229	21083.69
236.691	13229.71
237.154	14865.3
237.617	11233.28
238.08	11516.02
238.542	13452.62
239.005	9602.6
239.468	9525.04
239.93	8983.77
240.393	8173.9
240.855	7184.98
241.317	7354.09
241.78	8930.6
242.242	9235.05
242.704	9970.31
243.166	8663.56
243.629	7891.92
244.091	9103.38
244.553	9970.66
245.015	10720.74
245.477	13852.83
245.939	20268.55
246.4	21515.52
246.862	20921.31
247.324	19696.2
247.786	21990.76
248.247	28808.53
248.709	29634.49
249.17	22174.87
249.632	20991.02
250.093	24365.61
250.555	21043.49
251.016	12872.02
251.477	12230.28
251.939	13215.82
252.4	13897.64
252.861	16492.95
253.322	15369.51
253.783	18273.34
254.244	23659.68
254.705	18602.21
255.166	16516.77
255.627	16273.56
256.088	22939.97
256.549	24337.14
257.009	20939.68
257.47	25351.33
257.931	20685.97
258.391	15495.32
258.852	15997.45
259.312	16781.24
259.773	20710.81
260.233	17478.23
260.694	14739.23
261.154	16683.76
261.614	13429.92
262.074	11985.96
262.534	12469.35
262.994	11749.09
263.455	15613.57
263.915	13146.53
264.374	12358
264.834	13480.78
265.294	14939.3
265.754	15475.89
266.214	14639
266.673	13683.01
267.133	17252.97
267.593	17087.21
268.052	20891.52
268.512	18179.56
268.971	21958.19
269.431	24089.18
269.89	21563.76
270.349	32312.82
270.809	36016.21
271.268	32405.72
271.727	72567.09
272.186	47052.82
272.645	35329.36
273.104	25438.07
273.563	36795.06
274.022	28819.06
274.481	24537.8
274.94	18898.11
275.399	14045.54
275.857	16332.02
276.316	22102.87
276.775	19690.69
277.233	19410.57
277.692	18183.74
278.15	20643.9
278.609	21280.17
279.067	19727.59
279.525	18355.51
279.984	23719.8
280.442	28494.57
280.9	28158.35
281.358	18520.93
281.816	17287.49
282.274	16906.89
282.732	17430.17
283.19	17475.28
283.648	15081.9
284.106	16099.13
284.564	16372.33
285.021	15191.17
285.479	11319.99
285.937	10265.98
286.394	9020.73
286.852	9272.79
287.309	9781
287.767	9478.51
288.224	9032.8
288.682	9919.07
289.139	10871.55
289.596	9937.68
290.053	10330.17
290.511	13064.55
290.968	15889.59
291.425	21520.2
291.882	17924.11
292.339	15556.01
292.796	15422.62
293.252	14510.42
293.709	11547.41
294.166	10362.63
294.623	11453.14
295.079	10975.42
295.536	11023.42
295.992	9998.09
296.449	9889.21
296.905	10292.14
297.362	9874.62
297.818	10380.73
298.274	10801.25
298.731	10983.93
299.187	10851.36
299.643	11629.2
300.099	14083.74
300.555	15422.57
301.011	12877.03
301.467	12452.86
301.923	14538.61
302.379	14217.81
302.835	13941.97
303.291	13934.35
303.746	15829.65
304.202	20002.47
304.658	20148.11
305.113	13562.37
305.569	13325.6
306.024	14198.49
306.479	13443.97
306.935	11351.01
307.39	12378.74
307.845	11452.21
308.301	11541.21
308.756	11248.99
309.211	10831.04
309.666	11065.19
310.121	13742.07
310.576	13909.03
311.031	13798.52
311.486	15843.2
311.94	15812.74
312.395	21145.23
312.85	39754.22
313.305	194763.42
313.759	1015007.86
314.214	73643.79
314.668	58502.56
315.123	49327.91
315.577	17736.12
316.032	15816.57
316.486	19797.85
316.94	15662.13
317.394	10928.88
317.849	8481.94
318.303	8033.6
318.757	7566.1
319.211	8372.7
319.665	7325.81
320.119	7409.24
320.572	10592.49
321.026	9910.5
321.48	8254.63
321.934	8977.89
322.387	8990.17
322.841	9717.96
323.295	8770.28
323.748	10068.87
324.202	10225.59
324.655	12290.56
325.108	17185.83
325.562	12141.03
326.015	14392.69
326.468	10890.58
326.921	12181.19
327.374	11370.2
327.827	11876.91
328.28	13443.16
328.733	9021.48
329.186	7927.78
329.639	7556.01
330.092	6361.13
330.545	6085.86
330.997	6147.56
331.45	6728.98
331.903	7901.46
332.355	13557.06
332.808	13169.82
333.26	10843.81
333.713	11787
334.165	11889.72
334.617	15886.25
335.069	12832.18
335.522	23107.26
335.974	25555.67
336.426	23375.62
336.878	16156.93
337.33	8201.86
337.782	8010.42
338.234	10046.11
338.686	12019.54
339.137	14237.47
339.589	13368.41
340.041	10495.81
340.493	9049.34
340.944	9300.31
341.396	9990.41
341.847	8439.41
342.299	10002.86
342.75	12254.88
343.201	10686.57
343.653	12264.53
344.104	15063.24
344.555	11866
345.006	18359.3
345.457	14097.3
345.908	11174.66
346.359	10519.24
346.81	8551.72
347.261	8965.25
347.712	8777.54
348.163	9415.57
348.613	9591.54
349.064	8939.7
349.515	7817.48
349.965	8045.65
350.416	9652.1
350.866	10579.76
351.317	11969.29
351.767	19837.69
352.217	25056.45
352.668	20767.65
353.118	19006.09
353.568	18191.79
354.018	14404.67
354.468	15224.16
354.918	10934.26
355.368	9551.33
355.818	13511.96
356.268	38816.49
356.718	162940.44
357.168	40655.46
357.617	20426.32
358.067	22677.8
358.517	21301.32
358.966	24984.69
359.416	28073.91
359.865	30279.46
360.315	36164.04
360.764	16916.14
361.213	9509.56
361.663	8964.73
362.112	11081.44
362.561	17935.07
363.01	13574.07
363.459	11409.18
363.908	12355.23
364.357	10528.98
364.806	17773.79
365.255	12178.36
365.703	11169.29
366.152	11172.6
366.601	9092.27
367.05	7383.76
367.498	6709.06
367.947	6981.98
368.395	7255.9
368.844	6425.4
369.292	7690.9
369.74	5334.4
370.189	8188.23
370.637	9576.66
371.085	8257.62
371.533	10015.91
371.981	9647.6
372.429	9250.75
372.877	9665.72
373.325	8123.06
373.773	8279.09
374.221	7397.47
374.669	9166.55
375.116	7924.41
375.564	7989.91
376.012	8939.54
376.459	7383.93
376.907	8819.88
377.354	10623.9
377.801	9918.29
378.249	11428.77
378.696	14635.8
379.143	17746.47
379.591	18910.08
380.038	32009.72
380.485	23153.35
380.932	24983.45
381.379	22972.25
381.826	16977.56
382.273	12061.6
382.72	10559
383.166	10258.86
383.613	6654.48
384.06	5991.43
384.506	6952.39
384.953	5112.95
385.4	5148.66
385.846	4505.65
386.292	4379.39
386.739	4283.81
387.185	4243.37
387.631	4241.21
388.078	4140.69
388.524	4432.96
388.97	4109.51
389.416	3438.67
389.862	3659.64
390.308	3480.02
390.754	3547.4
391.2	3852.6
391.645	3942.62
392.091	3805.28
392.537	3688.28
392.983	3684.47
393.428	3651.79
393.874	3914.51
394.319	3938.38
394.765	3745.35
395.21	3850.43
395.655	3609.28
396.101	3382.47
396.546	3056.55
396.991	3061.13
397.436	2853.63
397.881	2753.37
398.326	2586.7
398.771	2452.07
399.216	2129.55
399.661	1918.22
400.106	1913.54
400.551	1966.3
400.995	1764.33
401.44	1744.89
401.885	1635.3
402.329	1643.82
402.774	1577.51
403.218	1540.87
403.663	1480.55
404.107	1520.21
404.551	1529.63
404.995	1395.71
405.44	1341.52
405.884	1358.59
406.328	1309.53
406.772	1306.59
407.216	1185.36
407.66	1140.37
408.104	1073.58
408.547	1004.98
408.991	972.78
409.435	931.48
409.879	922.68
410.322	909.34
410.766	877.01
411.209	834.02
411.653	799.1
412.096	787.11
412.54	788.2
412.983	781.44
413.426	782.26
413.869	780.28
414.312	768.87
414.756	736.11
415.199	700.8
415.642	682.02
416.085	683.14
416.527	680.19
416.97	689.09
417.413	655.22
417.856	648.74
418.298	642.02
418.741	638.26
419.184	634.16
419.626	659.31
420.069	658.76
420.511	663.91
420.953	651.3
421.396	643.04
421.838	626.42
422.28	640.55
422.722	646.09
423.164	653.41
423.606	642.68
424.048	641.48
424.49	612.1
424.932	607.4
425.374	596.18
425.816	603.95
426.258	614.23
426.699	620.65
427.141	613.99
427.582	617.65
428.024	614.79
428.465	608.47
428.907	593.59
429.348	583.9
429.789	586.73
430.231	577.29
430.672	585.99
431.113	572.96
431.554	563.5
431.995	545.21
432.436	529.79
432.877	519.7
433.318	515.24
433.759	512.96
434.2	515.01
434.64	509.24
435.081	509.38
435.522	483.5
435.962	465.19
436.403	457.46
436.843	464.62
437.284	452.88
437.724	437.48
438.164	435.19
438.604	426.43
439.045	411.58
439.485	395.55
439.925	387.31
440.365	377.83
440.805	372.53
441.245	370.13
441.685	357.75
442.125	354.65
442.564	357.13
443.004	350.17
443.444	348.4
443.883	349.27
444.323	345.17
444.762	342.13
445.202	345.1
445.641	353.17
446.081	348.17
446.52	349.43
446.959	347.35
447.398	340.8
447.837	334.77
448.276	327.21
448.716	327.77
449.154	329.93
449.593	323.56
450.032	322.86
450.471	314.68
450.91	313.2
451.349	313.43
451.787	311.22
452.226	315.77
452.664	316.69
453.103	317.52
453.541	315.81
453.98	317.01
454.418	318.77
454.856	313.46
455.295	312.91
455.733	317.02
456.171	316.99
456.609	317.29
457.047	316.23
457.485	321.46
457.923	323.71
458.361	319.72
458.798	318.88
459.236	318.46
459.674	320.29
460.111	321.79
460.549	318.35
460.987	317.01
461.424	316
461.862	314.53
462.299	309.94
462.736	309.17
463.173	310.16
463.611	309.67
464.048	309.81
464.485	312.93
464.922	310.04
465.359	306.5
465.796	309.77
466.233	308.75
466.67	307.22
467.106	308.01
467.543	304.6
467.98	301.39
468.416	291.9
468.853	287.87
469.29	277.53
469.726	274.21
470.162	268.2
470.599	258.84
471.035	255.08
471.471	247.81
471.907	243.43
472.344	241.36
472.78	242.2
473.216	244.42
473.652	241.95
474.088	241.33
474.523	241.5
474.959	242.29
475.395	240.31
475.831	239.03
476.266	240.48
476.702	239.06
477.138	236.43
477.573	234.34
478.008	233.68
478.444	235.51
478.879	239.12
479.314	239.92
479.75	240.07
480.185	240.44
480.62	241.27
481.055	241.89
481.49	244.86
481.925	248.05
482.36	254.54
482.795	260.4
483.229	265.37
483.664	270.61
484.099	270.88
484.534	274.8
484.968	278.19
485.403	278.69
485.837	277.49
486.271	276.71
486.706	276.96
487.14	272.32
487.574	268.75
488.009	266.33
488.443	262.77
488.877	265.89
489.311	266.82
489.745	269.5
490.179	273.22
490.613	279.92
491.046	281.45
491.48	283.54
491.914	283.77
492.348	285.71
492.781	288.77
493.215	289.94
493.648	290.37
494.082	293.12
494.515	294.94
494.948	299.25
495.382	301.35
495.815	304.72
496.248	308.75
496.681	315.39
497.114	321.53
497.547	327.16
497.98	335.31
498.413	341.11
498.846	347.38
499.279	351.67
499.711	355.51
500.144	358.25
500.577	366
501.009	372.49
501.442	379.96
501.874	383.24
502.306	385.71
502.739	393.65
503.171	402.05
503.603	406.56
504.036	413.5
504.468	418.73
504.9	427.05
505.332	432.01
505.764	437.37
506.196	443.96
506.627	454.4
507.059	465.15
507.491	471.12
507.923	474.19
508.354	485.67
508.786	495.35
509.217	507.9
509.649	519.84
510.08	533.74
510.512	548.02
510.943	560.54
511.374	571.84
511.805	587.91
512.237	602.91
512.668	625
513.099	644.91
513.53	666
513.961	683.49
514.391	706.67
514.822	733.02
515.253	758.56
515.684	778.78
516.114	801.52
516.545	818.77
516.975	840.48
517.406	856.94
517.836	863.21
518.267	872.34
518.697	889.14
519.127	897.86
519.558	906.62
519.988	913.53
520.418	924.4
520.848	939.63
521.278	949.92
521.708	983.6
522.138	996.9
522.567	1021.83
522.997	1043.13
523.427	1056.96
523.857	1073.37
524.286	1084.65
524.716	1099.96
525.145	1117.39
525.575	1129.82
526.004	1144.35
526.433	1128.35
526.863	1132.46
527.292	1130.48
527.721	1137.97
528.15	1146.04
528.579	1148.71
529.008	1159.49
529.437	1177.43
529.866	1190.05
530.295	1204.82
530.724	1216.36
531.152	1238.01
531.581	1250.59
532.01	1265.1
532.438	1272.79
532.867	1284.29
533.295	1299.41
533.723	1305.74
534.152	1306.12
534.58	1307.41
535.008	1296.64
535.436	1299.83
535.865	1305.28
536.293	1315.56
536.721	1327.47
537.149	1345.81
537.576	1349.18
538.004	1359.26
538.432	1364.38
538.86	1364.5
539.287	1368.98
539.715	1378.95
540.143	1380.3
540.57	1378.13
540.998	1375.5
541.425	1359.7
541.852	1345.51
542.28	1344.12
542.707	1332.46
543.134	1323.4
543.561	1320.16
543.988	1316.06
544.415	1315.4
544.842	1311.31
545.269	1306.44
545.696	1308.54
546.123	1318.62
546.549	1312.06
546.976	1303.96
547.403	1303.26
547.829	1305.09
548.256	1306.67
548.682	1304.91
549.108	1301.05
549.535	1301.54
549.961	1302.85
550.387	1294.35
550.813	1290.26
551.24	1294.97
551.666	1295.32
552.092	1289
552.518	1283.95
552.943	1280.25
553.369	1284.72
553.795	1288.88
554.221	1290.11
554.646	1287.87
555.072	1295.45
555.498	1297.66
555.923	1303.33
556.349	1313.02
556.774	1318.65
557.199	1319.27
557.625	1322.36
558.05	1317.23
558.475	1323.31
558.9	1320.4
559.325	1313.87
559.75	1306.85
560.175	1300.94
560.6	1294.16
561.025	1291
561.449	1289.86
561.874	1291.37
562.299	1292.9
562.723	1295.21
563.148	1285.66
563.572	1286.29
563.997	1290.03
564.421	1291.3
564.846	1287.78
565.27	1287.73
565.694	1282.67
566.118	1287.45
566.542	1289.67
566.966	1280.04
567.39	1273.62
567.814	1262.62
568.238	1258.21
568.662	1258.13
569.086	1256.41
569.509	1257.49
569.933	1243.56
570.357	1234.65
570.78	1216.68
571.204	1204.95
571.627	1194.5
572.05	1188.98
572.474	1185.4
572.897	1173.54
573.32	1164.87
573.743	1154.52
574.166	1140.09
574.589	1136.29
575.012	1129.29
575.435	1124.16
575.858	1113.86
576.281	1103.67
576.704	1092.03
577.126	1081.47
577.549	1071.35
577.972	1062.07
578.394	1053.38
578.817	1047.81
579.239	1033.8
579.661	1022.08
580.084	1011.98
580.506	1002.44
580.928	998.23
581.35	988.9
581.772	984.21
582.194	975.09
582.616	965.88
583.038	954.3
583.46	945.13
583.882	941.87
584.303	943.31
584.725	937.91
585.147	939.94
585.568	944.33
585.99	950.24
586.411	953.3
586.833	961.46
587.254	960.17
587.675	968.5
588.096	974.33
588.518	969.42
588.939	957.31
589.36	956.35
589.781	945.5
590.202	929.17
590.623	922.56
591.043	919.3
591.464	909.93
591.885	908.01
592.305	903.72
592.726	894.06
593.147	894.22
593.567	891.12
593.987	884.8
594.408	880.6
594.828	876.96
595.248	873.08
595.669	861.26
596.089	856.97
596.509	851.61
596.929	842.61
597.349	843.52
597.769	836.76
598.189	831.7
598.608	831.4
599.028	832.51
599.448	832.72
599.867	824.01
600.287	820.82
600.706	817.59
601.126	812.49
601.545	811.36
601.965	809.01
602.384	805.09
602.803	806.03
603.222	802.64
603.641	797.54
604.061	794.55
604.48	791.67
604.898	794.56
605.317	795.28
605.736	794.43
606.155	791.4
606.574	784.46
606.992	785.25
607.411	780.79
607.829	773.24
608.248	769.75
608.666	765.6
609.085	762.8
609.503	756.77
609.921	751.68
610.339	750.48
610.758	746.89
611.176	742.88
611.594	736.44
612.012	733.25
612.43	734.16
612.847	735.42
613.265	734.62
613.683	735.06
614.101	734
614.518	729.58
614.936	722.06
615.353	713.38
615.771	710.16
616.188	708.78
616.606	705.19
617.023	700.13
617.44	690.73
617.857	684.46
618.274	678.5
618.691	674.25
619.108	667.76
619.525	663.06
619.942	665.29
620.359	665.38
620.776	661.25
621.192	658.9
621.609	656.9
622.026	660.58
622.442	663.09
622.859	663.34
623.275	658.5
623.691	661.29
624.108	667.85
624.524	674.87
624.94	673.9
625.356	678.72
625.772	683.61
626.188	689.27
626.604	689.37
627.02	686.63
627.436	686.29
627.852	689.62
628.268	695.33
628.683	689.21
629.099	684.49
629.514	682.02
629.93	683.24
630.345	685.15
630.761	681.04
631.176	681.62
631.591	680.02
632.007	677.01
632.422	673.8
632.837	666.86
633.252	664.63
633.667	657.74
634.082	651.91
634.497	645.41
634.911	636.06
635.326	633.57
635.741	624.02
636.155	615.86
636.57	614.28
636.984	612.95
637.399	613.33
637.813	611.07
638.228	607.96
638.642	606.67
639.056	598.16
639.47	594.67
639.884	588.2
640.298	582.19
640.712	580.51
641.126	572.55
641.54	566.02
641.954	559.57
642.368	551.48
642.781	548.56
643.195	538.1
643.609	536.9
644.022	532.52
644.436	528.22
644.849	520.18
645.262	510.71
645.676	509.01
646.089	504.89
646.502	497.57
646.915	493.94
647.328	482.3
647.741	480.61
648.154	472.99
648.567	471.24
648.98	465.37
649.393	463.5
649.805	462.35
650.218	457.28
650.631	449.61
651.043	445.06
651.456	442.01
651.868	441.41
652.28	448.13
652.693	452.49
653.105	452.93
653.517	455.9
653.929	456.69
654.341	458.53
654.753	453.42
655.165	455.05
655.577	453.19
655.989	449.59
656.401	444.28
656.813	428.69
657.224	418.69
657.636	404.54
658.047	396.3
658.459	386.89
658.87	380.45
659.282	373.13
659.693	364.27
660.104	357.13
660.515	350
660.926	349.3
661.338	345.84
661.749	341.68
662.159	337.54
662.57	333.66
662.981	331.26
663.392	328.38
663.803	330.26
664.213	328.31
664.624	326.41
665.035	326.78
665.445	320.47
665.855	318.44
666.266	316.5
666.676	316.34
667.086	312.45
667.497	313.28
667.907	310.73
668.317	307.1
668.727	309.09
669.137	308.38
669.547	308.26
669.956	309.27
670.366	310.8
670.776	312.53
671.186	313.97
671.595	316.96
672.005	317.7
672.414	319.55
672.824	320.49
673.233	319.74
673.642	323.5
674.052	326.48
674.461	330.5
674.87	332.67
675.279	333.12
675.688	333.95
676.097	336.5
676.506	335.36
676.915	341.7
677.323	344.57
677.732	345.42
678.141	344.38
678.549	340.15
678.958	339.12
679.366	340.12
679.775	341.93
680.183	350.28
680.592	354.07
681	358.9
681.408	356.6
681.816	360.07
682.224	364.17
682.632	371.88
683.04	386.63
683.448	397.94
683.856	412.48
684.264	431.03
684.671	445.24
685.079	462.74
685.487	484.3
685.894	514.63
686.302	538.72
686.709	560.63
687.116	585.08
687.524	606.84
687.931	628.63
688.338	646.78
688.745	661.96
689.152	679.97
689.559	704.88
689.966	730.02
690.373	746.25
690.78	773.57
691.187	811.65
691.593	844.45
692	873.47
692.407	914.64
692.813	966.76
693.22	1010.97
693.626	1056.53
694.032	1098.49
694.439	1154.2
694.845	1200.22
695.251	1255.92
695.657	1309.05
696.063	1379.82
696.469	1440.36
696.875	1496.24
697.281	1535.61
697.687	1581.38
698.093	1622.43
698.498	1684.81
698.904	1738.86
699.31	1814.45
699.715	1877.15
700.12	1954.98
700.526	1986.8
700.931	2051.91
701.337	2106.45
701.742	2147.29
702.147	2222.58
702.552	2263.01
702.957	2324.62
703.362	2357.14
703.767	2392.77
704.172	2434.68
704.577	2417.98
704.981	2469.08
705.386	2497.01
705.791	2507.11
706.195	2575.31
706.6	2596.55
