Data from C_3_DEC_CT_2N_Splice17_13-01-22-148.txt Node
Date: Sat Mar 14 13:01:22 EDT 2020
User: sa697716
Spectrometer: FLMS03696
Trigger mode: 0
Integration Time (sec): 3.180400E-1
Scans to average: 20
Electric dark correction enabled: true
Nonlinearity correction enabled: true
Boxcar width: 5
XAxis mode: Wavelengths
Number of Pixels in Spectrum: 2048
>>>>>Begin Spectral Data<<<<<
187.83	-415606.68
188.298	2924.8
188.766	1571.06
189.233	1424.46
189.701	2013.78
190.169	2823.86
190.636	1156.67
191.104	950.57
191.571	217.69
192.039	-23.86
192.506	-40.64
192.974	606.88
193.441	-972.91
193.908	-257.9
194.375	-8.79
194.842	87.77
195.31	209.39
195.777	224
196.244	441.09
196.711	567.83
197.177	730.34
197.644	1062.22
198.111	1869.66
198.578	2600.78
199.045	2099.22
199.511	3396.9
199.978	3990.77
200.445	3366.31
200.911	3734.72
201.378	4215.11
201.844	3817.99
202.31	6523.14
202.777	6768.82
203.243	3784.82
203.709	3615.53
204.176	4312.83
204.642	3583.69
205.108	3342.34
205.574	2747.31
206.04	2528.96
206.506	2372.63
206.972	2246.13
207.438	2184.85
207.903	2490.01
208.369	2172.13
208.835	2159.73
209.301	2252
209.766	2297.31
210.232	2290.88
210.697	2847.18
211.163	3530.56
211.628	5358.56
212.094	4525.61
212.559	5534.94
213.024	3462.13
213.49	4233.16
213.955	4163.14
214.42	4116.15
214.885	3861.27
215.35	3701.17
215.815	3553.14
216.28	3791.45
216.745	3131.68
217.21	3438.57
217.675	3219.46
218.14	3686.85
218.604	4229.33
219.069	4921.2
219.534	5240.79
219.998	6194.5
220.463	7618.72
220.927	9582.82
221.392	9134.27
221.856	9327.12
222.32	11861.5
222.785	14735.19
223.249	18680.48
223.713	20995.35
224.177	21093.01
224.642	27201.89
225.106	33621.19
225.57	36891.05
226.034	27435.86
226.497	41794.88
226.961	37760.55
227.425	44009.57
227.889	48918.58
228.353	48991.91
228.816	101093.23
229.28	96637.27
229.744	81505.93
230.207	49484.97
230.671	48735.56
231.134	80851.05
231.597	93226.3
232.061	93373.11
232.524	91276.79
232.987	62887.85
233.45	56561.21
233.914	50708.1
234.377	52062
234.84	47656.68
235.303	56246.82
235.766	62696.12
236.229	64781.4
236.691	40819.49
237.154	45843.3
237.617	34427.42
238.08	35284.35
238.542	41309.13
239.005	29520.35
239.468	29285.74
239.93	27602.26
240.393	25074.99
240.855	22027.87
241.317	22558.49
241.78	27479.65
242.242	28387.7
242.704	30620.4
243.166	26620.35
243.629	24141.61
244.091	27819.75
244.553	30479.16
245.015	32748.84
245.477	42401.55
245.939	62150.22
246.4	65924.52
246.862	64057.71
247.324	60372.33
247.786	67594.06
248.247	88692.14
248.709	91755.18
249.17	68677.99
249.632	64654.1
250.093	74949.74
250.555	64675.05
251.016	39441.21
251.477	37395.28
251.939	40345.17
252.4	42377.18
252.861	50417.21
253.322	46858.73
253.783	55782.1
254.244	72364.37
254.705	57116.31
255.166	50822.75
255.627	50126.96
256.088	70657.56
256.549	75044.43
257.009	64692.53
257.47	78494.25
257.931	63951.45
258.391	47961.98
258.852	49441.89
259.312	51860.86
259.773	64097.57
260.233	54139.2
260.694	45633.88
261.154	51831.16
261.614	41609.33
262.074	37215.53
262.534	38666.35
262.994	36467.35
263.455	48638.87
263.915	41000.82
264.374	38642.06
264.834	42185.41
265.294	46796.85
265.754	48491.97
266.214	45942.99
266.673	43093.69
267.133	54395.34
267.593	54032.89
268.052	66138.84
268.512	57557.7
268.971	69361.49
269.431	76049.28
269.89	68179.86
270.349	102297.22
270.809	114076.69
271.268	102603.12
271.727	230256.48
272.186	149240.72
272.645	112013.63
273.104	80913.76
273.563	117108.15
274.022	92227.43
274.481	78455.94
274.94	60437.68
275.399	44940.98
275.857	52372.79
276.316	70821.13
276.775	63024.09
277.233	62053.68
277.692	58024.44
278.15	65580.77
278.609	67487.31
279.067	62448.37
279.525	58005.18
279.984	74959.69
280.442	90055.36
280.9	88636.38
281.358	58329.13
281.816	54355.44
282.274	53243.19
282.732	55075.73
283.19	55359.48
283.648	47782.36
284.106	50913.28
284.564	51790.25
285.021	47950.36
285.479	35711.05
285.937	32543.43
286.394	28534.74
286.852	29395.45
287.309	30898.11
287.767	29797.69
288.224	28320.12
288.682	31078.34
289.139	34089.7
289.596	31179.8
290.053	32448.8
290.511	40973.12
290.968	49676.22
291.425	67457.45
291.882	56048.8
292.339	48759.75
292.796	48444.29
293.252	45670.04
293.709	36261.65
294.166	32503.83
294.623	35969.83
295.079	34553.96
295.536	34714.61
295.992	31479.17
296.449	31111.93
296.905	32322.24
297.362	30984.43
297.818	32586.1
298.274	33791.24
298.731	34434.93
299.187	34066.99
299.643	36527.61
300.099	44119.68
300.555	48381.27
301.011	40458.28
301.467	38900.87
301.923	45585.65
302.379	44491.44
302.835	43662.19
303.291	43687.61
303.746	49712.04
304.202	62772.18
304.658	63030.01
305.113	42376.67
305.569	41477.08
306.024	44224.1
306.479	42201.26
306.935	35531.19
307.39	38818.52
307.845	35845.47
308.301	36048.94
308.756	35127.02
309.211	33834.62
309.666	34646.17
310.121	42954.98
310.576	43604.94
311.031	43226.89
311.486	49436.77
311.94	49418.22
312.395	66119.15
312.85	124325.54
313.305	611393.52
313.759	3158261.09
314.214	229089.43
314.668	181661.7
315.123	152747.02
315.577	54779.87
316.032	48681.39
316.486	61095.88
316.94	48186.41
317.394	33517.36
317.849	26022.07
318.303	24630.33
318.757	23248.26
319.211	25677.16
319.665	22476.26
320.119	22748.71
320.572	32606.37
321.026	30484.1
321.48	25353.19
321.934	27659.54
322.387	27721.18
322.841	29961.41
323.295	26897.35
323.748	31024.62
324.202	31461.51
324.655	37729.07
325.108	52650.95
325.562	37178.79
326.015	44114.86
326.468	33318.64
326.921	37238.45
327.374	34677.73
327.827	36053.49
328.28	40811.65
328.733	27305.4
329.186	23975.68
329.639	22839.57
330.092	19226.36
330.545	18299.96
330.997	18468.4
331.45	20164.86
331.903	23580.74
332.355	40607.27
332.808	39470.25
333.26	32530.31
333.713	35278.43
334.165	35535.5
334.617	47485.96
335.069	38439.65
335.522	69601.69
335.974	76943.59
336.426	70325.58
336.878	48773.82
337.33	24683.79
337.782	24085.66
338.234	30144.36
338.686	36097.46
339.137	42796.68
339.589	40256.91
340.041	31542.01
340.493	27043.08
340.944	27715.28
341.396	29827.83
341.847	25047.26
342.299	29522.19
342.75	36014.66
343.201	31498.03
343.653	36192.99
344.104	44513.77
344.555	35040.04
345.006	54633.41
345.457	41811.67
345.908	33217.73
346.359	31238.39
346.81	25449.87
347.261	26837.44
347.712	26427.25
348.163	28336.01
348.613	28643.23
349.064	26708.44
349.515	23392.75
349.965	23940.51
350.416	28854.37
350.866	31695.8
351.317	35860.81
351.767	59362.95
352.217	75013.9
352.668	62248.56
353.118	56936.68
353.568	54996.27
354.018	43438.62
354.468	45723.29
354.918	32783.43
355.368	28668.17
355.818	40455.32
356.268	116471.65
356.718	487464.96
357.168	121193.32
357.617	60843.24
358.067	67769.69
358.517	63428.55
358.966	74295.87
359.416	83344.2
359.865	90143.32
360.315	107351.16
360.764	50136.89
361.213	28056.9
361.663	26588.2
362.112	32875.8
362.561	53081.33
363.01	40006.15
363.459	33739.71
363.908	36567.88
364.357	31032.11
364.806	52383.72
365.255	36081.47
365.703	33030.08
366.152	33040.74
366.601	26794.43
367.05	21702.23
367.498	19707.53
367.947	20596.75
368.395	21370.6
368.844	18901.98
369.292	22825.77
369.74	15761.38
370.189	24106.16
370.637	28270.52
371.085	24391.11
371.533	29686.35
371.981	28641.3
372.429	27293.03
372.877	28448.85
373.325	23822.87
373.773	24280.84
374.221	21598.29
374.669	26797.82
375.116	23126.29
375.564	23275.44
376.012	26004.18
376.459	21395.02
376.907	25573.76
377.354	30875.39
377.801	28735.39
378.249	32934.02
378.696	42096.83
379.143	50932.27
379.591	54245.52
380.038	91751.27
380.485	66227.19
380.932	71578.76
381.379	65456.69
381.826	48102.42
382.273	34185.25
382.72	29871.36
383.166	29111.84
383.613	18851.37
384.06	16970.85
384.506	19628.32
384.953	14393.26
385.4	14489.13
385.846	12658.4
386.292	12353.63
386.739	12083.24
387.185	11951.31
387.631	11952.06
388.078	11594.75
388.524	12388.39
388.97	11435.29
389.416	9512.17
389.862	10107.42
390.308	9547.23
390.754	9693.44
391.2	10487.5
391.645	10702.63
392.091	10203.04
392.537	9834.25
392.983	9832.25
393.428	9636.62
393.874	10313.7
394.319	10336.44
394.765	9777.08
395.21	10049.26
395.655	9387.56
396.101	8769.19
396.546	7907.03
396.991	7976.39
397.436	7401.92
397.881	7140.92
398.326	6762.51
398.771	6379.94
399.216	5567.24
399.661	5011.54
400.106	4982.49
400.551	5090.95
400.995	4564.42
401.44	4509.16
401.885	4227.62
402.329	4268.57
402.774	4088.37
403.218	3948.26
403.663	3803.85
404.107	3905.67
404.551	3921.46
404.995	3593.08
405.44	3466.56
405.884	3518.45
406.328	3404.18
406.772	3391.74
407.216	3083.41
407.66	2977.9
408.104	2830.86
408.547	2648.78
408.991	2563.01
409.435	2470.86
409.879	2436.21
410.322	2404.67
410.766	2318.25
411.209	2200.61
411.653	2112.48
412.096	2067.51
412.54	2067.38
412.983	2051.02
413.426	2053.22
413.869	2049.84
414.312	2010.28
414.756	1934.69
415.199	1840.37
415.642	1785.29
416.085	1789.91
416.527	1775.73
416.97	1805.76
417.413	1713.16
417.856	1696.96
418.298	1681.57
418.741	1670.29
419.184	1664.31
419.626	1734.55
420.069	1738.54
420.511	1749.32
420.953	1710.15
421.396	1695.34
421.838	1651.94
422.28	1687.37
422.722	1694.12
423.164	1716.62
423.606	1688.75
424.048	1686.91
424.49	1602.74
424.932	1594.85
425.374	1573.46
425.816	1602.5
426.258	1634.75
426.699	1652.67
427.141	1630.63
427.582	1654.1
428.024	1646.07
428.465	1636.28
428.907	1595.71
429.348	1579.79
429.789	1577.4
430.231	1544.6
430.672	1564.19
431.113	1523.86
431.554	1500.05
431.995	1461.89
432.436	1408.22
432.877	1376.58
433.318	1351.18
433.759	1345.22
434.2	1344.62
434.64	1329.2
435.081	1331.41
435.522	1258.69
435.962	1213.05
436.403	1187.88
436.843	1205.81
437.284	1182.4
437.724	1149.21
438.164	1154.01
438.604	1128.83
439.045	1082.14
439.485	1036.3
439.925	1013.07
440.365	988.25
440.805	973.98
441.245	958.35
441.685	921.37
442.125	915.8
442.564	921.57
443.004	899.16
443.444	896.12
443.883	897.62
444.323	890.86
444.762	891.97
445.202	905.17
445.641	919.91
446.081	914.7
446.52	921.3
446.959	908.07
447.398	883.28
447.837	871.13
448.276	855.62
448.716	861.18
449.154	867.21
449.593	847.12
450.032	842.23
450.471	826.8
450.91	824.47
451.349	818.81
451.787	815.03
452.226	828.05
452.664	827.49
453.103	826.61
453.541	826.58
453.98	824.51
454.418	827.43
454.856	811.55
455.295	809.36
455.733	817.09
456.171	821.57
456.609	819.66
457.047	818.23
457.485	827.98
457.923	827.82
458.361	813.53
458.798	814.85
459.236	812.97
459.674	818.12
460.111	820.31
460.549	810.6
460.987	807.92
461.424	804.15
461.862	798.6
462.299	786.66
462.736	785.33
463.173	788.49
463.611	779.73
464.048	777.1
464.485	784.14
464.922	777.6
465.359	773.06
465.796	760.97
466.233	756.94
466.67	750
467.106	747.47
467.543	738.99
467.98	729.23
468.416	710.76
468.853	703.93
469.29	681.19
469.726	673.36
470.162	656.86
470.599	648.5
471.035	642.49
471.471	626.62
471.907	622.57
472.344	618.37
472.78	618.76
473.216	625.51
473.652	617.64
474.088	615.47
474.523	613.32
474.959	617.92
475.395	612.28
475.831	607.83
476.266	610
476.702	607.08
477.138	601.13
477.573	598.99
478.008	596
478.444	598.02
478.879	602.87
479.314	603.87
479.75	601.9
480.185	603.44
480.62	607.85
481.055	610.56
481.49	615.31
481.925	623.01
482.36	633.56
482.795	650.03
483.229	667.02
483.664	680.88
484.099	682.43
484.534	692.1
484.968	698.73
485.403	699.35
485.837	697.11
486.271	694.61
486.706	693.08
487.14	683.67
487.574	671.59
488.009	663.8
488.443	656.01
488.877	660.69
489.311	661.41
489.745	666.46
490.179	670.73
490.613	681.14
491.046	683.8
491.48	686.99
491.914	685.06
492.348	687.55
492.781	689.32
493.215	688.36
493.648	687.77
494.082	689.42
494.515	686.83
494.948	691.5
495.382	693.22
495.815	694.95
496.248	697.32
496.681	706.75
497.114	714.92
497.547	721.37
497.98	730.47
498.413	732.79
498.846	738.91
499.279	744.17
499.711	744.91
500.144	743.88
500.577	750.43
501.009	756.4
501.442	761.65
501.874	758.97
502.306	756.69
502.739	760.66
503.171	769.47
503.603	769.15
504.036	773.65
504.468	774.8
504.9	781.51
505.332	783.12
505.764	784.33
506.196	787.07
506.627	795.93
507.059	804.38
507.491	808.08
507.923	805.11
508.354	814.53
508.786	821.25
509.217	834.73
509.649	844.9
510.08	859.21
510.512	871.75
510.943	883.09
511.374	892.41
511.805	908.21
512.237	923.9
512.668	948.87
513.099	971.76
513.53	993.78
513.961	1010.95
514.391	1038.27
514.822	1067.57
515.253	1097.48
515.684	1120.31
516.114	1145.94
516.545	1165.78
516.975	1189.34
517.406	1206.89
517.836	1210.14
518.267	1218.77
518.697	1236.56
519.127	1242.51
519.558	1251.82
519.988	1258.53
520.418	1268.88
520.848	1286.78
521.278	1296.91
521.708	1325.2
522.138	1340.28
522.567	1372.27
522.997	1398.01
523.427	1414.98
523.857	1434.28
524.286	1446.16
524.716	1463.08
525.145	1484.97
525.575	1499.48
526.004	1516.8
526.433	1506.28
526.863	1509.24
527.292	1504.44
527.721	1513.07
528.15	1522.08
528.579	1525.26
529.008	1539.61
529.437	1564.27
529.866	1580.21
530.295	1598.1
530.724	1612.78
531.152	1640.35
531.581	1656.96
532.01	1675.62
532.438	1685.49
532.867	1701.94
533.295	1721.83
533.723	1729.11
534.152	1728.66
534.58	1729.75
535.008	1717.48
535.436	1721.64
535.865	1731.06
536.293	1746.59
536.721	1763.16
537.149	1789.31
537.576	1793.29
538.004	1807.63
538.432	1816.19
538.86	1815.49
539.287	1823.63
539.715	1837.28
540.143	1840.58
540.57	1838.04
540.998	1835.49
541.425	1814.92
541.852	1795.87
542.28	1794.71
542.707	1779.52
543.134	1767.38
543.561	1764.92
543.988	1759.08
544.415	1759.67
544.842	1754.99
545.269	1749.29
545.696	1751.19
546.123	1763.79
546.549	1755.41
546.976	1744.21
547.403	1745.13
547.829	1747.42
548.256	1749.8
548.682	1746.91
549.108	1740.29
549.535	1741.97
549.961	1744.29
550.387	1733.59
550.813	1729.79
551.24	1736.89
551.666	1739.29
552.092	1729.97
552.518	1724.58
552.943	1719.64
553.369	1727.75
553.795	1733.81
554.221	1733.45
554.646	1730.18
555.072	1738.87
555.498	1741.58
555.923	1749.18
556.349	1761.61
556.774	1769.08
557.199	1768.27
557.625	1772.46
558.05	1764.68
558.475	1773.73
558.9	1771.76
559.325	1762.47
559.75	1755.14
560.175	1748.09
560.6	1739.13
561.025	1735.5
561.449	1734.12
561.874	1737.14
562.299	1740.07
562.723	1745.52
563.148	1733.44
563.572	1734.37
563.997	1741.17
564.421	1743.25
564.846	1740.98
565.27	1741.52
565.694	1735.54
566.118	1742.29
566.542	1746.62
566.966	1735.6
567.39	1726.82
567.814	1711.72
568.238	1706.79
568.662	1707.45
569.086	1706.43
569.509	1708.02
569.933	1690.87
570.357	1680.18
570.78	1657.6
571.204	1641.48
571.627	1628.37
572.05	1622.94
572.474	1619.75
572.897	1605.33
573.32	1594.75
573.743	1581.71
574.166	1563.01
574.589	1559.61
575.012	1551.11
575.435	1548.09
575.858	1538.94
576.281	1528.1
576.704	1511.63
577.126	1499.53
577.549	1488.44
577.972	1478.61
578.394	1468.61
578.817	1461.03
579.239	1442.62
579.661	1429.01
580.084	1413.63
580.506	1400.19
580.928	1394.94
581.35	1385
581.772	1379.03
582.194	1366.48
582.616	1353.81
583.038	1340.24
583.46	1329.3
583.882	1326.1
584.303	1328.67
584.725	1323.56
585.147	1324.88
585.568	1333.15
585.99	1343.72
586.411	1348.96
586.833	1361.14
587.254	1362.11
587.675	1373.42
588.096	1384.01
588.518	1379.28
588.939	1364.03
589.36	1361.66
589.781	1351.71
590.202	1327.88
590.623	1318.94
591.043	1317.05
591.464	1305.35
591.885	1301.15
592.305	1296.32
592.726	1285.17
593.147	1285.31
593.567	1280.87
593.987	1274.31
594.408	1268.62
594.828	1265.32
595.248	1260.41
595.669	1243.99
596.089	1237.38
596.509	1232.32
596.929	1220.13
597.349	1219.17
597.769	1210.84
598.189	1204.66
598.608	1206.18
599.028	1207.33
599.448	1206.03
599.867	1193.26
600.287	1188.54
600.706	1184.39
601.126	1174.45
601.545	1172.3
601.965	1170.07
602.384	1163.57
602.803	1164.57
603.222	1158.68
603.641	1151.6
604.061	1147.59
604.48	1143.21
604.898	1147.75
605.317	1150.64
605.736	1151.95
606.155	1148.7
606.574	1140.16
606.992	1143.52
607.411	1138.49
607.829	1136.18
608.248	1133.53
608.666	1130.92
609.085	1129.23
609.503	1121.87
609.921	1115.93
610.339	1115.67
610.758	1114.02
611.176	1109.28
611.594	1100.26
612.012	1097.42
612.43	1093.88
612.847	1097.4
613.265	1096.92
613.683	1099.93
614.101	1100.44
614.518	1096.6
614.936	1088.87
615.353	1076.91
615.771	1073.61
616.188	1074.48
616.606	1070.48
617.023	1063.72
617.44	1051.32
617.857	1045.34
618.274	1037.84
618.691	1032.93
619.108	1023.81
619.525	1017.95
619.942	1022.47
620.359	1023.96
620.776	1018.89
621.192	1016.39
621.609	1014.23
622.026	1019.5
622.442	1024.59
622.859	1026.73
623.275	1019.63
623.691	1024.23
624.108	1034.07
624.524	1045.54
624.94	1046.28
625.356	1055.56
625.772	1065.61
626.188	1075.19
626.604	1077.02
627.02	1072.9
627.436	1072.15
627.852	1078.97
628.268	1090.39
628.683	1083.23
629.099	1076.5
629.514	1072.9
629.93	1075.09
630.345	1077.98
630.761	1075.44
631.176	1079.22
631.591	1076.09
632.007	1070.66
632.422	1069.14
632.837	1059.18
633.252	1057.5
633.667	1048.65
634.082	1041.44
634.497	1031.94
634.911	1017.73
635.326	1014.5
635.741	999.68
636.155	991.08
636.57	993.82
636.984	993.46
637.399	995.24
637.813	995.28
638.228	995.8
638.642	998.98
639.056	990.65
639.47	990.28
639.884	984.06
640.298	979.78
640.712	979.56
641.126	969
641.54	962.75
641.954	957.76
642.368	947.11
642.781	941.53
643.195	928.1
643.609	929.04
644.022	924.57
644.436	921.19
644.849	911.42
645.262	901.8
645.676	903.7
646.089	900.77
646.502	891.26
646.915	888.1
647.328	874.47
647.741	873.05
648.154	863.24
648.567	862.4
648.98	852.8
649.393	853.67
649.805	851.4
650.218	845.53
650.631	832.57
651.043	826.59
651.456	822.77
651.868	823.95
652.28	839.58
652.693	851.5
653.105	857.34
653.517	866.55
653.929	868.78
654.341	874.72
654.753	866.03
655.165	872.54
655.577	873.33
655.989	871.13
656.401	866.14
656.813	837.06
657.224	820.19
657.636	798.5
658.047	786.25
658.459	771.86
658.87	766.99
659.282	759.48
659.693	745.69
660.104	735.62
660.515	726.57
660.926	728.2
661.338	728.41
661.749	726.98
662.159	720.99
662.57	719.56
662.981	718.69
663.392	714.78
663.803	721.89
664.213	723.01
664.624	722.07
665.035	727.86
665.445	718.05
665.855	716.32
666.266	712.66
666.676	714.38
667.086	709.45
667.497	711.38
667.907	708.22
668.317	701.64
668.727	701.36
669.137	704.2
669.547	703.29
669.956	707.79
670.366	710.66
670.776	713.6
671.186	719.14
671.595	723.66
672.005	728.07
672.414	728.65
672.824	728.86
673.233	731.94
673.642	735.93
674.052	740.59
674.461	743.05
674.87	747.86
675.279	746.5
675.688	746.75
676.097	748.16
676.506	745.51
676.915	759.22
677.323	761.52
677.732	760.63
678.141	758.73
678.549	747.43
678.958	745.09
679.366	743.99
679.775	747.11
680.183	757.18
680.592	761.03
681	765.61
681.408	757.77
681.816	762.64
682.224	767.86
682.632	774.77
683.04	798.32
683.448	817.39
683.856	839.57
684.264	866.18
684.671	889.26
685.079	918.83
685.487	950.35
685.894	997.02
686.302	1032.41
686.709	1060.02
687.116	1093.11
687.524	1118.69
687.931	1139.77
688.338	1155.84
688.745	1168.62
689.152	1183.42
689.559	1209.3
689.966	1235.97
690.373	1246.63
690.78	1273.67
691.187	1320.6
691.593	1357.08
692	1389.71
692.407	1438.88
692.813	1504.56
693.22	1557.12
693.626	1613.38
694.032	1660.79
694.439	1731.88
694.845	1788.45
695.251	1863.54
695.657	1930.78
696.063	2027.78
696.469	2105.03
696.875	2180.97
