Data from C_3_DEC_CT_2N_Splice17_13-00-58-277.txt Node
Date: Sat Mar 14 13:00:58 EDT 2020
User: sa697716
Spectrometer: FLMS03696
Trigger mode: 0
Integration Time (sec): 3.180400E-1
Scans to average: 20
Electric dark correction enabled: true
Nonlinearity correction enabled: true
Boxcar width: 5
XAxis mode: Wavelengths
Number of Pixels in Spectrum: 2048
>>>>>Begin Spectral Data<<<<<
187.83	-370210.47
188.298	2693.44
188.766	1416.21
189.233	1245.22
189.701	1781.95
190.169	2495.23
190.636	988.95
191.104	813.03
191.571	153.37
192.039	-46.78
192.506	-72.17
192.974	413.22
193.441	-638.44
193.908	-169.2
194.375	-51.19
194.842	48.98
195.31	86.16
195.777	156.05
196.244	391.26
196.711	546.98
197.177	705.44
197.644	1016.65
198.111	1780.24
198.578	2515.55
199.045	2034.04
199.511	3356.31
199.978	3962.54
200.445	3402.93
200.911	3797.71
201.378	4256.25
201.844	3851.09
202.31	6613.5
202.777	6895.89
203.243	3868.65
203.709	3702.67
204.176	4422.99
204.642	3624.49
205.108	3367.63
205.574	2762.11
206.04	2535.19
206.506	2383.65
206.972	2259.71
207.438	2180.69
207.903	2497.87
208.369	2179.6
208.835	2172.51
209.301	2278.04
209.766	2355.38
210.232	2346.57
210.697	2904.61
211.163	3625.05
211.628	5538.54
212.094	4658.21
212.559	5729.64
213.024	3593.91
213.49	4403.38
213.955	4307.71
214.42	4251.97
214.885	3970.68
215.35	3828.99
215.815	3669.68
216.28	3914.83
216.745	3225.38
217.21	3528.16
217.675	3331.3
218.14	3816.08
218.604	4362.24
219.069	5100.07
219.534	5432.09
219.998	6444.28
220.463	7952.93
220.927	10036.45
221.392	9559.59
221.856	9776.35
222.32	12471.87
222.785	15472.06
223.249	19605.46
223.713	21977.01
224.177	22078.02
224.642	28488.37
225.106	35160.89
225.57	38538.05
226.034	28621.1
226.497	43655.94
226.961	39420.68
227.425	45984.38
227.889	51154.16
228.353	51221.27
228.816	106113.1
229.28	101491.83
229.744	85682.4
230.207	52080.71
230.671	51281.37
231.134	85190.38
231.597	98182.02
232.061	98473.7
232.524	96022.38
232.987	66192.27
233.45	59559.48
233.914	53433.67
234.377	54846.91
234.84	50215.63
235.303	59251.65
235.766	66113.03
236.229	68287.79
236.691	43064.1
237.154	48371.38
237.617	36395.25
238.08	37249.56
238.542	43626.9
239.005	31159.45
239.468	30909.97
239.93	29120.9
240.393	26462.21
240.855	23226.32
241.317	23778.86
241.78	28955.91
242.242	29901.88
242.704	32261.98
243.166	28100.48
243.629	25486.43
244.091	29373.58
244.553	32179.41
245.015	34599.38
245.477	44817.8
245.939	65764.57
246.4	69841.81
246.862	67881.19
247.324	64012.44
247.786	71737.72
248.247	94058.06
248.709	97246.32
249.17	72699.64
249.632	68460.96
250.093	79299.32
250.555	68474.6
251.016	41745.36
251.477	39606.4
251.939	42751.31
252.4	44897.06
252.861	53449.28
253.322	49744.46
253.783	59275.12
254.244	76975.11
254.705	60864.71
255.166	54232.87
255.627	53453.72
256.088	75373.19
256.549	80169.8
257.009	69084.76
257.47	83913.28
257.931	68323.4
258.391	51210.66
258.852	52804.61
259.312	55430.1
259.773	68459.51
260.233	57797.92
260.694	48754
261.154	55431
261.614	44434.53
262.074	39796.74
262.534	41375.46
262.994	39048.45
263.455	52101.16
263.915	43914.66
264.374	41408.62
264.834	45272.29
265.294	50297.68
265.754	52116.06
266.214	49383.17
266.673	46331.23
267.133	58491.76
267.593	58089.57
268.052	71111.64
268.512	61921.89
268.971	74694.15
269.431	81974.96
269.89	73497.68
270.349	110266.73
270.809	123101.87
271.268	110685.67
271.727	248617.86
272.186	161238.2
272.645	121044.55
273.104	87484.31
273.563	126697.44
274.022	99837.62
274.481	84909.94
274.94	65372.46
275.399	48636.96
275.857	56681.05
276.316	76740.06
276.775	68352.04
277.233	67304.76
277.692	62943.03
278.15	71161.91
278.609	73228.87
279.067	67769.89
279.525	62915.43
279.984	81296.63
280.442	97655.53
280.9	96153.99
281.358	63221.07
281.816	58861.38
282.274	57648.1
282.732	59633.16
283.19	59914.84
283.648	51704.17
284.106	55103.17
284.564	56141.55
285.021	52067.73
285.479	38788.57
285.937	35325.92
286.394	30980.76
286.852	31898.07
287.309	33534.42
287.767	32353.95
288.224	30750.52
288.682	33751.11
289.139	37018.98
289.596	33832.64
290.053	35193.88
290.511	44472.42
290.968	53958.72
291.425	73343.74
291.882	61000.33
292.339	53092.02
292.796	52738.61
293.252	49759.03
293.709	39493.95
294.166	35421.54
294.623	39184.86
295.079	37621.91
295.536	37763.97
295.992	34271.6
296.449	33878.59
296.905	35189.43
297.362	33706.69
297.818	35496.33
298.274	36807.68
298.731	37532.5
299.187	37120.52
299.643	39853.04
300.099	48176.62
300.555	52845.7
301.011	44151.43
301.467	42476.01
301.923	49781.83
302.379	48623.63
302.835	47721.77
303.291	47734.25
303.746	54344.64
304.202	68647.32
304.658	68916.72
305.113	46310.61
305.569	45367.27
306.024	48390.97
306.479	46127.49
306.935	38858.38
307.39	42422.72
307.845	39119.49
308.301	39379.27
308.756	38350.42
309.211	36898.8
309.666	37760.92
310.121	46797.88
310.576	47491.45
311.031	47108.69
311.486	53949.8
311.94	53920.1
312.395	72138.45
312.85	135699.48
313.305	666700.38
313.759	3445336.14
314.214	249733.12
314.668	197940.3
315.123	166394.26
315.577	59568.66
316.032	52943.32
316.486	66357.34
316.94	52289.33
317.394	36390.35
317.849	28258.49
318.303	26751.83
318.757	25263.62
319.211	27942.93
319.665	24459.17
320.119	24777.66
320.572	35587.55
321.026	33219.66
321.48	27626.7
321.934	30172.15
322.387	30241.9
322.841	32664.67
323.295	29278.49
323.748	33759.86
324.202	34241.08
324.655	41072.18
325.108	57256.63
325.562	40381.98
326.015	48032.88
326.468	36296.68
326.921	40527.41
327.374	37748.44
327.827	39256.92
328.28	44516.21
328.733	29784.87
329.186	26156.69
329.639	24923.71
330.092	21029.09
330.545	20006.21
330.997	20150.83
331.45	21991.72
331.903	25748.53
332.355	44329.59
332.808	43104.17
333.26	35501.53
333.713	38511.97
334.165	38778.03
334.617	51801.74
335.069	41892.58
335.522	75856.24
335.974	83934.89
336.426	76720.97
336.878	53204.82
337.33	26935.06
337.782	26279.77
338.234	32895.43
338.686	39348.08
339.137	46677.31
339.589	43955.86
340.041	34431.11
340.493	29595.51
340.944	30312.89
341.396	32642.25
341.847	27386.4
342.299	32306.13
342.75	39407.73
343.201	34529.21
343.653	39744.39
344.104	48870.39
344.555	38439.6
345.006	59942.44
345.457	45833.06
345.908	36425.79
346.359	34209.46
346.81	27894.7
347.261	29388.92
347.712	28926.73
348.163	30995.56
348.613	31268.23
349.064	29170.33
349.515	25539.17
349.965	26130.88
350.416	31485.36
350.866	34572.45
351.317	39153.46
351.767	64797.52
352.217	81851.07
352.668	67991.98
353.118	62238.69
353.568	60190.32
354.018	47516.39
354.468	50077.53
354.918	35911.45
355.368	31388.32
355.818	44328.42
356.268	127656.11
356.718	533542.22
357.168	132922.25
357.617	66679.26
358.067	74230.98
358.517	69480.21
358.966	81447.84
359.416	91283.1
359.865	98746.52
360.315	117547.67
360.764	54880.97
361.213	30677.19
361.663	29134.6
362.112	35950.95
362.561	58026.81
363.01	43687.03
363.459	36775.56
363.908	39814.55
364.357	33791.15
364.806	57051.72
365.255	39284.77
365.703	35907.32
366.152	35950.2
366.601	29082.28
367.05	23573.84
367.498	21402.53
367.947	22381.4
368.395	23280.98
368.844	20588.46
369.292	24833.54
369.74	17134.12
370.189	26208.05
370.637	30721.6
371.085	26473.78
371.533	32252.06
371.981	31102.86
372.429	29654.35
372.877	30873.06
373.325	25824.33
373.773	26323.32
374.221	23441.38
374.669	29067.75
375.116	25126.77
375.564	25316.98
376.012	28324.55
376.459	23338.16
376.907	27868.13
377.354	33645.46
377.801	31305.53
378.249	35872.86
378.696	45834.96
379.143	55466.56
379.591	59119.45
380.038	99911.43
380.485	72118.37
380.932	77805.54
381.379	70941.99
381.826	52122.04
382.273	37037.25
382.72	32393.77
383.166	31579.7
383.613	20445.11
384.06	18391.68
384.506	21269.31
384.953	15617.61
385.4	15697.16
385.846	13736.53
386.292	13404.07
386.739	13108.32
387.185	12959.53
387.631	12946.32
388.078	12529.29
388.524	13398.77
388.97	12376.59
389.416	10287.24
389.862	10903.79
390.308	10310.49
390.754	10447.9
391.2	11311.96
391.645	11561.09
392.091	11004.66
392.537	10605.74
392.983	10612.93
393.428	10389.99
393.874	11102.21
394.319	11111.14
394.765	10506.48
395.21	10802.57
395.655	10126.76
396.101	9460.2
396.546	8531.11
396.991	8610.41
397.436	7991.18
397.881	7708.21
398.326	7306.33
398.771	6893.87
399.216	6027.13
399.661	5418.46
400.106	5383.29
400.551	5496.84
400.995	4927.55
401.44	4865.75
401.885	4565.66
402.329	4610.7
402.774	4420.59
403.218	4265.42
403.663	4111.97
404.107	4220.97
404.551	4248.44
404.995	3892.66
405.44	3746.42
405.884	3804.75
406.328	3677.28
406.772	3665.94
407.216	3331.8
407.66	3213.74
408.104	3053.28
408.547	2854.83
408.991	2759.78
409.435	2657.38
409.879	2619.19
410.322	2581.84
410.766	2488.69
411.209	2363.4
411.653	2265.01
412.096	2215.79
412.54	2218.36
412.983	2205.32
413.426	2206.93
413.869	2206.38
414.312	2160.68
414.756	2080.54
415.199	1984.42
415.642	1923.83
416.085	1927.18
416.527	1913.19
416.97	1944.42
417.413	1841.73
417.856	1822.17
418.298	1802.55
418.741	1789.34
419.184	1786.09
419.626	1861.59
420.069	1861.87
420.511	1870.09
420.953	1827.25
421.396	1809.34
421.838	1761.43
422.28	1801.08
422.722	1806.26
423.164	1832.33
423.606	1801.54
424.048	1800.56
424.49	1710.48
424.932	1703.76
425.374	1686.3
425.816	1715.87
426.258	1750.89
426.699	1772.09
427.141	1743.42
427.582	1769.32
428.024	1760.44
428.465	1749.62
428.907	1704.97
429.348	1686.02
429.789	1682.91
430.231	1642.64
430.672	1665.45
431.113	1624.34
431.554	1597.27
431.995	1558.77
432.436	1502.13
432.877	1468.2
433.318	1442.44
433.759	1434.22
434.2	1432.96
434.64	1418.21
435.081	1422.35
435.522	1346.38
435.962	1296.23
436.403	1267.06
436.843	1286.23
437.284	1258.36
437.724	1226.33
438.164	1230.83
438.604	1203.65
439.045	1155.2
439.485	1104.69
439.925	1078.05
440.365	1050.28
440.805	1035.95
441.245	1023.19
441.685	983.41
442.125	976.61
442.564	980.27
443.004	955.74
443.444	951.78
443.883	952.13
444.323	945.73
444.762	948.77
445.202	958.85
445.641	974.83
446.081	968.26
446.52	973.94
446.959	960.73
447.398	935.8
447.837	922.39
448.276	905.16
448.716	910.92
449.154	917.09
449.593	895.77
450.032	891.63
450.471	872.4
450.91	871.3
451.349	866.75
451.787	863.28
452.226	875.39
452.664	873.66
453.103	875.75
453.541	874.76
453.98	870.39
454.418	872.47
454.856	857.46
455.295	855.53
455.733	861.41
456.171	866.68
456.609	863.74
457.047	861.79
457.485	872.22
457.923	870.82
458.361	857.43
458.798	859.31
459.236	855.91
459.674	861.54
460.111	865.65
460.549	856.18
460.987	852.98
461.424	851.84
461.862	846.26
462.299	833.01
462.736	831.18
463.173	833.2
463.611	824.83
464.048	822.98
464.485	828.53
464.922	820.36
465.359	816.19
465.796	802.42
466.233	795.62
466.67	787.78
467.106	785.11
467.543	777.34
467.98	767.21
468.416	746.89
468.853	740.74
469.29	718.02
469.726	709.09
470.162	689.78
470.599	681.93
471.035	675.94
471.471	659.93
471.907	657.24
472.344	652.49
472.78	654.19
473.216	662.26
473.652	654.4
474.088	653.81
474.523	651.26
474.959	657.32
475.395	650.97
475.831	646.43
476.266	649.47
476.702	646.25
477.138	638.68
477.573	636.45
478.008	632.6
478.444	633.84
478.879	637.71
479.314	639.55
479.75	637.42
480.185	639.37
480.62	644.09
481.055	646.41
481.49	651.22
481.925	659.7
482.36	669.83
482.795	688.2
483.229	706.6
483.664	720.28
484.099	722.02
484.534	732.23
484.968	738.56
485.403	739.66
485.837	737.6
486.271	734.37
486.706	734.72
487.14	724.91
487.574	711.49
488.009	702.6
488.443	695.02
488.877	700.2
489.311	699.94
489.745	705.5
490.179	708.62
490.613	718.92
491.046	722.19
491.48	724.29
491.914	721.9
492.348	724.04
492.781	725.35
493.215	723.71
493.648	722.71
494.082	725.9
494.515	723.04
494.948	727.91
495.382	729.4
495.815	730.56
496.248	732.7
496.681	742.16
497.114	749.94
497.547	755.96
497.98	765.76
498.413	767.58
498.846	772.52
499.279	776.81
499.711	777.27
500.144	775.13
500.577	781.43
501.009	787.74
501.442	792.84
501.874	789.67
502.306	787.82
502.739	790.51
503.171	799.31
503.603	798.45
504.036	802.64
504.468	803.95
504.9	810.05
505.332	810.95
505.764	810.55
506.196	812.37
506.627	821.19
507.059	829.68
507.491	833.03
507.923	828.8
508.354	837.46
508.786	843.91
509.217	856.46
509.649	867.21
510.08	881.3
510.512	893.04
510.943	903.7
511.374	911.71
511.805	926.94
512.237	941.39
512.668	966.61
513.099	988.39
513.53	1010.7
513.961	1027.44
514.391	1052.98
514.822	1081.36
515.253	1110.82
515.684	1133.41
516.114	1159.23
516.545	1177.69
516.975	1201.8
517.406	1217.84
517.836	1221.32
518.267	1228.4
518.697	1245.63
519.127	1252.11
519.558	1259.27
519.988	1264.97
520.418	1275.82
520.848	1292.81
521.278	1302.7
521.708	1330.18
522.138	1344.66
522.567	1375.37
522.997	1399.68
523.427	1415.43
523.857	1433.41
524.286	1445.84
524.716	1463.52
525.145	1483.21
525.575	1497.37
526.004	1514.66
526.433	1503.3
526.863	1506.81
527.292	1501.92
527.721	1511.31
528.15	1520.77
528.579	1524.97
529.008	1538.67
529.437	1562.12
529.866	1578.17
530.295	1597.04
530.724	1611.8
531.152	1640.32
531.581	1656.84
532.01	1674.61
532.438	1684.57
532.867	1700.44
533.295	1720.87
533.723	1729.49
534.152	1729.34
534.58	1731.67
535.008	1718.36
535.436	1721.58
535.865	1729.54
536.293	1744.14
536.721	1761.17
537.149	1786.25
537.576	1790.56
538.004	1802.77
538.432	1810.82
538.86	1810.23
539.287	1818.33
539.715	1832.48
540.143	1835.98
540.57	1833.43
540.998	1830.98
541.425	1810.48
541.852	1792.54
542.28	1791.73
542.707	1777.34
543.134	1765.18
543.561	1763.16
543.988	1756.75
544.415	1757.39
544.842	1752.59
545.269	1746.76
545.696	1748.31
546.123	1761.23
546.549	1751.75
546.976	1740.83
547.403	1742.5
547.829	1744.95
548.256	1746.72
548.682	1743.07
549.108	1736.98
549.535	1736.95
549.961	1739.17
550.387	1728.28
550.813	1725.57
551.24	1733
551.666	1733.8
552.092	1724.54
552.518	1719.31
552.943	1714.45
553.369	1723.02
553.795	1728.07
554.221	1729.95
554.646	1727.66
555.072	1737.11
555.498	1740.16
555.923	1747.04
556.349	1760.96
556.774	1767.68
557.199	1767.47
557.625	1771.78
558.05	1763.95
558.475	1772.1
558.9	1769.49
559.325	1760.23
559.75	1752.66
560.175	1743.68
560.6	1735.82
561.025	1731.54
561.449	1730.47
561.874	1732.91
562.299	1735.17
562.723	1739.24
563.148	1727.74
563.572	1729.42
563.997	1736.56
564.421	1738.85
564.846	1736.93
565.27	1737.99
565.694	1732.18
566.118	1739.79
566.542	1743.38
566.966	1733.4
567.39	1725.91
567.814	1711
568.238	1706.26
568.662	1707.36
569.086	1706.01
569.509	1709.58
569.933	1692.43
570.357	1681.95
570.78	1659.06
571.204	1643.84
571.627	1630.86
572.05	1626.75
572.474	1624.24
572.897	1609.49
573.32	1598.7
573.743	1586.58
574.166	1567.47
574.589	1564.07
575.012	1555.71
575.435	1551.71
575.858	1541.55
576.281	1530.1
576.704	1513.41
577.126	1500.48
577.549	1490.25
577.972	1480.21
578.394	1470.11
578.817	1462.6
579.239	1444.4
579.661	1431.78
580.084	1417.37
580.506	1404.08
580.928	1399.18
581.35	1389.16
581.772	1385.18
582.194	1371.95
582.616	1360.16
583.038	1346.87
583.46	1336.76
583.882	1334.02
584.303	1336.48
584.725	1332.23
585.147	1334.27
585.568	1343.4
585.99	1353.12
586.411	1357.64
586.833	1370.77
587.254	1371.85
587.675	1384.18
588.096	1394.1
588.518	1388.75
588.939	1373.47
589.36	1371
589.781	1361.16
590.202	1336.65
590.623	1328.85
591.043	1326.44
591.464	1314.96
591.885	1310.14
592.305	1304.94
592.726	1292.98
593.147	1293.39
593.567	1288.6
593.987	1281.97
594.408	1277.7
594.828	1275.25
595.248	1269.47
595.669	1252.08
596.089	1243.87
596.509	1238.76
596.929	1225.68
597.349	1225.07
597.769	1216.04
598.189	1210.34
598.608	1211.44
599.028	1212.71
599.448	1211.67
599.867	1199.77
600.287	1195.59
600.706	1192.52
601.126	1183.25
601.545	1182.1
601.965	1180.62
602.384	1175.1
602.803	1176.01
603.222	1170.04
603.641	1163.13
604.061	1158.91
604.48	1154.39
604.898	1160.59
605.317	1163.13
605.736	1163.62
606.155	1159.44
606.574	1150.76
606.992	1154.37
607.411	1149.72
607.829	1146.79
608.248	1143.02
608.666	1140.24
609.085	1140.25
609.503	1132.69
609.921	1127.72
610.339	1128.9
610.758	1128.23
611.176	1123.64
611.594	1115.62
612.012	1111.84
612.43	1109.77
612.847	1114.69
613.265	1115.43
613.683	1118.35
614.101	1119.28
614.518	1114.76
614.936	1105.47
615.353	1093.48
615.771	1090.25
616.188	1089.5
616.606	1086.63
617.023	1079.98
617.44	1068.13
617.857	1061.94
618.274	1054.9
618.691	1049.81
619.108	1041.87
619.525	1037.05
619.942	1041.33
620.359	1044.19
620.776	1039.78
621.192	1037.15
621.609	1035.05
622.026	1040.83
622.442	1045.71
622.859	1047.54
623.275	1041.03
623.691	1045.82
624.108	1055.75
624.524	1067.77
624.94	1067.3
625.356	1076.94
625.772	1087.37
626.188	1097.56
626.604	1098.79
627.02	1094.52
627.436	1092.84
627.852	1098.88
628.268	1109.48
628.683	1102.2
629.099	1095.54
629.514	1092.45
629.93	1095.35
630.345	1099.03
630.761	1095.83
631.176	1098.04
631.591	1094.88
632.007	1090.2
632.422	1088.48
632.837	1078.03
633.252	1075.94
633.667	1068.4
634.082	1060.81
634.497	1049.83
634.911	1034.69
635.326	1032.77
635.741	1019.75
636.155	1011.77
636.57	1013.36
636.984	1014.09
637.399	1017.69
637.813	1018.45
638.228	1018.99
638.642	1022.81
639.056	1016.24
639.47	1017.46
639.884	1010.73
640.298	1005.85
640.712	1005.74
641.126	996.73
641.54	990.53
641.954	986.07
642.368	976.95
642.781	970.9
643.195	958.36
643.609	959.85
644.022	956.33
644.436	954.47
644.849	945.58
645.262	937.12
645.676	938.93
646.089	936.59
646.502	926.07
646.915	922.99
647.328	909.91
647.741	909.27
648.154	899.92
648.567	899.28
648.98	888.99
649.393	890.86
649.805	888.42
650.218	883.79
650.631	871.25
651.043	866.56
651.456	862.41
651.868	864.12
652.28	879.79
652.693	891.46
653.105	897.47
653.517	907.58
653.929	909.97
654.341	917.08
654.753	907.75
655.165	914.24
655.577	913.06
655.989	911.85
656.401	907.15
656.813	877.88
657.224	863.16
657.636	839.71
658.047	826.52
658.459	810.73
658.87	804.41
659.282	797.54
659.693	782.91
660.104	773.98
660.515	764.07
660.926	766.45
661.338	767.07
661.749	764.99
662.159	760.59
662.57	758.57
662.981	759.35
663.392	757.18
663.803	764.3
664.213	765.76
664.624	765.59
665.035	772.36
665.445	761.52
665.855	758.78
666.266	754.74
666.676	756.22
667.086	752.14
667.497	754.36
667.907	752.12
668.317	746.25
668.727	745.88
669.137	749.04
669.547	749.56
669.956	755.36
670.366	759.3
670.776	762.67
671.186	768.48
671.595	773.8
672.005	778.77
672.414	779.2
672.824	778.64
673.233	784.13
673.642	788.11
674.052	791.45
674.461	793.65
674.87	798.67
675.279	796.89
675.688	798.54
676.097	799.92
676.506	796.46
676.915	810.14
677.323	812.6
677.732	809.6
678.141	808.22
678.549	796.87
678.958	795.63
679.366	792.9
679.775	796.65
680.183	805.21
680.592	809.49
681	812.83
681.408	803.92
681.816	809.44
682.224	815.02
682.632	820.86
683.04	845.93
683.448	864.25
683.856	889.29
684.264	916.53
684.671	940.8
685.079	970.26
685.487	1003.59
685.894	1050.95
686.302	1086.22
686.709	1113.73
687.116	1147.66
687.524	1173
687.931	1191.53
688.338	1205.43
688.745	1215.38
689.152	1229.9
689.559	1254.44
689.966	1278.79
690.373	1287.04
690.78	1313.71
691.187	1360.2
691.593	1393.68
692	1421.68
692.407	1471.21
692.813	1534.58
693.22	1585.76
693.626	1638.66
694.032	1684.17
694.439	1752.99
694.845	1809.14
695.251	1879.4
695.657	1944.29
696.063	2040.12
