Data from C_3_DEC_OH_4N_Splice17_13-25-53-003.txt Node
Date: Sat Mar 14 13:25:53 EDT 2020
User: sa697716
Spectrometer: FLMS03696
Trigger mode: 0
Integration Time (sec): 3.180400E-1
Scans to average: 20
Electric dark correction enabled: true
Nonlinearity correction enabled: true
Boxcar width: 5
XAxis mode: Wavelengths
Number of Pixels in Spectrum: 2048
>>>>>Begin Spectral Data<<<<<
187.83	-394121.02
188.298	2860.41
188.766	1511.99
189.233	1411.43
189.701	2045.56
190.169	2823.42
190.636	1063.7
191.104	822.19
191.571	129.8
192.039	-85.03
192.506	-90.63
192.974	519.34
193.441	-790.19
193.908	-163.19
194.375	1.75
194.842	109.08
195.31	259.38
195.777	258.44
196.244	439.71
196.711	424.88
197.177	497.02
197.644	663.03
198.111	1154.74
198.578	1563.93
199.045	1234.87
199.511	1984.62
199.978	2281.37
200.445	1936.29
200.911	2112.08
201.378	2317.35
201.844	2108.64
202.31	3591.89
202.777	3763.99
203.243	2071.02
203.709	1992.93
204.176	2378.64
204.642	1966.69
205.108	1849.3
205.574	1493.9
206.04	1322.38
206.506	1258.07
206.972	1165.58
207.438	1119.23
207.903	1275.38
208.369	1138.11
208.835	1135.86
209.301	1190.04
209.766	1196.63
210.232	1172.15
210.697	1435.08
211.163	1766.58
211.628	2615.17
212.094	2212.29
212.559	2760.78
213.024	1698.44
213.49	2066.94
213.955	1995.81
214.42	1895.85
214.885	1787.56
215.35	1732.02
215.815	1745.46
216.28	1864.86
216.745	1495.81
217.21	1610.33
217.675	1417.68
218.14	1580.26
218.604	1711.37
219.069	1916.34
219.534	2011.99
219.998	2271.52
220.463	2686.92
220.927	3163.64
221.392	2923.68
221.856	2935.38
222.32	3632.34
222.785	4483.53
223.249	5571.09
223.713	6173.69
224.177	6166.71
224.642	7788.41
225.106	9550.67
225.57	10368.38
226.034	7722.95
226.497	11745.7
226.961	10625.96
227.425	12343.77
227.889	13626.63
228.353	13586.77
228.816	27855.29
229.28	26542.99
229.744	22354.05
230.207	13597.27
230.671	13378.86
231.134	21927.42
231.597	25252.11
232.061	25188.16
232.524	24519.51
232.987	16880.1
233.45	15223.66
233.914	13676.52
234.377	13948.92
234.84	12766.44
235.303	14978.69
235.766	16701.55
236.229	17245
236.691	10834.05
237.154	12147.8
237.617	9169.22
238.08	9377.64
238.542	10964.53
239.005	7841.78
239.468	7819.47
239.93	7388.81
240.393	6730.75
240.855	5919.96
241.317	6075.24
241.78	7387.7
242.242	7664.67
242.704	8306.36
243.166	7255.94
243.629	6631.17
244.091	7659.8
244.553	8376.4
245.015	9002.42
245.477	11652.41
245.939	17060.64
246.4	18116.24
246.862	17612.49
247.324	16624.25
247.786	18567.83
248.247	24302.82
248.709	24949.5
249.17	18677.32
249.632	17714.6
250.093	20613.63
250.555	17808.92
251.016	10905.63
251.477	10354.89
251.939	11198.71
252.4	11736.45
252.861	13916.64
253.322	12972.21
253.783	15416.84
254.244	19998.99
254.705	15733.55
255.166	13976.96
255.627	13797.26
256.088	19462.26
256.549	20680.88
257.009	17796.81
257.47	21563.89
257.931	17578.37
258.391	13180.45
258.852	13632.05
259.312	14276.75
259.773	17618.47
260.233	14914.2
260.694	12598.39
261.154	14274.41
261.614	11516.05
262.074	10296.31
262.534	10729
262.994	10117.37
263.455	13462.21
263.915	11331.93
264.374	10672.58
264.834	11632.48
265.294	12854.05
265.754	13302.81
266.214	12579.94
266.673	11774.79
267.133	14846.05
267.593	14693.53
268.052	17994.57
268.512	15629.61
268.971	18933.61
269.431	20777.7
269.89	18647.8
270.349	28002.87
270.809	31256.21
271.268	28092.07
271.727	62804.23
272.186	40727.15
272.645	30530.77
273.104	21979.39
273.563	31814.79
274.022	24900.51
274.481	21230.97
274.94	16346.64
275.399	12119.24
275.857	14091.99
276.316	19096.73
276.775	17021.77
277.233	16780.7
277.692	15771.15
278.15	17892.61
278.609	18493.85
279.067	17133
279.525	15946.66
279.984	20619.88
280.442	24866.3
280.9	24608.68
281.358	16200.23
281.816	15122.68
282.274	14829.72
282.732	15289.93
283.19	15361.8
283.648	13249.59
284.106	14129.92
284.564	14349.39
285.021	13334.64
285.479	9930.69
285.937	9005.93
286.394	7931.28
286.852	8177.15
287.309	8600.5
287.767	8367.88
288.224	7992.29
288.682	8791.01
289.139	9701.11
289.596	8901.04
290.053	9255.02
290.511	11706.99
290.968	14272.99
291.425	19369.63
291.882	16229.69
292.339	14172.23
292.796	14045.52
293.252	13243.73
293.709	10560.49
294.166	9461.74
294.623	10464.4
295.079	10047.69
295.536	10131.78
295.992	9213.74
296.449	9107.33
296.905	9453.54
297.362	9091.64
297.818	9560.23
298.274	9941.44
298.731	10120.19
299.187	10025.28
299.643	10766.91
300.099	13038.38
300.555	14291.57
301.011	11953.85
301.467	11618.54
301.923	13580.12
302.379	13289.57
302.835	13046.2
303.291	13075.48
303.746	14877.37
304.202	18814.49
304.658	18950.45
305.113	12761.77
305.569	12542.01
306.024	13355.88
306.479	12653.05
306.935	10703.91
307.39	11653.7
307.845	10813.24
308.301	10908.77
308.756	10646.56
309.211	10277.48
309.666	10543.33
310.121	13134.38
310.576	13319.41
311.031	13234.85
311.486	15165.45
311.94	15147.87
312.395	20296.48
312.85	38188.37
313.305	187252.27
313.759	974901.19
314.214	70757.25
314.668	56172.98
315.123	47381.76
315.577	17079.57
316.032	15197.76
316.486	19109.88
316.94	15136.32
317.394	10567.41
317.849	8230.99
318.303	7799.6
318.757	7374.08
319.211	8165.38
319.665	7138.98
320.119	7239.41
320.572	10359
321.026	9704.14
321.48	8058.33
321.934	8766.49
322.387	8783.47
322.841	9499.07
323.295	8604.2
323.748	9869.52
324.202	10045.08
324.655	12087.46
325.108	16939.29
325.562	11972.42
326.015	14228.02
326.468	10805.07
326.921	12106.52
327.374	11318.24
327.827	11786.06
328.28	13303.37
328.733	8967.15
329.186	7847.81
329.639	7493.82
330.092	6295.8
330.545	6002.62
330.997	6079.81
331.45	6661.11
331.903	7834.8
332.355	13483.04
332.808	13125.48
333.26	10831.3
333.713	11757.43
334.165	11919.35
334.617	15874.03
335.069	12818.62
335.522	23222.78
335.974	25704.07
336.426	23444.08
336.878	16162.43
337.33	8214.45
337.782	8014.83
338.234	10084.52
338.686	12028.31
339.137	14187.16
339.589	13403.21
340.041	10530.46
340.493	9050.04
340.944	9261.29
341.396	10017.42
341.847	8488.08
342.299	10033.26
342.75	12306.24
343.201	10711.58
343.653	12322.66
344.104	15184.42
344.555	11961.51
345.006	18620.57
345.457	14368.57
345.908	11432.36
346.359	10782.86
346.81	8778.92
347.261	9246.32
347.712	9079.15
348.163	9752.72
348.613	9955
349.064	9285.49
349.515	8128.51
349.965	8360.26
350.416	10023.05
350.866	10992.54
351.317	12365.23
351.767	20484.55
352.217	25932.65
352.668	21626.66
353.118	19865.3
353.568	19050.32
354.018	15145.81
354.468	16034.91
354.918	11513.2
355.368	10104.3
355.818	14326.76
356.268	41200.78
356.718	172759.17
357.168	42994.04
357.617	21540.81
358.067	23954.23
358.517	22516.68
358.966	26470.38
359.416	29763.61
359.865	32215.32
360.315	38257.6
360.764	17889.9
361.213	10067.86
361.663	9517.3
362.112	11760.82
362.561	19002.39
363.01	14369.52
363.459	12117.29
363.908	13085.5
364.357	11160.58
364.806	18809.44
365.255	12965.6
365.703	11926.73
366.152	11985.42
366.601	9787.83
367.05	7970.26
367.498	7258.94
367.947	7574.79
368.395	7875.32
368.844	6982.01
369.292	8389.42
369.74	5821.5
370.189	8945.89
370.637	10485.38
371.085	9017.98
371.533	10898.38
371.981	10493.09
372.429	10033.98
372.877	10449.59
373.325	8771.73
373.773	8968.18
374.221	7980
374.669	9907.03
375.116	8537.45
375.564	8588.84
376.012	9637.91
376.459	7981.25
376.907	9543.93
377.354	11529.71
377.801	10790.05
378.249	12404.14
378.696	15833.81
379.143	19166.82
379.591	20400.59
380.038	34770.3
380.485	25265.13
380.932	27262.21
381.379	25075.05
381.826	18537.87
382.273	13169.35
382.72	11493.53
383.166	11225.99
383.613	7315.58
384.06	6600.17
384.506	7660.44
384.953	5599.08
385.4	5610.38
385.846	4918.32
386.292	4771.4
386.739	4655.91
387.185	4607.91
387.631	4618.82
388.078	4497.11
388.524	4784.36
388.97	4428.71
389.416	3693.75
389.862	3934.76
390.308	3723.9
390.754	3779.39
391.2	4100.62
391.645	4190.97
392.091	4032.03
392.537	3888.97
392.983	3884.3
393.428	3855.99
393.874	4122.97
394.319	4154.47
394.765	3960.13
395.21	4081.95
395.655	3830.05
396.101	3589.34
396.546	3250.16
396.991	3272.57
397.436	3044.4
397.881	2934.55
398.326	2766.62
398.771	2634.18
399.216	2293.38
399.661	2053.44
400.106	2050.68
400.551	2107.68
400.995	1894.81
401.44	1874.63
401.885	1764.36
402.329	1789.55
402.774	1723.71
403.218	1685.58
403.663	1625.44
404.107	1679.69
404.551	1704.48
404.995	1564.9
405.44	1508.99
405.884	1536.34
406.328	1487.88
406.772	1481.19
407.216	1349.81
407.66	1307.18
408.104	1232.49
408.547	1149.79
408.991	1113.12
409.435	1073.08
409.879	1063.05
410.322	1051.63
410.766	1019.36
411.209	973.53
411.653	938.92
412.096	925.13
412.54	925.42
412.983	920.99
413.426	929.79
413.869	931.16
414.312	914.48
414.756	881.44
415.199	842.63
415.642	818.81
416.085	824.71
416.527	818.38
416.97	830.44
417.413	791.79
417.856	784.9
418.298	776.73
418.741	768.17
419.184	764.41
419.626	793.89
420.069	794.1
420.511	800.75
420.953	784.12
421.396	780.03
421.838	760.01
422.28	775.27
422.722	782.06
423.164	794.59
423.606	786.95
424.048	786.39
424.49	750.36
424.932	745.62
425.374	733.03
425.816	742.31
426.258	753.3
426.699	762.52
427.141	753.85
427.582	761.66
428.024	757.09
428.465	747.9
428.907	728.55
429.348	717.96
429.789	720.86
430.231	707.43
430.672	717.36
431.113	699.99
431.554	690.14
431.995	668.29
432.436	645.94
432.877	630.64
433.318	622.35
433.759	619.87
434.2	618.68
434.64	611.08
435.081	612.87
435.522	579.24
435.962	557.15
436.403	543.97
436.843	552.14
437.284	539.27
437.724	522.66
438.164	519.48
438.604	507.76
439.045	487.53
439.485	467.85
439.925	455.6
440.365	444.72
440.805	438.52
441.245	434.29
441.685	419.84
442.125	414.84
442.564	416.75
443.004	407.15
443.444	405.18
443.883	406.38
444.323	400.01
444.762	397.84
445.202	400.97
445.641	410.31
446.081	404.34
446.52	405.27
446.959	402.83
447.398	393.31
447.837	389.29
448.276	380.63
448.716	383.94
449.154	385.93
449.593	379.11
450.032	378.63
450.471	369.06
450.91	368.69
451.349	368.54
451.787	364.79
452.226	370.35
452.664	369.7
453.103	370.73
453.541	368.85
453.98	371.31
454.418	372.21
454.856	366.81
455.295	365.31
455.733	368.23
456.171	369.91
456.609	369.49
457.047	368.16
457.485	375.3
457.923	375.89
458.361	370.9
458.798	369.84
459.236	368.78
459.674	368.54
460.111	369.52
460.549	365.78
460.987	362.2
461.424	361.61
461.862	360.21
462.299	353.13
462.736	354.1
463.173	354.71
463.611	353.18
464.048	352.26
464.485	356.72
464.922	353.02
465.359	349.86
465.796	353.63
466.233	351.55
466.67	351.17
467.106	352.35
467.543	346.62
467.98	341.73
468.416	330.83
468.853	327.42
469.29	316.11
469.726	313.28
470.162	305.21
470.599	294.68
471.035	291.28
471.471	280.64
471.907	276.08
472.344	274.48
472.78	276.2
473.216	278.59
473.652	275.12
474.088	275.07
474.523	275.13
474.959	277.98
475.395	275.66
475.831	274.83
476.266	277.2
476.702	277.28
477.138	274.9
477.573	273.63
478.008	273.54
478.444	276.21
478.879	279.65
479.314	280.89
479.75	280.82
480.185	281.31
480.62	283.44
481.055	285.29
481.49	287.44
481.925	291.49
482.36	298.35
482.795	305.85
483.229	313.01
483.664	318.66
484.099	319.03
484.534	324.16
484.968	327.9
485.403	328.23
485.837	327.01
486.271	326.41
486.706	326.69
487.14	321.43
487.574	316.6
488.009	314.1
488.443	311.47
488.877	315.96
489.311	316.81
489.745	320.2
490.179	323.91
490.613	331.56
491.046	334
491.48	336.49
491.914	337.19
492.348	339.44
492.781	341.66
493.215	342.97
493.648	343.27
494.082	346.4
494.515	347.94
494.948	352.66
495.382	354.75
495.815	358.13
496.248	361.79
496.681	368.86
497.114	375.31
497.547	381.08
497.98	388.92
498.413	394.33
498.846	400.18
499.279	405.22
499.711	407.82
500.144	409.69
500.577	417.36
501.009	424.52
501.442	432.06
501.874	435.15
502.306	438.03
502.739	446.24
503.171	455.73
503.603	459.56
504.036	466.92
504.468	472.97
504.9	481.4
505.332	487.16
505.764	491.86
506.196	497.96
506.627	508.35
507.059	518.83
507.491	523.18
507.923	524.39
508.354	536.02
508.786	544.44
509.217	556.81
509.649	567.96
510.08	580.15
510.512	593.08
510.943	603.63
511.374	613.24
511.805	627.46
512.237	641.23
512.668	662.09
513.099	680.04
513.53	698.69
513.961	713.69
514.391	735.56
514.822	760.54
515.253	783.92
515.684	801.94
516.114	822.5
516.545	837.69
516.975	857.11
517.406	871.49
517.836	875.8
518.267	882.48
518.697	895.63
519.127	900.85
519.558	905.85
519.988	910.44
520.418	919.54
520.848	932.27
521.278	940.18
521.708	978.88
522.138	989.37
522.567	1010.22
522.997	1028.96
523.427	1041.06
523.857	1053.83
524.286	1062.44
524.716	1074.23
525.145	1088.75
525.575	1097.85
526.004	1109.32
526.433	1082.37
526.863	1082.56
527.292	1079.56
527.721	1085.15
528.15	1090.18
528.579	1093.15
529.008	1101.6
529.437	1117.64
529.866	1126.75
530.295	1139.36
530.724	1149.42
531.152	1168.08
531.581	1179.33
532.01	1190.75
532.438	1196.19
532.867	1206.79
533.295	1218.95
533.723	1223.66
534.152	1222.67
534.58	1223.89
535.008	1213.67
535.436	1215.16
535.865	1220.07
536.293	1229.04
536.721	1239.78
537.149	1257.34
537.576	1259.07
538.004	1267.05
538.432	1271.39
538.86	1270.31
539.287	1274.25
539.715	1282.66
540.143	1283.34
540.57	1280.29
540.998	1278.39
541.425	1263.6
541.852	1248.62
542.28	1246.8
542.707	1236.13
543.134	1226.63
543.561	1224.49
543.988	1219.47
544.415	1218.67
544.842	1214.62
545.269	1210.39
545.696	1211.74
546.123	1220.35
546.549	1213.61
546.976	1205.46
547.403	1204.48
547.829	1207.04
548.256	1208.69
548.682	1206.54
549.108	1204.29
549.535	1204.07
549.961	1205.58
550.387	1197.03
550.813	1194.37
551.24	1199.47
551.666	1201.41
552.092	1195.74
552.518	1191.56
552.943	1188.06
553.369	1194
553.795	1196.37
554.221	1198.05
554.646	1196.2
555.072	1204.7
555.498	1206.75
555.923	1212.6
556.349	1222.61
556.774	1229.72
557.199	1230.05
557.625	1232.71
558.05	1228.92
558.475	1236.01
558.9	1235.29
559.325	1230.74
559.75	1226.3
560.175	1222.41
560.6	1218.3
561.025	1215.5
561.449	1215.74
561.874	1219.1
562.299	1222.71
562.723	1227.51
563.148	1220.38
563.572	1221.91
563.997	1227.11
564.421	1227.92
564.846	1226.49
565.27	1227.48
565.694	1225.69
566.118	1232.09
566.542	1236.04
566.966	1230.03
567.39	1225.09
567.814	1216.74
568.238	1216.26
568.662	1218.05
569.086	1219.56
569.509	1223.81
569.933	1213.99
570.357	1207.84
570.78	1192.93
571.204	1184.89
571.627	1175.94
572.05	1173.31
572.474	1172.45
572.897	1162.37
573.32	1158.05
573.743	1150.39
574.166	1137.93
574.589	1135.47
575.012	1130.45
575.435	1128.22
575.858	1121.02
576.281	1114.62
576.704	1103.8
577.126	1094.9
577.549	1087.3
577.972	1078.92
578.394	1071.65
578.817	1068.09
579.239	1056.19
579.661	1046.45
580.084	1036.78
580.506	1027.81
580.928	1024.28
581.35	1017.41
581.772	1014.45
582.194	1005.8
582.616	997.5
583.038	988.02
583.46	979.37
583.882	976.9
584.303	978.74
584.725	974.91
585.147	979.05
585.568	986.21
585.99	993.55
586.411	997.3
586.833	1006.08
587.254	1007.13
587.675	1016.28
588.096	1023.6
588.518	1019.8
588.939	1008.96
589.36	1006.86
589.781	995.28
590.202	977.71
590.623	971.76
591.043	968.97
591.464	960.18
591.885	956.93
592.305	952.05
592.726	943.01
593.147	944.07
593.567	939.51
593.987	933.67
594.408	929.09
594.828	925.29
595.248	920.76
595.669	909.04
596.089	905.07
596.509	900.25
596.929	891
597.349	890.88
597.769	882.55
598.189	879.16
598.608	880.38
599.028	882.31
599.448	882.81
599.867	874.08
600.287	871.29
600.706	868.16
601.126	862.53
601.545	862.28
601.965	861.42
602.384	858.02
602.803	858.9
603.222	856.01
603.641	851.03
604.061	848.35
604.48	845.26
604.898	849.45
605.317	852.33
605.736	852.95
606.155	851.01
606.574	844.64
606.992	848.17
607.411	845.35
607.829	838.62
608.248	836.07
608.666	833.71
609.085	833.86
609.503	828.72
609.921	824.09
610.339	824.98
610.758	823.19
611.176	819.93
611.594	814.2
612.012	811.92
612.43	814.9
612.847	817.86
613.265	818.89
613.683	820.73
614.101	821.13
614.518	817.01
614.936	809.48
615.353	800.74
615.771	798.43
616.188	797.78
616.606	795.03
617.023	789.54
617.44	780.72
617.857	773.98
618.274	767.23
618.691	763.33
619.108	758.05
619.525	753.58
619.942	757.67
620.359	759.21
620.776	756.11
621.192	753.42
621.609	751.97
622.026	756.45
622.442	761.31
622.859	763.43
623.275	757.08
623.691	759.41
624.108	766.26
624.524	772.66
624.94	771.31
625.356	776.39
625.772	783.63
626.188	789.31
626.604	790.16
627.02	786.5
627.436	784.78
627.852	790.39
628.268	797.88
628.683	792.25
629.099	787
629.514	783.73
629.93	786.1
630.345	787.43
630.761	783.85
631.176	784.45
631.591	781.17
632.007	776.57
632.422	773.68
632.837	765.65
633.252	764.21
633.667	757.43
634.082	750.8
634.497	742.09
634.911	730.8
635.326	728.39
635.741	717.31
636.155	709.18
636.57	709.41
636.984	707.37
637.399	708.57
637.813	705.08
638.228	703.56
638.642	704.26
639.056	695.47
639.47	693.22
639.884	686.33
640.298	680.39
640.712	677.59
641.126	668.63
641.54	661.02
641.954	653.28
642.368	644.94
642.781	639.29
643.195	627.1
643.609	625.44
644.022	619.12
644.436	614.1
644.849	605.03
645.262	596.19
645.676	594.36
646.089	591.27
646.502	583.47
646.915	579.84
647.328	569.23
647.741	567.48
648.154	559.82
648.567	559.83
648.98	552.64
649.393	552.15
649.805	550.33
650.218	546.04
650.631	537.01
651.043	532.89
651.456	529.72
651.868	527.59
652.28	536.15
652.693	542.89
653.105	543.78
653.517	548.03
653.929	548.33
654.341	550.91
654.753	544.59
655.165	546.92
655.577	545.3
655.989	541.51
656.401	537.66
656.813	519.12
657.224	506.96
657.636	490.52
658.047	482.22
658.459	471.28
658.87	464.98
659.282	457.74
659.693	447.86
660.104	440.5
660.515	432.63
660.926	430.53
661.338	427.95
661.749	424.9
662.159	420.42
662.57	416.55
662.981	414.75
663.392	410.9
663.803	411.94
664.213	409.44
664.624	404.61
665.035	405.63
665.445	397.68
665.855	395.07
666.266	390.34
666.676	389.13
667.086	384.28
667.497	382.72
667.907	379.04
668.317	374.03
668.727	375
669.137	375.03
669.547	373.78
669.956	374.81
670.366	375.02
670.776	376.47
671.186	378.42
671.595	380.23
672.005	382.02
672.414	382.52
672.824	384.12
673.233	382.94
673.642	385.1
674.052	387.12
674.461	390.58
674.87	392.56
675.279	392.72
675.688	394.63
676.097	397.22
676.506	396.38
676.915	405.09
677.323	406.55
677.732	407.32
678.141	408.48
678.549	403.92
678.958	403
679.366	403.94
679.775	406.49
680.183	414.32
680.592	418.12
681	422.96
681.408	420.56
681.816	426.51
682.224	432.36
682.632	440.29
683.04	457.79
683.448	472.72
683.856	491.92
684.264	513.98
684.671	532.37
685.079	556.04
685.487	581.22
685.894	617.03
686.302	646.85
686.709	674.29
687.116	704.36
687.524	731.59
687.931	757.12
688.338	777.45
688.745	793.35
689.152	812.69
689.559	839.95
689.966	869.69
690.373	886.6
690.78	913.96
691.187	952.48
691.593	982.69
692	1009.92
692.407	1050.08
692.813	1101.26
693.22	1142.52
693.626	1184.19
694.032	1218.08
694.439	1266.74
694.845	1305.99
695.251	1353.87
695.657	1399.63
696.063	1464.95
696.469	1513.98
696.875	1559.18
697.281	1584.58
697.687	1616.92
698.093	1645.88
698.498	1698.25
698.904	1740.14
699.31	1799.82
699.715	1846.86
700.12	1907.4
700.526	1925.68
700.931	1974.45
701.337	2013.29
701.742	2039.98
702.147	2099.33
702.552	2123.14
702.957	2165.21
703.362	2181.28
703.767	2205.41
704.172	2235.2
704.577	2207.83
704.981	2239.48
705.386	2253.83
