Data from C_3_HIR_IL_4N_Splice17_13-39-39-873.txt Node
Date: Sat Mar 14 13:39:39 EDT 2020
User: sa697716
Spectrometer: FLMS03696
Trigger mode: 0
Integration Time (sec): 3.180400E-1
Scans to average: 20
Electric dark correction enabled: true
Nonlinearity correction enabled: true
Boxcar width: 5
XAxis mode: Wavelengths
Number of Pixels in Spectrum: 2048
>>>>>Begin Spectral Data<<<<<
187.83	-441397.36
188.298	3096.37
188.766	1579.87
189.233	1347.03
189.701	1877.21
190.169	2548.85
190.636	954.33
191.104	738.18
191.571	60.79
192.039	-149.01
192.506	-148.31
192.974	312.22
193.441	-465.94
193.908	-120.78
194.375	-113.65
194.842	-70.54
195.31	4.08
195.777	160.3
196.244	356.56
196.711	238.17
197.177	255.38
197.644	296.17
198.111	515.49
198.578	656.1
199.045	498.21
199.511	746.3
199.978	791.98
200.445	725.05
200.911	756.84
201.378	739.65
201.844	718.29
202.31	1146.2
202.777	1174.62
203.243	637.06
203.709	579.38
204.176	723.02
204.642	620.84
205.108	585.24
205.574	421.27
206.04	330.36
206.506	309.2
206.972	257.5
207.438	266.82
207.903	297.32
208.369	272.08
208.835	301.14
209.301	317.9
209.766	310.32
210.232	312.4
210.697	376.67
211.163	460.83
211.628	645.78
212.094	585.83
212.559	820.95
213.024	528.77
213.49	693.82
213.955	665.09
214.42	598.06
214.885	557.95
215.35	569.14
215.815	689.77
216.28	771.36
216.745	636.98
217.21	739.04
217.675	648.32
218.14	743.14
218.604	808.19
219.069	957.7
219.534	1093.21
219.998	1298.88
220.463	1589.99
220.927	1879.61
221.392	1798.32
221.856	1899.74
222.32	2376.66
222.785	3003.09
223.249	3823.59
223.713	4332.43
224.177	4399.7
224.642	5610.23
225.106	6983.83
225.57	7699.3
226.034	5872.88
226.497	9021.88
226.961	8230.54
227.425	9696.2
227.889	10764.8
228.353	10882.56
228.816	22586.65
229.28	21813.03
229.744	18452.31
230.207	11308.12
230.671	11178.05
231.134	18376.24
231.597	21383.47
232.061	21338.45
232.524	20740.28
232.987	14353.2
233.45	12968.9
233.914	11655.29
234.377	11875.32
234.84	10921.1
235.303	12876.02
235.766	14391.82
236.229	14889.72
236.691	9348.28
237.154	10505.7
237.617	7973.21
238.08	8169.24
238.542	9567.42
239.005	6871.56
239.468	6848.39
239.93	6462.02
240.393	5884.06
240.855	5180.74
241.317	5302.16
241.78	6458.35
242.242	6709.77
242.704	7276.75
243.166	6352.59
243.629	5824.48
244.091	6749.52
244.553	7433.94
245.015	8032.14
245.477	10417.27
245.939	15331.42
246.4	16369.69
246.862	15936.75
247.324	15091.01
247.786	16927.33
248.247	22249.38
248.709	22872.24
249.17	17140.12
249.632	16280.32
250.093	19000.43
250.555	16460.19
251.016	10079.79
251.477	9580.95
251.939	10418.21
252.4	10942.8
252.861	12988.05
253.322	12150.73
253.783	14474.84
254.244	18774.02
254.705	14797.21
255.166	13119.95
255.627	12951.27
256.088	18359.56
256.549	19546.7
257.009	16829
257.47	20441.67
257.931	16704.26
258.391	12527.05
258.852	12959.35
259.312	13607.19
259.773	16820.27
260.233	14334.04
260.694	12149.1
261.154	13802.71
261.614	11155.7
262.074	10003.18
262.534	10432.13
262.994	9872.66
263.455	13167.81
263.915	11135.24
264.374	10513.38
264.834	11505.07
265.294	12737.37
265.754	13243.14
266.214	12552.7
266.673	11777.92
267.133	14879.41
267.593	14797.47
268.052	18163.88
268.512	15849.36
268.971	19237.6
269.431	21171.06
269.89	19015.59
270.349	28590.15
270.809	31914.49
271.268	28718.32
271.727	64410.27
272.186	41842.34
272.645	31442.61
273.104	22638.21
273.563	32847.97
274.022	25777.4
274.481	22004.18
274.94	17000.07
275.399	12650.41
275.857	14728.22
276.316	19952.87
276.775	17839.53
277.233	17635.38
277.692	16608.48
278.15	18925.73
278.609	19556.59
279.067	18133.3
279.525	16900.06
279.984	21826.57
280.442	26303.37
280.9	26089.57
281.358	17235.99
281.816	16084.2
282.274	15759.67
282.732	16253.05
283.19	16295.42
283.648	14073.43
284.106	14995.93
284.564	15258.96
285.021	14209.13
285.479	10582.61
285.937	9606.73
286.394	8454.52
286.852	8694.05
287.309	9146.65
287.767	8887.34
288.224	8504.46
288.682	9354.19
289.139	10341.79
289.596	9509.41
290.053	9916.54
290.511	12559.25
290.968	15301.56
291.425	20805.86
291.882	17465.02
292.339	15304.01
292.796	15200.62
293.252	14360.34
293.709	11496.68
294.166	10315.82
294.623	11422.27
295.079	10980.45
295.536	11083.89
295.992	10084.44
296.449	10002.7
296.905	10406.48
297.362	9981.89
297.818	10532.85
298.274	10949.52
298.731	11137.87
299.187	11022.76
299.643	11845.8
300.099	14380.06
300.555	15782.62
301.011	13227.05
301.467	12812.37
301.923	14990.89
302.379	14694.3
302.835	14423.31
303.291	14474.09
303.746	16466.83
304.202	20884.27
304.658	20957.77
305.113	14058.54
305.569	13800.88
306.024	14665.75
306.479	13905.66
306.935	11742.69
307.39	12775.16
307.845	11790.99
308.301	11856.28
308.756	11550.78
309.211	11113.7
309.666	11383.98
310.121	14187.42
310.576	14369.2
311.031	14237.84
311.486	16257.36
311.94	16188.33
312.395	21648.19
312.85	40624.6
313.305	198563.39
313.759	1030329.78
314.214	74691.77
314.668	59180.45
315.123	49630.38
315.577	17825.45
316.032	15914.95
316.486	19918.8
316.94	15745.69
317.394	10961.67
317.849	8531.28
318.303	8078.87
318.757	7641.3
319.211	8453.09
319.665	7421.55
320.119	7512.11
320.572	10750.81
321.026	10050.16
321.48	8383.89
321.934	9141.08
322.387	9157.81
322.841	9878.67
323.295	8937.97
323.748	10231.34
324.202	10364.2
324.655	12450.71
325.108	17468.3
325.562	12368.23
326.015	14675.83
326.468	11111.45
326.921	12427.75
327.374	11638.82
327.827	12168.92
328.28	13772.35
328.733	9256.75
329.186	8148.16
329.639	7763.29
330.092	6522.45
330.545	6212.82
330.997	6285.18
331.45	6892.77
331.903	8089.68
332.355	13838.11
332.808	13414.62
333.26	11031.23
333.713	11978.37
334.165	12020.68
334.617	16007.06
335.069	12878.04
335.522	23161.24
335.974	25575.03
336.426	23259.06
336.878	15999.06
337.33	8152.67
337.782	7960.1
338.234	10013.87
338.686	11961.32
339.137	14204.34
339.589	13352.53
340.041	10485.54
340.493	9045.5
340.944	9274.01
341.396	10018.65
341.847	8490.12
342.299	10064
342.75	12347.05
343.201	10763.89
343.653	12431.75
344.104	15301.19
344.555	12116.75
345.006	18869.41
345.457	14567.61
345.908	11582.38
346.359	10927.43
346.81	8919.3
347.261	9378
347.712	9239.68
348.163	9912.06
348.613	10078.42
349.064	9431.19
349.515	8221.2
349.965	8456.3
350.416	10162.95
350.866	11169.5
351.317	12582.24
351.767	20835.65
352.217	26337.72
352.668	21869.33
353.118	20092.62
353.568	19330.88
354.018	15329.32
354.468	16292.56
354.918	11709.36
355.368	10239.45
355.818	14464.92
356.268	41626.44
356.718	174709.84
357.168	43469
357.617	21752.35
358.067	24116.27
358.517	22577.58
358.966	26546.1
359.416	29831.16
359.865	32213.37
360.315	38344.49
360.764	17923.58
361.213	10085.57
361.663	9523.82
362.112	11767.47
362.561	19041.41
363.01	14423.39
363.459	12116.93
363.908	13070.41
364.357	11119.73
364.806	18750.31
365.255	12887.15
365.703	11837.78
366.152	11829.55
366.601	9600.59
367.05	7828.12
367.498	7131.65
367.947	7422.93
368.395	7728.79
368.844	6844.59
369.292	8174.01
369.74	5657.89
370.189	8674.25
370.637	10163.6
371.085	8760.46
371.533	10635.53
371.981	10216.65
372.429	9764.19
372.877	10179.6
373.325	8516.44
373.773	8666.17
374.221	7713.01
374.669	9584.94
375.116	8257.11
375.564	8312.28
376.012	9275.91
376.459	7661.88
376.907	9120.72
377.354	10993.45
377.801	10284.83
378.249	11817.48
378.696	15038.77
379.143	18239.66
379.591	19346.24
380.038	32720.88
380.485	23671.27
380.932	25592.87
381.379	23523.24
381.826	17377.47
382.273	12302.9
382.72	10695.64
383.166	10413.82
383.613	6737.48
384.06	6052.38
384.506	7008.06
384.953	5135.23
385.4	5147.77
385.846	4491
386.292	4339.82
386.739	4217.89
387.185	4150.83
387.631	4138.99
388.078	4031.3
388.524	4314.85
388.97	3979.26
389.416	3312.76
389.862	3519.35
390.308	3320.51
390.754	3371.77
391.2	3639.13
391.645	3705.13
392.091	3563.09
392.537	3429.9
392.983	3394.35
393.428	3357.88
393.874	3574.07
394.319	3579.71
394.765	3386.28
395.21	3459.84
395.655	3217.97
396.101	3011.91
396.546	2712.86
396.991	2706.22
397.436	2498.86
397.881	2402.23
398.326	2240.52
398.771	2119.2
399.216	1834.39
399.661	1637.48
400.106	1628.35
400.551	1665.79
400.995	1483.36
401.44	1457.14
401.885	1364.16
402.329	1376.01
402.774	1320.1
403.218	1293.32
403.663	1236.34
404.107	1272.14
404.551	1282.95
404.995	1170.02
405.44	1121.05
405.884	1130.18
406.328	1088.19
406.772	1081.39
407.216	981.03
407.66	938.33
408.104	873.67
408.547	814.34
408.991	782.07
409.435	746.62
409.879	738.78
410.322	727.57
410.766	706.11
411.209	674.91
411.653	645.3
412.096	635.04
412.54	634.51
412.983	629.17
413.426	634.35
413.869	629.05
414.312	618.86
414.756	590.51
415.199	558.36
415.642	540.87
416.085	540.19
416.527	532.95
416.97	537.68
417.413	509.46
417.856	501.52
418.298	491.5
418.741	483.44
419.184	475.9
419.626	492.58
420.069	494.69
420.511	497.75
420.953	487.17
421.396	483.32
421.838	466.29
422.28	478.9
422.722	484.06
423.164	491.48
423.606	487.87
424.048	485.27
424.49	462.82
424.932	457.37
425.374	445.08
425.816	448.36
426.258	456.28
426.699	461.97
427.141	456.24
427.582	458
428.024	454.26
428.465	447.22
428.907	440.52
429.348	433.63
429.789	436.51
430.231	432.77
430.672	441.16
431.113	430.36
431.554	424.95
431.995	408.01
432.436	399.36
432.877	391.3
433.318	389.16
433.759	384.09
434.2	382.99
434.64	374.72
435.081	372.29
435.522	350.42
435.962	334.39
436.403	325.74
436.843	329.33
437.284	316.22
437.724	304.56
438.164	298.65
438.604	289.83
439.045	280.44
439.485	273.43
439.925	266.71
440.365	258.99
440.805	255.52
441.245	253.4
441.685	242.87
442.125	239.36
442.564	237.73
443.004	232.98
443.444	232.33
443.883	231.96
444.323	223.56
444.762	218.42
445.202	218.16
445.641	224.78
446.081	217.69
446.52	219.86
446.959	217.33
447.398	213.33
447.837	212
448.276	205.84
448.716	204.64
449.154	205.04
449.593	202.59
450.032	202.78
450.471	194.59
450.91	193.63
451.349	193.6
451.787	191.46
452.226	192.5
452.664	191.19
453.103	190.4
453.541	189.13
453.98	192.57
454.418	192.4
454.856	191.12
455.295	189.28
455.733	193.45
456.171	193.05
456.609	194.34
457.047	195
457.485	199.43
457.923	202.8
458.361	199.4
458.798	198.13
459.236	197.6
459.674	196.93
460.111	199.84
460.549	198.13
460.987	196.62
461.424	195.48
461.862	194.37
462.299	190.28
462.736	189.78
463.173	191.19
463.611	194.1
464.048	194.97
464.485	196.55
464.922	194.35
465.359	191.36
465.796	201.68
466.233	201.59
466.67	202.39
467.106	203.22
467.543	199.73
467.98	195.48
468.416	186.46
468.853	183.07
469.29	176.26
469.726	173.48
470.162	168.4
470.599	155.24
471.035	150.92
471.471	145.47
471.907	142.3
472.344	140.4
472.78	141.45
473.216	141.57
473.652	140.26
474.088	139.23
474.523	140.16
474.959	140.92
475.395	139.61
475.831	140.68
476.266	141.31
476.702	139.86
477.138	139.26
477.573	139.41
478.008	140.01
478.444	142.21
478.879	146.18
479.314	146.78
479.75	148.03
480.185	148
480.62	148.4
481.055	148.57
481.49	150.96
481.925	152.86
482.36	158.89
482.795	162.22
483.229	165.03
483.664	167.19
484.099	166.39
484.534	168.78
484.968	171.55
485.403	170.93
485.837	170.44
486.271	169.57
486.706	169.09
487.14	163.01
487.574	160.26
488.009	157.44
488.443	154.61
488.877	157
489.311	155.94
489.745	156.87
490.179	158.28
490.613	162.53
491.046	162.05
491.48	161.86
491.914	161.16
492.348	161.55
492.781	162.46
493.215	161.94
493.648	159.42
494.082	159.44
494.515	158.1
494.948	159.43
495.382	156.72
495.815	156.6
496.248	157.45
496.681	158.81
497.114	158.68
497.547	159.4
497.98	162.52
498.413	164.03
498.846	164.81
499.279	164.3
499.711	161.73
500.144	160.03
500.577	162.04
501.009	161.24
501.442	162.33
501.874	161.52
502.306	159.1
502.739	161.32
503.171	160.9
503.603	159.14
504.036	158.09
504.468	157.4
504.9	157.36
505.332	154.07
505.764	152.71
506.196	150.66
506.627	149.87
507.059	148.83
507.491	141.98
507.923	139.31
508.354	139.23
508.786	138.53
509.217	138.5
509.649	138.4
510.08	138
510.512	138.91
510.943	138.31
511.374	137.25
511.805	137.74
512.237	137.55
512.668	137.28
513.099	136.4
513.53	136.55
513.961	136.63
514.391	137.13
514.822	140.94
515.253	141.95
515.684	141.81
516.114	142.47
516.545	142.85
516.975	143.44
517.406	143.13
517.836	141.14
518.267	140.13
518.697	140.68
519.127	138.52
519.558	134.64
519.988	131.52
520.418	129.54
520.848	127.66
521.278	124.62
521.708	176.83
522.138	177.73
522.567	178.02
522.997	178.45
523.427	176.48
523.857	176.44
524.286	175.39
524.716	176.03
525.145	177.36
525.575	177.8
526.004	178.2
526.433	124.41
526.863	121.54
527.292	121.96
527.721	121.88
528.15	121.05
528.579	120.19
529.008	120.65
529.437	120.03
529.866	119.15
530.295	119.07
530.724	120.32
531.152	121.14
531.581	122.53
532.01	121.96
532.438	120.21
532.867	120.01
533.295	120.93
533.723	120.86
534.152	120.45
534.58	120.8
535.008	119.44
535.436	119.9
535.865	119.72
536.293	118.91
536.721	119.06
537.149	121.29
537.576	122.94
538.004	124.55
538.432	123.68
538.86	124.31
539.287	123.94
539.715	125.16
540.143	123.29
540.57	122.94
540.998	122.26
541.425	123.45
541.852	121.7
542.28	119.8
542.707	116.88
543.134	116.73
543.561	116.28
543.988	115.96
544.415	114.75
544.842	113.97
545.269	113.58
545.696	114.97
546.123	114.2
546.549	113.51
546.976	113.7
547.403	113.9
547.829	113.12
548.256	112.19
548.682	111.83
549.108	113.16
549.535	113.11
549.961	112.9
550.387	110.97
550.813	112.37
551.24	112.98
551.666	111.94
552.092	111.93
552.518	111.29
552.943	112.2
553.369	111.9
553.795	111.82
554.221	111.98
554.646	111.71
555.072	115.35
555.498	112.77
555.923	112.75
556.349	114.52
556.774	114.75
557.199	115.01
557.625	114.07
558.05	115.29
558.475	115.42
558.9	116.4
559.325	117.6
559.75	116.25
560.175	116.14
560.6	115.64
561.025	114.55
561.449	114.88
561.874	115.69
562.299	117.5
562.723	116.82
563.148	116.48
563.572	116.57
563.997	117.5
564.421	116.87
564.846	117.28
565.27	118.91
565.694	120.2
566.118	121.86
566.542	124.59
566.966	124.89
567.39	126.39
567.814	126.99
568.238	128.37
568.662	128.24
569.086	129.75
569.509	130.93
569.933	132.06
570.357	131.95
570.78	131.34
571.204	132.21
571.627	131.77
572.05	132.2
572.474	134.57
572.897	134
573.32	136.31
573.743	135.39
574.166	136.1
574.589	135.4
575.012	135.99
575.435	135.82
575.858	134.72
576.281	134.65
576.704	133.57
577.126	131.16
577.549	130.79
577.972	128.46
578.394	129.56
578.817	132.59
579.239	131.76
579.661	132.55
580.084	134.55
580.506	134.63
580.928	134.39
581.35	134.65
581.772	135.52
582.194	134.65
582.616	134.13
583.038	132.02
583.46	128.41
583.882	129.37
584.303	128.13
584.725	125.71
585.147	133.02
585.568	135.46
585.99	138.43
586.411	140.22
586.833	143.2
587.254	144.98
587.675	147.11
588.096	149.15
588.518	149.34
588.939	149.86
589.36	151.23
589.781	141.37
590.202	143.24
590.623	141.55
591.043	139.87
591.464	139.18
591.885	139.86
592.305	139.5
592.726	138.58
593.147	138.98
593.567	138.24
593.987	136.99
594.408	136.76
594.828	131.41
595.248	132.06
595.669	132.31
596.089	131.83
596.509	129.37
596.929	128.02
597.349	128.86
597.769	127.4
598.189	127.03
598.608	127.7
599.028	128.32
599.448	128.38
599.867	126.16
600.287	124.99
600.706	125.46
601.126	126.52
601.545	128.44
601.965	127.49
602.384	127.57
602.803	127.64
603.222	128.33
603.641	128.45
604.061	130.28
604.48	130.23
604.898	131.57
605.317	131.45
605.736	131.62
606.155	132.2
606.574	131.74
606.992	132.4
607.411	132.79
607.829	130.95
608.248	131
608.666	129.87
609.085	130.73
609.503	130.63
609.921	132.22
610.339	133.33
610.758	132.74
611.176	133.18
611.594	133.93
612.012	134.02
612.43	137.04
612.847	138.19
613.265	141.28
613.683	142.64
614.101	143.64
614.518	141.95
614.936	141.21
615.353	141.21
615.771	142.3
616.188	142.46
616.606	142.93
617.023	141.9
617.44	140.67
617.857	138.16
618.274	137.04
618.691	137.73
619.108	136.99
619.525	136.31
619.942	137.97
620.359	138.76
620.776	138.5
621.192	140.17
621.609	140.83
622.026	143.36
622.442	145.45
622.859	146.6
623.275	145.05
623.691	147.1
624.108	149.35
624.524	150.21
624.94	149.65
625.356	150.61
625.772	150.23
626.188	151.15
626.604	151.24
627.02	150.33
627.436	150.51
627.852	153.31
628.268	154.85
628.683	153.12
629.099	151.75
629.514	151.05
629.93	151.67
630.345	153.02
630.761	152.4
631.176	152.62
631.591	154.7
632.007	154.81
632.422	152.64
632.837	150.76
633.252	152.76
633.667	151.99
634.082	151.29
634.497	151.5
634.911	152.47
635.326	152.64
635.741	152.06
636.155	148.87
636.57	150.91
636.984	152.39
637.399	156.43
637.813	156.38
638.228	158.1
638.642	160.15
639.056	159.03
639.47	158.99
639.884	159.14
640.298	159.23
640.712	162.63
641.126	161.79
641.54	161.65
641.954	158.35
642.368	158.41
642.781	162.77
643.195	161.51
643.609	164.35
644.022	164.35
644.436	164.54
644.849	163.72
645.262	161.97
645.676	162.24
646.089	163.92
646.502	165.3
646.915	165.69
647.328	161.5
647.741	163.06
648.154	161.89
648.567	166.56
648.98	167.54
649.393	168.56
649.805	169.93
650.218	170.52
650.631	169.37
651.043	169.12
651.456	169.89
651.868	170.72
652.28	173.71
652.693	175.68
653.105	173.26
653.517	174.71
653.929	176.36
654.341	178.29
654.753	177.8
655.165	178.35
655.577	179.39
655.989	179.31
656.401	177.62
656.813	174.9
657.224	173.46
657.636	169.26
658.047	169.24
658.459	167.63
658.87	165.63
659.282	163.89
659.693	163.03
660.104	162.6
660.515	161.2
660.926	162.04
661.338	161.32
661.749	160.63
662.159	162.81
662.57	162.39
662.981	162.61
663.392	163.82
663.803	166.48
664.213	166.54
664.624	166.22
665.035	168.02
665.445	166.37
665.855	168.32
666.266	170.25
666.676	170.18
667.086	168.64
667.497	170.51
667.907	170.06
668.317	168.73
668.727	173.74
669.137	173.41
669.547	173.74
669.956	174.89
670.366	174.93
670.776	175.41
671.186	175.71
671.595	177.55
672.005	176.47
672.414	176.75
672.824	177.23
673.233	172.96
673.642	174.18
674.052	175.96
674.461	178.21
674.87	178.2
675.279	178.49
675.688	176.48
676.097	177.06
676.506	177.08
676.915	179.26
677.323	178.85
677.732	178.35
678.141	177.55
678.549	171.69
678.958	167.89
679.366	165.69
679.775	162.77
680.183	168.38
680.592	167.74
681	167.32
681.408	164.77
681.816	164.42
682.224	163.72
682.632	165.81
683.04	171.41
683.448	175.59
683.856	180.84
684.264	186.86
684.671	186.78
685.079	188.77
685.487	192.13
685.894	197.82
686.302	200.95
686.709	203.53
687.116	204.19
687.524	206.27
687.931	206.4
688.338	204.39
688.745	198.64
689.152	195.75
689.559	196.64
689.966	197.05
690.373	193.29
690.78	192.23
691.187	191.74
691.593	190.02
692	184.67
692.407	183.43
692.813	188.75
693.22	189.61
693.626	187.7
694.032	186.25
694.439	185.83
694.845	184.58
695.251	183.12
695.657	183.24
696.063	184.03
696.469	183.56
696.875	182.73
697.281	176.09
697.687	173.57
698.093	171.69
698.498	171.24
698.904	168.73
699.31	168.83
699.715	173.49
700.12	173.65
700.526	172.06
700.931	174.1
701.337	175.67
701.742	175.44
702.147	177.01
702.552	176.39
702.957	175.17
703.362	174.23
703.767	172.95
704.172	168.17
704.577	163.69
704.981	161.82
705.386	160.42
705.791	157.2
706.195	155.67
706.6	154.39
707.004	153.73
707.408	149.62
707.813	151.12
708.217	150.67
708.621	150
709.025	153.39
709.43	154.84
709.834	155.68
710.237	156.99
710.641	155.59
711.045	155.76
711.449	157.73
711.853	165.51
712.256	164.09
