Data from C_3_DIV_IL_4N_Splice17_13-19-25-476.txt Node
Date: Sat Mar 14 13:19:25 EDT 2020
User: sa697716
Spectrometer: FLMS03696
Trigger mode: 0
Integration Time (sec): 3.180400E-1
Scans to average: 20
Electric dark correction enabled: true
Nonlinearity correction enabled: true
Boxcar width: 5
XAxis mode: Wavelengths
Number of Pixels in Spectrum: 2048
>>>>>Begin Spectral Data<<<<<
187.83	-441124.16
188.298	3242.26
188.766	1697.16
189.233	1527.57
189.701	2206.35
190.169	3009.62
190.636	1182.58
191.104	900.44
191.571	182.12
192.039	-0.11
192.506	-35.18
192.974	435.45
193.441	-785.46
193.908	-105.64
194.375	-65.93
194.842	116.24
195.31	244.39
195.777	255.96
196.244	452.81
196.711	459.65
197.177	542.67
197.644	691.25
198.111	1214.46
198.578	1716.51
199.045	1387.65
199.511	2252.36
199.978	2546.35
200.445	2169.83
200.911	2353.44
201.378	2556.48
201.844	2348.66
202.31	3985.66
202.777	4238.71
203.243	2340.56
203.709	2225.07
204.176	2640.03
204.642	2189.92
205.108	2043.99
205.574	1642.3
206.04	1494.09
206.506	1427.44
206.972	1339.52
207.438	1289.22
207.903	1466.15
208.369	1277.39
208.835	1287.37
209.301	1335.47
209.766	1351.71
210.232	1348.84
210.697	1681.88
211.163	2052.04
211.628	3067.7
212.094	2554.9
212.559	3220.84
213.024	2004.94
213.49	2470.07
213.955	2388.08
214.42	2310.75
214.885	2153.29
215.35	2054.44
215.815	1996.68
216.28	2149.16
216.745	1752.05
217.21	1908.82
217.675	1720.86
218.14	1931.09
218.604	2132.46
219.069	2438.32
219.534	2578.07
219.998	2980.09
220.463	3614.28
220.927	4397.33
221.392	4121.52
221.856	4187.51
222.32	5236.46
222.785	6468.05
223.249	8097.54
223.713	9003.25
224.177	8985.87
224.642	11453.87
225.106	14116.59
225.57	15406.99
226.034	11494.17
226.497	17500.21
226.961	15773.63
227.425	18383.65
227.889	20385.08
228.353	20429.88
228.816	42251.01
229.28	40390.71
229.744	34082.81
230.207	20752.13
230.671	20400.14
231.134	33634.43
231.597	38778.17
232.061	38727.62
232.524	37704.5
232.987	25949.2
233.45	23339.22
233.914	20932.17
234.377	21438.89
234.84	19583.2
235.303	23044.33
235.766	25690.05
236.229	26540.7
236.691	16672.33
237.154	18682.12
237.617	14069.4
238.08	14395.37
238.542	16833.58
239.005	12039.22
239.468	11949.17
239.93	11272.76
240.393	10234.52
240.855	8983.36
241.317	9192.13
241.78	11172.78
242.242	11569.24
242.704	12494.29
243.166	10882.96
243.629	9894.51
244.091	11378.77
244.553	12463.69
245.015	13400.13
245.477	17314.15
245.939	25349.06
246.4	26901.62
246.862	26117.03
247.324	24603.96
247.786	27485.76
248.247	35972.86
248.709	36990.75
249.17	27655.54
249.632	26067.52
250.093	30227.67
250.555	26077.61
251.016	15925.81
251.477	15100.64
251.939	16321.69
252.4	17114.03
252.861	20338.06
253.322	18927.62
253.783	22520.77
254.244	29157.2
254.705	22945.91
255.166	20384.88
255.627	20052.62
256.088	28266.18
256.549	30013.71
257.009	25849.48
257.47	31275.49
257.931	25470.74
258.391	19074.19
258.852	19658.4
259.312	20618.31
259.773	25425.71
260.233	21465.3
260.694	18097.87
261.154	20478.66
261.614	16435.42
262.074	14663.77
262.534	15239.74
262.994	14355.31
263.455	19103.2
263.915	16067.57
264.374	15112.77
264.834	16486.22
265.294	18231.91
265.754	18890.71
266.214	17859.26
266.673	16686.55
267.133	21031.47
267.593	20841.38
268.052	25451.87
268.512	22108.41
268.971	26714.65
269.431	29267.54
269.89	26184.84
270.349	39210.34
270.809	43700.75
271.268	39272.64
271.727	88012.91
272.186	56999.35
272.645	42710.87
273.104	30785.83
273.563	44528.72
274.022	34939.94
274.481	29759.4
274.94	22922.52
275.399	17042.29
275.857	19820.45
276.316	26767.41
276.775	23835.51
277.233	23434.72
277.692	21951.15
278.15	24830.15
278.609	25552.59
279.067	23611.42
279.525	21909
279.984	28293.91
280.442	33973.97
280.9	33481.63
281.358	22031.83
281.816	20511.67
282.274	20092.17
282.732	20747.4
283.19	20840.16
283.648	17966.29
284.106	19128.11
284.564	19437.06
285.021	18038.58
285.479	13436.85
285.937	12216.11
286.394	10732.84
286.852	11049.96
287.309	11607.52
287.767	11240.32
288.224	10703.89
288.682	11746.01
289.139	12909.96
289.596	11804.85
290.053	12247.48
290.511	15445.74
290.968	18725.07
291.425	25384.52
291.882	21147.73
292.339	18423.13
292.796	18234.39
293.252	17136.53
293.709	13620.18
294.166	12195.94
294.623	13456.74
295.079	12906.35
295.536	12971.95
295.992	11790.9
296.449	11657.91
296.905	12108.46
297.362	11615.29
297.818	12207.89
298.274	12689.81
298.731	12904.27
299.187	12745.18
299.643	13669.94
300.099	16545.26
300.555	18123.29
301.011	15105.49
301.467	14576.39
301.923	17005.24
302.379	16584.67
302.835	16268.76
303.291	16261.53
303.746	18497.74
304.202	23378.77
304.658	23487.56
305.113	15752.23
305.569	15451.77
306.024	16447.11
306.479	15597.93
306.935	13175.51
307.39	14357.61
307.845	13274.7
308.301	13347.7
308.756	13005.97
309.211	12546.15
309.666	12876.26
310.121	16032.91
310.576	16221.58
311.031	16105.95
311.486	18462.3
311.94	18424.67
312.395	24659.3
312.85	46320.62
313.305	227529.91
313.759	1181210.24
314.214	85401.7
314.668	67707.35
315.123	56945.45
315.577	20483.82
316.032	18242.45
316.486	22871.17
316.94	18096.27
317.394	12638.09
317.849	9800.55
318.303	9278.33
318.757	8739.17
319.211	9677.11
319.665	8442.06
320.119	8539.46
320.572	12223.66
321.026	11423.01
321.48	9487.57
321.934	10312.71
322.387	10319.05
322.841	11198.63
323.295	10093.15
323.748	11605.54
324.202	11772.71
324.655	14191.27
325.108	19839.76
325.562	14018.99
326.015	16636.45
326.468	12578.1
326.921	14081.72
327.374	13125.95
327.827	13641.15
328.28	15463.96
328.733	10373.14
329.186	9125.38
329.639	8682.46
330.092	7307.87
330.545	6954.66
330.997	7018.11
331.45	7687.57
331.903	9037.86
332.355	15509.79
332.808	15043.93
333.26	12352.53
333.713	13458.36
334.165	13533.81
334.617	18058.1
335.069	14564.85
335.522	26359.94
335.974	29202.92
336.426	26673.35
336.878	18365.09
337.33	9306.33
337.782	9086.12
338.234	11414.14
338.686	13608.26
339.137	16153.11
339.589	15237.54
340.041	11968.95
340.493	10294.42
340.944	10551.85
341.396	11361.22
341.847	9579.11
342.299	11399.88
342.75	13973.16
343.201	12186.15
343.653	14024.43
344.104	17221.31
344.555	13545.21
345.006	21071.67
345.457	16190.59
345.908	12875.81
346.359	12135.27
346.81	9900.88
347.261	10370.78
347.712	10172.76
348.163	10882.16
348.613	11043.02
349.064	10298.51
349.515	9002.34
349.965	9219.98
350.416	11062.43
350.866	12120.01
351.317	13652.7
351.767	22601.03
352.217	28638.94
352.668	23759.2
353.118	21795.48
353.568	20953.48
354.018	16596.02
354.468	17555.83
354.918	12638.85
355.368	11061.31
355.818	15639.62
356.268	45025.36
356.718	188573.8
357.168	46968.13
357.617	23562.89
358.067	26240.1
358.517	24565.58
358.966	28903.65
359.416	32344.75
359.865	34950.09
360.315	41543.73
360.764	19407.4
361.213	10910.15
361.663	10290.5
362.112	12702.33
362.561	20577.28
363.01	15543.35
363.459	13105.85
363.908	14167.77
364.357	12083.34
364.806	20355.12
365.255	14011.42
365.703	12852.72
366.152	12865.18
366.601	10457.27
367.05	8480.41
367.498	7723.37
367.947	8034.12
368.395	8338.5
368.844	7380.79
369.292	8857.57
369.74	6129.83
370.189	9364.57
370.637	10957.19
371.085	9430.16
371.533	11490.5
371.981	11049.51
372.429	10510.73
372.877	10959.2
373.325	9186.46
373.773	9348.68
374.221	8311.23
374.669	10286.72
375.116	8904.25
375.564	8975.83
376.012	10019.47
376.459	8245.15
376.907	9823.8
377.354	11861.58
377.801	11075.21
378.249	12720.94
378.696	16239.25
379.143	19683.59
379.591	20962.93
380.038	35608.41
380.485	25677.95
380.932	27808.8
381.379	25525.32
381.826	18886.74
382.273	13414.28
382.72	11712
383.166	11449.61
383.613	7422.58
384.06	6700.15
384.506	7747.16
384.953	5670.51
385.4	5725.1
385.846	5004.06
386.292	4860.15
386.739	4739
387.185	4672.24
387.631	4670.55
388.078	4537.56
388.524	4848.09
388.97	4475.47
389.416	3748.31
389.862	3986.03
390.308	3769.3
390.754	3832.48
391.2	4152.89
391.645	4255.25
392.091	4104.9
392.537	3975.51
392.983	3972.47
393.428	3934.98
393.874	4206.77
394.319	4237.11
394.765	4036.68
395.21	4148.2
395.655	3888.18
396.101	3644.48
396.546	3298.32
396.991	3313.75
397.436	3076.82
397.881	2977.91
398.326	2811.83
398.771	2678.91
399.216	2335.24
399.661	2098.56
400.106	2102.69
400.551	2163.3
400.995	1948.5
401.44	1930.98
401.885	1820.94
402.329	1845.5
402.774	1768.05
403.218	1723.79
403.663	1660.03
404.107	1711.2
404.551	1731.93
404.995	1587.64
405.44	1530.48
405.884	1554.76
406.328	1503.99
406.772	1501.66
407.216	1370.64
407.66	1326.69
408.104	1253.86
408.547	1174.05
408.991	1139.32
409.435	1096.24
409.879	1084.5
410.322	1070.55
410.766	1036.53
411.209	988.17
411.653	947.2
412.096	930.35
412.54	932.39
412.983	929.58
413.426	936.54
413.869	934.99
414.312	920.15
414.756	886.82
415.199	848.43
415.642	828.74
416.085	833.63
416.527	830.93
416.97	845.15
417.413	803.31
417.856	795.63
418.298	787.07
418.741	780.47
419.184	776.13
419.626	806.58
420.069	808.39
420.511	811.88
420.953	793.68
421.396	787.67
421.838	767.8
422.28	788.69
422.722	793.99
423.164	804.78
423.606	795.58
424.048	796.38
424.49	760.96
424.932	759.77
425.374	748.28
425.816	762.36
426.258	778.05
426.699	788.68
427.141	777.98
427.582	789.28
428.024	784.88
428.465	778.22
428.907	760.65
429.348	752.19
429.789	752.2
430.231	739.89
430.672	752.57
431.113	733.76
431.554	722.82
431.995	705.38
432.436	683.2
432.877	672.16
433.318	665.53
433.759	664.9
434.2	665.05
434.64	658.78
435.081	660.81
435.522	626.36
435.962	605.91
436.403	596.13
436.843	602.65
437.284	589.65
437.724	572.67
438.164	570.92
438.604	557.4
439.045	539.28
439.485	518.71
439.925	508
440.365	495.27
440.805	489.5
441.245	485.81
441.685	471.09
442.125	468.89
442.564	474.26
443.004	465.93
443.444	467.49
443.883	469.25
444.323	466.04
444.762	466.43
445.202	475.11
445.641	486.85
446.081	482.17
446.52	487.58
446.959	486.59
447.398	475.13
447.837	472.38
448.276	464.74
448.716	470.14
449.154	475.41
449.593	468.57
450.032	468.09
450.471	458.77
450.91	460.1
451.349	461.47
451.787	458.73
452.226	468.49
452.664	468.98
453.103	471.25
453.541	471.02
453.98	471.5
454.418	475.17
454.856	469.1
455.295	469.91
455.733	475.38
456.171	477.63
456.609	477.66
457.047	477.03
457.485	485.38
457.923	486.75
458.361	481.25
458.798	483.16
459.236	481.19
459.674	482.63
460.111	484.61
460.549	479.86
460.987	478.09
461.424	477.44
461.862	475.56
462.299	467.46
462.736	466.72
463.173	467.83
463.611	464.84
464.048	464.57
464.485	468.62
464.922	463.73
465.359	460.44
465.796	458.59
466.233	456.18
466.67	452.52
467.106	451.83
467.543	446.61
467.98	439.65
468.416	425.87
468.853	420.82
469.29	408.76
469.726	404.91
470.162	394.5
470.599	384.6
471.035	379.74
471.471	369.9
471.907	367.04
472.344	366.22
472.78	368
473.216	373.07
473.652	369.9
474.088	369.89
474.523	369.5
474.959	374.02
475.395	371.48
475.831	370.16
476.266	372.56
476.702	371.76
477.138	367.06
477.573	366.64
478.008	365.23
478.444	368.15
478.879	372.18
479.314	374.98
479.75	374.73
480.185	376.68
480.62	380.25
481.055	382.9
481.49	386.83
481.925	393.04
482.36	401.93
482.795	413.15
483.229	423.53
483.664	432.18
484.099	432.84
484.534	439.8
484.968	444.49
485.403	445.66
485.837	444.48
486.271	443.57
486.706	444.69
487.14	438.45
487.574	432.38
488.009	428.69
488.443	425.09
488.877	430.34
489.311	432.16
489.745	437.65
490.179	443.01
490.613	453.39
491.046	457.16
491.48	460.48
491.914	461.74
492.348	465.32
492.781	469.2
493.215	471.68
493.648	473.02
494.082	477.79
494.515	479.57
494.948	485.55
495.382	488.43
495.815	493.11
496.248	498.33
496.681	507.9
497.114	517.57
497.547	526.31
497.98	537.28
498.413	544.01
498.846	552.4
499.279	560.41
499.711	564.89
500.144	569.22
500.577	578.63
501.009	588.16
501.442	598.23
501.874	601.21
502.306	604.75
502.739	612.92
503.171	625.23
503.603	629.28
504.036	638.15
504.468	644.98
504.9	655.61
505.332	663.32
505.764	669.39
506.196	676.8
506.627	690.38
507.059	703.03
507.491	711.17
507.923	712.73
508.354	727.3
508.786	737.67
509.217	754
509.649	767.69
510.08	784.32
510.512	800.56
510.943	814.82
511.374	826.32
511.805	843.5
512.237	860.72
512.668	886.99
513.099	910.5
513.53	934.55
513.961	952.59
514.391	979.39
514.822	1007.86
515.253	1038.17
515.684	1059.55
516.114	1084.23
516.545	1103.96
516.975	1126.09
517.406	1142.68
517.836	1145.37
518.267	1151.53
518.697	1168.29
519.127	1173.24
519.558	1180.03
519.988	1183.64
520.418	1193.86
520.848	1209.53
521.278	1217.01
521.708	1248.29
522.138	1259.96
522.567	1286.36
522.997	1307.76
523.427	1320.46
523.857	1335.74
524.286	1344.64
524.716	1357.65
525.145	1372.94
525.575	1382.79
526.004	1395.12
526.433	1375.33
526.863	1375.74
527.292	1369.2
527.721	1375.24
528.15	1380.76
528.579	1381.85
529.008	1391.6
529.437	1410.39
529.866	1422.34
530.295	1436.69
530.724	1448.33
531.152	1470.6
531.581	1483.96
532.01	1497.82
532.438	1504.78
532.867	1517.09
533.295	1531.9
533.723	1537.53
534.152	1536.73
534.58	1536.77
535.008	1523.94
535.436	1526.31
535.865	1533.2
536.293	1544.25
536.721	1557.95
537.149	1579.01
537.576	1580.7
538.004	1591.07
538.432	1597.13
538.86	1595
539.287	1599.91
539.715	1611.13
540.143	1611.64
540.57	1607.21
540.998	1603.47
541.425	1584.47
541.852	1565.56
542.28	1564.21
542.707	1550.91
543.134	1539.29
543.561	1535.48
543.988	1529.83
544.415	1528.75
544.842	1524.91
545.269	1520.42
545.696	1522.81
546.123	1534.49
546.549	1527.6
546.976	1517.72
547.403	1518.34
547.829	1520.71
548.256	1523.02
548.682	1520.34
549.108	1515.58
549.535	1515.44
549.961	1516.35
550.387	1505.56
550.813	1500.72
551.24	1506
551.666	1507.04
552.092	1498.5
552.518	1493.32
552.943	1490.29
553.369	1498.4
553.795	1503.21
554.221	1504.56
554.646	1503.01
555.072	1512.73
555.498	1517.64
555.923	1525.65
556.349	1539.19
556.774	1547.82
557.199	1549.8
557.625	1553.97
558.05	1548.64
558.475	1558.12
558.9	1557.47
559.325	1551.83
559.75	1546.55
560.175	1541.01
560.6	1537.18
561.025	1536.02
561.449	1536.6
561.874	1542.53
562.299	1546.85
562.723	1552.77
563.148	1544.73
563.572	1548.02
563.997	1557.01
564.421	1562.03
564.846	1563.01
565.27	1566.61
565.694	1565.09
566.118	1576.46
566.542	1582.2
566.966	1577.05
567.39	1572.92
567.814	1563.97
568.238	1564.86
568.662	1568.16
569.086	1569.82
569.509	1575.9
569.933	1561.21
570.357	1553.99
570.78	1535.58
571.204	1524.5
571.627	1515.14
572.05	1514.43
572.474	1513.87
572.897	1502.5
573.32	1496.22
573.743	1487.53
574.166	1472.45
574.589	1473.34
575.012	1467.1
575.435	1465.36
575.858	1458.08
576.281	1449.25
576.704	1435.17
577.126	1424.29
577.549	1415.31
577.972	1407.05
578.394	1399.95
578.817	1394.16
579.239	1378.22
579.661	1368.19
580.084	1355.72
580.506	1343.73
580.928	1339.78
581.35	1331.15
581.772	1328
582.194	1316.42
582.616	1306.3
583.038	1294.24
583.46	1285.81
583.882	1283.59
584.303	1286.24
584.725	1282.8
585.147	1286.69
585.568	1296.41
585.99	1306.99
586.411	1313.14
586.833	1327.19
587.254	1328.09
587.675	1339.86
588.096	1348.98
588.518	1344.59
588.939	1330.76
589.36	1329.17
589.781	1319.26
590.202	1296.73
590.623	1289.15
591.043	1286.06
591.464	1274.92
591.885	1272.58
592.305	1267.57
592.726	1256.83
593.147	1257.79
593.567	1253.13
593.987	1246.45
594.408	1241.49
594.828	1238.78
595.248	1234.04
595.669	1219.29
596.089	1213.03
596.509	1207.37
596.929	1195.73
597.349	1195.6
597.769	1187.14
598.189	1181.86
598.608	1183.24
599.028	1185.37
599.448	1185.01
599.867	1174.35
600.287	1170.59
600.706	1166.84
601.126	1158.91
601.545	1157.88
601.965	1156.92
602.384	1152.54
602.803	1155.2
603.222	1151.7
603.641	1145.52
604.061	1142.95
604.48	1139.42
604.898	1146.47
605.317	1150.26
605.736	1151.27
606.155	1149.58
606.574	1141.84
606.992	1145.63
607.411	1141.55
607.829	1132.39
608.248	1128.42
608.666	1125.29
609.085	1124.8
609.503	1117.6
609.921	1112.89
610.339	1114.54
610.758	1112.9
611.176	1109.02
611.594	1101.54
612.012	1097.79
612.43	1101.34
612.847	1106.8
613.265	1107.34
613.683	1109.7
614.101	1109.3
614.518	1104.24
614.936	1095.22
615.353	1082.58
615.771	1079.83
616.188	1078.7
616.606	1075.15
617.023	1068.86
617.44	1057.62
617.857	1050.91
618.274	1043.58
618.691	1038.13
619.108	1030.84
619.525	1024.78
619.942	1029.58
620.359	1031.45
620.776	1027.32
621.192	1024.21
621.609	1021.75
622.026	1025.86
622.442	1030.97
622.859	1033.17
623.275	1026.85
623.691	1030.39
624.108	1040
624.524	1051.42
624.94	1050.31
625.356	1057.99
625.772	1067.87
626.188	1077.2
626.604	1078.36
627.02	1074.31
627.436	1073.07
627.852	1079.3
628.268	1089.78
628.683	1082.52
629.099	1075.93
629.514	1070.85
629.93	1073.81
630.345	1076.5
630.761	1072.47
631.176	1074.83
631.591	1070.51
632.007	1065.99
632.422	1063.51
632.837	1053.47
633.252	1050.91
633.667	1041.5
634.082	1033.83
634.497	1022.89
634.911	1007.38
635.326	1004.15
635.741	989.16
636.155	979.84
636.57	979.11
636.984	978.21
637.399	979.79
637.813	978.14
638.228	975.75
638.642	978.75
639.056	969.57
639.47	968.74
639.884	961.62
640.298	956.51
640.712	954.64
641.126	943.38
641.54	934.31
641.954	927.78
642.368	917.12
642.781	912.56
643.195	897.51
643.609	896.97
644.022	890.46
644.436	885.07
644.849	873.44
645.262	862.89
645.676	862.94
646.089	857.97
646.502	846.11
646.915	841.83
647.328	825.96
647.741	823.7
648.154	812.33
648.567	810.56
648.98	800.57
649.393	800.3
649.805	796.56
650.218	790.17
650.631	779.14
651.043	773.1
651.456	767.41
651.868	767.03
652.28	779.03
652.693	787.87
653.105	790.89
653.517	796.5
653.929	794.69
654.341	798.46
654.753	787.56
655.165	789.35
655.577	786.15
655.989	780.37
656.401	770.5
656.813	742.78
657.224	727.11
657.636	703.58
658.047	688.81
658.459	673.78
658.87	663.34
659.282	653.03
659.693	636.37
660.104	623.84
660.515	611.66
660.926	608.41
661.338	603.11
661.749	595.34
662.159	587.73
662.57	582.64
662.981	577.99
663.392	571.81
663.803	572.19
664.213	568.09
664.624	562.32
665.035	562.06
665.445	551.12
665.855	544.18
666.266	538.05
666.676	534.22
667.086	526.46
667.497	522.97
667.907	517.03
668.317	509.74
668.727	508.29
669.137	507.52
669.547	505.42
669.956	506.28
670.366	506.87
670.776	507.68
671.186	508.71
671.595	510.87
672.005	512.98
672.414	512.44
672.824	511.84
673.233	511.83
673.642	512.68
674.052	515.03
674.461	517.08
674.87	519.42
675.279	517.9
675.688	517.96
676.097	518.22
676.506	517.07
676.915	526.48
677.323	528.2
677.732	528.01
678.141	528.21
678.549	521.04
678.958	520.52
679.366	520.79
679.775	523.73
680.183	534.96
680.592	539.33
681	544.34
681.408	542.81
681.816	550.22
682.224	558.89
682.632	569.82
683.04	593.7
683.448	614.22
683.856	638.94
684.264	667.93
684.671	692.66
685.079	725.78
685.487	761.43
685.894	810.29
686.302	851.6
686.709	886.03
687.116	926.21
687.524	960.84
687.931	992.3
688.338	1020.64
688.745	1042.87
689.152	1069.14
689.559	1104.86
689.966	1140.31
690.373	1157.87
690.78	1189.64
691.187	1238.46
691.593	1276.64
692	1309.5
692.407	1357
692.813	1418.55
693.22	1465.68
693.626	1515.33
694.032	1553.74
694.439	1612.09
694.845	1658.31
695.251	1717.01
695.657	1770.26
696.063	1846.77
696.469	1904.95
696.875	1959.06
697.281	1986.43
697.687	2023.81
698.093	2053.74
698.498	2112.33
698.904	2157.49
699.31	2226.68
699.715	2275.22
700.12	2346.18
700.526	2360.02
700.931	2413.25
