Data from C_3_DEC_OH_4N_Splice17_13-33-43-683.txt Node
Date: Sat Mar 14 13:33:43 EDT 2020
User: sa697716
Spectrometer: FLMS03696
Trigger mode: 0
Integration Time (sec): 3.180400E-1
Scans to average: 20
Electric dark correction enabled: true
Nonlinearity correction enabled: true
Boxcar width: 5
XAxis mode: Wavelengths
Number of Pixels in Spectrum: 2048
>>>>>Begin Spectral Data<<<<<
187.83	-444518.13
188.298	3287.45
188.766	1674.06
189.233	1554.35
189.701	2212.68
190.169	3076.78
190.636	1181.61
191.104	927.1
191.571	131.07
192.039	-113.22
192.506	-102.24
192.974	574.22
193.441	-839.73
193.908	-233.24
194.375	-33.34
194.842	30.06
195.31	146
195.777	192.14
196.244	428.6
196.711	479.81
197.177	599.95
197.644	871.4
198.111	1548.09
198.578	2217.2
199.045	1784.66
199.511	2902.47
199.978	3386.28
200.445	2899.99
200.911	3212.49
201.378	3575.09
201.844	3283.09
202.31	5625.76
202.777	5907.6
203.243	3273.65
203.709	3111.24
204.176	3705.62
204.642	3073.47
205.108	2890.28
205.574	2353.16
206.04	2167.66
206.506	2057.65
206.972	1953.98
207.438	1904.65
207.903	2196.66
208.369	1959.35
208.835	1976.13
209.301	2111.67
209.766	2206.88
210.232	2235.45
210.697	2848.5
211.163	3598.05
211.628	5566.53
212.094	4753.82
212.559	5958.93
213.024	3771.19
213.49	4669.57
213.955	4650.78
214.42	4609.78
214.885	4358.77
215.35	4255.98
215.815	4127.09
216.28	4511.99
216.745	3838
217.21	4358.18
217.675	4288.32
218.14	5144.48
218.604	6171.68
219.069	7530.33
219.534	8324.92
219.998	10225.95
220.463	12977.89
220.927	16785.98
221.392	16294.52
221.856	16873.08
222.32	21853.92
222.785	27359.48
223.249	34922.75
223.713	39393.29
224.177	39714.22
224.642	51539.45
225.106	63881.26
225.57	70271.77
226.034	52353.37
226.497	79979.35
226.961	72392.36
227.425	84445.89
227.889	94169.69
228.353	94514.63
228.816	195971.31
229.28	187883.58
229.744	158745.56
230.207	96436.68
230.671	94923.59
231.134	157675.11
231.597	181885.44
232.061	182268.77
232.524	178078.68
232.987	122744.59
233.45	110498.19
233.914	99165.27
234.377	101870.96
234.84	93277.05
235.303	110173.12
235.766	123114.04
236.229	127181.05
236.691	80167.46
237.154	90112.89
237.617	67709.13
238.08	69320.2
238.542	81089.76
239.005	57879.2
239.468	57295.34
239.93	53919.92
240.393	48941.17
240.855	42908.59
241.317	43950.15
241.78	53513.36
242.242	55253.92
242.704	59557.15
243.166	51822.85
243.629	46999.93
244.091	54166.01
244.553	59379.73
245.015	63820.84
245.477	82691.5
245.939	121303.4
246.4	128818.86
246.862	125200.54
247.324	118086.63
247.786	132384.19
248.247	173921.57
248.709	180036.74
249.17	134715.88
249.632	126805.22
250.093	146965.74
250.555	126855.87
251.016	77281.85
251.477	73261.08
251.939	79078.82
252.4	83065.31
252.861	98869.74
253.322	91822.55
253.783	109384.21
254.244	141912.38
254.705	112077.61
255.166	99816.04
255.627	98343.49
256.088	138726.75
256.549	147522.15
257.009	127175.89
257.47	154455.82
257.931	126015.46
258.391	94583.73
258.852	97634.69
259.312	102601.99
259.773	127109.31
260.233	107527.74
260.694	90881.95
261.154	103404.17
261.614	83011.4
262.074	74429.61
262.534	77426.42
262.994	73025.71
263.455	97512.4
263.915	82246.06
264.374	77606.39
264.834	84849.17
265.294	94278.19
265.754	97727.59
266.214	92681.07
266.673	87032.73
267.133	110046.59
267.593	109410.92
268.052	134054.4
268.512	116739.99
268.971	140681.75
269.431	154350.53
269.89	138331.36
270.349	207509.15
270.809	231612.17
271.268	208352.28
271.727	467823.17
272.186	303002.95
272.645	227351.51
273.104	164274.77
273.563	238080.04
274.022	187729.93
274.481	159711.28
274.94	123067.69
275.399	91565.53
275.857	106706.97
276.316	144449.32
276.775	128648.97
277.233	126714.98
277.692	118551.78
278.15	134060.86
278.609	137827.83
279.067	127544.94
279.525	118476.61
279.984	153078.52
280.442	183795.56
280.9	180949.23
281.358	119017.25
281.816	110798.93
282.274	108512.46
282.732	112189.55
283.19	112742.93
283.648	97308.02
284.106	103659.35
284.564	105383.78
285.021	97604.6
285.479	72704.3
285.937	66175.14
286.394	57960.6
286.852	59686.3
287.309	62739.7
287.767	60543.51
288.224	57557.9
288.682	63224.87
289.139	69407.6
289.596	63558.65
290.053	66228.86
290.511	83818.49
290.968	101832.71
291.425	138603.72
291.882	115388.82
292.339	100543.56
292.796	100086.18
293.252	94522.62
293.709	75051.8
294.166	67308.58
294.623	74503.41
295.079	71595.2
295.536	71898.77
295.992	65263.06
296.449	64537.74
296.905	67079.71
297.362	64274.98
297.818	67647.61
298.274	70104.01
298.731	71532.16
299.187	70838.92
299.643	76105.61
300.099	91947.5
300.555	100859.03
301.011	84336.11
301.467	81108.58
301.923	95118.4
302.379	92874.78
302.835	91156.65
303.291	91286.51
303.746	103852.42
304.202	131156.92
304.658	131629.91
305.113	88515.32
305.569	86684.08
306.024	92373.87
306.479	88124.27
306.935	74166.56
307.39	81067.63
307.845	74814.87
308.301	75210.64
308.756	73315.48
309.211	70567.73
309.666	72275.19
310.121	89573.76
310.576	91002.43
311.031	90349.91
311.486	103620.87
311.94	103678.14
312.395	138638.39
312.85	260598.1
313.305	1282810.63
313.759	6621154.2
314.214	479781.64
314.668	379898.67
315.123	319242.17
315.577	114309.31
316.032	101635.87
316.486	127217.86
316.94	100204.87
317.394	69717.03
317.849	54214.46
318.303	51391.06
318.757	48591.74
319.211	53797.27
319.665	47190.12
320.119	47872.74
320.572	68829.53
321.026	64310.52
321.48	53552.88
321.934	58544.5
322.387	58725.79
322.841	63359.46
323.295	56722.09
323.748	65409.18
324.202	66306.6
324.655	79526.46
325.108	110834.51
325.562	78197.99
326.015	93023.31
326.468	70337.19
326.921	78598.45
327.374	73221.24
327.827	76249.24
328.28	86409.68
328.733	57830.94
329.186	50858.78
329.639	48443.8
330.092	40884.54
330.545	38897.37
330.997	39160.61
331.45	42682.27
331.903	49907.23
332.355	86026.42
332.808	83632.06
333.26	69040.58
333.713	74893.61
334.165	75461.31
334.617	100781.27
335.069	81554.87
335.522	147638.27
335.974	163585.54
336.426	149679.65
336.878	103899.96
337.33	52594.28
337.782	51333.85
338.234	64189.4
338.686	76932.51
339.137	91167.03
339.589	85962.41
340.041	67339.19
340.493	57949.42
340.944	59360.38
341.396	63909.78
341.847	53705.88
342.299	63356.41
342.75	77312.72
343.201	67785.18
343.653	78056.68
344.104	96098.85
344.555	75744.18
345.006	118287.54
345.457	90327.53
345.908	71933.45
346.359	67693.07
346.81	55236.16
347.261	58341.17
347.712	57575.99
348.163	61758.57
348.613	62344.82
349.064	58239.91
349.515	50988.36
349.965	52228.89
350.416	63051.12
350.866	69171.56
351.317	78386.35
351.767	129639.41
352.217	163687.96
352.668	135842.56
353.118	124470.68
353.568	120445.39
354.018	94992.72
354.468	100022.51
354.918	71692.32
355.368	62695.27
355.818	88519.1
356.268	254725.87
356.718	1065460.83
357.168	264916.27
357.617	132905.03
358.067	148045.95
358.517	138564.39
358.966	162481.53
359.416	182181.02
359.865	197051.94
360.315	234939.91
360.764	109683.18
361.213	61444.15
361.663	58380.37
362.112	72208.22
362.561	116711.92
363.01	87922.57
363.459	74036.79
363.908	80271.52
364.357	68094.43
364.806	115151.2
365.255	79102.73
365.703	72415.52
366.152	72459.86
366.601	58652.49
367.05	47507.58
367.498	43133.38
367.947	45115.26
368.395	46928.47
368.844	41495.14
369.292	50151.32
369.74	34593.65
370.189	53048.56
370.637	62213.79
371.085	53697.06
371.533	65445.74
371.981	63201.67
372.429	60178.49
372.877	62659.3
373.325	52430.83
373.773	53486.43
374.221	47653.65
374.669	59113.22
375.116	51128.05
375.564	51548.7
376.012	57627.3
376.459	47431.83
376.907	56588.61
377.354	68411.27
377.801	63573.16
378.249	72811.18
378.696	92938.82
379.143	112368.19
379.591	119772.87
380.038	202102.49
380.485	145594.32
380.932	157035.21
381.379	143147.74
381.826	105030.94
382.273	74496.82
382.72	65198.62
383.166	63465.11
383.613	41051.87
384.06	36920.72
384.506	42603.43
384.953	31239.67
385.4	31428.17
385.846	27447.99
386.292	26764.61
386.739	26185.58
387.185	25866.98
387.631	25789.5
388.078	24913.97
388.524	26614.07
388.97	24503.07
389.416	20355.43
389.862	21562.46
390.308	20351.03
390.754	20591.99
391.2	22272.8
391.645	22736.23
392.091	21582.43
392.537	20777.26
392.983	20801.67
393.428	20311.99
393.874	21719.73
394.319	21670.86
394.765	20434.14
395.21	20958.26
395.655	19613.37
396.101	18320.36
396.546	16480.37
396.991	16645.59
397.436	15426.21
397.881	14852.7
398.326	14072.33
398.771	13251.59
399.216	11575.19
399.661	10418.87
400.106	10335.65
400.551	10536.42
400.995	9421.47
401.44	9298.6
401.885	8711.58
402.329	8776.97
402.774	8401.02
403.218	8090.98
403.663	7789.29
404.107	7988.43
404.551	8016.32
404.995	7341.9
405.44	7071.76
405.884	7172.28
406.328	6941.27
406.772	6914.31
407.216	6288.19
407.66	6074.03
408.104	5782.81
408.547	5411.2
408.991	5234.72
409.435	5040.34
409.879	4962.43
410.322	4886.97
410.766	4705.11
411.209	4456.32
411.653	4273.24
412.096	4175.31
412.54	4171.6
412.983	4130.99
413.426	4123.98
413.869	4120
414.312	4032.31
414.756	3882.47
415.199	3698.59
415.642	3585.53
416.085	3587.41
416.527	3556.15
416.97	3613.4
417.413	3424.28
417.856	3390.45
418.298	3363.42
418.741	3344.24
419.184	3341.62
419.626	3487.93
420.069	3491.29
420.511	3508.9
420.953	3429.85
421.396	3398.41
421.838	3310.83
422.28	3384.53
422.722	3391.38
423.164	3435.38
423.606	3370.4
424.048	3362.38
424.49	3188.47
424.932	3170.4
425.374	3128.91
425.816	3187.27
426.258	3250.03
426.699	3290.94
427.141	3242.34
427.582	3303.56
428.024	3290.18
428.465	3271.7
428.907	3187.09
429.348	3144.82
429.789	3137.5
430.231	3064.37
430.672	3103.97
431.113	3026.68
431.554	2972.58
431.995	2893.39
432.436	2775.73
432.877	2702.98
433.318	2647.37
433.759	2633.77
434.2	2632.04
434.64	2602.82
435.081	2606.56
435.522	2460.27
435.962	2366.68
436.403	2307.1
436.843	2337.81
437.284	2288.72
437.724	2228.41
438.164	2237.43
438.604	2185.43
439.045	2094.79
439.485	2001.34
439.925	1957.3
440.365	1905.3
440.805	1876.3
441.245	1850.96
441.685	1779.17
442.125	1764.68
442.564	1772.79
443.004	1726.9
443.444	1719.55
443.883	1718.97
444.323	1706
444.762	1710.51
445.202	1733.02
445.641	1758.29
446.081	1747.15
446.52	1757.09
446.959	1735.01
447.398	1685.38
447.837	1660.27
448.276	1626.97
448.716	1639.63
449.154	1655.68
449.593	1611.61
450.032	1603
450.471	1574.16
450.91	1576.1
451.349	1568.88
451.787	1561.61
452.226	1587.46
452.664	1589.19
453.103	1592.76
453.541	1592.91
453.98	1583.26
454.418	1594.94
454.856	1568.93
455.295	1565.66
455.733	1575.52
456.171	1586.01
456.609	1585.34
457.047	1585.5
457.485	1604.07
457.923	1604.69
458.361	1581.32
458.798	1587.35
459.236	1580.19
459.674	1589.21
460.111	1595.1
460.549	1578.1
460.987	1571.41
461.424	1566.03
461.862	1553.78
462.299	1527.89
462.736	1523.13
463.173	1526.76
463.611	1503.47
464.048	1496.44
464.485	1507.16
464.922	1492.25
465.359	1482.57
465.796	1450.69
466.233	1437.02
466.67	1420.48
467.106	1414.21
467.543	1400.82
467.98	1383.54
468.416	1351.54
468.853	1342.21
469.29	1301.97
469.726	1287.38
470.162	1253.11
470.599	1246.02
471.035	1236.4
471.471	1209.03
471.907	1206.81
472.344	1199.44
472.78	1201.38
473.216	1218.69
473.652	1205.7
474.088	1204.37
474.523	1201.24
474.959	1214.81
475.395	1205.01
475.831	1199.87
476.266	1207.01
476.702	1204.32
477.138	1193.67
477.573	1190.92
478.008	1186.47
478.444	1192.09
478.879	1203.58
479.314	1209.45
479.75	1209.73
480.185	1217.19
480.62	1229.52
481.055	1237.07
481.49	1246.26
481.925	1264.12
482.36	1285.21
482.795	1322.94
483.229	1360.05
483.664	1389.22
484.099	1395.44
484.534	1416.33
484.968	1428.72
485.403	1432.78
485.837	1431.16
486.271	1428.51
486.706	1428.64
487.14	1412.51
487.574	1385.96
488.009	1371.54
488.443	1356.86
488.877	1366.38
489.311	1367.01
489.745	1379.52
490.179	1386.92
490.613	1405.9
491.046	1412.48
491.48	1417.75
491.914	1414.63
492.348	1420.22
492.781	1422.9
493.215	1421.3
493.648	1419.31
494.082	1424.72
494.515	1418.34
494.948	1426.59
495.382	1431.65
495.815	1433.81
496.248	1437.59
496.681	1456.05
497.114	1471.43
497.547	1481.65
497.98	1496.89
498.413	1498.83
498.846	1507.43
499.279	1515.08
499.711	1513.69
500.144	1507.53
500.577	1515.76
501.009	1526.5
501.442	1531.44
501.874	1521.2
502.306	1513.31
502.739	1513.44
503.171	1527.59
503.603	1520.74
504.036	1524.35
504.468	1522.01
504.9	1528.59
505.332	1527.26
505.764	1519.47
506.196	1518.45
506.627	1529.04
507.059	1537.7
507.491	1539.01
507.923	1521
508.354	1530.98
508.786	1534.21
509.217	1547.6
509.649	1555.26
510.08	1570
510.512	1581.06
510.943	1588.14
511.374	1590.08
511.805	1604.33
512.237	1617.6
512.668	1648.77
513.099	1671.55
513.53	1692.47
513.961	1703.8
514.391	1732.11
514.822	1760.61
515.253	1792.53
515.684	1810.21
516.114	1833.77
516.545	1846.47
516.975	1865.54
517.406	1874.25
517.836	1862.33
518.267	1857.57
518.697	1867.15
519.127	1859.2
519.558	1854.23
519.988	1845.68
520.418	1846.82
520.848	1857.05
521.278	1855.92
521.708	1870
522.138	1874.14
522.567	1902.07
522.997	1922.18
523.427	1929.92
523.857	1939.94
524.286	1942.93
524.716	1951.95
525.145	1965.89
525.575	1969.69
526.004	1977.89
526.433	1954.47
526.863	1946.99
527.292	1927.69
527.721	1926.57
528.15	1929
528.579	1924.5
529.008	1929.83
529.437	1949.2
529.866	1958.51
530.295	1972.59
530.724	1981.6
531.152	2007.5
531.581	2019.71
532.01	2035.42
532.438	2041.82
532.867	2053.32
533.295	2069.89
533.723	2074.73
534.152	2070
534.58	2066.52
535.008	2045.37
535.436	2044.47
535.865	2050.76
536.293	2064.7
536.721	2080.37
537.149	2105.01
537.576	2104.58
538.004	2116.09
538.432	2122.59
538.86	2118.17
539.287	2123.28
539.715	2136
540.143	2137.61
540.57	2130.89
540.998	2123.44
541.425	2097.05
541.852	2072.32
542.28	2069.53
542.707	2049.54
543.134	2031.98
543.561	2027.03
543.988	2018.23
544.415	2017.69
544.842	2011.57
545.269	2003.74
545.696	2005.88
546.123	2019.51
546.549	2008.84
546.976	1993.52
547.403	1994.8
547.829	1998.35
548.256	2000.21
548.682	1996.93
549.108	1989.2
549.535	1988.61
549.961	1990.95
550.387	1977.03
550.813	1970.32
551.24	1977.65
551.666	1981.08
552.092	1970.68
552.518	1964.08
552.943	1958.81
553.369	1968.11
553.795	1976.19
554.221	1978.6
554.646	1976.61
555.072	1990.71
555.498	1997.59
555.923	2009.79
556.349	2028.07
556.774	2039.64
557.199	2042.94
557.625	2052.04
558.05	2047.31
558.475	2060.56
558.9	2062.25
559.325	2056.61
559.75	2052.34
560.175	2048.75
560.6	2044.08
561.025	2045.77
561.449	2049.93
561.874	2060.97
562.299	2069.34
562.723	2082.28
563.148	2075.81
563.572	2085
563.997	2100.43
564.421	2112.2
564.846	2117.92
565.27	2127.49
565.694	2128.87
566.118	2147.91
566.542	2161.05
566.966	2158.56
567.39	2158.17
567.814	2149.04
568.238	2153.86
568.662	2165.26
569.086	2173.86
569.509	2188.14
569.933	2176.21
570.357	2174
570.78	2155.05
571.204	2145.59
571.627	2139.81
572.05	2143.69
572.474	2150.14
572.897	2140.78
573.32	2137.26
573.743	2131.12
574.166	2114.23
574.589	2118.93
575.012	2115.65
575.435	2120.55
575.858	2115.53
576.281	2106.89
576.704	2094.9
577.126	2087.56
577.549	2080.28
577.972	2073.75
578.394	2065.65
578.817	2063.92
579.239	2045.74
579.661	2033.38
580.084	2017.4
580.506	2005.07
580.928	2004.89
581.35	1994.55
581.772	1993.32
582.194	1980.29
582.616	1968.09
583.038	1953.91
583.46	1942.63
583.882	1943.89
584.303	1954.12
584.725	1953.97
585.147	1960.53
585.568	1978.2
585.99	1998.02
586.411	2008.69
586.833	2031.5
587.254	2037.37
587.675	2060.3
588.096	2081.37
588.518	2077.91
588.939	2058.02
589.36	2057.92
589.781	2046.91
590.202	2013.17
590.623	2003.92
591.043	2002.91
591.464	1988.19
591.885	1985.51
592.305	1979.83
592.726	1963.95
593.147	1967.99
593.567	1964.17
593.987	1956.27
594.408	1952.3
594.828	1951.14
595.248	1945.67
595.669	1923.9
596.089	1917.17
596.509	1910.69
596.929	1894.03
597.349	1897
597.769	1885.53
598.189	1878.19
598.608	1881.87
599.028	1886.33
599.448	1888.25
599.867	1872.45
600.287	1868.95
600.706	1864.97
601.126	1854.48
601.545	1855.9
601.965	1856.09
602.384	1851.31
602.803	1858.82
603.222	1854.88
603.641	1848.98
604.061	1847.01
604.48	1845.37
604.898	1859.61
605.317	1870.32
605.736	1876.96
606.155	1877.25
606.574	1868.17
606.992	1878.94
607.411	1874.75
607.829	1867.77
608.248	1866.69
608.666	1868.11
609.085	1872.04
609.503	1863.67
609.921	1859.36
610.339	1866.17
610.758	1868.73
611.176	1867.98
611.594	1859.62
612.012	1860.19
612.43	1869.83
612.847	1883.14
613.265	1888.59
613.683	1898.75
614.101	1907
614.518	1906.27
614.936	1897.18
615.353	1881.03
615.771	1881.34
616.188	1886.85
616.606	1886.87
617.023	1880.65
617.44	1866.9
617.857	1862.11
618.274	1855.25
618.691	1848.88
619.108	1840.02
619.525	1835.79
619.942	1849.41
620.359	1856.56
620.776	1852.78
621.192	1849.79
621.609	1849.11
622.026	1860.26
622.442	1870.78
622.859	1877.49
623.275	1869.33
623.691	1878.19
624.108	1895.7
624.524	1917.97
624.94	1918.93
625.356	1934.21
625.772	1954.46
626.188	1972.94
626.604	1975.58
627.02	1969.64
627.436	1966.87
627.852	1977.87
628.268	1996.07
628.683	1984.5
629.099	1972.8
629.514	1966.52
629.93	1974.13
630.345	1981.14
630.761	1977.37
631.176	1983.44
631.591	1976.18
632.007	1967.17
632.422	1966.87
632.837	1952.4
633.252	1949.63
633.667	1936.2
634.082	1923.7
634.497	1904.84
634.911	1879.03
635.326	1874.77
635.741	1854.38
636.155	1844.68
636.57	1853.16
636.984	1857.31
637.399	1866.84
637.813	1872.64
638.228	1878.79
638.642	1894.63
639.056	1887.25
639.47	1896.25
639.884	1893.89
640.298	1891.04
640.712	1898.2
641.126	1887.76
641.54	1885
641.954	1886.38
642.368	1878.25
642.781	1873.96
643.195	1854.77
643.609	1866.45
644.022	1867.39
644.436	1870.45
644.849	1861.47
645.262	1852.35
645.676	1866.06
646.089	1865.64
646.502	1850.04
646.915	1850.86
647.328	1832.1
647.741	1837.62
648.154	1823.61
648.567	1825.27
648.98	1809.47
649.393	1818.02
649.805	1818.16
650.218	1810.42
650.631	1789.15
651.043	1782.97
651.456	1776.93
651.868	1783.21
652.28	1819.77
652.693	1849.58
653.105	1868.6
653.517	1892.07
653.929	1899.12
654.341	1914.81
654.753	1897.74
655.165	1916.81
655.577	1917.84
655.989	1916.37
656.401	1910.88
656.813	1850.13
657.224	1821.02
657.636	1775.14
658.047	1749.97
658.459	1721.05
658.87	1714.43
659.282	1701.43
659.693	1670.14
660.104	1652.14
660.515	1636.79
660.926	1641.49
661.338	1646.88
661.749	1644.18
662.159	1634.94
662.57	1635.48
662.981	1635.46
663.392	1629.94
663.803	1647.07
664.213	1651.59
664.624	1652.9
665.035	1667.53
665.445	1649.44
665.855	1642.38
666.266	1632.98
666.676	1635.94
667.086	1625.11
667.497	1630.18
667.907	1623.08
668.317	1609.24
668.727	1604.44
669.137	1611.69
669.547	1608.13
669.956	1616.34
670.366	1621.65
670.776	1626.9
671.186	1637.22
671.595	1645.1
672.005	1654.03
672.414	1650.48
672.824	1646.17
673.233	1656.94
673.642	1658.36
674.052	1662.47
674.461	1664.88
674.87	1672.52
675.279	1664.35
675.688	1666.39
676.097	1664.07
676.506	1653
676.915	1681.1
677.323	1682.66
677.732	1674.59
678.141	1669.75
678.549	1645.63
678.958	1640.41
679.366	1634.69
679.775	1641.06
680.183	1654.6
680.592	1661.38
681	1666.37
681.408	1644.84
681.816	1653.64
682.224	1664.6
682.632	1672.98
683.04	1720.71
683.448	1756.25
683.856	1803.07
684.264	1856.52
684.671	1900.38
685.079	1958.27
685.487	2019.36
685.894	2110.69
686.302	2177.2
686.709	2221.35
687.116	2277.3
