Data from C_3_DIV_PA_2N_Splice17_13-16-09-588.txt Node
Date: Sat Mar 14 13:16:09 EDT 2020
User: sa697716
Spectrometer: FLMS03696
Trigger mode: 0
Integration Time (sec): 3.180400E-1
Scans to average: 20
Electric dark correction enabled: true
Nonlinearity correction enabled: true
Boxcar width: 5
XAxis mode: Wavelengths
Number of Pixels in Spectrum: 2048
>>>>>Begin Spectral Data<<<<<
187.83	-334492.35
188.298	2480.36
188.766	1305.42
189.233	1125.55
189.701	1674.52
190.169	2324.46
190.636	910.29
191.104	678.68
191.571	127.94
192.039	-76.31
192.506	-88.65
192.974	369.27
193.441	-261.2
193.908	126.57
194.375	25.96
194.842	81.04
195.31	205.98
195.777	209.67
196.244	356.89
196.711	320.76
197.177	369.62
197.644	449.31
198.111	769.43
198.578	995.22
199.045	801.6
199.511	1261.82
199.978	1431.2
200.445	1228.26
200.911	1323.79
201.378	1416.55
201.844	1309.5
202.31	2174.72
202.777	2258.4
203.243	1233.86
203.709	1157.22
204.176	1361.77
204.642	1147.49
205.108	1097.74
205.574	871.47
206.04	776.78
206.506	709.86
206.972	655.59
207.438	623.68
207.903	693.9
208.369	627.98
208.835	642.92
209.301	674.21
209.766	667.59
210.232	663.18
210.697	813.9
211.163	973.91
211.628	1472.95
212.094	1246.69
212.559	1640.86
213.024	1048.96
213.49	1293.73
213.955	1247.01
214.42	1173.86
214.885	1119.12
215.35	1084.24
215.815	1127.66
216.28	1226.28
216.745	1006.24
217.21	1104.71
217.675	991.1
218.14	1130.16
218.604	1259.81
219.069	1462.15
219.534	1601.76
219.998	1858.18
220.463	2265.28
220.927	2732.45
221.392	2616.49
221.856	2689.33
222.32	3383.52
222.785	4235.46
223.249	5375.76
223.713	6048.38
224.177	6131.48
224.642	7855.12
225.106	9729.62
225.57	10708.97
226.034	8091.99
226.497	12390.79
226.961	11295.8
227.425	13300.34
227.889	14812.61
228.353	14899.76
228.816	30920.93
229.28	29805.13
229.744	25281.15
230.207	15565.02
230.671	15419.33
231.134	25581.46
231.597	29720
232.061	29904.2
232.524	29380.64
232.987	20412.01
233.45	18519.42
233.914	16719.25
234.377	17231.71
234.84	15887.3
235.303	18793.72
235.766	21116.63
236.229	21943.55
236.691	13902.81
237.154	15709.02
237.617	11866.99
238.08	12199.99
238.542	14349.25
239.005	10312.64
239.468	10273.3
239.93	9727.42
240.393	8869.77
240.855	7809.38
241.317	8014.41
241.78	9777.43
242.242	10134.3
242.704	11009.15
243.166	9637.58
243.629	8800.46
244.091	10189.64
244.553	11221.84
245.015	12106.67
245.477	15760.16
245.939	23183.44
246.4	24741.07
246.862	24123.56
247.324	22836
247.786	25604.41
248.247	33604.7
248.709	34717.18
249.17	26051.29
249.632	24673.16
250.093	28769.93
250.555	24909.7
251.016	15286.6
251.477	14563.81
251.939	15818.64
252.4	16664.28
252.861	19887.97
253.322	18600.17
253.783	22246.76
254.244	28969.58
254.705	22901.32
255.166	20419.46
255.627	20175.73
256.088	28589.52
256.549	30490.24
257.009	26290.27
257.47	31980.12
257.931	26135
258.391	19672.06
258.852	20357.04
259.312	21400.46
259.773	26487.51
260.233	22479.93
260.694	19044.51
261.154	21666.34
261.614	17470.71
262.074	15700.65
262.534	16413.79
262.994	15584.45
263.455	20862.65
263.915	17684.2
264.374	16769.65
264.834	18425.45
265.294	20533.06
265.754	21386.76
266.214	20362.9
266.673	19198.48
267.133	24366.99
267.593	24276.31
268.052	29825.84
268.512	26069.01
268.971	31630.46
269.431	34842.36
269.89	31380.21
270.349	47255.99
270.809	52975.07
271.268	47823.08
271.727	107651.27
272.186	69998.33
272.645	52797.67
273.104	38262
273.563	55591.34
274.022	43839.94
274.481	37442.16
274.94	28956.57
275.399	21617.25
275.857	25287.85
276.316	34332.08
276.775	30693.26
277.233	30416.74
277.692	28588.65
278.15	32494.46
278.609	33624.91
279.067	31266.08
279.525	29190.09
279.984	37846.45
280.442	45654.09
280.9	45173.35
281.358	29837.92
281.816	27905.47
282.274	27361.58
282.732	28339.02
283.19	28560.73
283.648	24702.4
284.106	26355.15
284.564	26867.12
285.021	24988.56
285.479	18692.02
285.937	17040.18
286.394	15007.59
286.852	15493.98
287.309	16342.83
287.767	15861.19
288.224	15146.17
288.682	16714.44
289.139	18496.08
289.596	17048.51
290.053	17839.57
290.511	22669.55
290.968	27686.71
291.425	37862.44
291.882	31743.98
292.339	27826.96
292.796	27807.23
293.252	26358.44
293.709	21031.75
294.166	18924.52
294.623	21016.75
295.079	20250.5
295.536	20424.59
295.992	18620.77
296.449	18454.49
296.905	19222.67
297.362	18494.38
297.818	19521.63
298.274	20328.1
298.731	20794.13
299.187	20643.42
299.643	22219.05
300.099	26955.85
300.555	29632.07
301.011	24823.21
301.467	24010.42
301.923	28203.17
302.379	27619.81
302.835	27184.08
303.291	27300.1
303.746	31153.17
304.202	39435.67
304.658	39672.06
305.113	26719.68
305.569	26239.51
306.024	28045.96
306.479	26767.46
306.935	22626.45
307.39	24780.4
307.845	22934.58
308.301	23098.56
308.756	22548.62
309.211	21769.54
309.666	22359.51
310.121	27834.01
310.576	28322.53
311.031	28136.61
311.486	32304.28
311.94	32372.23
312.395	43379.75
312.85	81652.93
313.305	401974.98
313.759	2082483.02
314.214	151204.92
314.668	120083.18
315.123	101322.7
315.577	36396.16
316.032	32453.44
316.486	40750.8
316.94	32215.44
317.394	22488.42
317.849	17548.96
318.303	16667.9
318.757	15788.56
319.211	17525.37
319.665	15402.91
320.119	15642.21
320.572	22546.04
321.026	21154.25
321.48	17672.71
321.934	19329.89
322.387	19432.82
322.841	21068.95
323.295	18985.83
323.748	21957.7
324.202	22330.75
324.655	26865.21
325.108	37583.21
325.562	26578.3
326.015	31656.62
326.468	23962.98
326.921	26825.51
327.374	25020.54
327.827	26086.21
328.28	29636.81
328.733	19896.66
329.186	17528.07
329.639	16733.49
330.092	14134.91
330.545	13487.4
330.997	13615.8
331.45	14901.61
331.903	17491.19
332.355	30185.5
332.808	29334.76
333.26	24188.35
333.713	26259.61
334.165	26458.2
334.617	35366.23
335.069	28612.81
335.522	51758.03
335.974	57365.32
336.426	52485.06
336.878	36416.27
337.33	18486.08
337.782	18076.5
338.234	22671.94
338.686	27147.02
339.137	32185.84
339.589	30371.19
340.041	23833.41
340.493	20547.22
340.944	21085.85
341.396	22754.57
341.847	19164.22
342.299	22648.29
342.75	27771.2
343.201	24388.67
343.653	28182.75
344.104	34800.03
344.555	27494.06
345.006	42999.53
345.457	32967.65
345.908	26305.02
346.359	24831.44
346.81	20319.75
347.261	21492.2
347.712	21188.87
348.163	22764.72
348.613	23050.14
349.064	21573.67
349.515	18914.86
349.965	19439.05
350.416	23474.09
350.866	25794.35
351.317	29217.53
351.767	48405.18
352.217	61229.01
352.668	50910.79
353.118	46690.14
353.568	45192.88
354.018	35779.64
354.468	37810.38
354.918	27117.81
355.368	23761.83
355.818	33635.97
356.268	96900.4
356.718	405681.71
357.168	101043.82
357.617	50821.81
358.067	56575.13
358.517	53077.57
358.966	62361.67
359.416	69879.69
359.865	75718.72
360.315	90313.71
360.764	42154.94
361.213	23651.08
361.663	22495.68
362.112	27856.63
362.561	44996.28
363.01	34052.89
363.459	28762.28
363.908	31155.38
364.357	26559.44
364.806	44943.84
365.255	30966.14
365.703	28415.3
366.152	28561.94
366.601	23199.39
367.05	18847.87
367.498	17175.63
367.947	17991.32
368.395	18713.47
368.844	16629.37
369.292	20087.45
369.74	13903.12
370.189	21347.74
370.637	25103.59
371.085	21679.76
371.533	26452.18
371.981	25596.79
372.429	24428.96
372.877	25456.84
373.325	21334.07
373.773	21795.15
374.221	19455.75
374.669	24208.84
375.116	20983.11
375.564	21216.71
376.012	23794.55
376.459	19669.31
376.907	23538.78
377.354	28533.44
377.801	26631.11
378.249	30626.25
378.696	39193.5
379.143	47491.63
379.591	50689.55
380.038	85887.03
380.485	62133.33
380.932	67094.72
381.379	61357.52
381.826	45216.73
382.273	32242.44
382.72	28270.39
383.166	27657.35
383.613	17981.19
384.06	16286.06
384.506	18895.42
384.953	13899.05
385.4	14025.68
385.846	12306.34
386.292	12017.7
386.739	11775.03
387.185	11650.99
387.631	11662.97
388.078	11316.65
388.524	12100.44
388.97	11161.33
389.416	9295.39
389.862	9864.56
390.308	9332.03
390.754	9467.38
391.2	10259.97
391.645	10487.94
392.091	9983.98
392.537	9620.6
392.983	9609.62
393.428	9409.64
393.874	10056.35
394.319	10060.43
394.765	9517.55
395.21	9773.24
395.655	9152.5
396.101	8560.39
396.546	7711.59
396.991	7775.49
397.436	7204.86
397.881	6950.68
398.326	6572.74
398.771	6199.35
399.216	5413.34
399.661	4867.38
400.106	4824.64
400.551	4914.89
400.995	4401.19
401.44	4346.6
401.885	4083.34
402.329	4122.85
402.774	3946.26
403.218	3811.96
403.663	3664.8
404.107	3754.03
404.551	3767.43
404.995	3454.53
405.44	3325.24
405.884	3370.23
406.328	3251.39
406.772	3229.66
407.216	2934.45
407.66	2831.42
408.104	2683.55
408.547	2507.85
408.991	2421.53
409.435	2331.36
409.879	2294.34
410.322	2259.08
410.766	2173.37
411.209	2060.01
411.653	1974.72
412.096	1927.25
412.54	1919.67
412.983	1901.42
413.426	1902.1
413.869	1898
414.312	1852.47
414.756	1778.73
415.199	1694.26
415.642	1642.13
416.085	1642.46
416.527	1627.93
416.97	1654.47
417.413	1571.49
417.856	1558.81
418.298	1544.86
418.741	1538.46
419.184	1539.68
419.626	1606.89
420.069	1609.98
420.511	1621.15
420.953	1587.78
421.396	1574.67
421.838	1534.89
422.28	1571.46
422.722	1577.36
423.164	1597.03
423.606	1568.19
424.048	1566.18
424.49	1490.35
424.932	1483.74
425.374	1462.21
425.816	1489.41
426.258	1523.75
426.699	1545.04
427.141	1525.62
427.582	1550.12
428.024	1544.55
428.465	1534.36
428.907	1495.42
429.348	1475.81
429.789	1472.57
430.231	1442.49
430.672	1461.99
431.113	1420
431.554	1395.35
431.995	1354.49
432.436	1303.15
432.877	1269.66
433.318	1245.25
433.759	1236.86
434.2	1231.53
434.64	1214.6
435.081	1212.16
435.522	1144.11
435.962	1100.71
436.403	1073.49
436.843	1085.91
437.284	1061.43
437.724	1033.77
438.164	1035.6
438.604	1011.13
439.045	971.74
439.485	931.53
439.925	911.02
440.365	885.61
440.805	874.79
441.245	865.35
441.685	834.71
442.125	827.67
442.564	829.71
443.004	808.19
443.444	805.79
443.883	805.63
444.323	798.16
444.762	797.69
445.202	808.22
445.641	819.64
446.081	809.78
446.52	814.49
446.959	803.82
447.398	784.64
447.837	775.54
448.276	759.55
448.716	766.32
449.154	772.9
449.593	755.19
450.032	751.55
450.471	736.21
450.91	736.83
451.349	732.78
451.787	729.01
452.226	737.76
452.664	737.53
453.103	739.39
453.541	737.96
453.98	735.68
454.418	741.42
454.856	729.85
455.295	729.18
455.733	736.14
456.171	741.37
456.609	742.09
457.047	743.13
457.485	753.48
457.923	753.93
458.361	743.49
458.798	745.51
459.236	742.71
459.674	748.19
460.111	750.89
460.549	741.74
460.987	739.32
461.424	737.11
461.862	734
462.299	721.13
462.736	721.05
463.173	723.86
463.611	716.47
464.048	714.97
464.485	719.92
464.922	713.45
465.359	709.12
465.796	700.13
466.233	695.88
466.67	687.73
467.106	686.82
467.543	679.76
467.98	671.02
468.416	653.6
468.853	648.2
469.29	629.81
469.726	623.18
470.162	607.98
470.599	600.43
471.035	595.54
471.471	583.31
471.907	581.33
472.344	579.84
472.78	582
473.216	590.05
473.652	584.93
474.088	583.56
474.523	583.74
474.959	590.81
475.395	586.66
475.831	584.72
476.266	588.55
476.702	587.33
477.138	580.79
477.573	580.23
478.008	579.64
478.444	583.46
478.879	590.75
479.314	593.99
479.75	595.06
480.185	598.48
480.62	602.94
481.055	607.1
481.49	613.52
481.925	622.78
482.36	633.95
482.795	651.2
483.229	667.62
483.664	681.19
484.099	683.15
484.534	693.89
484.968	700.11
485.403	703.08
485.837	701.82
486.271	699.96
486.706	701.16
487.14	693.01
487.574	682.19
488.009	676.69
488.443	670.07
488.877	677.24
489.311	677.56
489.745	684.71
490.179	689.39
490.613	701.06
491.046	704.23
491.48	706.95
491.914	705.4
492.348	708.09
492.781	709.64
493.215	708.91
493.648	706.46
494.082	708.27
494.515	704.72
494.948	709.4
495.382	709.42
495.815	710.37
496.248	711.93
496.681	719.77
497.114	725.82
497.547	729.62
497.98	736.63
498.413	736.87
498.846	741.17
499.279	742.6
499.711	738.89
500.144	734.59
500.577	736.91
501.009	739.43
501.442	741.16
501.874	735.1
502.306	729.84
502.739	729.71
503.171	733.7
503.603	727.11
504.036	726.7
504.468	722.67
504.9	722
505.332	717.57
505.764	711.85
506.196	708.02
506.627	709.53
507.059	708.64
507.491	702.51
507.923	690.74
508.354	692.11
508.786	689.72
509.217	693.01
509.649	693.93
510.08	696.82
510.512	697.12
510.943	695.1
511.374	691.42
511.805	693.64
512.237	694.98
512.668	704.35
513.099	709.12
513.53	713.74
513.961	713.91
514.391	720.09
514.822	728
515.253	736.22
515.684	739.05
516.114	742.88
516.545	743.48
516.975	746.91
517.406	745.2
517.836	734.72
518.267	728.27
518.697	727.91
519.127	720.59
519.558	713.49
519.988	705.5
520.418	702.04
520.848	701.98
521.278	697.02
521.708	712.03
522.138	710.5
522.567	717.65
522.997	721.91
523.427	721.4
523.857	721.81
524.286	720.14
524.716	721.87
525.145	724.65
525.575	725.06
526.004	726.39
526.433	702.72
526.863	698.06
527.292	691.11
527.721	690.15
528.15	689.01
528.579	687.01
529.008	688.95
529.437	694.19
529.866	697.52
530.295	700.66
530.724	704.95
531.152	713.83
531.581	718.89
532.01	723.7
532.438	725.74
532.867	730.04
533.295	736.72
533.723	738.64
534.152	738.23
534.58	737.89
535.008	732.39
535.436	732.99
535.865	736.13
536.293	740.97
536.721	747.57
537.149	757.98
537.576	761.19
538.004	766.92
538.432	770.42
538.86	771.14
539.287	774.53
539.715	781.26
540.143	782.98
540.57	782.27
540.998	782.18
541.425	775.14
541.852	767.1
542.28	767
542.707	761.5
543.134	757.43
543.561	757.05
543.988	755.14
544.415	756.93
544.842	756.21
545.269	755.19
545.696	758.45
546.123	765.29
546.549	764.03
546.976	760.8
547.403	762.69
547.829	765.41
548.256	768.06
548.682	768.62
549.108	767.73
549.535	769.25
549.961	772.02
550.387	768.05
550.813	768.81
551.24	772.79
551.666	774.79
552.092	772.93
552.518	771.56
552.943	771.49
553.369	777.22
553.795	780.86
554.221	783.89
554.646	785.38
555.072	793.08
555.498	795.93
555.923	802.09
556.349	811.62
556.774	817.04
557.199	820.73
557.625	825.38
558.05	825.56
558.475	833.01
558.9	835.74
559.325	835.63
559.75	836.42
560.175	836.98
560.6	837.72
561.025	838.97
561.449	844.03
561.874	850.3
562.299	857.52
562.723	864.55
563.148	863.82
563.572	869.51
563.997	877.64
564.421	883.53
564.846	888.18
565.27	895.09
565.694	899.54
566.118	910.15
566.542	920.15
566.966	921.4
567.39	924.1
567.814	925.39
568.238	930.94
568.662	938.26
569.086	945.88
569.509	955.65
569.933	954.27
570.357	956.51
570.78	951.9
571.204	950.72
571.627	949.27
572.05	954.85
572.474	960.28
572.897	959.33
573.32	961.61
573.743	960.82
574.166	957.59
574.589	962.19
575.012	963.25
575.435	966.84
575.858	966.98
576.281	967.37
576.704	963.39
577.126	960.57
577.549	959.65
577.972	958.51
578.394	957.84
578.817	959.14
579.239	952.23
579.661	949.26
580.084	945.87
580.506	943.19
580.928	945.75
581.35	944.03
581.772	947.2
582.194	942.42
582.616	938.74
583.038	934.67
583.46	930.55
583.882	932.8
584.303	937.62
584.725	938.21
585.147	943.81
585.568	953.51
585.99	963.43
586.411	969.09
586.833	980.83
587.254	984.07
587.675	993.63
588.096	1003.13
588.518	1001.77
588.939	993.92
589.36	993.72
589.781	985.74
590.202	970.46
590.623	967.48
591.043	966.15
591.464	959.94
591.885	960.92
592.305	958.59
592.726	951.87
593.147	954.67
593.567	952.21
593.987	949.03
594.408	947.46
594.828	945.28
595.248	942.31
595.669	933.55
596.089	930.25
596.509	925.93
596.929	918.19
597.349	919.09
597.769	912.49
598.189	909.8
598.608	911.21
599.028	912.65
599.448	913.37
599.867	905.62
600.287	903
600.706	900.98
601.126	896.33
601.545	897.69
601.965	899.15
602.384	897.09
602.803	900.28
603.222	898.46
603.641	897.05
604.061	896.94
604.48	895.02
604.898	901.96
605.317	907.08
605.736	909.82
606.155	909.95
606.574	904.75
606.992	911.11
607.411	910.47
607.829	907.15
608.248	906.18
608.666	906.26
609.085	909.7
609.503	907.42
609.921	907.16
610.339	912.22
610.758	914.71
611.176	915.14
611.594	912
612.012	912.86
612.43	919.68
612.847	928.18
613.265	933.89
613.683	940.55
614.101	945.15
614.518	945.51
614.936	940.98
615.353	934.78
615.771	936.57
616.188	940.58
616.606	941.17
617.023	939.68
617.44	933.57
617.857	930.54
618.274	927.19
618.691	925.62
619.108	920.44
619.525	918.93
619.942	926.02
620.359	929.88
620.776	928.28
621.192	927.89
621.609	928.17
622.026	934.33
622.442	940.97
622.859	944.83
623.275	940.74
623.691	947.69
624.108	958.53
624.524	970.57
624.94	971.63
625.356	980.75
625.772	991.86
626.188	1001.03
626.604	1002.87
627.02	1000.78
627.436	1000.17
627.852	1006.51
628.268	1016
628.683	1009.5
629.099	1004.2
629.514	1001.62
629.93	1004.92
630.345	1009.92
630.761	1008.3
631.176	1012.82
631.591	1011.13
632.007	1009.57
632.422	1009.87
632.837	1004.37
633.252	1005.57
633.667	1000.33
634.082	997.54
634.497	993
634.911	983.21
635.326	986.45
635.741	979.17
636.155	977.01
636.57	985.06
636.984	993.01
637.399	1003.15
637.813	1012.16
638.228	1020.91
638.642	1035.01
639.056	1036.03
639.47	1046.65
639.884	1050.59
640.298	1056.15
640.712	1066.34
641.126	1067.48
641.54	1070.71
641.954	1077.52
642.368	1078.96
642.781	1085.75
643.195	1080.24
643.609	1093.88
644.022	1099.96
644.436	1107.42
644.849	1107.95
645.262	1109.49
645.676	1123.15
646.089	1131.06
646.502	1126.1
646.915	1130.86
647.328	1122.67
647.741	1131.19
648.154	1125.39
648.567	1130.53
648.98	1125.28
649.393	1133.93
649.805	1137.72
650.218	1135.63
650.631	1123.48
651.043	1123.03
651.456	1121.77
651.868	1127.98
652.28	1152.73
652.693	1173.06
653.105	1185.74
653.517	1199.65
653.929	1205.04
654.341	1215.44
654.753	1205.81
655.165	1220.31
655.577	1223.71
655.989	1224.79
656.401	1221.2
656.813	1184.71
657.224	1168.96
657.636	1142.9
658.047	1130.01
658.459	1114.5
658.87	1112.22
659.282	1107
659.693	1088.6
660.104	1079.23
660.515	1070.66
660.926	1076.42
661.338	1082.58
661.749	1081.91
662.159	1078.46
662.57	1080.99
662.981	1082.29
663.392	1079.49
663.803	1091.98
664.213	1095.88
664.624	1097.13
665.035	1107.33
665.445	1094.45
665.855	1088.26
666.266	1082.56
666.676	1083.15
667.086	1074.57
667.497	1075.97
667.907	1070.9
668.317	1059.94
668.727	1057.17
669.137	1058.3
669.547	1056.43
669.956	1062.21
670.366	1065.94
670.776	1067.39
671.186	1073.07
671.595	1076.91
672.005	1080.74
672.414	1077.51
672.824	1075.06
673.233	1079.01
673.642	1080.17
674.052	1081.09
674.461	1081
674.87	1083.11
675.279	1077.39
675.688	1076.61
676.097	1074.62
676.506	1067.58
676.915	1084.09
677.323	1083.1
677.732	1077.77
678.141	1074.56
678.549	1057.19
678.958	1050.97
679.366	1046.05
679.775	1047.56
680.183	1055.5
680.592	1057.28
681	1058.54
681.408	1044.45
681.816	1046.98
682.224	1050.91
682.632	1054.79
683.04	1082.66
683.448	1102.52
683.856	1129.41
684.264	1160.23
684.671	1182.81
685.079	1213.78
685.487	1246.8
685.894	1294.33
686.302	1328.38
686.709	1348.85
687.116	1371.79
687.524	1383.26
687.931	1388.49
688.338	1383.06
688.745	1371.85
689.152	1364.52
689.559	1365.83
689.966	1364.22
690.373	1342.98
690.78	1337.29
691.187	1347.95
691.593	1347.72
692	1340.17
692.407	1347.22
692.813	1366.23
693.22	1371.08
693.626	1377.71
694.032	1376.53
694.439	1392.04
694.845	1397.37
695.251	1411.85
695.657	1421.78
696.063	1448.4
696.469	1461.06
696.875	1470.53
697.281	1461.66
697.687	1458.84
698.093	1453.4
698.498	1466.86
698.904	1470.43
699.31	1491.25
699.715	1502.1
700.12	1526.25
700.526	1514.19
700.931	1527.64
701.337	1533.73
701.742	1532.33
702.147	1556
