Data from C_3_DEC_NC_4N_Splice17_13-05-34-432.txt Node
Date: Sat Mar 14 13:05:34 EDT 2020
User: sa697716
Spectrometer: FLMS03696
Trigger mode: 0
Integration Time (sec): 3.180400E-1
Scans to average: 20
Electric dark correction enabled: true
Nonlinearity correction enabled: true
Boxcar width: 5
XAxis mode: Wavelengths
Number of Pixels in Spectrum: 2048
>>>>>Begin Spectral Data<<<<<
187.83	-315147.69
188.298	2317.73
188.766	1291.56
189.233	1210.45
189.701	1683.13
190.169	2229.58
190.636	832.82
191.104	739.03
191.571	150.97
192.039	-50.68
192.506	-35.82
192.974	512.97
193.441	-823.27
193.908	-227.89
194.375	16.9
194.842	71.7
195.31	142.11
195.777	179.76
196.244	423.86
196.711	442.84
197.177	534.05
197.644	746.33
198.111	1268.01
198.578	1797.08
199.045	1445.89
199.511	2292.6
199.978	2664.89
200.445	2253.6
200.911	2478.85
201.378	2743.58
201.844	2510.32
202.31	4246.77
202.777	4458.8
203.243	2455.18
203.709	2319.81
204.176	2755.6
204.642	2293.04
205.108	2154.03
205.574	1756.23
206.04	1594.31
206.506	1479.01
206.972	1383.09
207.438	1353.51
207.903	1503.98
208.369	1335.59
208.835	1334.07
209.301	1399.11
209.766	1416.29
210.232	1377.78
210.697	1705.27
211.163	2108.3
211.628	3194.33
212.094	2725.32
212.559	3337.78
213.024	2098.25
213.49	2548.73
213.955	2471.04
214.42	2395.85
214.885	2247.12
215.35	2176.71
215.815	2110.89
216.28	2242.58
216.745	1826.57
217.21	1970.29
217.675	1803.51
218.14	2021.51
218.604	2241.92
219.069	2564.67
219.534	2681.97
219.998	3098.43
220.463	3725.41
220.927	4553.53
221.392	4250.32
221.856	4301.26
222.32	5362.43
222.785	6594.18
223.249	8260.79
223.713	9206.4
224.177	9180.31
224.642	11741.94
225.106	14425.77
225.57	15760.46
226.034	11688.22
226.497	17801.69
226.961	16079.78
227.425	18766
227.889	20773.16
228.353	20798.45
228.816	42967.13
229.28	40985.07
229.744	34598.09
230.207	21068.72
230.671	20714.07
231.134	34272.66
231.597	39541.16
232.061	39447.81
232.524	38461.89
232.987	26550.6
233.45	23914.92
233.914	21434.26
234.377	21968.58
234.84	20064.19
235.303	23659.56
235.766	26403.88
236.229	27253.71
236.691	17160.38
237.154	19284.63
237.617	14493.64
238.08	14812.54
238.542	17304.84
239.005	12380.85
239.468	12295.4
239.93	11600.28
240.393	10530.08
240.855	9243.55
241.317	9471.66
241.78	11519.44
242.242	11899.34
242.704	12864.05
243.166	11218.32
243.629	10208.69
244.091	11767.45
244.553	12890.7
245.015	13873.25
245.477	17950.32
245.939	26258.49
246.4	27892.02
246.862	27085.26
247.324	25553.9
247.786	28623.95
248.247	37484.93
248.709	38701.57
249.17	28956.42
249.632	27334.63
250.093	31711.43
250.555	27371.3
251.016	16743.15
251.477	15884.86
251.939	17168.41
252.4	18019.73
252.861	21398.69
253.322	19932.42
253.783	23710.02
254.244	30718.01
254.705	24245.52
255.166	21557.53
255.627	21233.27
256.088	29970.38
256.549	31837.37
257.009	27404.28
257.47	33276.83
257.931	27114.5
258.391	20311.5
258.852	20929.4
259.312	21948.95
259.773	27087.41
260.233	22911.69
260.694	19344.31
261.154	21935.64
261.614	17603.22
262.074	15754.74
262.534	16375.29
262.994	15439.65
263.455	20591.62
263.915	17353.59
264.374	16355.45
264.834	17841.87
265.294	19756.93
265.754	20453.43
266.214	19364.1
266.673	18153.16
267.133	22878.24
267.593	22688.06
268.052	27748.12
268.512	24086.91
268.971	29062.84
269.431	31871.99
269.89	28546.48
270.349	42799.25
270.809	47754.15
271.268	42919.78
271.727	96215.72
272.186	62352.25
272.645	46753.83
273.104	33730.86
273.563	48849.06
274.022	38352.06
274.481	32638.16
274.94	25162.13
275.399	18684.18
275.857	21739.56
276.316	29398.48
276.775	26174.54
277.233	25772.36
277.692	24101.99
278.15	27278.62
278.609	28095.9
279.067	26036.92
279.525	24189.33
279.984	31205.21
280.442	37513.39
280.9	37018.95
281.358	24317.22
281.816	22646.7
282.274	22189.69
282.732	22959.15
283.19	23089.71
283.648	19918.32
284.106	21212.74
284.564	21555.53
285.021	19986.98
285.479	14891.96
285.937	13535.2
286.394	11884.5
286.852	12213.02
287.309	12833.28
287.767	12414.3
288.224	11802.55
288.682	12951.66
289.139	14241.15
289.596	13038.96
290.053	13564.53
290.511	17117.81
290.968	20742.01
291.425	28240.5
291.882	23545.06
292.339	20499.08
292.796	20315.85
293.252	19109.66
293.709	15174.56
294.166	13585.68
294.623	14996.94
295.079	14398.82
295.536	14470.04
295.992	13156.57
296.449	12977.57
296.905	13487.95
297.362	12925.52
297.818	13583.06
298.274	14094.17
298.731	14353.6
299.187	14200.07
299.643	15236.95
300.099	18419.92
300.555	20193.78
301.011	16849.04
301.467	16274.36
301.923	19037.48
302.379	18597.09
302.835	18279.62
303.291	18322.77
303.746	20891.51
304.202	26371.59
304.658	26499.51
305.113	17811.78
305.569	17435.11
306.024	18598.89
306.479	17671.74
306.935	14890.93
307.39	16251.96
307.845	15000.72
308.301	15101.89
308.756	14683.55
309.211	14143.82
309.666	14490.65
310.121	18005.07
310.576	18320.62
311.031	18170.58
311.486	20802.32
311.94	20781.21
312.395	27798.93
312.85	52194.1
313.305	256139.84
313.759	1328792.83
314.214	96278.1
314.668	76454.34
315.123	64248.79
315.577	23047.43
316.032	20511.51
316.486	25712.22
316.94	20325.95
317.394	14149.91
317.849	11017.6
318.303	10430.07
318.757	9848.03
319.211	10907.04
319.665	9515.43
320.119	9626.33
320.572	13784.74
321.026	12880.79
321.48	10721.71
321.934	11677.28
322.387	11692.58
322.841	12622.66
323.295	11374.33
323.748	13069.24
324.202	13259.31
324.655	15977.54
325.108	22412.26
325.562	15821.28
326.015	18814.03
326.468	14227.75
326.921	15911.8
327.374	14862.06
327.827	15509
328.28	17515.9
328.733	11740.33
329.186	10325.52
329.639	9833.25
330.092	8266.08
330.545	7882.99
330.997	7944.44
331.45	8682.62
331.903	10194.8
332.355	17503.15
332.808	16963.46
333.26	14000.54
333.713	15204.55
334.165	15299.73
334.617	20341.64
335.069	16413.47
335.522	29597.29
335.974	32764.51
336.426	29924.46
336.878	20674.29
337.33	10514.04
337.782	10261.65
338.234	12892.74
338.686	15449.22
339.137	18324.09
339.589	17326.46
340.041	13616.98
340.493	11740.5
340.944	12021.5
341.396	12967.63
341.847	10936.59
342.299	12926.26
342.75	15843.6
343.201	13803.32
343.653	15874.62
344.104	19514.29
344.555	15355.34
345.006	23871.37
345.457	18307
345.908	14556.66
346.359	13725.84
346.81	11168.91
347.261	11788.05
347.712	11603.65
348.163	12453.56
348.613	12640.4
349.064	11784.88
349.515	10316.3
349.965	10564.8
350.416	12737.24
350.866	13968.17
351.317	15750.3
351.767	26058.83
352.217	32868.95
352.668	27294.74
353.118	24957.99
353.568	24009.65
354.018	19032.27
354.468	20100.38
354.918	14467.45
355.368	12646.16
355.818	17914.7
356.268	51562.48
356.718	216141.62
357.168	53809.13
357.617	26950.44
358.067	29972.41
358.517	28125.64
358.966	32988.29
359.416	37120.38
359.865	40107.18
360.315	47654.47
360.764	22224.21
361.213	12491.07
361.663	11843.87
362.112	14606.9
362.561	23609.11
363.01	17834.01
363.459	14970.81
363.908	16190
364.357	13722.81
364.806	23147.26
365.255	15947.24
365.703	14614.04
366.152	14602.24
366.601	11855.94
367.05	9642.42
367.498	8763.91
367.947	9191.02
368.395	9577.29
368.844	8502.8
369.292	10233.64
369.74	7086.88
370.189	10853.59
370.637	12722.15
371.085	10974.52
371.533	13316.32
371.981	12830.19
372.429	12262.03
372.877	12754.6
373.325	10667.13
373.773	10825.58
374.221	9658.1
374.669	11966.25
375.116	10338.76
375.564	10448.91
376.012	11671.38
376.459	9645.14
376.907	11499.81
377.354	13873.58
377.801	12927.35
378.249	14846.24
378.696	18990.51
379.143	22955.89
379.591	24451.53
380.038	41420.36
380.485	29943.5
380.932	32402.65
381.379	29622.08
381.826	21906.52
382.273	15550.84
382.72	13579.82
383.166	13245.14
383.613	8600.87
384.06	7753.36
384.506	8976.13
384.953	6584.3
385.4	6610.26
385.846	5783.86
386.292	5621.78
386.739	5485.87
387.185	5440.15
387.631	5445.75
388.078	5304.51
388.524	5676.19
388.97	5248.23
389.416	4381.79
389.862	4660.19
390.308	4411.59
390.754	4485.04
391.2	4888.66
391.645	5006.55
392.091	4806.92
392.537	4664.58
392.983	4667.86
393.428	4610.34
393.874	4946.79
394.319	4987.07
394.765	4764.06
395.21	4935.69
395.655	4663.69
396.101	4399.84
396.546	4003.21
396.991	4067.03
397.436	3809.67
397.881	3723.57
398.326	3561.01
398.771	3415.52
399.216	3018.08
399.661	2747.02
400.106	2767.37
400.551	2863.97
400.995	2592.57
401.44	2588.5
401.885	2447.96
402.329	2490.99
402.774	2409.44
403.218	2350.64
403.663	2275.59
404.107	2356.42
404.551	2397.39
404.995	2217.17
405.44	2156.03
405.884	2213.63
406.328	2161.19
406.772	2172.81
407.216	1997.15
407.66	1945.97
408.104	1870.11
408.547	1776.49
408.991	1743.54
409.435	1690.8
409.879	1682.49
410.322	1673.29
410.766	1628.34
411.209	1563.94
411.653	1518.96
412.096	1504.55
412.54	1520.27
412.983	1525.45
413.426	1538.68
413.869	1545.96
414.312	1531.63
414.756	1486.01
415.199	1427.98
415.642	1397.16
416.085	1409.9
416.527	1408.2
416.97	1436.74
417.413	1366.77
417.856	1356.29
418.298	1347.25
418.741	1341.45
419.184	1339.07
419.626	1397.27
420.069	1400.94
420.511	1408.98
420.953	1380.25
421.396	1374.45
421.838	1343.08
422.28	1380.92
422.722	1392.15
423.164	1421.68
423.606	1405.4
424.048	1411.29
424.49	1350.2
424.932	1349.67
425.374	1336.86
425.816	1363.92
426.258	1384.9
426.699	1395.66
427.141	1362.66
427.582	1369.09
428.024	1349.77
428.465	1342.67
428.907	1314.76
429.348	1309.62
429.789	1320.7
430.231	1302.98
430.672	1329.12
431.113	1309.71
431.554	1309.2
431.995	1303.23
432.436	1288.28
432.877	1287.78
433.318	1283.21
433.759	1292.58
434.2	1303.83
434.64	1299.13
435.081	1314.97
435.522	1257.54
435.962	1225.51
436.403	1209.87
436.843	1238.47
437.284	1219.71
437.724	1195.15
438.164	1205.65
438.604	1186.24
439.045	1145.04
439.485	1104.68
439.925	1089.08
440.365	1070.73
440.805	1063.79
441.245	1057.42
441.685	1022.19
442.125	1019.39
442.564	1029.09
443.004	1007.83
443.444	1006.75
443.883	1014.66
444.323	1014.16
444.762	1022.29
445.202	1041.4
445.641	1062.71
446.081	1062.25
446.52	1075.86
446.959	1070.9
447.398	1049.38
447.837	1044.72
448.276	1034.43
448.716	1047.8
449.154	1058.16
449.593	1032.29
450.032	1027.28
450.471	1008.17
450.91	1006.2
451.349	1001.48
451.787	996.61
452.226	1008.81
452.664	1005.93
453.103	1006.17
453.541	1003.65
453.98	1000.58
454.418	1007.15
454.856	990.69
455.295	989.57
455.733	997.43
456.171	1002.32
456.609	998.87
457.047	999.01
457.485	1010.96
457.923	1010.23
458.361	995.31
458.798	999.61
459.236	998.82
459.674	1008.91
460.111	1016.08
460.549	1006.81
460.987	1005.45
461.424	1006.71
461.862	1003.06
462.299	989.46
462.736	990.55
463.173	996.02
463.611	985.4
464.048	984.87
464.485	994.51
464.922	989.1
465.359	992.01
465.796	979.96
466.233	977.48
466.67	973.72
467.106	977.19
467.543	973.57
467.98	967.71
468.416	951.64
468.853	952.89
469.29	931.7
469.726	927.96
470.162	907.16
470.599	907.2
471.035	905.61
471.471	890.89
471.907	894.7
472.344	894.58
472.78	900.42
473.216	915.01
473.652	905
474.088	905.27
474.523	904.53
474.959	915.66
475.395	908.37
475.831	903.49
476.266	909.12
476.702	906.85
477.138	897.45
477.573	895.9
478.008	892.46
478.444	896.03
478.879	903.9
479.314	906.49
479.75	904.46
480.185	906.19
480.62	911.77
481.055	912.76
481.49	914.15
481.925	920.87
482.36	925.95
482.795	939.16
483.229	950.45
483.664	956.08
484.099	948.82
484.534	954.01
484.968	955.12
485.403	951.15
485.837	944.22
486.271	937.76
486.706	938.44
487.14	930.16
487.574	919.6
488.009	916.46
488.443	910.54
488.877	919.74
489.311	921.06
489.745	929.93
490.179	937.67
490.613	952.32
491.046	958.83
491.48	963.27
491.914	962.76
492.348	967.36
492.781	971.06
493.215	974.58
493.648	977.54
494.082	987.12
494.515	987.89
494.948	996.18
495.382	1001.9
495.815	1005.67
496.248	1009.71
496.681	1024.52
497.114	1037.15
497.547	1046.97
497.98	1059.35
498.413	1061.38
498.846	1068.16
499.279	1076.41
499.711	1080.06
500.144	1080.74
500.577	1091.75
501.009	1104.42
501.442	1114.29
501.874	1115.21
502.306	1118.7
502.739	1129.29
503.171	1151.13
503.603	1156.78
504.036	1167.98
504.468	1174.72
504.9	1187.35
505.332	1195.77
505.764	1200.8
506.196	1209.48
506.627	1227.23
507.059	1242.42
507.491	1252.37
507.923	1246.96
508.354	1265.9
508.786	1278.68
509.217	1300.98
509.649	1319.36
510.08	1341.65
510.512	1359.76
510.943	1375.34
511.374	1384.83
511.805	1407.5
512.237	1429.34
512.668	1467.31
513.099	1493.87
513.53	1519.53
513.961	1533.45
514.391	1563.41
514.822	1594.66
515.253	1630.32
515.684	1654.73
516.114	1686.57
516.545	1707.97
516.975	1736.74
517.406	1756.82
517.836	1760.68
518.267	1773.46
518.697	1802.31
519.127	1814.3
519.558	1829.55
519.988	1838.86
520.418	1856.12
520.848	1883.01
521.278	1897.38
521.708	1915.59
522.138	1933.38
522.567	1974.02
522.997	2003.97
523.427	2017.35
523.857	2032.52
524.286	2039.98
524.716	2056.71
525.145	2078.78
525.575	2091.47
526.004	2110.17
526.433	2107.08
526.863	2106.61
527.292	2094.68
527.721	2105.49
528.15	2119.8
528.579	2126.63
529.008	2144.39
529.437	2173.66
529.866	2189.25
530.295	2207.65
530.724	2218.4
531.152	2248.73
531.581	2263.53
532.01	2281.89
532.438	2291.5
532.867	2308.94
533.295	2330.72
533.723	2336.66
534.152	2332.47
534.58	2332.94
535.008	2313.22
535.436	2315.39
535.865	2323.62
536.293	2339.44
536.721	2355.89
537.149	2379.21
537.576	2374.85
538.004	2383.45
538.432	2389.8
538.86	2386.53
539.287	2394.41
539.715	2410.4
540.143	2414.12
540.57	2410.89
540.998	2407.97
541.425	2382.32
541.852	2361.17
542.28	2364.45
542.707	2350.04
543.134	2337.35
543.561	2335.61
543.988	2328.62
544.415	2330.03
544.842	2325.16
545.269	2316.45
545.696	2321.16
546.123	2341.64
546.549	2331.68
546.976	2319.22
547.403	2322.62
547.829	2329.87
548.256	2337.48
548.682	2335.9
549.108	2331.04
549.535	2333.92
549.961	2341.56
550.387	2328.29
550.813	2322.94
551.24	2333.65
551.666	2336.23
552.092	2325.89
552.518	2318.36
552.943	2310.52
553.369	2321.37
553.795	2326.78
554.221	2327.63
554.646	2322.3
555.072	2332.59
555.498	2336.07
555.923	2342.83
556.349	2357.84
556.774	2363.79
557.199	2361.89
557.625	2367.72
558.05	2358.06
558.475	2369.5
558.9	2367.06
559.325	2354.38
559.75	2345.61
560.175	2337.13
560.6	2328.99
561.025	2327.17
561.449	2328.65
561.874	2333.77
562.299	2335.24
562.723	2340.72
563.148	2324.99
563.572	2326.92
563.997	2337.26
564.421	2343.01
564.846	2339.66
565.27	2340.59
565.694	2332.16
566.118	2341.52
566.542	2345.54
566.966	2332.64
567.39	2322.76
567.814	2304.42
568.238	2298.66
568.662	2301.97
569.086	2301.13
569.509	2309.53
569.933	2289.64
570.357	2281.32
570.78	2256.75
571.204	2242.15
571.627	2230.88
572.05	2230.16
572.474	2231.64
572.897	2218.15
573.32	2208.78
573.743	2198.71
574.166	2175.84
574.589	2177.1
575.012	2167.08
575.435	2164.3
575.858	2152.31
576.281	2139.53
576.704	2121.09
577.126	2109.19
577.549	2098.15
577.972	2088.84
578.394	2076.52
578.817	2069.65
579.239	2047.72
579.661	2034.67
580.084	2018.83
580.506	2006.64
580.928	2004.52
581.35	1993.04
581.772	1987.32
582.194	1970.5
582.616	1953.36
583.038	1934.18
583.46	1920.45
583.882	1916.81
584.303	1920.53
584.725	1912.55
585.147	1908.29
585.568	1914.24
585.99	1918.21
586.411	1916.34
586.833	1924.49
587.254	1917.82
587.675	1930.27
588.096	1938.36
588.518	1923.64
588.939	1896.63
589.36	1887.06
589.781	1871.89
590.202	1837
590.623	1830.05
591.043	1830.07
591.464	1816.1
591.885	1812.37
592.305	1803.46
592.726	1786.29
593.147	1787.88
593.567	1780.35
593.987	1772.41
594.408	1765.72
594.828	1761.8
595.248	1752.17
595.669	1728.9
596.089	1720.58
596.509	1711.96
596.929	1695.56
597.349	1694.43
597.769	1680.37
598.189	1671.65
598.608	1670.74
599.028	1670.23
599.448	1668.02
599.867	1651.83
600.287	1644.89
600.706	1638.23
601.126	1626.59
601.545	1624.02
601.965	1622.31
602.384	1614.48
602.803	1616.07
603.222	1609.46
603.641	1601.35
604.061	1597
604.48	1590.69
604.898	1599.56
605.317	1603.09
605.736	1602.45
606.155	1596.27
606.574	1582.85
606.992	1586.39
607.411	1579.14
607.829	1566.44
608.248	1560.5
608.666	1554.97
609.085	1551.68
609.503	1538.59
609.921	1529.79
610.339	1530.61
610.758	1527.4
611.176	1519.73
611.594	1508.44
612.012	1502.1
612.43	1504.17
612.847	1508.81
613.265	1507.13
613.683	1509.49
614.101	1509.01
614.518	1502.04
614.936	1487.97
615.353	1470.64
615.771	1466.31
616.188	1465.64
616.606	1460.25
617.023	1452.66
617.44	1437.45
617.857	1430.98
618.274	1421.93
618.691	1415.38
619.108	1405.29
619.525	1398.21
619.942	1404.34
620.359	1405.86
620.776	1398.62
621.192	1393
621.609	1386.75
622.026	1389.43
622.442	1391.75
622.859	1392.2
623.275	1381.11
623.691	1383.9
624.108	1394.53
624.524	1407.21
624.94	1403.05
625.356	1410.56
625.772	1422.46
626.188	1433.95
626.604	1433.87
627.02	1427.21
627.436	1423.6
627.852	1429.44
628.268	1440.39
628.683	1427.45
629.099	1415.58
629.514	1410.11
629.93	1413.09
630.345	1415.65
630.761	1410.19
631.176	1413.76
631.591	1407.36
632.007	1399.77
632.422	1396.29
632.837	1383.96
633.252	1381.28
633.667	1371.13
634.082	1362.53
634.497	1348.2
634.911	1326.77
635.326	1322.66
635.741	1303.62
636.155	1291.69
636.57	1291.81
636.984	1289.7
637.399	1289.25
637.813	1287.63
638.228	1284.75
638.642	1286.66
639.056	1275
639.47	1273.54
639.884	1262.88
640.298	1255.43
640.712	1253.94
641.126	1239.87
641.54	1231.04
641.954	1225.58
642.368	1212.1
642.781	1203.75
643.195	1183.49
643.609	1182.63
644.022	1175.74
644.436	1169.85
644.849	1155.17
645.262	1139.85
645.676	1140.24
646.089	1132.07
646.502	1114.14
646.915	1106.15
647.328	1087.24
647.741	1085.28
648.154	1070.76
648.567	1066.83
648.98	1052.45
649.393	1053.42
649.805	1051.04
650.218	1044.54
650.631	1031.05
651.043	1026.39
651.456	1022.63
651.868	1023.28
652.28	1039.33
652.693	1050.22
653.105	1053.28
653.517	1057.66
653.929	1052.74
654.341	1054.57
654.753	1039.13
655.165	1043.28
655.577	1039.99
655.989	1035.7
656.401	1028.28
656.813	995.43
657.224	981.02
657.636	958.96
658.047	949.04
658.459	935.98
658.87	931.69
659.282	924.92
659.693	907.25
660.104	894.63
660.515	882.1
660.926	883.83
661.338	881.79
661.749	876.62
662.159	868.22
662.57	864.75
662.981	860.81
663.392	853.54
663.803	858.06
664.213	855.2
664.624	850.92
665.035	853.97
665.445	838.32
665.855	832.44
666.266	823.57
666.676	820.66
667.086	810.84
667.497	809.37
667.907	803.08
668.317	793.14
668.727	790.46
669.137	791.61
669.547	788.29
669.956	790.65
670.366	789.69
670.776	790.96
671.186	794.07
671.595	796.65
672.005	799.34
672.414	798.25
672.824	794.6
673.233	797.35
673.642	797.48
674.052	800.69
674.461	802.72
674.87	806.46
675.279	801.83
675.688	801.84
676.097	802.67
676.506	799.21
676.915	813.64
677.323	817.17
677.732	814.99
678.141	814.56
678.549	802.73
678.958	800.51
679.366	799.93
679.775	805.5
680.183	815.97
680.592	821.01
681	826.38
681.408	817.64
681.816	823.54
682.224	831.17
682.632	839.94
683.04	868.29
683.448	888.88
683.856	912.93
684.264	938.47
684.671	961.38
685.079	991.37
685.487	1025.58
685.894	1076.71
686.302	1115.31
686.709	1147.02
687.116	1185.01
687.524	1215.2
687.931	1243.85
688.338	1270.94
688.745	1296.35
689.152	1325.33
689.559	1365.41
689.966	1402.99
690.373	1420.97
690.78	1456.6
691.187	1511.28
691.593	1552.64
692	1587.25
692.407	1640.47
692.813	1708.89
693.22	1761.73
693.626	1817.15
694.032	1862.55
694.439	1932.24
694.845	1987.74
695.251	2058.71
