Data from C_3_DIV_WI_4N_Splice17_12-56-13-472.txt Node
Date: Sat Mar 14 12:56:13 EDT 2020
User: sa697716
Spectrometer: FLMS03696
Trigger mode: 0
Integration Time (sec): 3.180400E-1
Scans to average: 20
Electric dark correction enabled: true
Nonlinearity correction enabled: true
Boxcar width: 5
XAxis mode: Wavelengths
Number of Pixels in Spectrum: 2048
>>>>>Begin Spectral Data<<<<<
187.83	-365093.73
188.298	2737.35
188.766	1490.24
189.233	1343.55
189.701	1922.06
190.169	2741.62
190.636	1082.05
191.104	865.33
191.571	155.17
192.039	-44.61
192.506	-60.85
192.974	456.45
193.441	-598.5
193.908	-28.86
194.375	26.81
194.842	92.76
195.31	274.22
195.777	249.17
196.244	402.47
196.711	438.83
197.177	532.31
197.644	750.54
198.111	1296.29
198.578	1855.86
199.045	1500.08
199.511	2417.97
199.978	2857.51
200.445	2424.12
200.911	2665.83
201.378	3010.9
201.844	2740.39
202.31	4716.91
202.777	4869.08
203.243	2712.75
203.709	2557.13
204.176	3043.47
204.642	2539.9
205.108	2367.11
205.574	1937.81
206.04	1768.1
206.506	1661.24
206.972	1560.29
207.438	1507.44
207.903	1735.93
208.369	1532.83
208.835	1527.26
209.301	1612.81
209.766	1643.86
210.232	1624.46
210.697	2003.24
211.163	2473.49
211.628	3705.76
212.094	3100.76
212.559	3822.02
213.024	2373.49
213.49	2887.06
213.955	2837.14
214.42	2729.12
214.885	2548.16
215.35	2441.33
215.815	2370.52
216.28	2500.1
216.745	2053.69
217.21	2231.01
217.675	2027.17
218.14	2276.71
218.604	2518.59
219.069	2862.53
219.534	3004.87
219.998	3464.65
220.463	4181.52
220.927	5091.26
221.392	4771.43
221.856	4810.09
222.32	6019.43
222.785	7414.96
223.249	9263.6
223.713	10333.2
224.177	10290.96
224.642	13146.24
225.106	16115.69
225.57	17537.66
226.034	13052.23
226.497	19855.9
226.961	17902.52
227.425	20820.96
227.889	23036.2
228.353	23026.15
228.816	47474.76
229.28	45274.33
229.744	38138.6
230.207	23194.17
230.671	22861.29
231.134	37790.69
231.597	43564.3
232.061	43473.22
232.524	42447.5
232.987	29269.07
233.45	26327.05
233.914	23588.6
234.377	24189.57
234.84	22127.42
235.303	26063.57
235.766	29034.09
236.229	29883.22
236.691	18799.35
237.154	21105.61
237.617	15835.05
238.08	16191.56
238.542	18929.19
239.005	13506.55
239.468	13392.65
239.93	12638.03
240.393	11485.56
240.855	10076.72
241.317	10332.53
241.78	12561.22
242.242	12993.43
242.704	14064.59
243.166	12250.8
243.629	11147.38
244.091	12853.28
244.553	14069.17
245.015	15114.35
245.477	19534.64
245.939	28632.73
246.4	30389.76
246.862	29517.41
247.324	27803.07
247.786	31015.65
248.247	40635.94
248.709	41867.81
249.17	31289.37
249.632	29543.87
250.093	34233.29
250.555	29543.04
251.016	18020.8
251.477	17070.82
251.939	18416.5
252.4	19309.76
252.861	22952.74
253.322	21378.63
253.783	25453.8
254.244	32990
254.705	26015.76
255.166	23081.58
255.627	22739.76
256.088	32099.56
256.549	34114.75
257.009	29429.98
257.47	35752.35
257.931	29126.87
258.391	21804.35
258.852	22480.63
259.312	23581.13
259.773	29095.83
260.233	24635.8
260.694	20793.22
261.154	23534.34
261.614	18914.15
262.074	16894.01
262.534	17547.41
262.994	16540.68
263.455	22033.65
263.915	18557.39
264.374	17467.11
264.834	19072.86
265.294	21118.18
265.754	21841.2
266.214	20706.08
266.673	19370.46
267.133	24439.12
267.593	24195.21
268.052	29596.1
268.512	25708.16
268.971	30981.2
269.431	33981.26
269.89	30407.9
270.349	45614.72
270.809	50880.17
271.268	45723.06
271.727	102459.43
272.186	66331.81
272.645	49745.2
273.104	35860.95
273.563	51925.94
274.022	40815.12
274.481	34744.68
274.94	26755.81
275.399	19880.11
275.857	23142.22
276.316	31233.21
276.775	27795.55
277.233	27393.12
277.692	25651.84
278.15	29034.2
278.609	29881.74
279.067	27653.71
279.525	25684.72
279.984	33156.53
280.442	39792.42
280.9	39251.24
281.358	25842.79
281.816	24094.39
282.274	23572.45
282.732	24365.32
283.19	24471.06
283.648	21071.58
284.106	22447.96
284.564	22812.03
285.021	21163.14
285.479	15765.07
285.937	14305.12
286.394	12562.13
286.852	12919.29
287.309	13563.58
287.767	13119.01
288.224	12480.99
288.682	13702.84
289.139	15042.53
289.596	13766.88
290.053	14297.27
290.511	18029.71
290.968	21876.7
291.425	29638.69
291.882	24694.46
292.339	21482.69
292.796	21299.44
293.252	20068.57
293.709	15955.13
294.166	14290.5
294.623	15773.95
295.079	15122.18
295.536	15205.56
295.992	13801.09
296.449	13644.67
296.905	14164
297.362	13610.57
297.818	14307.51
298.274	14850.5
298.731	15137.8
299.187	14970.84
299.643	16049.03
300.099	19408.66
300.555	21257.27
301.011	17766.23
301.467	17138.51
301.923	20024.61
302.379	19523.01
302.835	19166.23
303.291	19176.22
303.746	21791.76
304.202	27492.17
304.658	27623.59
305.113	18571.51
305.569	18198.37
306.024	19379.32
306.479	18421.55
306.935	15555.91
307.39	16970.38
307.845	15649.15
308.301	15747.71
308.756	15334.57
309.211	14786.72
309.666	15164.28
310.121	18844.67
310.576	19110.66
311.031	18976.39
311.486	21736.29
311.94	21673.02
312.395	28979.8
312.85	54498.9
313.305	267284.05
313.759	1384186.01
314.214	100326.31
314.668	79498.09
315.123	66912.34
315.577	24019.78
316.032	21383.51
316.486	26744.32
316.94	21116
317.394	14704.51
317.849	11424.36
318.303	10824.19
318.757	10223.44
319.211	11300.13
319.665	9870.41
320.119	9979.65
320.572	14315.86
321.026	13354.03
321.48	11130.6
321.934	12113.86
322.387	12135.85
322.841	13098.64
323.295	11779.29
323.748	13538.42
324.202	13724.25
324.655	16510.02
325.108	23050.37
325.562	16281.88
326.015	19354
326.468	14640.7
326.921	16418.3
327.374	15314.63
327.827	15964.7
328.28	18042.34
328.733	12096.91
329.186	10642.18
329.639	10134.03
330.092	8563.85
330.545	8159.91
330.997	8212.21
331.45	8971.77
331.903	10515.21
332.355	18065.08
332.808	17528.22
333.26	14473.97
333.713	15723.47
334.165	15813.17
334.617	21103.92
335.069	16977.05
335.522	30592.77
335.974	33932.41
336.426	30980.44
336.878	21433.23
337.33	10898.33
337.782	10631.41
338.234	13325.39
338.686	15938.76
339.137	18925.98
339.589	17803.15
340.041	13973.56
340.493	12048.49
340.944	12352.22
341.396	13312.69
341.847	11218.32
342.299	13229.83
342.75	16204.62
343.201	14099.53
343.653	16198.38
344.104	19855.13
344.555	15624.66
345.006	24268.5
345.457	18574.85
345.908	14744.42
346.359	13851.19
346.81	11262.55
347.261	11854.21
347.712	11658.22
348.163	12514.44
348.613	12707.67
349.064	11856.72
349.515	10375.2
349.965	10655.55
350.416	12817.47
350.866	14031
351.317	15846.71
351.767	26245.83
352.217	33105.78
352.668	27444.44
353.118	25162.7
353.568	24174.65
354.018	19164.12
354.468	20242.39
354.918	14536.62
355.368	12719.12
355.818	17966.69
356.268	51637.39
356.718	216178.4
357.168	53885.94
357.617	26992.37
358.067	29938.51
358.517	28048.17
358.966	32886.8
359.416	36882.04
359.865	39802.53
360.315	47340.64
360.764	22131.24
361.213	12426.9
361.663	11739.39
362.112	14482.2
362.561	23429.88
363.01	17700.38
363.459	14866.5
363.908	16093.43
364.357	13666.87
364.806	23076.13
365.255	15864.99
365.703	14553.11
366.152	14575.01
366.601	11845.47
367.05	9632.21
367.498	8759.71
367.947	9148.15
368.395	9533.97
368.844	8438.83
369.292	10158.49
369.74	7035.64
370.189	10773.9
370.637	12619.2
371.085	10879.55
371.533	13250.61
371.981	12765.54
372.429	12179.93
372.877	12699.9
373.325	10618.02
373.773	10805.47
374.221	9627.17
374.669	11913.09
375.116	10284.82
375.564	10337.15
376.012	11578.63
376.459	9545.58
376.907	11394.99
377.354	13754.88
377.801	12849.64
378.249	14812.58
378.696	18942.92
379.143	22916.37
379.591	24492.57
380.038	41580.91
380.485	30126.49
380.932	32457.91
381.379	29729.48
381.826	21925.21
382.273	15595.22
382.72	13628.58
383.166	13293.03
383.613	8639.25
384.06	7805.39
384.506	9023.2
384.953	6610.82
385.4	6656.34
385.846	5842.68
386.292	5681.83
386.739	5543.72
387.185	5481.16
387.631	5478.9
388.078	5325.29
388.524	5685.84
388.97	5246.96
389.416	4375.43
389.862	4660.78
390.308	4421.94
390.754	4481.97
391.2	4870.68
391.645	4989.35
392.091	4785.41
392.537	4628.35
392.983	4620.27
393.428	4560.84
393.874	4891.59
394.319	4915.84
394.765	4668.83
395.21	4784.16
395.655	4486.62
396.101	4191.23
396.546	3784.37
396.991	3805.75
397.436	3533.02
397.881	3397.28
398.326	3210.37
398.771	3031.75
399.216	2641.76
399.661	2367.93
400.106	2365.87
400.551	2429.03
400.995	2180.78
401.44	2154.85
401.885	2024.43
402.329	2040.2
402.774	1965.29
403.218	1904.58
403.663	1834.36
404.107	1889.08
404.551	1904.22
404.995	1743.1
405.44	1669.49
405.884	1690.15
406.328	1628.41
406.772	1623.39
407.216	1479.81
407.66	1424.75
408.104	1342.17
408.547	1255.53
408.991	1212.03
409.435	1165.03
409.879	1149.58
410.322	1133.51
410.766	1094.47
411.209	1041.35
411.653	995.85
412.096	975.74
412.54	974.87
412.983	971.12
413.426	974.08
413.869	969.34
414.312	951.75
414.756	912.46
415.199	869.85
415.642	845.34
416.085	847.98
416.527	841.79
416.97	853.23
417.413	810.96
417.856	799.31
418.298	789.84
418.741	781.53
419.184	775.71
419.626	805.95
420.069	804.73
420.511	808.21
420.953	790.11
421.396	782.79
421.838	760.24
422.28	775.98
422.722	783.76
423.164	794.24
423.606	785.19
424.048	783.84
424.49	747.07
424.932	744.34
425.374	732.52
425.816	744.61
426.258	757.13
426.699	766.24
427.141	758.33
427.582	767.84
428.024	761.8
428.465	756.15
428.907	741.07
429.348	731.64
429.789	733.84
430.231	721.22
430.672	730.07
431.113	716.43
431.554	707.45
431.995	686.6
432.436	663.25
432.877	650.32
433.318	640.49
433.759	635.59
434.2	635.36
434.64	627.04
435.081	626.03
435.522	593.81
435.962	568.64
436.403	556.1
436.843	564.28
437.284	550.9
437.724	534.6
438.164	535.28
438.604	523.8
439.045	506.06
439.485	486.38
439.925	476.47
440.365	465.09
440.805	460.18
441.245	455.18
441.685	438.67
442.125	435.46
442.564	438.72
443.004	426.16
443.444	424.42
443.883	425.35
444.323	420.83
444.762	420.6
445.202	426.12
445.641	434.23
446.081	430.8
446.52	433.5
446.959	430.55
447.398	421
447.837	417.81
448.276	410.5
448.716	412.57
449.154	415.17
449.593	406.65
450.032	406.09
450.471	398.54
450.91	397.8
451.349	397.23
451.787	392.46
452.226	396.91
452.664	396.38
453.103	396.43
453.541	394.74
453.98	394.57
454.418	396.84
454.856	390.34
455.295	387.73
455.733	389.66
456.171	390.5
456.609	390.5
457.047	389.85
457.485	396.27
457.923	398.12
458.361	392.86
458.798	394.09
459.236	391.65
459.674	392.72
460.111	395.81
460.549	393.07
460.987	392.11
461.424	392.99
461.862	391
462.299	383.83
462.736	382.14
463.173	383.35
463.611	382.89
464.048	382.7
464.485	386.17
464.922	381.15
465.359	377.95
465.796	378.86
466.233	376.8
466.67	375.45
467.106	376.2
467.543	373.16
467.98	368.05
468.416	355.03
468.853	350.79
469.29	339.73
469.726	336.12
470.162	327.48
470.599	318.07
471.035	313.31
471.471	304.64
471.907	300.39
472.344	297.98
472.78	299.26
473.216	301.86
473.652	298.81
474.088	297.85
474.523	297.76
474.959	300.07
475.395	297.64
475.831	295.8
476.266	297.01
476.702	296.47
477.138	292.38
477.573	290.6
478.008	290.22
478.444	292.18
478.879	295.94
479.314	296.77
479.75	296.28
480.185	296.68
480.62	298.92
481.055	299.43
481.49	301.34
481.925	305.99
482.36	312.39
482.795	320.77
483.229	328.13
483.664	333.41
484.099	334.16
484.534	339.38
484.968	343.22
485.403	343.73
485.837	343.65
486.271	342.78
486.706	342.32
487.14	336.66
487.574	330.49
488.009	326.89
488.443	323.78
488.877	327.16
489.311	327.45
489.745	330.74
490.179	333.41
490.613	340.29
491.046	342.53
491.48	344.75
491.914	346.02
492.348	348.69
492.781	351.63
493.215	352.64
493.648	352.81
494.082	355.39
494.515	356.32
494.948	361.29
495.382	362.85
495.815	366.19
496.248	370.21
496.681	376.99
497.114	383.52
497.547	389.13
497.98	397.93
498.413	402.98
498.846	410.08
499.279	415.01
499.711	418.06
500.144	420.71
500.577	428.37
501.009	436.09
501.442	443.44
501.874	445.87
502.306	449.29
502.739	456.14
503.171	466.3
503.603	470
504.036	476.64
504.468	482.13
504.9	489.96
505.332	495.52
505.764	500.04
506.196	506.77
506.627	517.74
507.059	528.5
507.491	534.91
507.923	536.9
508.354	548.94
508.786	559.06
509.217	573.72
509.649	587.05
510.08	601.65
510.512	616.19
510.943	629.68
511.374	640.21
511.805	656.29
512.237	672.1
512.668	695.35
513.099	716.26
513.53	737.63
513.961	755.71
514.391	780.23
514.822	808.13
515.253	836.33
515.684	857.36
516.114	882.62
516.545	901.79
516.975	924.24
517.406	941.68
517.836	948.92
518.267	959.65
518.697	976.36
519.127	985.29
519.558	994.19
519.988	1001.38
520.418	1012.82
520.848	1030.26
521.278	1041.27
521.708	1074.88
522.138	1090.06
522.567	1116.73
522.997	1139.6
523.427	1155.64
523.857	1172.14
524.286	1184.4
524.716	1200.65
525.145	1219.96
525.575	1232.3
526.004	1247.09
526.433	1232.22
526.863	1235.65
527.292	1233.57
527.721	1241.49
528.15	1250.07
528.579	1254.9
529.008	1267.62
529.437	1286.98
529.866	1300.22
530.295	1316.13
530.724	1329.49
531.152	1352.5
531.581	1367.14
532.01	1382.81
532.438	1391.38
532.867	1403.68
533.295	1419.03
533.723	1424.63
534.152	1425.32
534.58	1426.76
535.008	1415.88
535.436	1418.46
535.865	1425.43
536.293	1435.88
536.721	1448.98
537.149	1469.38
537.576	1473.38
538.004	1484.35
538.432	1490.8
538.86	1489.89
539.287	1495.39
539.715	1506.46
540.143	1507.85
540.57	1506.01
540.998	1503.6
541.425	1486.23
541.852	1470.15
542.28	1467.76
542.707	1455.22
543.134	1444.67
543.561	1441.33
543.988	1435.53
544.415	1435.43
544.842	1432.45
545.269	1427.02
545.696	1429.65
546.123	1439.92
546.549	1431.66
546.976	1422.99
547.403	1423.6
547.829	1426.25
548.256	1428.17
548.682	1426.43
549.108	1421.2
549.535	1420.82
549.961	1422.61
550.387	1412.62
550.813	1408.91
551.24	1414.88
551.666	1414.52
552.092	1407.2
552.518	1401.93
552.943	1397.62
553.369	1403.51
553.795	1407.77
554.221	1409.22
554.646	1406.62
555.072	1414.55
555.498	1417.45
555.923	1423.84
556.349	1436.16
556.774	1441.25
557.199	1440.77
557.625	1444.21
558.05	1437.78
558.475	1443.89
558.9	1440.32
559.325	1431.5
559.75	1424.86
560.175	1417.44
560.6	1410.35
561.025	1405.46
561.449	1404.07
561.874	1405.87
562.299	1407.39
562.723	1410.69
563.148	1400.51
563.572	1401.09
563.997	1407.21
564.421	1408.1
564.846	1406.08
565.27	1406.58
565.694	1402.47
566.118	1407.76
566.542	1410.01
566.966	1401.36
567.39	1394.23
567.814	1382.45
568.238	1378.62
568.662	1378.74
569.086	1376.82
569.509	1377.55
569.933	1362.05
570.357	1351.78
570.78	1332.56
571.204	1319.93
571.627	1308.15
572.05	1302.91
572.474	1300.2
572.897	1286.78
573.32	1277.64
573.743	1266.16
574.166	1250.32
574.589	1246.41
575.012	1238.68
575.435	1234.8
575.858	1224.17
576.281	1213.48
576.704	1198.63
577.126	1185.97
577.549	1175.39
577.972	1164.52
578.394	1155.08
578.817	1149.6
579.239	1134.49
579.661	1122.49
580.084	1110.49
580.506	1099.6
580.928	1094.54
581.35	1086.19
581.772	1081.13
582.194	1070.89
582.616	1060.86
583.038	1048.73
583.46	1037.91
583.882	1034.16
584.303	1035.25
584.725	1029.55
585.147	1031.65
585.568	1037.27
585.99	1044.6
586.411	1048.16
586.833	1056.92
587.254	1056.51
587.675	1065
588.096	1071.48
588.518	1065.79
588.939	1053.45
589.36	1050.75
589.781	1039.93
590.202	1021.35
590.623	1012.31
591.043	1009.26
591.464	999.24
591.885	995.74
592.305	991.29
592.726	981.36
593.147	981.65
593.567	977.63
593.987	971.87
594.408	967.61
594.828	964.02
595.248	961.58
595.669	948.82
596.089	943.12
596.509	938.63
596.929	928.97
597.349	929.43
597.769	922.95
598.189	918.16
598.608	918.35
599.028	918.41
599.448	917.2
599.867	907.19
600.287	903.57
600.706	900.89
601.126	893.7
601.545	892.12
601.965	889.72
602.384	884.28
602.803	884.12
603.222	879.85
603.641	874.56
604.061	871.12
604.48	866.97
604.898	870.68
605.317	872.23
605.736	871.54
606.155	869.47
606.574	862.06
606.992	864.73
607.411	861.08
607.829	854.8
608.248	851.16
608.666	847.78
609.085	845.61
609.503	838.45
609.921	833.75
610.339	833.72
610.758	831.26
611.176	826.88
611.594	819.25
612.012	815.5
612.43	815.8
612.847	818.63
613.265	818.69
613.683	820.01
614.101	818.84
614.518	813.28
614.936	805.51
615.353	794.31
615.771	790.78
616.188	789.81
616.606	785.73
617.023	779.68
617.44	769.18
617.857	762.92
618.274	756.49
618.691	752.28
619.108	745.57
619.525	740.9
619.942	744.18
620.359	744.98
620.776	740.53
621.192	738.22
621.609	736.28
622.026	739.53
622.442	742.35
622.859	743.5
623.275	738.24
623.691	741.49
624.108	747.86
624.524	755.61
624.94	755.58
625.356	760.91
625.772	767.46
626.188	773.27
626.604	773.89
627.02	771.1
627.436	769.51
627.852	773.5
628.268	779.81
628.683	773.37
629.099	767.74
629.514	763.37
629.93	765.23
630.345	767.41
630.761	764.74
631.176	765.62
631.591	762.43
632.007	758.49
632.422	756.45
632.837	748.99
633.252	747.69
633.667	740.23
634.082	733.93
634.497	724.73
634.911	713.45
635.326	710.53
635.741	699.46
636.155	690.89
636.57	690.77
636.984	688.29
637.399	688.27
637.813	684.2
638.228	681.4
638.642	681.53
639.056	673.47
639.47	670.29
639.884	662.33
640.298	656.68
640.712	654.83
641.126	644.92
641.54	638.31
641.954	632.07
642.368	624.54
642.781	619.65
643.195	608.64
643.609	606.96
644.022	601.49
644.436	596.95
644.849	588.99
645.262	579.95
645.676	577.71
646.089	573.76
646.502	565
646.915	560.71
647.328	549.87
647.741	547.63
648.154	539.92
648.567	538.6
648.98	532.11
649.393	531.52
649.805	529.15
650.218	525.71
650.631	517.3
651.043	513.37
651.456	510.05
651.868	510.21
652.28	517.93
652.693	523.8
653.105	524.64
653.517	528.56
653.929	529.21
654.341	533.28
654.753	527.11
655.165	528.87
655.577	527.31
655.989	524.06
656.401	517.79
656.813	500.55
657.224	490.64
657.636	475.99
658.047	467.33
658.459	455.58
658.87	448.83
659.282	442.23
659.693	433.86
660.104	426.71
660.515	419.13
660.926	419.93
661.338	416.86
661.749	413.04
662.159	408.65
662.57	405.52
662.981	403.56
663.392	401.61
663.803	403.02
664.213	399.98
664.624	397.17
665.035	399.51
665.445	390.59
665.855	388.28
666.266	386.29
666.676	386.39
667.086	382.2
667.497	383.22
667.907	379.57
668.317	375.98
668.727	378.19
669.137	379.27
669.547	378.46
669.956	380.65
670.366	383.26
670.776	385.1
671.186	387.55
671.595	391.62
672.005	393.08
672.414	394.36
672.824	395.61
673.233	395.33
673.642	398.53
674.052	402.57
674.461	406.61
674.87	409.04
675.279	409.14
675.688	410.4
676.097	411.69
676.506	411.88
676.915	419.13
677.323	421.35
677.732	422.93
678.141	423.03
678.549	417.96
678.958	417.33
679.366	417.52
679.775	420
680.183	429.13
680.592	433.59
681	437.67
681.408	434.98
681.816	439.8
682.224	443.78
682.632	450.7
683.04	467.09
683.448	481.79
683.856	499.28
684.264	518.54
684.671	534.09
685.079	554.95
685.487	578.13
685.894	612
686.302	638.56
686.709	661.63
687.116	687.92
687.524	711.02
687.931	731.78
688.338	749.76
688.745	765.1
689.152	784.22
689.559	810.92
689.966	839.45
690.373	855.7
690.78	885.02
691.187	928.17
691.593	963.12
692	995.61
692.407	1038.72
692.813	1094.72
693.22	1143.39
693.626	1191.59
694.032	1233.96
694.439	1294.03
694.845	1344.92
695.251	1405.93
695.657	1463.07
696.063	1541.41
696.469	1604.75
696.875	1667.1
697.281	1709.18
697.687	1757.92
698.093	1804.85
698.498	1877.16
698.904	1934.02
699.31	2014.89
699.715	2078.78
700.12	2163.77
700.526	2199.04
700.931	2270.21
701.337	2328.83
701.742	2373.46
702.147	2455.29
702.552	2496.28
702.957	2560.83
703.362	2595.49
