Data from C_3_DEC_ON_6N_Splice17_13-36-08-694.txt Node
Date: Sat Mar 14 13:36:08 EDT 2020
User: sa697716
Spectrometer: FLMS03696
Trigger mode: 0
Integration Time (sec): 3.180400E-1
Scans to average: 20
Electric dark correction enabled: true
Nonlinearity correction enabled: true
Boxcar width: 5
XAxis mode: Wavelengths
Number of Pixels in Spectrum: 2048
>>>>>Begin Spectral Data<<<<<
187.83	-474146.16
188.298	3316.4
188.766	1734
189.233	1554.61
189.701	2149.99
190.169	2963.94
190.636	1127.43
191.104	847.08
191.571	100.65
192.039	-136.98
192.506	-195.36
192.974	399.41
193.441	-864.93
193.908	-271.23
194.375	-97.45
194.842	-47.88
195.31	83.08
195.777	192.6
196.244	411.47
196.711	440.61
197.177	559.63
197.644	775.73
198.111	1362.51
198.578	1938.98
199.045	1548.09
199.511	2546.35
199.978	2926.82
200.445	2475.73
200.911	2738.99
201.378	3023.78
201.844	2745.39
202.31	4674
202.777	4877.13
203.243	2716.25
203.709	2563.24
204.176	3044.01
204.642	2495.85
205.108	2339
205.574	1903.02
206.04	1708.81
206.506	1609.34
206.972	1521.22
207.438	1470.84
207.903	1680.16
208.369	1470.95
208.835	1490.97
209.301	1577.38
209.766	1601.96
210.232	1598.47
210.697	1956.16
211.163	2434.85
211.628	3657.9
212.094	3061.09
212.559	3800.7
213.024	2343.23
213.49	2859.29
213.955	2747.37
214.42	2642.32
214.885	2453.8
215.35	2336.94
215.815	2290.53
216.28	2411.57
216.745	1954.34
217.21	2127.31
217.675	1926.38
218.14	2161.24
218.604	2383.01
219.069	2714.09
219.534	2862.57
219.998	3300.77
220.463	3979.64
220.927	4819.97
221.392	4519.52
221.856	4554.82
222.32	5678.93
222.785	6999.29
223.249	8786.25
223.713	9808.42
224.177	9804.48
224.642	12519.06
225.106	15454
225.57	16896.5
226.034	12654.89
226.497	19280.45
226.961	17476.37
227.425	20434.03
227.889	22674.14
228.353	22720.7
228.816	46974.45
229.28	45040.42
229.744	37983.75
230.207	23116.02
230.671	22773.57
231.134	37584.78
231.597	43418.79
232.061	43448.45
232.524	42352.87
232.987	29214.94
233.45	26348.79
233.914	23652.07
234.377	24184.14
234.84	22189.22
235.303	26207.94
235.766	29276.02
236.229	30303.1
236.691	19099.5
237.154	21459.81
237.617	16168.19
238.08	16565.74
238.542	19384.34
239.005	13876.55
239.468	13822.31
239.93	13013.22
240.393	11834.31
240.855	10405.57
241.317	10667.34
241.78	12972.38
242.242	13448.09
242.704	14572.11
243.166	12712.04
243.629	11571.06
244.091	13366.66
244.553	14665.76
245.015	15825.2
245.477	20456.88
245.939	29999.95
246.4	31885.4
246.862	31052.69
247.324	29308.96
247.786	32813.32
248.247	43057.92
248.709	44492.32
249.17	33320.83
249.632	31463.85
250.093	36534.23
250.555	31610.12
251.016	19305.22
251.477	18317.04
251.939	19784.32
252.4	20789.22
252.861	24689.55
253.322	22978.82
253.783	27343.51
254.244	35421.41
254.705	27899.14
255.166	24789.67
255.627	24418.78
256.088	34483.97
256.549	36568.13
257.009	31462.19
257.47	38053.18
257.931	30977.03
258.391	23193.39
258.852	23893.94
259.312	25017.63
259.773	30896.01
260.233	26130.15
260.694	22047.02
261.154	24964.82
261.614	20072.12
262.074	17948.09
262.534	18655
262.994	17579.45
263.455	23399.42
263.915	19709.95
264.374	18552.73
264.834	20223.54
265.294	22363.46
265.754	23126.39
266.214	21866.87
266.673	20453.43
267.133	25771.03
267.593	25539.49
268.052	31246.56
268.512	27148.49
268.971	32766.1
269.431	35914.65
269.89	32161.19
270.349	48195
270.809	53754.09
271.268	48286.64
271.727	108330.46
272.186	70166.25
272.645	52631.86
273.104	37945.27
273.563	54956.37
274.022	43159.01
274.481	36754.58
274.94	28323.79
275.399	21041
275.857	24497.99
276.316	33143.87
276.775	29491.99
277.233	29062.29
277.692	27229.63
278.15	30794.22
278.609	31695.69
279.067	29294.04
279.525	27212.33
279.984	35118.29
280.442	42216.3
280.9	41667.76
281.358	27420.73
281.816	25546.4
282.274	24987.52
282.732	25766.69
283.19	25906.19
283.648	22338.47
284.106	23824.58
284.564	24223.39
285.021	22482.45
285.479	16755.53
285.937	15216.49
286.394	13359.94
286.852	13741.71
287.309	14474.48
287.767	14026.96
288.224	13340.58
288.682	14641.5
289.139	16084
289.596	14735.95
290.053	15317.35
290.511	19348.43
290.968	23464.32
291.425	31794.81
291.882	26544.54
292.339	23129.34
292.796	22922.28
293.252	21610.92
293.709	17220.62
294.166	15425.46
294.623	17052.05
295.079	16368.06
295.536	16453.81
295.992	14964.56
296.449	14838.71
296.905	15430.43
297.362	14802.83
297.818	15567.24
298.274	16169
298.731	16458.65
299.187	16301.84
299.643	17489.51
300.099	21174.44
300.555	23237.51
301.011	19399.23
301.467	18747.16
301.923	21921.08
302.379	21391.11
302.835	21066.51
303.291	21112.52
303.746	24033.62
304.202	30426.54
304.658	30599.29
305.113	20567.9
305.569	20142.65
306.024	21500.53
306.479	20438.01
306.935	17250.95
307.39	18863.33
307.845	17412.43
308.301	17543.37
308.756	17103.61
309.211	16467.49
309.666	16886.44
310.121	21022.33
310.576	21385.89
311.031	21212.05
311.486	24301.81
311.94	24297.5
312.395	32542.98
312.85	61255.49
313.305	300667.49
313.759	1563493.7
314.214	113320.1
314.668	89931.59
315.123	75613.2
315.577	27130.19
316.032	24168.41
316.486	30314.74
316.94	23941.83
317.394	16679.96
317.849	12954.7
318.303	12266.69
318.757	11572.56
319.211	12831.65
319.665	11215.08
320.119	11376.68
320.572	16340.99
321.026	15289.48
321.48	12734.54
321.934	13890.27
322.387	13908.63
322.841	15058.79
323.295	13596.31
323.748	15625.31
324.202	15821.57
324.655	19061.69
325.108	26678.17
325.562	18846.87
326.015	22389.65
326.468	16915.63
326.921	18906.71
327.374	17684.57
327.827	18432.09
328.28	20863.21
328.733	14023.28
329.186	12367.51
329.639	11780.84
330.092	9916.83
330.545	9439.69
330.997	9541.75
331.45	10454.01
331.903	12289.21
332.355	21127.97
332.808	20529.41
333.26	16907.28
333.713	18361.91
334.165	18473.72
334.617	24635.92
335.069	19914.2
335.522	35981.97
335.974	39887.33
336.426	36396.7
336.878	25179.62
337.33	12789.4
337.782	12497.08
338.234	15713.56
338.686	18793.4
339.137	22276.66
339.589	21041.72
340.041	16511.04
340.493	14227.03
340.944	14581.01
341.396	15724.27
341.847	13229.6
342.299	15611.07
342.75	19088.91
343.201	16645.08
343.653	19156.01
344.104	23579.97
344.555	18537.67
345.006	28812.74
345.457	22123.37
345.908	17527.66
346.359	16522.43
346.81	13486.63
347.261	14191.95
347.712	13970.17
348.163	14999.34
348.613	15217.4
349.064	14241.61
349.515	12494.33
349.965	12842.08
350.416	15466.64
350.866	17022.08
351.317	19222.2
351.767	31815.28
352.217	40294.48
352.668	33428.86
353.118	30615.38
353.568	29494.87
354.018	23345.3
354.468	24669.79
354.918	17708.85
355.368	15485.98
355.818	21899.39
356.268	63100.59
356.718	264699.67
357.168	65860.03
357.617	33096.71
358.067	36832.18
358.517	34569.08
358.966	40551.75
359.416	45570.43
359.865	49293.99
360.315	58735.83
360.764	27436.26
361.213	15367.29
361.663	14559.98
362.112	17988.06
362.561	29083.62
363.01	22003.46
363.459	18526.93
363.908	20088.06
364.357	17058.35
364.806	28844.98
365.255	19870.58
365.703	18258.22
366.152	18331.7
366.601	14869.73
367.05	12125.55
367.498	11027.08
367.947	11479.75
368.395	11920.52
368.844	10553.32
369.292	12720.32
369.74	8786.4
370.189	13464.78
370.637	15751.51
371.085	13605.37
371.533	16542.29
371.981	15888.62
372.429	15201.56
372.877	15877.02
373.325	13326.86
373.773	13530.85
374.221	12007.35
374.669	14885.89
375.116	12855.83
375.564	12950.41
376.012	14459.59
376.459	11945.24
376.907	14268.07
377.354	17199.36
377.801	16080.81
378.249	18490.02
378.696	23695.56
379.143	28762.84
379.591	30649.77
380.038	51734.05
380.485	37385.52
380.932	40375.2
381.379	37054.82
381.826	27270.61
382.273	19398.96
382.72	16895.62
383.166	16479.2
383.613	10666.26
384.06	9604.98
384.506	11122.18
384.953	8181.45
385.4	8232.12
385.846	7193.78
386.292	6979
386.739	6824.59
387.185	6739.11
387.631	6741.99
388.078	6528.65
388.524	6984.68
388.97	6458.45
389.416	5383.65
389.862	5712.64
390.308	5406.02
390.754	5496.57
391.2	5963.72
391.645	6117.47
392.091	5873.08
392.537	5683.6
392.983	5702.41
393.428	5633.66
393.874	6032.96
394.319	6064.99
394.765	5776.08
395.21	5946.9
395.655	5578.14
396.101	5232.14
396.546	4731.39
396.991	4756.74
397.436	4422.54
397.881	4274.84
398.326	4035.89
398.771	3829.77
399.216	3347.42
399.661	3018.22
400.106	3021.94
400.551	3110.43
400.995	2795.49
401.44	2765.93
401.885	2605.28
402.329	2636.42
402.774	2533.21
403.218	2465.31
403.663	2371.91
404.107	2443.9
404.551	2468.24
404.995	2262.88
405.44	2180.38
405.884	2218.27
406.328	2148.91
406.772	2149.93
407.216	1960.69
407.66	1896.42
408.104	1800.08
408.547	1688.38
408.991	1635.72
409.435	1577.09
409.879	1561
410.322	1546.39
410.766	1498.07
411.209	1428.82
411.653	1371.13
412.096	1348.54
412.54	1352.16
412.983	1347.3
413.426	1357.42
413.869	1360.56
414.312	1337.41
414.756	1288.42
415.199	1228.46
415.642	1193.82
416.085	1196.28
416.527	1192.74
416.97	1211.5
417.413	1150.72
417.856	1140.68
418.298	1131.04
418.741	1122.89
419.184	1118.5
419.626	1163.96
420.069	1163.92
420.511	1172.33
420.953	1149.15
421.396	1137.43
421.838	1106.62
422.28	1132.43
422.722	1137.98
423.164	1152.29
423.606	1137.53
424.048	1138.57
424.49	1084.59
424.932	1079.76
425.374	1064.37
425.816	1082.32
426.258	1105.25
426.699	1120.69
427.141	1105.04
427.582	1121.2
428.024	1117.78
428.465	1108.17
428.907	1079.76
429.348	1066.5
429.789	1068.76
430.231	1047.74
430.672	1064.76
431.113	1036.67
431.554	1021.42
431.995	995.71
432.436	964.18
432.877	944.73
433.318	932.17
433.759	928.98
434.2	928.51
434.64	918.62
435.081	922.76
435.522	874.32
435.962	845.82
436.403	828.83
436.843	840.04
437.284	819.09
437.724	793.57
438.164	791.37
438.604	774.5
439.045	747.48
439.485	716.52
439.925	699.27
440.365	680.44
440.805	669.72
441.245	663.4
441.685	639.89
442.125	634.72
442.564	640.09
443.004	626.55
443.444	624.49
443.883	625.74
444.323	621.45
444.762	620.95
445.202	630.88
445.641	644.17
446.081	637.86
446.52	642.12
446.959	639.38
447.398	624.28
447.837	618.12
448.276	608.07
448.716	614.6
449.154	619.74
449.593	608.34
450.032	605.4
450.471	594.24
450.91	594.71
451.349	595.51
451.787	590.75
452.226	600.86
452.664	601.75
453.103	602.51
453.541	600.67
453.98	603.01
454.418	605.06
454.856	597.99
455.295	597.21
455.733	603.48
456.171	606.48
456.609	607.65
457.047	605.63
457.485	615.02
457.923	616.7
458.361	608.39
458.798	606.81
459.236	604.89
459.674	607.12
460.111	610.69
460.549	604
460.987	600.74
461.424	597.9
461.862	595.62
462.299	584.76
462.736	583.79
463.173	585.2
463.611	581.86
464.048	583.59
464.485	587.51
464.922	579.94
465.359	575.72
465.796	573.57
466.233	570.62
466.67	566.95
467.106	567.21
467.543	560.99
467.98	553.79
468.416	537.11
468.853	529.57
469.29	513.43
469.726	508.59
470.162	496.65
470.599	485.54
471.035	481.16
471.471	468.1
471.907	464.2
472.344	461.52
472.78	464.42
473.216	471.12
473.652	466.85
474.088	466.6
474.523	466.1
474.959	470.16
475.395	466.66
475.831	463.87
476.266	467.89
476.702	467.33
477.138	463.27
477.573	460.56
478.008	459.01
478.444	462.34
478.879	468.48
479.314	470.88
479.75	471.66
480.185	474.61
480.62	478.48
481.055	480.52
481.49	484.45
481.925	492.21
482.36	501.77
482.795	515.68
483.229	528.99
483.664	539.11
484.099	540.42
484.534	549.19
484.968	554.07
485.403	555.91
485.837	554.81
486.271	553.54
486.706	552.96
487.14	547.12
487.574	537.88
488.009	533.13
488.443	528.96
488.877	535.18
489.311	535.97
489.745	543.02
490.179	549.36
490.613	561.82
491.046	566.58
491.48	571.41
491.914	572.29
492.348	577.26
492.781	581.74
493.215	582.67
493.648	582.97
494.082	587.96
494.515	589.28
494.948	596.27
495.382	599.98
495.815	604.66
496.248	610.08
496.681	621.43
497.114	632.08
497.547	641.13
497.98	654.69
498.413	662.96
498.846	672.81
499.279	680.39
499.711	684.65
500.144	687.9
500.577	699.58
501.009	710.69
501.442	721.92
501.874	725.45
502.306	729.22
502.739	738.93
503.171	752.67
503.603	757.55
504.036	767.91
504.468	774.79
504.9	786.59
505.332	794.59
505.764	801.6
506.196	809.79
506.627	825.52
507.059	840.08
507.491	848.85
507.923	849.38
508.354	865.35
508.786	877.84
509.217	897.79
509.649	914.05
510.08	933.53
510.512	951.57
510.943	967.9
511.374	981.35
511.805	1002.42
512.237	1022.17
512.668	1055.59
513.099	1083.92
513.53	1111.35
513.961	1133.04
514.391	1165.78
514.822	1200.82
515.253	1236.55
515.684	1263.22
516.114	1293.12
516.545	1316.45
516.975	1345.35
517.406	1364.85
517.836	1370.49
518.267	1381.14
518.697	1402.55
519.127	1409.62
519.558	1417.96
519.988	1424.81
520.418	1436.65
520.848	1456.69
521.278	1468.57
521.708	1503.66
522.138	1518.65
522.567	1550.36
522.997	1578.17
523.427	1593.61
523.857	1612.4
524.286	1625.05
524.716	1642.5
525.145	1665.02
525.575	1678.41
526.004	1693.04
526.433	1673.56
526.863	1676.44
527.292	1669.32
527.721	1676.27
528.15	1684.71
528.579	1686.84
529.008	1699.55
529.437	1723.22
529.866	1737.92
530.295	1756.3
530.724	1771.47
531.152	1800.39
531.581	1815.62
532.01	1834.28
532.438	1843.44
532.867	1859.36
533.295	1879.04
533.723	1886.4
534.152	1884.74
534.58	1885.28
535.008	1869.18
535.436	1871.41
535.865	1879.06
536.293	1894.35
536.721	1911.34
537.149	1938.78
537.576	1941.76
538.004	1956.18
538.432	1963.47
538.86	1961.78
539.287	1968.79
539.715	1983.17
540.143	1985.3
540.57	1981.29
540.998	1976.62
541.425	1953.75
541.852	1931.37
542.28	1929.89
542.707	1912.44
543.134	1899.52
543.561	1896.57
543.988	1889.99
544.415	1890.84
544.842	1886.45
545.269	1881.13
545.696	1885.04
546.123	1899.41
546.549	1888.94
546.976	1876.63
547.403	1878.55
547.829	1880.62
548.256	1883.4
548.682	1881.05
549.108	1874.12
549.535	1875.25
549.961	1877.7
550.387	1864.95
550.813	1859.64
551.24	1868.45
551.666	1871.47
552.092	1862.08
552.518	1857.9
552.943	1852.26
553.369	1860.74
553.795	1866.84
554.221	1868.84
554.646	1866.99
555.072	1879.97
555.498	1886.02
555.923	1896.03
556.349	1912.76
556.774	1922.59
557.199	1923.54
557.625	1930.79
558.05	1926.1
558.475	1938.11
558.9	1937.96
559.325	1929.49
559.75	1922.99
560.175	1917.08
560.6	1910.71
561.025	1908.45
561.449	1910.51
561.874	1918.52
562.299	1924.88
562.723	1932.81
563.148	1922.77
563.572	1926.9
563.997	1939.1
564.421	1945.74
564.846	1946.75
565.27	1951.26
565.694	1948.57
566.118	1961.34
566.542	1969.37
566.966	1961.26
567.39	1955.86
567.814	1945.83
568.238	1945.4
568.662	1950.64
569.086	1953.7
569.509	1961.47
569.933	1946.58
570.357	1939.05
570.78	1916.99
571.204	1902.9
571.627	1892.93
572.05	1891.52
572.474	1890.64
572.897	1878.96
573.32	1871.58
573.743	1860.86
574.166	1842.08
574.589	1841.8
575.012	1834.8
575.435	1833.31
575.858	1824.16
576.281	1812.59
576.704	1795.86
577.126	1784.38
577.549	1771.73
577.972	1761.93
578.394	1752.14
578.817	1745.99
579.239	1727.62
579.661	1715.14
580.084	1699.47
580.506	1686.5
580.928	1683.99
581.35	1673.45
581.772	1668.29
582.194	1656.13
582.616	1642.59
583.038	1626.87
583.46	1615.05
583.882	1610.94
584.303	1615.11
584.725	1610.65
585.147	1613.71
585.568	1625.56
585.99	1638.68
586.411	1645.56
586.833	1660.63
587.254	1662.09
587.675	1678.67
588.096	1692.99
588.518	1688.51
588.939	1670.07
589.36	1668.1
589.781	1655.27
590.202	1624.78
590.623	1616.1
591.043	1613.53
591.464	1600.26
591.885	1596.75
592.305	1589.47
592.726	1574.92
593.147	1575.58
593.567	1570.77
593.987	1562.2
594.408	1556.6
594.828	1552.56
595.248	1544.74
595.669	1525.94
596.089	1518.93
596.509	1511.21
596.929	1497.47
597.349	1498.61
597.769	1487.36
598.189	1479.62
598.608	1481.66
599.028	1483.43
599.448	1485.07
599.867	1472.35
600.287	1467.72
600.706	1462.27
601.126	1451.69
601.545	1450.31
601.965	1448.12
602.384	1443.04
602.803	1446.49
603.222	1441.22
603.641	1434.97
604.061	1431.08
604.48	1426.71
604.898	1434.9
605.317	1440.59
605.736	1443.12
606.155	1440.41
606.574	1430.2
606.992	1435.29
607.411	1430.26
607.829	1421.08
608.248	1417.09
608.666	1414.07
609.085	1412.9
609.503	1404.05
609.921	1398.04
610.339	1400.84
610.758	1399.29
611.176	1395.07
611.594	1386.79
612.012	1382.59
612.43	1386.13
612.847	1392.32
613.265	1393.72
613.683	1399.16
614.101	1400.47
614.518	1395.53
614.936	1385.02
615.353	1368.96
615.771	1364.41
616.188	1362.88
616.606	1358.72
617.023	1351.8
617.44	1336.36
617.857	1327.67
618.274	1317.42
618.691	1310.57
619.108	1300.67
619.525	1293.51
619.942	1301.24
620.359	1304.52
620.776	1299.24
621.192	1295.06
621.609	1292.54
622.026	1301.02
622.442	1308.01
622.859	1311.69
623.275	1304.27
623.691	1310
624.108	1321.2
624.524	1334.72
624.94	1334.4
625.356	1344.46
625.772	1358.32
626.188	1368.92
626.604	1370.14
627.02	1365.23
627.436	1362.81
627.852	1369.21
628.268	1380.78
628.683	1369.97
629.099	1361.26
629.514	1356.2
629.93	1359.49
630.345	1362.99
630.761	1359.32
631.176	1361.11
631.591	1354.24
632.007	1348.18
632.422	1345.95
632.837	1333.49
633.252	1331.67
633.667	1320.56
634.082	1309.87
634.497	1295.65
634.911	1275.48
635.326	1270
635.741	1249.99
636.155	1238.49
636.57	1238.16
636.984	1236.31
637.399	1237.17
637.813	1234.62
638.228	1232.06
638.642	1234.98
639.056	1222.28
639.47	1220.15
639.884	1209.79
640.298	1202.99
640.712	1199.1
641.126	1184.45
641.54	1172.31
641.954	1163.08
642.368	1148.97
642.781	1139.41
643.195	1118.55
643.609	1117.94
644.022	1109.41
644.436	1103.06
644.849	1088.58
645.262	1073.58
645.676	1071.77
646.089	1064.51
646.502	1048.96
646.915	1041.47
647.328	1021.56
647.741	1017.58
648.154	1002.9
648.567	999.77
648.98	985.98
649.393	983.89
649.805	979.69
650.218	971.81
650.631	956.94
651.043	949.76
651.456	943.08
651.868	942.68
652.28	958.21
652.693	969.66
653.105	972.61
653.517	979.72
653.929	979.8
654.341	985.34
654.753	972
655.165	976.7
655.577	973.68
655.989	967.6
656.401	958.58
656.813	924.43
657.224	903.77
657.636	875.96
658.047	857.97
658.459	837.62
658.87	825.47
659.282	812.4
659.693	791.53
660.104	775.73
660.515	761.68
660.926	756.98
661.338	751.45
661.749	743.48
662.159	733.38
662.57	726.34
662.981	722.03
663.392	714.94
663.803	716.78
664.213	711.74
664.624	705.59
665.035	705.78
665.445	691.84
665.855	683.42
666.266	675.3
666.676	671.4
667.086	662.91
667.497	659.23
667.907	651.47
668.317	642.76
668.727	641.04
669.137	639.97
669.547	637.06
669.956	638.39
670.366	639.75
670.776	640.65
671.186	642.74
671.595	645
672.005	647.43
672.414	647.37
672.824	646.32
673.233	648.05
673.642	650.8
674.052	653.46
674.461	656.83
674.87	660.92
675.279	659.55
675.688	661.38
676.097	662.96
676.506	661.34
676.915	674.06
677.323	677.11
677.732	674.87
678.141	675.09
678.549	666.36
678.958	666.31
679.366	666.93
679.775	670.7
680.183	683.07
680.592	690.47
681	696.54
681.408	693.43
681.816	702.52
682.224	714.57
682.632	727.21
683.04	756.71
683.448	782.83
683.856	814.99
684.264	853.08
684.671	886.02
685.079	928.31
685.487	975.46
685.894	1038.1
686.302	1091.51
686.709	1136.95
687.116	1192.02
687.524	1240.53
687.931	1281.83
688.338	1317.77
688.745	1348.78
689.152	1384.87
689.559	1432.1
689.966	1478.46
690.373	1504.89
690.78	1550.97
691.187	1618.21
691.593	1668.03
692	1712.87
692.407	1775.96
692.813	1857.93
693.22	1921.21
693.626	1986.62
694.032	2037.92
694.439	2117.66
694.845	2178.29
695.251	2254.42
695.657	2324.51
696.063	2426.99
696.469	2502.1
696.875	2573.18
697.281	2609.01
697.687	2657.74
