Data from C_3_DIV_IL_4N_Splice17_13-19-44-092.txt Node
Date: Sat Mar 14 13:19:44 EDT 2020
User: sa697716
Spectrometer: FLMS03696
Trigger mode: 0
Integration Time (sec): 3.180400E-1
Scans to average: 20
Electric dark correction enabled: true
Nonlinearity correction enabled: true
Boxcar width: 5
XAxis mode: Wavelengths
Number of Pixels in Spectrum: 2048
>>>>>Begin Spectral Data<<<<<
187.83	-374007.75
188.298	2631.62
188.766	1447.34
189.233	1307.83
189.701	1920.16
190.169	2567.51
190.636	929.64
191.104	771.13
191.571	132.66
192.039	-64.17
192.506	-90.25
192.974	553.55
193.441	-914.71
193.908	-154.49
194.375	-43.07
194.842	45.88
195.31	40.23
195.777	115.86
196.244	346.95
196.711	413.12
197.177	509.86
197.644	721.99
198.111	1248.41
198.578	1774.59
199.045	1426.98
199.511	2387.18
199.978	2794.31
200.445	2400.2
200.911	2658.93
201.378	2951.3
201.844	2706.19
202.31	4666.72
202.777	4853.92
203.243	2704.69
203.709	2551.89
204.176	3062.82
204.642	2476.38
205.108	2299.51
205.574	1854.39
206.04	1686.13
206.506	1572.36
206.972	1460.57
207.438	1403.72
207.903	1590.53
208.369	1397.45
208.835	1411.44
209.301	1458.88
209.766	1486.27
210.232	1465.43
210.697	1820.83
211.163	2214.26
211.628	3284.64
212.094	2751.38
212.559	3404.4
213.024	2103.34
213.49	2558.46
213.955	2461.99
214.42	2399.45
214.885	2220.23
215.35	2135.93
215.815	2065.72
216.28	2171.54
216.745	1746.38
217.21	1862.12
217.675	1634.46
218.14	1772.6
218.604	1877.95
219.069	2054.43
219.534	2078.5
219.998	2305.62
220.463	2653.28
220.927	3086.21
221.392	2820.29
221.856	2804.88
222.32	3405.56
222.785	4114.95
223.249	5081.01
223.713	5591.08
224.177	5514.67
224.642	6910.97
225.106	8404.98
225.57	9109.88
226.034	6755.85
226.497	10181.4
226.961	9148.58
227.425	10605.36
227.889	11647.27
228.353	11546.47
228.816	23642.54
229.28	22526.98
229.744	18854.41
230.207	11454.51
230.671	11209.29
231.134	18279.74
231.597	21054.66
232.061	20862.62
232.524	20130.58
232.987	13809.92
233.45	12434.4
233.914	11153.86
234.377	11302.09
234.84	10337.86
235.303	12097.47
235.766	13467.13
236.229	13908.97
236.691	8687.59
237.154	9703.11
237.617	7331.35
238.08	7522.16
238.542	8769.56
239.005	6254.2
239.468	6236
239.93	5873.41
240.393	5352.9
240.855	4708.15
241.317	4816.86
241.78	5844.1
242.242	6051.21
242.704	6525.51
243.166	5654.44
243.629	5153.95
244.091	5930.28
244.553	6445.44
245.015	6924.41
245.477	8916.18
245.939	13007.97
246.4	13764.92
246.862	13346.38
247.324	12549.63
247.786	14016.85
248.247	18301.57
248.709	18724.05
249.17	13940.41
249.632	13220.03
250.093	15332.34
250.555	13227.7
251.016	8066.88
251.477	7643.59
251.939	8245.19
252.4	8647.63
252.861	10201.31
253.322	9515.02
253.783	11269.05
254.244	14617.81
254.705	11473.18
255.166	10124.16
255.627	9935.39
256.088	13986.9
256.549	14835.03
257.009	12739.27
257.47	15363.18
257.931	12488.01
258.391	9320.43
258.852	9592.53
259.312	9977.83
259.773	12250.45
260.233	10386.38
260.694	8749.95
261.154	9874.39
261.614	7934.05
262.074	7066.56
262.534	7334.72
262.994	6898.63
263.455	9119.16
263.915	7676.48
264.374	7197.22
264.834	7811.56
265.294	8577.2
265.754	8848.5
266.214	8335.31
266.673	7747.78
267.133	9723.48
267.593	9605.15
268.052	11705.34
268.512	10126.2
268.971	12234.31
269.431	13403.4
269.89	11998.14
270.349	17975.74
270.809	20057.34
271.268	17969.12
271.727	40147.51
272.186	26001.53
272.645	19432.37
273.104	13969.91
273.563	20242.79
274.022	15773.33
274.481	13479.18
274.94	10371.63
275.399	7694.39
275.857	8902.47
276.316	12040.03
276.775	10716.34
277.233	10544.75
277.692	9921.83
278.15	11249.8
278.609	11623.91
279.067	10770.18
279.525	10006.27
279.984	12929.48
280.442	15557.89
280.9	15488.31
281.358	10212.62
281.816	9534.55
282.274	9339.79
282.732	9611.5
283.19	9664.19
283.648	8326.47
284.106	8886.95
284.564	9029.36
285.021	8421.75
285.479	6285.76
285.937	5672.77
286.394	5015.56
286.852	5174.51
287.309	5456.6
287.767	5314.57
288.224	5079.01
288.682	5600.95
289.139	6189.87
289.596	5683.44
290.053	5875.93
290.511	7397.96
290.968	8988.19
291.425	12123.7
291.882	10113.71
292.339	8818.95
292.796	8697.92
293.252	8154.48
293.709	6483.92
294.166	5785.24
294.623	6367.61
295.079	6081.32
295.536	6122.82
295.992	5555.88
296.449	5497.23
296.905	5721.33
297.362	5491.48
297.818	5783.94
298.274	6024.61
298.731	6099.48
299.187	6017.43
299.643	6453.05
300.099	7828.46
300.555	8551.53
301.011	7138.83
301.467	6939.39
301.923	8057.51
302.379	7854.16
302.835	7695.03
303.291	7698.46
303.746	8749.2
304.202	11087.29
304.658	11141.1
305.113	7514.05
305.569	7401.83
306.024	7871.25
306.479	7423.12
306.935	6273.12
307.39	6839.94
307.845	6318.39
308.301	6375.99
308.756	6238.79
309.211	6010.69
309.666	6171.37
310.121	7698.4
310.576	7794.52
311.031	7759.49
311.486	8871.36
311.94	8864.51
312.395	11887.83
312.85	22335.69
313.305	109446.26
313.759	571136.19
314.214	41696.22
314.668	33128.91
315.123	27890.36
315.577	10063.89
316.032	9019.22
316.486	11332.27
316.94	9027
317.394	6322.89
317.849	4942.5
318.303	4670.95
318.757	4415.92
319.211	4882.12
319.665	4264.73
320.119	4313.2
320.572	6136.73
321.026	5724.66
321.48	4772.46
321.934	5166.77
322.387	5137.55
322.841	5556.63
323.295	5055.36
323.748	5780.13
324.202	5850.88
324.655	7065.89
325.108	9959.38
325.562	7065.98
326.015	8415.04
326.468	6376.88
326.921	7115.98
327.374	6679.46
327.827	6986.31
328.28	7893.31
328.733	5322.32
329.186	4668.89
329.639	4456.71
330.092	3735.12
330.545	3572.73
330.997	3599.14
331.45	3952.52
331.903	4697.39
332.355	8025.36
332.808	7758.13
333.26	6387.39
333.713	6939.79
334.165	7010.73
334.617	9304.7
335.069	7478.37
335.522	13479.56
335.974	14975.43
336.426	13621.09
336.878	9347.93
337.33	4780
337.782	4691.54
338.234	5921.77
338.686	7076.46
339.137	8374.7
339.589	7941.26
340.041	6258.5
340.493	5375.82
340.944	5496
341.396	5921.59
341.847	5022.4
342.299	5975.93
342.75	7306.02
343.201	6315.22
343.653	7256.28
344.104	8915
344.555	6990.27
345.006	10804.52
345.457	8368.11
345.908	6604.51
346.359	6251.23
346.81	5059.71
347.261	5280.86
347.712	5172.02
348.163	5543.54
348.613	5656.59
349.064	5288.82
349.515	4642.08
349.965	4798.68
350.416	5730.95
350.866	6297.35
351.317	7081.85
351.767	11744.26
352.217	14848.31
352.668	12329.74
353.118	11306.63
353.568	10815.34
354.018	8582.96
354.468	9077.98
354.918	6519.88
355.368	5718.96
355.818	8106.91
356.268	23266.78
356.718	97801.68
357.168	24444.76
357.617	12258.28
358.067	13626.46
358.517	12835.98
358.966	15098.61
359.416	16990.74
359.865	18291.54
360.315	21654.17
360.764	10161.73
361.213	5697.52
361.663	5353.62
362.112	6575.99
362.561	10693.4
363.01	8086.92
363.459	6800.37
363.908	7334.31
364.357	6246.62
364.806	10479.19
365.255	7229.15
365.703	6648.6
366.152	6708.46
366.601	5468.59
367.05	4475.88
367.498	4080.95
367.947	4245.82
368.395	4395.64
368.844	3906.65
369.292	4657.91
369.74	3259.56
370.189	5009.42
370.637	5844.41
371.085	5018.12
371.533	6137.99
371.981	5870.69
372.429	5626.48
372.877	5883.14
373.325	4930.6
373.773	5022.6
374.221	4466.8
374.669	5521.29
375.116	4760.91
375.564	4797.03
376.012	5367.9
376.459	4411.18
376.907	5277.14
377.354	6331.51
377.801	5941.98
378.249	6881.06
378.696	8749.08
379.143	10614.23
379.591	11297.19
380.038	19190.42
380.485	13881.28
380.932	14959.33
381.379	13775.68
381.826	10226.63
382.273	7234.4
382.72	6276.19
383.166	6095.28
383.613	3968.18
384.06	3572.99
384.506	4142.53
384.953	3023.26
385.4	3031.57
385.846	2659.16
386.292	2564.37
386.739	2491.09
387.185	2457.31
387.631	2469.86
388.078	2432.11
388.524	2597.27
388.97	2406.72
389.416	2014.03
389.862	2148.57
390.308	2042.61
390.754	2084.31
391.2	2273.63
391.645	2327.21
392.091	2276.09
392.537	2209.18
392.983	2196.71
393.428	2201.57
393.874	2365.64
394.319	2406.53
394.765	2319.41
395.21	2382.65
395.655	2245.88
396.101	2112.55
396.546	1924.83
396.991	1931.15
397.436	1794.17
397.881	1742.17
398.326	1643.09
398.771	1572.83
399.216	1367.58
399.661	1228.36
400.106	1247.27
400.551	1289.64
400.995	1164.23
401.44	1161.69
401.885	1092.26
402.329	1115.67
402.774	1073.52
403.218	1056.8
403.663	1020.1
404.107	1059.42
404.551	1076.98
404.995	989.5
405.44	950.07
405.884	968.03
406.328	934.84
406.772	941.41
407.216	862.62
407.66	837.28
408.104	789.38
408.547	743.91
408.991	722.83
409.435	697.51
409.879	694.08
410.322	692.53
410.766	676.44
411.209	649.66
411.653	628.78
412.096	622.13
412.54	626.18
412.983	627.94
413.426	637.36
413.869	639.32
414.312	633.5
414.756	613.32
415.199	588.3
415.642	576.22
416.085	582.12
416.527	577.69
416.97	587.88
417.413	562.31
417.856	556.78
418.298	550.37
418.741	546.71
419.184	545.21
419.626	566.82
420.069	567.56
420.511	571.76
420.953	561.43
421.396	560.66
421.838	545.2
422.28	559.24
422.722	565.97
423.164	574.14
423.606	568.3
424.048	566.01
424.49	539.83
424.932	537.65
425.374	528.31
425.816	536.04
426.258	544.74
426.699	552.14
427.141	546.48
427.582	552.63
428.024	548.81
428.465	546.13
428.907	535.06
429.348	529.49
429.789	533.83
430.231	527.24
430.672	537.52
431.113	528.03
431.554	520.97
431.995	507.22
432.436	494.85
432.877	488.39
433.318	484.1
433.759	484.94
434.2	485.94
434.64	480.36
435.081	484.74
435.522	461.32
435.962	444.92
436.403	441.31
436.843	448.38
437.284	437.4
437.724	425.44
438.164	424.4
438.604	414.35
439.045	403.01
439.485	390.6
439.925	382.38
440.365	373.29
440.805	370.22
441.245	366.91
441.685	354.89
442.125	353.65
442.564	358.27
443.004	353.32
443.444	355.83
443.883	358.11
444.323	355.37
444.762	356.53
445.202	363.85
445.641	373.81
446.081	373.82
446.52	380.65
446.959	382.56
447.398	378.82
447.837	377.85
448.276	373.55
448.716	379.8
449.154	385.42
449.593	379.97
450.032	381.81
450.471	376.99
450.91	378.41
451.349	381.75
451.787	379.88
452.226	385.51
452.664	386.72
453.103	389.15
453.541	389.71
453.98	393.4
454.418	396.81
454.856	392.55
455.295	392.67
455.733	397.41
456.171	398.96
456.609	401.05
457.047	402.16
457.485	410.33
457.923	412.52
458.361	406.08
458.798	405.98
459.236	405.68
459.674	407.9
460.111	409.88
460.549	406.35
460.987	404.29
461.424	403.08
461.862	400.38
462.299	392.89
462.736	392.84
463.173	396.08
463.611	394.4
464.048	394.57
464.485	397.48
464.922	394.81
465.359	391.56
465.796	392.71
466.233	390.22
466.67	388.41
467.106	389.29
467.543	385.25
467.98	377.84
468.416	366.77
468.853	362.99
469.29	351.69
469.726	347.07
470.162	339.22
470.599	331.39
471.035	328.21
471.471	319.96
471.907	316.6
472.344	314.99
472.78	318.64
473.216	322.11
473.652	318.94
474.088	319.66
474.523	320.14
474.959	323.12
475.395	319.62
475.831	319.62
476.266	321.73
476.702	321.99
477.138	318.75
477.573	317.61
478.008	317.33
478.444	320.31
478.879	324.86
479.314	327.27
479.75	328.29
480.185	330.81
480.62	333.88
481.055	336.78
481.49	339.64
481.925	346.11
482.36	354.22
482.795	364.84
483.229	374.55
483.664	382.86
484.099	384.24
484.534	391.19
484.968	396.69
485.403	397.37
485.837	396.72
486.271	397.64
486.706	398.96
487.14	395.4
487.574	390.72
488.009	388.06
488.443	385.89
488.877	391.68
489.311	393.62
489.745	399.28
490.179	406.07
490.613	417.75
491.046	422.36
491.48	427.53
491.914	430.03
492.348	435.21
492.781	441.29
493.215	445.32
493.648	448.63
494.082	455.71
494.515	459.85
494.948	468.77
495.382	474.43
495.815	482.73
496.248	490.5
496.681	503.27
497.114	516.22
497.547	528.09
497.98	542.75
498.413	552.7
498.846	565.15
499.279	576.86
499.711	585.43
500.144	592.09
500.577	606.26
501.009	621.15
501.442	635.78
501.874	642.45
502.306	649.65
502.739	663.64
503.171	682.48
503.603	692.43
504.036	706.35
504.468	717.55
504.9	734.25
505.332	746.01
505.764	755.46
506.196	767.13
506.627	787.37
507.059	806.05
507.491	817.85
507.923	822.49
508.354	841.25
508.786	857.02
509.217	878.87
509.649	898.48
510.08	921.46
510.512	943.29
510.943	963.3
511.374	978.99
511.805	1003.42
512.237	1027.68
512.668	1062.69
513.099	1093.3
513.53	1124.94
513.961	1150.82
514.391	1185.7
514.822	1222.98
515.253	1261.33
515.684	1290.46
516.114	1323.67
516.545	1348.61
516.975	1377.32
517.406	1399.79
517.836	1406.51
518.267	1415.81
518.697	1435.53
519.127	1442.54
519.558	1451.31
519.988	1458.42
520.418	1471.96
520.848	1491.49
521.278	1502.82
521.708	1531.86
522.138	1546.54
522.567	1579.5
522.997	1606.27
523.427	1624.03
523.857	1642.39
524.286	1655.24
524.716	1671.84
525.145	1691.57
525.575	1704.19
526.004	1719.32
526.433	1705.32
526.863	1705.86
527.292	1696.98
527.721	1703.86
528.15	1710.45
528.579	1712.24
529.008	1723.38
529.437	1747.2
529.866	1761.33
530.295	1778.83
530.724	1791.91
531.152	1820.2
531.581	1834.8
532.01	1852.37
532.438	1862.82
532.867	1878.49
533.295	1898.3
533.723	1905.53
534.152	1903.74
534.58	1904.07
535.008	1888.48
535.436	1890.28
535.865	1897.73
536.293	1912.1
536.721	1929.12
537.149	1954.34
537.576	1956.45
538.004	1968.79
538.432	1975.41
538.86	1974.06
539.287	1981.87
539.715	1996.43
540.143	1999.58
540.57	1995.41
540.998	1991.83
541.425	1968.09
541.852	1944.94
542.28	1944.21
542.707	1929.23
543.134	1915.41
543.561	1910.21
543.988	1902.61
544.415	1901.04
544.842	1895.68
545.269	1889.77
545.696	1893.04
546.123	1906.51
546.549	1896.6
546.976	1882.45
547.403	1880.44
547.829	1883.2
548.256	1886.48
548.682	1882.65
549.108	1876.46
549.535	1876.99
549.961	1878.66
550.387	1866.19
550.813	1861.35
551.24	1869.02
551.666	1870.97
552.092	1862.14
552.518	1856.34
552.943	1850.73
553.369	1859.09
553.795	1864.84
554.221	1866.74
554.646	1863.95
555.072	1876.07
555.498	1881.9
555.923	1892.43
556.349	1909.71
556.774	1919.9
557.199	1921.97
557.625	1928.81
558.05	1923.57
558.475	1936.21
558.9	1935.8
559.325	1929.21
559.75	1922.97
560.175	1917.11
560.6	1911.99
561.025	1910.96
561.449	1913.52
561.874	1920.86
562.299	1927.03
562.723	1936.77
563.148	1926.61
563.572	1930.77
563.997	1941.83
564.421	1948.33
564.846	1949.23
565.27	1952.79
565.694	1949.89
566.118	1962.54
566.542	1971.88
566.966	1966.19
567.39	1962.25
567.814	1951.38
568.238	1952.48
568.662	1958.28
569.086	1960.32
569.509	1968.3
569.933	1952.38
570.357	1944.71
570.78	1922.8
571.204	1907.58
571.627	1895.68
572.05	1892.47
572.474	1892.31
572.897	1878.37
573.32	1871
573.743	1861.66
574.166	1843.89
574.589	1844.55
575.012	1837.43
575.435	1836.22
575.858	1827.48
576.281	1816.12
576.704	1800.95
577.126	1787.94
577.549	1777.83
577.972	1766.9
578.394	1756.86
578.817	1749.7
579.239	1730.41
579.661	1716.69
580.084	1699.78
580.506	1686.98
580.928	1683.02
581.35	1670.99
581.772	1667.4
582.194	1653.72
582.616	1641.84
583.038	1625.57
583.46	1614.77
583.882	1610.71
584.303	1616.01
584.725	1611.94
585.147	1613.66
585.568	1625.18
585.99	1638.72
586.411	1646.47
586.833	1662.73
587.254	1664.35
587.675	1682.05
588.096	1695.46
588.518	1692.62
588.939	1675.01
589.36	1673.34
589.781	1661.67
590.202	1631.6
590.623	1622.58
591.043	1620.82
591.464	1606.91
591.885	1602.16
592.305	1595.53
592.726	1580.89
593.147	1580.8
593.567	1575.55
593.987	1569.05
594.408	1563.98
594.828	1562.54
595.248	1555.22
595.669	1533.92
596.089	1526.11
596.509	1519.82
596.929	1504.34
597.349	1504.85
597.769	1494.15
598.189	1486.91
598.608	1486.52
599.028	1489.04
599.448	1488.74
599.867	1474.39
600.287	1470.94
600.706	1466.53
601.126	1455.78
601.545	1455.26
601.965	1452.96
602.384	1447.27
602.803	1449.69
603.222	1444.87
603.641	1437.2
604.061	1433.16
604.48	1429.87
604.898	1438.2
605.317	1443.39
605.736	1445.08
606.155	1441.27
606.574	1432.05
606.992	1437.29
607.411	1431.44
607.829	1422.69
608.248	1419.38
608.666	1415.98
609.085	1414.38
609.503	1403.62
609.921	1396.67
610.339	1398.3
610.758	1397.35
611.176	1392.45
611.594	1381.85
612.012	1377.77
612.43	1380.87
612.847	1386.69
613.265	1387.31
613.683	1391.95
614.101	1393.3
614.518	1388.26
614.936	1377.03
615.353	1360.58
615.771	1355.61
616.188	1355.36
616.606	1350.75
617.023	1342.29
617.44	1325.88
617.857	1317.73
618.274	1307.3
618.691	1298.95
619.108	1287.8
619.525	1281.17
619.942	1287.62
620.359	1289.66
620.776	1283.49
621.192	1279.52
621.609	1275.8
622.026	1282.59
622.442	1288.15
622.859	1290.17
623.275	1283.2
623.691	1289.16
624.108	1300.18
624.524	1313.68
624.94	1313.55
625.356	1322.97
625.772	1335.33
626.188	1347.24
626.604	1347.5
627.02	1342.73
627.436	1340.94
627.852	1346.77
628.268	1356.67
628.683	1346.77
629.099	1337.9
629.514	1332.25
629.93	1335.77
630.345	1340.25
630.761	1336.01
631.176	1339.67
631.591	1333.02
632.007	1326.94
632.422	1324.51
632.837	1313.3
633.252	1310.36
633.667	1298.36
634.082	1287.25
634.497	1273.41
634.911	1251.93
635.326	1246.66
635.741	1227.39
636.155	1214.75
636.57	1214.06
636.984	1212.21
637.399	1211.82
637.813	1208.6
638.228	1206
638.642	1207.95
639.056	1194.32
639.47	1191.84
639.884	1180.89
640.298	1172.82
640.712	1169.13
641.126	1153.32
641.54	1140.99
641.954	1132.89
642.368	1117.93
642.781	1106.95
643.195	1086.99
643.609	1084.31
644.022	1075.6
644.436	1067.26
644.849	1051.55
645.262	1037.77
645.676	1035.97
646.089	1028.67
646.502	1010.78
646.915	1002.69
647.328	982.21
647.741	977.63
648.154	963.21
648.567	958.23
648.98	943.63
649.393	940.84
649.805	934.15
650.218	923.77
650.631	906.44
651.043	898.54
651.456	889.64
651.868	888.6
652.28	900.59
652.693	910.7
653.105	911.95
653.517	917.91
653.929	915.24
654.341	917.4
654.753	904.37
655.165	906.38
655.577	900.4
655.989	893.45
656.401	882.19
656.813	847.47
657.224	823.85
657.636	795.39
658.047	775.41
658.459	754.1
658.87	740.62
659.282	724.39
659.693	701.91
660.104	684.45
660.515	666.83
660.926	657.77
661.338	648.66
661.749	637.94
662.159	624.06
662.57	614.23
662.981	603.88
663.392	591.58
663.803	587.94
664.213	579.5
664.624	568.79
665.035	565.2
665.445	549.47
665.855	539
666.266	527.56
666.676	520.2
667.086	507.84
667.497	501.82
667.907	492.44
668.317	481.57
668.727	477.17
669.137	473.87
669.547	467.38
669.956	465.63
670.366	462.98
670.776	460.77
671.186	459.91
671.595	458.89
672.005	458.2
672.414	456.97
672.824	454.93
673.233	451.87
673.642	451.51
674.052	453.1
674.461	454.3
674.87	455.67
675.279	454.13
675.688	453.69
676.097	455.88
676.506	454.25
676.915	461.3
677.323	463.4
677.732	464.36
678.141	464.85
678.549	458.85
678.958	459.33
679.366	460.18
679.775	464.6
680.183	475.85
680.592	481.82
681	489.23
681.408	490.3
681.816	500.33
682.224	512.08
682.632	526.98
683.04	555.3
683.448	580.19
683.856	611.93
684.264	647.99
684.671	681.68
685.079	724.12
685.487	772.3
685.894	833.81
686.302	889.23
686.709	941.03
687.116	999.65
687.524	1051.11
687.931	1100.16
688.338	1142.93
688.745	1182.99
689.152	1228.16
689.559	1281.46
689.966	1334.88
690.373	1369.13
690.78	1419.21
691.187	1486.32
691.593	1538.9
692	1589.18
692.407	1656.44
692.813	1738.01
693.22	1801.62
693.626	1866.17
694.032	1919.49
694.439	1994.03
694.845	2053.86
695.251	2128.96
695.657	2197.38
696.063	2296.42
696.469	2367.39
696.875	2434.72
697.281	2470.79
697.687	2514.54
698.093	2550.56
698.498	2620.63
698.904	2676.22
699.31	2760.63
699.715	2818.82
700.12	2905.18
700.526	2919.41
700.931	2983.52
701.337	3029.53
701.742	3058.11
702.147	3136.61
702.552	3164.21
702.957	3220.4
703.362	3236.54
703.767	3261.14
704.172	3294.02
704.577	3242.49
704.981	3282.85
