Data from C_3_DIV_OH_2N_Splice17_12-48-08-651.txt Node
Date: Sat Mar 14 12:48:08 EDT 2020
User: sa697716
Spectrometer: FLMS03696
Trigger mode: 0
Integration Time (sec): 3.180400E-1
Scans to average: 20
Electric dark correction enabled: true
Nonlinearity correction enabled: true
Boxcar width: 5
XAxis mode: Wavelengths
Number of Pixels in Spectrum: 2048
>>>>>Begin Spectral Data<<<<<
187.83	-305279.25
188.298	2184.17
188.766	1279.55
189.233	1119.03
189.701	1611.43
190.169	2214.38
190.636	851.83
191.104	722.62
191.571	99.47
192.039	-125.45
192.506	-155.6
192.974	425.07
193.441	-807.39
193.908	-103.83
194.375	-51.4
194.842	7.44
195.31	128.13
195.777	187.92
196.244	363.55
196.711	214.77
197.177	179.98
197.644	157.94
198.111	256.41
198.578	345.38
199.045	251.58
199.511	364.27
199.978	347.83
200.445	310.77
200.911	299.33
201.378	240.15
201.844	285.55
202.31	467.82
202.777	501.46
203.243	282.67
203.709	266.82
204.176	332.56
204.642	300.95
205.108	304.8
205.574	229.69
206.04	168.99
206.506	153.51
206.972	105.16
207.438	100.31
207.903	108.55
208.369	111.64
208.835	127.12
209.301	134.52
209.766	110.84
210.232	114.56
210.697	127.78
211.163	149.87
211.628	214.88
212.094	218.94
212.559	402.26
213.024	266.33
213.49	352.83
213.955	337.37
214.42	293.45
214.885	296.55
215.35	326.7
215.815	438.04
216.28	522.31
216.745	424.87
217.21	496.11
217.675	425.13
218.14	516.6
218.604	569.18
219.069	690.4
219.534	804.18
219.998	937.18
220.463	1132.77
220.927	1330.09
221.392	1263.87
221.856	1331.35
222.32	1675.79
222.785	2159.54
223.249	2728.3
223.713	3119.4
224.177	3155.42
224.642	4004.63
225.106	4967.75
225.57	5495.84
226.034	4208.53
226.497	6511.82
226.961	6015.78
227.425	7112.59
227.889	7850.62
228.353	7926.28
228.816	16461.56
229.28	15964.96
229.744	13657.29
230.207	8486.14
230.671	8453.77
231.134	13895.94
231.597	16207.06
232.061	16177.7
232.524	15814.11
232.987	10987.24
233.45	9982.51
233.914	9005.19
234.377	9198.43
234.84	8432.19
235.303	9889.72
235.766	11044
236.229	11476.38
236.691	7218.04
237.154	8137.99
237.617	6167.91
238.08	6318.69
238.542	7395.09
239.005	5307.8
239.468	5301.87
239.93	5037.09
240.393	4599.38
240.855	4062.94
241.317	4166.16
241.78	5068.05
242.242	5279.77
242.704	5753.2
243.166	5044.5
243.629	4653.66
244.091	5398.1
244.553	5935.09
245.015	6406.21
245.477	8330.48
245.939	12223.27
246.4	13068.93
246.862	12737.52
247.324	12030.74
247.786	13476.32
248.247	17699.93
248.709	18126.69
249.17	13591.72
249.632	12958.23
250.093	15124.9
250.555	13150.99
251.016	8089.66
251.477	7693.98
251.939	8369.57
252.4	8821.31
252.861	10459.55
253.322	9795.88
253.783	11724.96
254.244	15216.03
254.705	12001.82
255.166	10659.02
255.627	10507.74
256.088	14861.78
256.549	15854.75
257.009	13653.44
257.47	16576.13
257.931	13538.65
258.391	10187.84
258.852	10509.14
259.312	11040.9
259.773	13648.03
260.233	11628.95
260.694	9860.66
261.154	11202.46
261.614	9061.55
262.074	8140.15
262.534	8510.33
262.994	8083.07
263.455	10766.83
263.915	9119.24
264.374	8620.03
264.834	9432.2
265.294	10456.53
265.754	10858.85
266.214	10301.07
266.673	9655.91
267.133	12204
267.593	12126.92
268.052	14897.32
268.512	12987.73
268.971	15753.38
269.431	17334.36
269.89	15559.24
270.349	23392.99
270.809	26194.72
271.268	23589.56
271.727	52838.05
272.186	34232.16
272.645	25695.84
273.104	18510.19
273.563	26888.86
274.022	21131.18
274.481	18084.81
274.94	14005.27
275.399	10411.85
275.857	12117.64
276.316	16423.37
276.775	14667.79
277.233	14524.41
277.692	13681.48
278.15	15534.49
278.609	16049.1
279.067	14861.65
279.525	13835.94
279.984	17865.99
280.442	21536.82
280.9	21375.5
281.358	14110.59
281.816	13186.23
282.274	12922.33
282.732	13332.89
283.19	13414.07
283.648	11566.67
284.106	12345.7
284.564	12546.45
285.021	11680.5
285.479	8700.33
285.937	7880.93
286.394	6942.22
286.852	7161.86
287.309	7562.7
287.767	7368.91
288.224	7045.68
288.682	7772.16
289.139	8592.11
289.596	7914.27
290.053	8251.85
290.511	10485.47
290.968	12830.65
291.425	17488
291.882	14707.68
292.339	12889.86
292.796	12803.03
293.252	12101.35
293.709	9695.88
294.166	8721.15
294.623	9663.64
295.079	9287.4
295.536	9368.35
295.992	8540.96
296.449	8469.6
296.905	8817.05
297.362	8486.21
297.818	8951.33
298.274	9323.44
298.731	9484.31
299.187	9384.03
299.643	10088.47
300.099	12228.8
300.555	13407.74
301.011	11187.13
301.467	10853.98
301.923	12669.68
302.379	12387.56
302.835	12170.87
303.291	12209.03
303.746	13901.13
304.202	17615.41
304.658	17706.93
305.113	11915.1
305.569	11694.13
306.024	12455.52
306.479	11780.57
306.935	9920.93
307.39	10771.3
307.845	9950.98
308.301	10015.97
308.756	9729.85
309.211	9356.75
309.666	9547.29
310.121	11888.12
310.576	12041.95
311.031	11918.98
311.486	13623.52
311.94	13630.14
312.395	18262.89
312.85	34234.66
313.305	167090.55
313.759	870265.57
314.214	63194.48
314.668	50182.75
315.123	42077.95
315.577	15141.34
316.032	13503.84
316.486	16931.3
316.94	13386.6
317.394	9338.55
317.849	7264.46
318.303	6878.97
318.757	6512.18
319.211	7201.33
319.665	6313.61
320.119	6406.38
320.572	9183.72
321.026	8590.98
321.48	7175.32
321.934	7808.92
322.387	7812.18
322.841	8455.73
323.295	7664.32
323.748	8770.61
324.202	8909.79
324.655	10722.91
325.108	15061.78
325.562	10650.29
326.015	12669.45
326.468	9587.27
326.921	10716.39
327.374	10033.09
327.827	10471.55
328.28	11834.39
328.733	7961.7
329.186	7010.63
329.639	6683.29
330.092	5639.19
330.545	5370.81
330.997	5411.18
331.45	5914.82
331.903	6975.33
332.355	11948.82
332.808	11587.17
333.26	9536.05
333.713	10350.5
334.165	10373.8
334.617	13816.36
335.069	11048.3
335.522	19928.61
335.974	22070.23
336.426	20110.38
336.878	13794.7
337.33	6987.14
337.782	6786.24
338.234	8527.81
338.686	10182.34
339.137	12094.36
339.589	11362.29
340.041	8918.78
340.493	7681.85
340.944	7897.5
341.396	8542.18
341.847	7241.46
342.299	8650.56
342.75	10680.09
343.201	9314.85
343.653	10729.17
344.104	13197.67
344.555	10420.82
345.006	16234.45
345.457	12526.33
345.908	9934.05
346.359	9380.71
346.81	7693.2
347.261	8085.72
347.712	7964.94
348.163	8551.79
348.613	8733.1
349.064	8167.27
349.515	7169.77
349.965	7391.68
350.416	8894
350.866	9774.27
351.317	11016.41
351.767	18201.85
352.217	23003.06
352.668	19100.28
353.118	17565.68
353.568	16800.15
354.018	13337.44
354.468	14118.04
354.918	10128.21
355.368	8874.48
355.818	12580.17
356.268	36238.61
356.718	152033.37
357.168	37901.39
357.617	19001.54
358.067	21034.58
358.517	19744.46
358.966	23191.88
359.416	26092.6
359.865	28202.34
360.315	33527.66
360.764	15684.11
361.213	8801.61
361.663	8281.31
362.112	10218.59
362.561	16515.87
363.01	12505.8
363.459	10530.34
363.908	11375.96
364.357	9653.66
364.806	16259.78
365.255	11178.67
365.703	10269.45
366.152	10299.45
366.601	8384.4
367.05	6820.7
367.498	6218.24
367.947	6488.87
368.395	6750.28
368.844	5980.61
369.292	7157.94
369.74	4962.6
370.189	7586.94
370.637	8847.08
371.085	7619.31
371.533	9260.61
371.981	8903.13
372.429	8472.02
372.877	8829.6
373.325	7393.61
373.773	7498.74
374.221	6687.25
374.669	8281.49
375.116	7157.76
375.564	7223.83
376.012	8081.74
376.459	6670.83
376.907	7946.97
377.354	9600.45
377.801	8968
378.249	10281.61
378.696	13124.77
379.143	15901.88
379.591	16926.67
380.038	28598.72
380.485	20673.59
380.932	22288.85
381.379	20497.09
381.826	15143.2
382.273	10717.06
382.72	9317.51
383.166	9111.12
383.613	5922.43
384.06	5315.2
384.506	6149.47
384.953	4508.81
385.4	4508.2
385.846	3929.17
386.292	3786.63
386.739	3679.89
387.185	3628.25
387.631	3625.25
388.078	3525.41
388.524	3740.92
388.97	3446.38
389.416	2864.13
389.862	3041.17
390.308	2876.3
390.754	2912.91
391.2	3153.03
391.645	3201.5
392.091	3083.01
392.537	2967.61
392.983	2937.36
393.428	2915.66
393.874	3113.8
394.319	3124
394.765	2957.91
395.21	3028.09
395.655	2830.06
396.101	2637.81
396.546	2381.86
396.991	2371.88
397.436	2191.52
397.881	2099.97
398.326	1956.16
398.771	1845.44
399.216	1593.8
399.661	1422.65
400.106	1410.68
400.551	1436.65
400.995	1285.2
401.44	1266.95
401.885	1182.44
402.329	1190.95
402.774	1143.27
403.218	1119.66
403.663	1071.31
404.107	1102.32
404.551	1110.71
404.995	1012.15
405.44	968.94
405.884	978.08
406.328	939.53
406.772	936.07
407.216	850.82
407.66	817.94
408.104	760.23
408.547	710.8
408.991	686.12
409.435	654.31
409.879	647.21
410.322	639.97
410.766	617.55
411.209	588.26
411.653	560.67
412.096	549.76
412.54	545.55
412.983	544.36
413.426	548.47
413.869	544.05
414.312	537.25
414.756	515.12
415.199	486.95
415.642	474.29
416.085	470.76
416.527	466.19
416.97	470.57
417.413	446.58
417.856	436.81
418.298	427.11
418.741	420.18
419.184	412.99
419.626	426.64
420.069	427.53
420.511	428.1
420.953	422.09
421.396	416.96
421.838	404.32
422.28	413.44
422.722	418.24
423.164	422.18
423.606	416.86
424.048	412.97
424.49	394.03
424.932	387.71
425.374	377.01
425.816	379.69
426.258	387.47
426.699	390.22
427.141	387.8
427.582	391.92
428.024	390.81
428.465	387.84
428.907	380.76
429.348	372.89
429.789	378.05
430.231	375.34
430.672	381.81
431.113	372.19
431.554	368.77
431.995	353.58
432.436	342.13
432.877	334.09
433.318	331.98
433.759	330.36
434.2	329.36
434.64	324.15
435.081	323.76
435.522	305.43
435.962	293.67
436.403	285.68
436.843	288.1
437.284	278.75
437.724	266.73
438.164	259.71
438.604	250.25
439.045	242.71
439.485	236.2
439.925	227.74
440.365	221.02
440.805	215.96
441.245	213.89
441.685	206.18
442.125	204.15
442.564	205.58
443.004	201.73
443.444	200.42
443.883	199.6
444.323	189.92
444.762	184.74
445.202	185.35
445.641	190.05
446.081	183.74
446.52	185.06
446.959	183.08
447.398	179.07
447.837	175.97
448.276	170.6
448.716	169.39
449.154	170.32
449.593	168.55
450.032	167.31
450.471	160.88
450.91	159.96
451.349	161.36
451.787	157.59
452.226	158.55
452.664	156.96
453.103	157.07
453.541	154.77
453.98	158.5
454.418	159.49
454.856	159.17
455.295	158.13
455.733	161.24
456.171	159.6
456.609	161.33
457.047	161.78
457.485	166.67
457.923	170.28
458.361	168.4
458.798	166.13
459.236	166.48
459.674	165.62
460.111	166.6
460.549	165.9
460.987	165.5
461.424	164.08
461.862	163.08
462.299	159.73
462.736	159.59
463.173	160.61
463.611	163.14
464.048	162.53
464.485	164.13
464.922	162.23
465.359	159.4
465.796	168.16
466.233	168.68
466.67	169.93
467.106	171.92
467.543	168.4
467.98	166.01
468.416	158.13
468.853	155.66
469.29	150.72
469.726	149.46
470.162	145.34
470.599	133.24
471.035	129.79
471.471	125.14
471.907	120.34
472.344	118.2
472.78	119.34
473.216	119.7
473.652	118.64
474.088	117.09
474.523	117.14
474.959	118.21
475.395	117.6
475.831	117.86
476.266	118.48
476.702	118.88
477.138	118.81
477.573	117.41
478.008	118.29
478.444	120.3
478.879	122.97
479.314	124.13
479.75	124.36
480.185	124.12
480.62	124.91
481.055	125.18
481.49	126.66
481.925	128.41
482.36	133.32
482.795	135.83
483.229	138.3
483.664	140.65
484.099	139.41
484.534	141.7
484.968	143.94
485.403	143.48
485.837	141.92
486.271	141.25
486.706	140.3
487.14	136.88
487.574	134.64
488.009	132.46
488.443	130.52
488.877	133.56
489.311	132.7
489.745	133.73
490.179	135.05
490.613	139.34
491.046	139.14
491.48	139.44
491.914	138.54
492.348	138.61
492.781	139.29
493.215	138.49
493.648	136.11
494.082	136.56
494.515	135.63
494.948	136.92
495.382	134.44
495.815	133.96
496.248	134.65
496.681	135.32
497.114	135.39
497.547	136.17
497.98	138.6
498.413	140.13
498.846	140.58
499.279	139.91
499.711	138.53
500.144	137.4
500.577	139.44
501.009	139.14
501.442	140.34
501.874	139.72
502.306	137.15
502.739	139.36
503.171	138.48
503.603	137.07
504.036	136.47
504.468	134.85
504.9	134.82
505.332	132.06
505.764	130.82
506.196	129.3
506.627	129.51
507.059	129.21
507.491	123.5
507.923	121.65
508.354	121.66
508.786	121
509.217	121.01
509.649	120.5
510.08	120.67
510.512	121.09
510.943	120.29
511.374	118.68
511.805	118.47
512.237	118.28
512.668	118.39
513.099	117.82
513.53	117.71
513.961	117.93
514.391	118.59
514.822	121.74
515.253	123.22
515.684	122.71
516.114	123.84
516.545	124.69
516.975	124.84
517.406	123.73
517.836	121.13
518.267	120.33
518.697	120.52
519.127	118.85
519.558	115.41
519.988	112.42
520.418	111.17
520.848	109.21
521.278	106.74
521.708	136.91
522.138	137.45
522.567	137.88
522.997	138.22
523.427	136.53
523.857	136.3
524.286	135.26
524.716	135.61
525.145	136.73
525.575	137.48
526.004	136.99
526.433	105.42
526.863	103.2
527.292	103.5
527.721	104.23
528.15	103.75
528.579	102.9
529.008	103.29
529.437	102.73
529.866	102.11
530.295	101.27
530.724	102.96
531.152	103.6
531.581	105.03
532.01	104.76
532.438	102.47
532.867	102.13
533.295	103.52
533.723	103.22
534.152	103.23
534.58	102.88
535.008	102.25
535.436	103.36
535.865	103.38
536.293	102.68
536.721	102.75
537.149	104.87
537.576	106.48
538.004	106.91
538.432	106.67
538.86	107.04
539.287	107.06
539.715	107.79
540.143	105.63
540.57	105.56
540.998	105.54
541.425	106.33
541.852	104.49
542.28	103.27
542.707	101.6
543.134	101.61
543.561	100.84
543.988	100.63
544.415	99.46
544.842	98.43
545.269	98.26
545.696	98.98
546.123	98.91
546.549	98.35
546.976	98.03
547.403	98.38
547.829	96.99
548.256	96.92
548.682	96.79
549.108	98.76
549.535	98.69
549.961	97.57
550.387	96.11
550.813	96.72
551.24	97.23
551.666	96.16
552.092	95.36
552.518	95.12
552.943	95.24
553.369	95.19
553.795	94.35
554.221	94.95
554.646	95.91
555.072	98.23
555.498	96.49
555.923	96.14
556.349	97.77
556.774	97.75
557.199	97.91
557.625	97.15
558.05	97.28
558.475	97.71
558.9	98.18
559.325	98.91
559.75	98.77
560.175	98.59
560.6	98.46
561.025	97.86
561.449	98.66
561.874	99.01
562.299	101.12
562.723	101.42
563.148	101.02
563.572	100.99
563.997	101.05
564.421	99.99
564.846	100.55
565.27	102.11
565.694	102.95
566.118	103.99
566.542	107.25
566.966	107.03
567.39	107.77
567.814	108.31
568.238	109.38
568.662	109.44
569.086	111.01
569.509	111.77
569.933	113.1
570.357	113.13
570.78	112.6
571.204	112.49
571.627	112.23
572.05	112.8
572.474	114.12
572.897	113.84
573.32	115.49
573.743	114.91
574.166	115.76
574.589	113.97
575.012	114.48
575.435	114.74
575.858	114.09
576.281	113.97
576.704	113.05
577.126	112.68
577.549	112.16
577.972	110.69
578.394	111.06
578.817	113.22
579.239	113.01
579.661	113.51
580.084	115.67
580.506	115.82
580.928	115.42
581.35	115.38
581.772	115.29
582.194	115.05
582.616	114.62
583.038	113.21
583.46	110.57
583.882	111.06
584.303	109.75
584.725	107.24
585.147	113.74
585.568	116.07
585.99	117.68
586.411	119.1
586.833	120.9
587.254	121.29
587.675	122.06
588.096	123.32
588.518	123.41
588.939	122.77
589.36	123.76
589.781	115.01
590.202	117.03
590.623	116.45
591.043	114.96
591.464	114.53
591.885	115.71
592.305	116.17
592.726	114.9
593.147	115.59
593.567	116.15
593.987	115.55
594.408	115.49
594.828	111.02
595.248	112.07
595.669	112.27
596.089	111.72
596.509	110.38
596.929	109.46
597.349	110.38
597.769	109.5
598.189	109.29
598.608	109.34
599.028	110.01
599.448	110.49
599.867	108.62
600.287	106.6
600.706	107.37
601.126	108.03
601.545	109.04
601.965	108.89
602.384	108.76
602.803	108.46
603.222	108.84
603.641	108.48
604.061	109.28
604.48	109.69
604.898	111.57
605.317	111.54
605.736	111.34
606.155	112.11
606.574	111.46
606.992	111.53
607.411	112.29
607.829	110.83
608.248	110.93
608.666	110.21
609.085	110.76
609.503	110.44
609.921	111.4
610.339	112.18
610.758	111
611.176	111.05
611.594	111.76
612.012	111.65
612.43	114
612.847	114.71
613.265	116.65
613.683	117.25
614.101	117.82
614.518	116.66
614.936	116.71
615.353	117.21
615.771	118.46
616.188	118.82
616.606	119.34
617.023	119.41
617.44	119.01
617.857	117.05
618.274	115.79
618.691	116.94
619.108	116.61
619.525	115.83
619.942	117.13
620.359	117.52
620.776	117.6
621.192	118.94
621.609	118.97
622.026	120.93
622.442	123.04
622.859	124.29
623.275	122.67
623.691	123.24
624.108	124.88
624.524	125.65
624.94	125.59
625.356	126.52
625.772	126.05
626.188	126.93
626.604	126.56
627.02	126.21
627.436	126.38
627.852	128.76
628.268	130.93
628.683	130.26
629.099	129.85
629.514	128.67
629.93	129.6
630.345	131.07
630.761	130.38
631.176	131.08
631.591	132.86
632.007	133.17
632.422	131.58
632.837	129.85
633.252	131.14
633.667	130.36
634.082	129.62
634.497	129.12
634.911	129.68
635.326	130.25
635.741	129.37
636.155	126.28
636.57	128.31
636.984	130.22
637.399	133.71
637.813	133.01
638.228	133.78
638.642	135.38
639.056	134.78
639.47	134.55
639.884	135
640.298	135.65
640.712	137.76
641.126	136.49
641.54	135.25
641.954	132.2
642.368	133.15
642.781	137.06
643.195	137.03
643.609	139.36
644.022	139.07
644.436	139.47
644.849	138.18
645.262	137.14
645.676	138.06
646.089	139.28
646.502	141.27
646.915	140.18
647.328	137.44
647.741	138.86
648.154	137.75
648.567	142.38
648.98	141.78
649.393	143.45
649.805	144.61
650.218	144.24
650.631	143.67
651.043	143.24
651.456	144.66
651.868	144.5
652.28	146.28
652.693	148.18
653.105	146.56
653.517	148.68
653.929	148.43
654.341	150.34
654.753	150.04
655.165	151.75
655.577	152.64
655.989	152.27
656.401	149.87
656.813	147.97
657.224	146.42
657.636	142.47
658.047	141.59
658.459	141.43
658.87	139.78
659.282	138.53
659.693	137.71
660.104	136.45
660.515	134.89
660.926	137.98
661.338	137.41
661.749	136.41
662.159	137.2
662.57	137.28
662.981	137.19
663.392	137.96
663.803	140.23
664.213	139.87
664.624	140.3
665.035	142.4
665.445	139.28
665.855	139.97
666.266	141.81
666.676	142.6
667.086	140.9
667.497	141.63
667.907	141.42
668.317	140.48
668.727	144.5
669.137	144.13
669.547	143.79
669.956	145.41
670.366	146.1
670.776	146.56
671.186	147.04
671.595	148.98
672.005	149.25
672.414	149.78
672.824	150.46
673.233	146.95
673.642	148.16
674.052	150.36
674.461	151.43
674.87	151.9
675.279	152.09
675.688	150.71
676.097	151.67
676.506	150.87
676.915	152.03
677.323	152.18
677.732	151.36
678.141	150.12
678.549	145.2
678.958	143.11
679.366	140.72
679.775	137.99
680.183	142.4
680.592	140.91
681	140.11
681.408	137.68
681.816	135.96
682.224	135.33
682.632	137.09
683.04	141.89
683.448	144.47
683.856	148.48
684.264	153.4
684.671	153
685.079	155.54
685.487	159.37
685.894	164.59
686.302	166.9
686.709	169.75
687.116	170.39
687.524	171.85
687.931	172.49
688.338	170.3
688.745	165.61
689.152	162.85
689.559	162.47
689.966	162.52
690.373	159.5
690.78	158.61
691.187	157.22
691.593	156.57
692	152.85
692.407	150.73
692.813	155.16
693.22	155.96
693.626	153.22
694.032	153.03
694.439	154.04
694.845	152.46
695.251	152.67
695.657	153.24
696.063	152.76
696.469	150.77
696.875	150.9
697.281	145.68
697.687	143.81
698.093	144.78
698.498	144.77
698.904	141.74
699.31	143.04
699.715	146.3
700.12	147.08
700.526	146.97
700.931	148.89
701.337	149.96
701.742	149.93
702.147	151.43
702.552	150.42
702.957	148.98
703.362	148.09
703.767	147.25
704.172	143.65
704.577	139.38
704.981	136.74
705.386	136.39
705.791	133.43
706.195	132.27
706.6	131.35
707.004	130.16
707.408	126.77
707.813	127.32
708.217	126.24
708.621	125.15
709.025	127.09
709.43	129.06
709.834	130.44
710.237	131.51
710.641	130.8
711.045	131.26
711.449	132.7
711.853	138.96
712.256	138.35
712.66	137.88
713.064	139.09
713.467	141.32
713.87	142.27
714.274	142.4
714.677	145.29
715.08	150.39
