Data from C_3_DIV_WI_4N_Splice17_12-56-07-534.txt Node
Date: Sat Mar 14 12:56:07 EDT 2020
User: sa697716
Spectrometer: FLMS03696
Trigger mode: 0
Integration Time (sec): 3.180400E-1
Scans to average: 20
Electric dark correction enabled: true
Nonlinearity correction enabled: true
Boxcar width: 5
XAxis mode: Wavelengths
Number of Pixels in Spectrum: 2048
>>>>>Begin Spectral Data<<<<<
187.83	-317373.88
188.298	2302.74
188.766	1331.68
189.233	1190.65
189.701	1733.08
190.169	2468.04
190.636	949.75
191.104	788.98
191.571	167.24
192.039	-16.45
192.506	55.04
192.974	506.15
193.441	-573.88
193.908	32.92
194.375	38.41
194.842	161.69
195.31	330.97
195.777	238.47
196.244	460.58
196.711	480.35
197.177	567.06
197.644	793.93
198.111	1351.05
198.578	1866.12
199.045	1522.94
199.511	2487.31
199.978	2916.98
200.445	2487.72
200.911	2744.23
201.378	3052.66
201.844	2796.42
202.31	4791.05
202.777	5021.25
203.243	2783.71
203.709	2640.43
204.176	3118.55
204.642	2568.19
205.108	2379.28
205.574	1926.96
206.04	1768.83
206.506	1651.86
206.972	1545.35
207.438	1474.62
207.903	1677.43
208.369	1486.39
208.835	1494.07
209.301	1565.62
209.766	1590.61
210.232	1575.69
210.697	1976.03
211.163	2417.65
211.628	3635.72
212.094	3057.13
212.559	3787.93
213.024	2331.92
213.49	2839.2
213.955	2730.13
214.42	2648.11
214.885	2477.38
215.35	2377.92
215.815	2272.09
216.28	2412.58
216.745	1958.6
217.21	2102.9
217.675	1906.92
218.14	2134.41
218.604	2351.27
219.069	2660.75
219.534	2780.19
219.998	3199.44
220.463	3829.56
220.927	4637.87
221.392	4310.59
221.856	4331.03
222.32	5417.7
222.785	6677.22
223.249	8358.4
223.713	9282.7
224.177	9233.01
224.642	11770.75
225.106	14427.5
225.57	15756.85
226.034	11718.09
226.497	17879.08
226.961	16146.67
227.425	18777.82
227.889	20756.07
228.353	20747.58
228.816	42721.2
229.28	40823.37
229.744	34402.98
230.207	20910.57
230.671	20528.23
231.134	33990.23
231.597	39072.09
232.061	39084.53
232.524	38130.19
232.987	26288.9
233.45	23663.32
233.914	21242.46
234.377	21783.02
234.84	19937.53
235.303	23459.27
235.766	26163.74
236.229	26936.23
236.691	16978.04
237.154	19020.89
237.617	14284.17
238.08	14610.13
238.542	17069.5
239.005	12198.83
239.468	12102.46
239.93	11413.61
240.393	10378.27
240.855	9112.01
241.317	9331.2
241.78	11324.81
242.242	11713.65
242.704	12673.87
243.166	11030.04
243.629	10037.84
244.091	11564.66
244.553	12672.92
245.015	13606.43
245.477	17603.38
245.939	25769.13
246.4	27363.86
246.862	26605.29
247.324	25079.1
247.786	28016.04
248.247	36701.79
248.709	37780.99
249.17	28252.2
249.632	26666.61
250.093	30930.57
250.555	26694.84
251.016	16314.24
251.477	15456.89
251.939	16689.52
252.4	17475.28
252.861	20741.17
253.322	19308.86
253.783	22979.07
254.244	29770.5
254.705	23432.19
255.166	20814.5
255.627	20510.85
256.088	28906.33
256.549	30752.04
257.009	26459.56
257.47	32123.46
257.931	26181.74
258.391	19599.71
258.852	20217.97
259.312	21199.18
259.773	26161.66
260.233	22111.97
260.694	18628.98
261.154	21077.96
261.614	16920.87
262.074	15131.99
262.534	15730.16
262.994	14829.87
263.455	19743.92
263.915	16621.34
264.374	15642.31
264.834	17064.56
265.294	18905.65
265.754	19572.55
266.214	18522.97
266.673	17309.39
267.133	21819.65
267.593	21651.52
268.052	26496.79
268.512	23030.94
268.971	27785.84
269.431	30449.53
269.89	27262.06
270.349	40856.4
270.809	45573.28
271.268	40962.3
271.727	91886.73
272.186	59482.52
272.645	44555.52
273.104	32057.63
273.563	46385.72
274.022	36419.54
274.481	30987.3
274.94	23885.43
275.399	17747.54
275.857	20638.98
276.316	27900.82
276.775	24827.56
277.233	24452.74
277.692	22902.36
278.15	25967.1
278.609	26749.9
279.067	24771.24
279.525	23040.3
279.984	29725.53
280.442	35733.89
280.9	35292.07
281.358	23257.25
281.816	21682.85
282.274	21244.65
282.732	21938.3
283.19	22027.26
283.648	19025.26
284.106	20253.55
284.564	20599.1
285.021	19112.95
285.479	14210.45
285.937	12900.49
286.394	11320.23
286.852	11654.98
287.309	12258.68
287.767	11865.08
288.224	11290.36
288.682	12367.85
289.139	13597.85
289.596	12439.35
290.053	12933.7
290.511	16341.04
290.968	19824.76
291.425	26858.33
291.882	22380.3
292.339	19457.19
292.796	19254.9
293.252	18133.2
293.709	14426.22
294.166	12923.73
294.623	14258.94
295.079	13650.17
295.536	13700.69
295.992	12440.66
296.449	12304.76
296.905	12748.99
297.362	12227.28
297.818	12840.16
298.274	13330.72
298.731	13560.3
299.187	13406.32
299.643	14380.05
300.099	17416.84
300.555	19086.22
301.011	15926.11
301.467	15389.02
301.923	18008.03
302.379	17583.23
302.835	17306.52
303.291	17298.79
303.746	19678.05
304.202	24844.08
304.658	24954.21
305.113	16744.45
305.569	16431.99
306.024	17505.56
306.479	16618.86
306.935	14027.92
307.39	15299.36
307.845	14134.83
308.301	14208.17
308.756	13832.62
309.211	13333.63
309.666	13652.71
310.121	17015.41
310.576	17266.29
311.031	17124.11
311.486	19611.94
311.94	19605.92
312.395	26229.85
312.85	49264.6
313.305	242287
313.759	1258430.44
314.214	91235.3
314.668	72506.04
315.123	61046.17
315.577	21926.16
316.032	19569.83
316.486	24508.88
316.94	19333.25
317.394	13471.79
317.849	10474.53
318.303	9908.46
318.757	9346.03
319.211	10320.1
319.665	9037.61
320.119	9132.05
320.572	13070.09
321.026	12195.78
321.48	10157.76
321.934	11057.39
322.387	11074.55
322.841	11943.54
323.295	10759.01
323.748	12373.53
324.202	12551.56
324.655	15067.02
325.108	21069.2
325.562	14896.61
326.015	17682
326.468	13371.98
326.921	14960.93
327.374	13967.18
327.827	14577.74
328.28	16497.24
328.733	11072.36
329.186	9752.15
329.639	9279.36
330.092	7818.2
330.545	7445.66
330.997	7524.96
331.45	8246.94
331.903	9695.15
332.355	16660.26
332.808	16177.23
333.26	13366.9
333.713	14511.62
334.165	14598.09
334.617	19513.81
335.069	15766.14
335.522	28481.89
335.974	31495.31
336.426	28676.56
336.878	19821.74
337.33	10072.08
337.782	9839.09
338.234	12303.76
338.686	14692.09
339.137	17431.19
339.589	16419.99
340.041	12862.39
340.493	11076.55
340.944	11353.23
341.396	12247.82
341.847	10315.11
342.299	12180.88
342.75	14892.74
343.201	13008.94
343.653	14976.98
344.104	18382.01
344.555	14457.61
345.006	22452.56
345.457	17196.94
345.908	13652.57
346.359	12847.99
346.81	10430.31
347.261	10951.36
347.712	10767.73
348.163	11528.09
348.613	11686.77
349.064	10903.11
349.515	9524.64
349.965	9767.58
350.416	11769.67
350.866	12919.49
351.317	14590.64
351.767	24218.71
352.217	30601.85
352.668	25357.52
353.118	23262.99
353.568	22394.05
354.018	17771.31
354.468	18807.63
354.918	13513.5
355.368	11813.22
355.818	16645.03
356.268	47760.05
356.718	199771.96
357.168	50019.87
357.617	25075.68
358.067	27907.84
358.517	26104.37
358.966	30586.75
359.416	34317.04
359.865	37095.19
360.315	44068.92
360.764	20668.08
361.213	11616.48
361.663	11017.6
362.112	13555.26
362.561	21920.19
363.01	16533.86
363.459	13928.71
363.908	15059.47
364.357	12792.47
364.806	21571.59
365.255	14826.68
365.703	13574.61
366.152	13576.42
366.601	11023.13
367.05	8955.41
367.498	8139.21
367.947	8493.77
368.395	8830.65
368.844	7817.42
369.292	9388.08
369.74	6500.84
370.189	9961.39
370.637	11657.56
371.085	10040.49
371.533	12207.37
371.981	11741.75
372.429	11204.04
372.877	11671.36
373.325	9750.95
373.773	9907.32
374.221	8817.43
374.669	10915.91
375.116	9438.54
375.564	9529.3
376.012	10677.85
376.459	8809.94
376.907	10538.06
377.354	12746.55
377.801	11899.74
378.249	13697.24
378.696	17530.9
379.143	21292.97
379.591	22685.23
380.038	38423.67
380.485	27754.18
380.932	29997.67
381.379	27458.16
381.826	20266.28
382.273	14447.33
382.72	12643.18
383.166	12342.64
383.613	8024.73
384.06	7232.82
384.506	8379.9
384.953	6149.09
385.4	6184.39
385.846	5403.68
386.292	5257.04
386.739	5126.71
387.185	5044.3
387.631	5045.41
388.078	4922.67
388.524	5269.33
388.97	4865.94
389.416	4066.59
389.862	4329.74
390.308	4101.09
390.754	4168.86
391.2	4531.25
391.645	4640.87
392.091	4475.93
392.537	4333.07
392.983	4319.68
393.428	4263.85
393.874	4570.79
394.319	4608.42
394.765	4384.81
395.21	4524.93
395.655	4249.39
396.101	3975.98
396.546	3601.61
396.991	3621.67
397.436	3371.24
397.881	3269.37
398.326	3089.64
398.771	2929.09
399.216	2557.74
399.661	2303.67
400.106	2303.3
400.551	2367.38
400.995	2128.84
401.44	2106.15
401.885	1979.37
402.329	1999.39
402.774	1918.41
403.218	1869.32
403.663	1802.68
404.107	1854.3
404.551	1873.55
404.995	1715.49
405.44	1652.17
405.884	1682.12
406.328	1623.6
406.772	1621.56
407.216	1476.87
407.66	1428.51
408.104	1349.18
408.547	1264.81
408.991	1223.36
409.435	1176.84
409.879	1162.03
410.322	1149.01
410.766	1109.84
411.209	1060.16
411.653	1017.84
412.096	1001.39
412.54	1000.81
412.983	998.19
413.426	1006.92
413.869	1007.57
414.312	992.11
414.756	957.17
415.199	913.45
415.642	890.45
416.085	894.02
416.527	888.91
416.97	901.77
417.413	859.54
417.856	850.33
418.298	837.75
418.741	832.25
419.184	828.94
419.626	860.64
420.069	859.76
420.511	865.33
420.953	847.93
421.396	841.14
421.838	820.16
422.28	839.51
422.722	845.8
423.164	856.56
423.606	845.78
424.048	843.02
424.49	805.47
424.932	804.42
425.374	791.84
425.816	803.43
426.258	819.88
426.699	829.32
427.141	813.73
427.582	822.05
428.024	817.37
428.465	809.47
428.907	792.51
429.348	786.71
429.789	790.01
430.231	776.37
430.672	791.78
431.113	774.76
431.554	765.73
431.995	750.84
432.436	730.87
432.877	720.37
433.318	712.93
433.759	710.86
434.2	708.93
434.64	700.15
435.081	702.78
435.522	666.02
435.962	643.83
436.403	633.44
436.843	642.33
437.284	629.04
437.724	612.18
438.164	612.21
438.604	600.79
439.045	581.15
439.485	560.87
439.925	550.76
440.365	535.97
440.805	529.54
441.245	522.86
441.685	505.17
442.125	499.94
442.564	503.7
443.004	493.64
443.444	490.99
443.883	493
444.323	486.76
444.762	485.24
445.202	493.68
445.641	504.68
446.081	502.51
446.52	507.44
446.959	505.19
447.398	495.1
447.837	491.21
448.276	485.26
448.716	489.09
449.154	493.75
449.593	484.18
450.032	482.03
450.471	470.92
450.91	468.45
451.349	467.27
451.787	464.37
452.226	469.09
452.664	468.02
453.103	467.16
453.541	464.82
453.98	465.48
454.418	467.1
454.856	461.24
455.295	460.04
455.733	465.19
456.171	466.59
456.609	466.36
457.047	466.11
457.485	473.75
457.923	475.35
458.361	468.68
458.798	469.05
459.236	468.39
459.674	470.08
460.111	472.51
460.549	467.47
460.987	465.93
461.424	465.19
461.862	463.46
462.299	454.88
462.736	454.99
463.173	457.33
463.611	456.12
464.048	456
464.485	460.5
464.922	457.33
465.359	454.48
465.796	454.41
466.233	452.66
466.67	450.19
467.106	451.3
467.543	446.91
467.98	441.32
468.416	428.52
468.853	425.65
469.29	413.74
469.726	410.35
470.162	401.14
470.599	392.37
471.035	388.2
471.471	379.18
471.907	376.49
472.344	373.1
472.78	374.97
473.216	378.3
473.652	374.18
474.088	373.15
474.523	371.7
474.959	374.65
475.395	371.65
475.831	370.27
476.266	372.17
476.702	370.95
477.138	367.77
477.573	366.65
478.008	366.58
478.444	367.96
478.879	371.81
479.314	373.41
479.75	372.85
480.185	374.06
480.62	375.58
481.055	376.44
481.49	378.72
481.925	383.02
482.36	388.75
482.795	396.59
483.229	403.49
483.664	408.73
484.099	406.95
484.534	412.16
484.968	414.39
485.403	414.02
485.837	411.32
486.271	409.48
486.706	409.85
487.14	404.85
487.574	399.26
488.009	396.38
488.443	393.07
488.877	398.1
489.311	398.8
489.745	403.09
490.179	407.23
490.613	415.68
491.046	418.18
491.48	420.49
491.914	420.6
492.348	422.87
492.781	425.89
493.215	427.73
493.648	428.96
494.082	432.88
494.515	433.67
494.948	438.86
495.382	441.56
495.815	444.86
496.248	448.58
496.681	455.84
497.114	463.58
497.547	470.45
497.98	478.61
498.413	482.68
498.846	488.48
499.279	494.52
499.711	497.38
500.144	499.85
500.577	507.79
501.009	515.46
501.442	523.49
501.874	525.48
502.306	527.58
502.739	535.85
503.171	547.48
503.603	551.94
504.036	559.67
504.468	565.99
504.9	576.14
505.332	582.83
505.764	588.38
506.196	595.57
506.627	607.96
507.059	619.18
507.491	625.37
507.923	625.84
508.354	638.9
508.786	648.6
509.217	663.32
509.649	675.33
510.08	690.62
510.512	705.56
510.943	718.5
511.374	729.78
511.805	747.41
512.237	763.9
512.668	789.93
513.099	810.71
513.53	832.56
513.961	850.77
514.391	876.32
514.822	903.46
515.253	930.3
515.684	951.88
516.114	975.79
516.545	994.95
516.975	1018.14
517.406	1034.78
517.836	1042.79
518.267	1052.96
518.697	1070.83
519.127	1079.22
519.558	1089.19
519.988	1098.04
520.418	1110.4
520.848	1128.42
521.278	1139.89
521.708	1170.88
522.138	1186.47
522.567	1214.27
522.997	1237.52
523.427	1253.16
523.857	1270.17
524.286	1281.58
524.716	1297.66
525.145	1316.76
525.575	1330.72
526.004	1345.42
526.433	1332.25
526.863	1334.7
527.292	1331.6
527.721	1340.59
528.15	1349.63
528.579	1353.45
529.008	1366.11
529.437	1386.38
529.866	1400.2
530.295	1414.09
530.724	1426.3
531.152	1450.39
531.581	1463.58
532.01	1478.29
532.438	1486.46
532.867	1499.27
533.295	1516.09
533.723	1522.52
534.152	1521.83
534.58	1523.56
535.008	1512.39
535.436	1517.05
535.865	1524.22
536.293	1537.51
536.721	1551.59
537.149	1572.42
537.576	1574.85
538.004	1585.43
538.432	1593.27
538.86	1592.72
539.287	1597.68
539.715	1610.82
540.143	1611.79
540.57	1609.47
540.998	1606.67
541.425	1588.59
541.852	1572.4
542.28	1572.43
542.707	1560.12
543.134	1548.68
543.561	1546.65
543.988	1541.83
544.415	1541.58
544.842	1537.65
545.269	1532.4
545.696	1535.12
546.123	1546.1
546.549	1538.96
546.976	1529.14
547.403	1529.27
547.829	1531.29
548.256	1533.96
548.682	1531.64
549.108	1525.8
549.535	1526.38
549.961	1528.71
550.387	1518.9
550.813	1515.29
551.24	1521.18
551.666	1522.49
552.092	1515.75
552.518	1509.85
552.943	1505.01
553.369	1510.97
553.795	1516.11
554.221	1517.01
554.646	1514.46
555.072	1522.59
555.498	1525.45
555.923	1531.14
556.349	1541.49
556.774	1547.57
557.199	1548.82
557.625	1552.31
558.05	1547.34
558.475	1554.01
558.9	1552.36
559.325	1544.27
559.75	1537.97
560.175	1531.57
560.6	1525.74
561.025	1521.77
561.449	1519.81
561.874	1521.22
562.299	1523.13
562.723	1525.14
563.148	1514.01
563.572	1513.25
563.997	1518.3
564.421	1519.08
564.846	1516.23
565.27	1515.99
565.694	1511.36
566.118	1517.23
566.542	1520.31
566.966	1511.43
567.39	1504.58
567.814	1492.92
568.238	1488.97
568.662	1488.87
569.086	1487.39
569.509	1489.13
569.933	1474.18
570.357	1465.26
570.78	1446.14
571.204	1433.34
571.627	1421.38
572.05	1416.97
572.474	1414.05
572.897	1402.47
573.32	1394.6
573.743	1384.53
574.166	1367.76
574.589	1363.69
575.012	1355.63
575.435	1351.57
575.858	1341.94
576.281	1331.4
576.704	1316.38
577.126	1304.43
577.549	1293.54
577.972	1282.64
578.394	1272.51
578.817	1265.89
579.239	1249.45
579.661	1238.07
580.084	1225.31
580.506	1213.69
580.928	1208.77
581.35	1199.51
581.772	1195.08
582.194	1183.35
582.616	1172.92
583.038	1159.95
583.46	1149.74
583.882	1146.07
584.303	1146.36
584.725	1140.21
585.147	1141.58
585.568	1147.31
585.99	1154.38
586.411	1155.69
586.833	1164.12
587.254	1162.08
587.675	1170.17
588.096	1177.97
588.518	1171.88
588.939	1157.83
589.36	1155.09
589.781	1142.12
590.202	1121.11
590.623	1113.6
591.043	1110.58
591.464	1100.67
591.885	1097.61
592.305	1092.24
592.726	1080.2
593.147	1080.57
593.567	1075.51
593.987	1069.15
594.408	1065.73
594.828	1061.9
595.248	1056.52
595.669	1044.01
596.089	1038.38
596.509	1033.55
596.929	1023.07
597.349	1023.45
597.769	1015.09
598.189	1009.97
598.608	1009.69
599.028	1009.53
599.448	1008.93
599.867	998.84
600.287	995.6
600.706	991.57
601.126	984.77
601.545	983.51
601.965	980.6
602.384	975.29
602.803	975.63
603.222	971.79
603.641	965.65
604.061	962.03
604.48	958.86
604.898	961.94
605.317	963.6
605.736	961.94
606.155	958.53
606.574	950.7
606.992	952.53
607.411	947.79
607.829	939.74
608.248	935.83
608.666	932.12
609.085	929.66
609.503	922.11
609.921	916.39
610.339	916.4
610.758	913.55
611.176	909.41
611.594	902.12
612.012	898.08
612.43	899.1
612.847	901.87
613.265	901.5
613.683	902.01
614.101	900.39
614.518	895.29
614.936	887.14
615.353	876.86
615.771	873
616.188	872.55
616.606	868.94
617.023	863.07
617.44	852.92
617.857	847.14
618.274	840.99
618.691	836.73
619.108	829.88
619.525	824.08
619.942	826.87
620.359	827.25
620.776	821.53
621.192	818.18
621.609	815.18
622.026	818.24
622.442	820.81
622.859	821.05
623.275	815.41
623.691	817.61
624.108	824.45
624.524	832.04
624.94	831.28
625.356	837.27
625.772	844.6
626.188	851.64
626.604	852.51
627.02	848.44
627.436	847.7
627.852	852.3
628.268	860.95
628.683	854.36
629.099	848.68
629.514	845.69
629.93	847.99
630.345	850.7
630.761	847.62
631.176	848.06
631.591	845.13
632.007	840.29
632.422	836.03
632.837	826.63
633.252	824.22
633.667	816.1
634.082	808.55
634.497	799.05
634.911	785.48
635.326	780.69
635.741	768.85
636.155	759.94
636.57	758.61
636.984	757.39
637.399	756.89
637.813	754.59
638.228	752.05
638.642	753.12
639.056	744.15
639.47	742.34
639.884	735.3
640.298	730.09
640.712	727.8
641.126	717.71
641.54	709.62
641.954	703.35
642.368	694.35
642.781	688.94
643.195	676.06
643.609	675.03
644.022	669.4
644.436	665.2
644.849	654.63
645.262	644.4
645.676	642.36
646.089	638.81
646.502	630.05
646.915	624.35
647.328	612.93
647.741	610.55
648.154	601.61
648.567	599.94
648.98	592.39
649.393	592.23
649.805	590.26
650.218	587.6
650.631	578.4
651.043	574.3
651.456	571.18
651.868	570.62
652.28	579.88
652.693	586.76
653.105	588.53
653.517	592.36
653.929	591.26
654.341	594.69
654.753	586.85
655.165	590.3
655.577	588.35
655.989	585.47
656.401	580.33
656.813	560.96
657.224	549.95
657.636	534.02
658.047	526.06
658.459	516.48
658.87	510.27
659.282	503.05
659.693	492.51
660.104	484.97
660.515	477.18
660.926	477.23
661.338	474.68
661.749	470.16
662.159	465.76
662.57	462
662.981	459.03
663.392	455.25
663.803	457.87
664.213	455.64
664.624	451.7
665.035	453.43
665.445	444.43
665.855	442.03
666.266	439.01
666.676	437.14
667.086	432.39
667.497	433.75
667.907	431.3
668.317	425.99
668.727	426.7
669.137	428.26
669.547	428.18
669.956	430.35
670.366	431.8
670.776	434.09
671.186	437.55
671.595	440.95
672.005	443.54
672.414	444.56
672.824	445.28
673.233	446.56
673.642	448.88
674.052	452.09
674.461	456.29
674.87	459.23
675.279	459.1
675.688	460.34
676.097	462.57
676.506	460.78
676.915	469.38
677.323	472.39
677.732	471.74
678.141	472.8
678.549	467.32
678.958	466.89
679.366	467.32
679.775	470.16
680.183	478.73
680.592	483.2
681	488.12
681.408	485.36
681.816	490.73
682.224	497.06
682.632	503.76
683.04	521.33
683.448	535.29
683.856	553.61
684.264	575.12
684.671	593.05
685.079	614.33
685.487	639.44
685.894	675.64
686.302	704.09
686.709	729.27
687.116	758.95
687.524	784.41
687.931	807.8
688.338	829.36
688.745	845.71
689.152	865.02
689.559	894.39
689.966	925.32
690.373	941.99
690.78	972.33
691.187	1015.67
691.593	1051.21
692	1083.11
692.407	1128.59
692.813	1186.55
693.22	1234.75
693.626	1287.03
694.032	1331.1
694.439	1391.7
694.845	1442.63
695.251	1504.05
695.657	1562.12
696.063	1644.61
696.469	1711.13
696.875	1774.33
697.281	1812.16
697.687	1860.97
698.093	1903.71
698.498	1972.86
698.904	2029.34
699.31	2108.65
699.715	2172.44
700.12	2258.07
700.526	2286.35
700.931	2353.72
701.337	2407.56
701.742	2450.51
702.147	2532.55
702.552	2570.32
