Data from C_3_DEC_OH_4N_Splice17_13-33-56-405.txt Node
Date: Sat Mar 14 13:33:56 EDT 2020
User: sa697716
Spectrometer: FLMS03696
Trigger mode: 0
Integration Time (sec): 3.180400E-1
Scans to average: 20
Electric dark correction enabled: true
Nonlinearity correction enabled: true
Boxcar width: 5
XAxis mode: Wavelengths
Number of Pixels in Spectrum: 2048
>>>>>Begin Spectral Data<<<<<
187.83	-373545.05
188.298	2798.99
188.766	1498.9
189.233	1351.94
189.701	1897.41
190.169	2596.41
190.636	981.2
191.104	908.57
191.571	164.16
192.039	-69.67
192.506	-37.81
192.974	624.97
193.441	-912.47
193.908	-230.93
194.375	-38.77
194.842	56.27
195.31	142.75
195.777	182.09
196.244	474.52
196.711	502.33
197.177	627.11
197.644	891.53
198.111	1542.58
198.578	2153.83
199.045	1722.63
199.511	2798.14
199.978	3234.13
200.445	2756.41
200.911	3051.1
201.378	3399.35
201.844	3076.64
202.31	5284.22
202.777	5496.25
203.243	3074.76
203.709	2926.63
204.176	3490.19
204.642	2891.95
205.108	2715.32
205.574	2212.79
206.04	2018.44
206.506	1914.36
206.972	1827.33
207.438	1777.29
207.903	2036.19
208.369	1797.14
208.835	1815.86
209.301	1933.64
209.766	2017.13
210.232	2033.64
210.697	2566.2
211.163	3257.85
211.628	5003.65
212.094	4277.04
212.559	5377.52
213.024	3417.54
213.49	4225.85
213.955	4202.28
214.42	4171.53
214.885	3921.42
215.35	3824.47
215.815	3727.18
216.28	4046.94
216.745	3420.3
217.21	3880.15
217.675	3775.63
218.14	4513.41
218.604	5408.62
219.069	6580.82
219.534	7275.89
219.998	8936.01
220.463	11342.5
220.927	14641.7
221.392	14201.23
221.856	14718.08
222.32	19015.55
222.785	23829.57
223.249	30476.35
223.713	34395.46
224.177	34689.76
224.642	44967.69
225.106	55738.26
225.57	61269.38
226.034	45647.34
226.497	69818.58
226.961	63208.02
227.425	73784.92
227.889	82244.66
228.353	82486.32
228.816	170865.51
229.28	163664.1
229.744	138315.43
230.207	84017.3
230.671	82748.14
231.134	137447.54
231.597	158382.18
232.061	158691.58
232.524	155016.03
232.987	106734.43
233.45	96087.23
233.914	86224.17
234.377	88570.8
234.84	81126.33
235.303	95760.22
235.766	106875.81
236.229	110435.73
236.691	69676.08
237.154	78296.6
237.617	58829.11
238.08	60304.65
238.542	70596.2
239.005	50417.4
239.468	49964.48
239.93	46996.16
240.393	42654.46
240.855	37405.23
241.317	38295.04
241.78	46597.44
242.242	48168
242.704	51942.44
243.166	45192.9
243.629	40937.69
244.091	47162.48
244.553	51683.07
245.015	55590.45
245.477	71957
245.939	105534.47
246.4	111983.82
246.862	108834.47
247.324	102521.85
247.786	114876.2
248.247	150714.43
248.709	155993.08
249.17	116630.08
249.632	109831.04
250.093	127197.73
250.555	109885.75
251.016	66971.26
251.477	63494.32
251.939	68511.54
252.4	71910.24
252.861	85523.85
253.322	79435.5
253.783	94566.87
254.244	122765.02
254.705	96851.36
255.166	86188.45
255.627	84865.48
256.088	119684.6
256.549	127189.88
257.009	109604.19
257.47	133046.06
257.931	108445.27
258.391	81358.32
258.852	83924.32
259.312	88137.64
259.773	109044.85
260.233	92158.33
260.694	77770.6
261.154	88360.85
261.614	70937.48
262.074	63532.23
262.534	66035.46
262.994	62280.74
263.455	83152.28
263.915	70118.95
264.374	66112.51
264.834	72265.56
265.294	80280.46
265.754	83318.15
266.214	79068.18
266.673	74254.49
267.133	93904.57
267.593	93442.86
268.052	114579.52
268.512	99843.42
268.971	120447.5
269.431	132247.68
269.89	118538.79
270.349	177897.94
270.809	198479.07
271.268	178494.63
271.727	400773.81
272.186	259650.92
272.645	194810.74
273.104	140696.36
273.563	203744.08
274.022	160461.59
274.481	136423.69
274.94	105130.39
275.399	78232.71
275.857	91175.47
276.316	123371.25
276.775	109775.97
277.233	108082.97
277.692	101061.26
278.15	114214.73
278.609	117341.01
279.067	108592.85
279.525	100831.36
279.984	130228.66
280.442	156264.28
280.9	153837.22
281.358	101177.4
281.816	94284.92
282.274	92338.57
282.732	95527.26
283.19	96028.13
283.648	82943.2
284.106	88340.87
284.564	89868.4
285.021	83299.61
285.479	62091.92
285.937	56520.91
286.394	49515.15
286.852	50967.22
287.309	53595.48
287.767	51716.88
288.224	49198.18
288.682	54065.49
289.139	59331.98
289.596	54359.69
290.053	56617.35
290.511	71589.99
290.968	86931.45
291.425	118381.1
291.882	98533.31
292.339	85800.16
292.796	85323.49
293.252	80528.42
293.709	63923.45
294.166	57377.21
294.623	63464.4
295.079	60933.11
295.536	61212.54
295.992	55588.83
296.449	54946.84
296.905	57143.14
297.362	54769.92
297.818	57635.1
298.274	59762.1
298.731	60994.31
299.187	60420.16
299.643	64909.93
300.099	78518.15
300.555	86163.38
301.011	72016.28
301.467	69301.36
301.923	81259.42
302.379	79391.93
302.835	77992.49
303.291	78091.78
303.746	88936.44
304.202	112312.29
304.658	112834.38
305.113	75906.57
305.569	74362.63
306.024	79355.9
306.479	75720.53
306.935	63761.55
307.39	69689.29
307.845	64370.81
308.301	64703.24
308.756	63044.09
309.211	60716.65
309.666	62167.75
310.121	77047.89
310.576	78316.21
311.031	77723.66
311.486	89139.35
311.94	89160.59
312.395	119284.37
312.85	224263.32
313.305	1104640.03
313.759	5701877.81
314.214	412961.78
314.668	326929.16
315.123	274856.99
315.577	98351.84
316.032	87394.69
316.486	109433.77
316.94	86212.56
317.394	59981.54
317.849	46620.16
318.303	44162.27
318.757	41708.87
319.211	46174.29
319.665	40494.37
320.119	41038.5
320.572	59005.02
321.026	55131.99
321.48	45899.74
321.934	50164.47
322.387	50307.23
322.841	54294.2
323.295	48670.44
323.748	56211
324.202	56953.08
324.655	68353.52
325.108	95312.8
325.562	67291.8
326.015	80074.21
326.468	60562.92
326.921	67676.56
327.374	63068.38
327.827	65674.78
328.28	74430.05
328.733	49791.78
329.186	43836.13
329.639	41766.7
330.092	35253.36
330.545	33524.71
330.997	33784.43
331.45	36813.66
331.903	43091.66
332.355	74240.66
332.808	72157.08
333.26	59552.86
333.713	64589.77
334.165	65026.36
334.617	86823.29
335.069	70276.13
335.522	127171.9
335.974	140673.67
336.426	128696.07
336.878	89311.45
337.33	45212.83
337.782	44126.12
338.234	55202.26
338.686	66109.41
339.137	78394.51
339.589	73849.26
340.041	57813.38
340.493	49729.49
340.944	50973.82
341.396	54919.75
341.847	46126.29
342.299	54420.49
342.75	66405.65
343.201	58190.01
343.653	67007.11
344.104	82547.75
344.555	65093.9
345.006	101658.66
345.457	77736.06
345.908	61907.58
346.359	58284.97
346.81	47535.63
347.261	50225.83
347.712	49583.74
348.163	53226.72
348.613	53827.18
349.064	50264.21
349.515	44009.36
349.965	45120.21
350.416	54487.24
350.866	59828.63
351.317	67754.11
351.767	112238.94
352.217	141816
352.668	117711.27
353.118	107716.55
353.568	104105.43
354.018	82142.72
354.468	86625.95
354.918	62103.66
355.368	54308.56
355.818	76720.67
356.268	220883.16
356.718	923971.07
357.168	229844.54
357.617	115409.95
358.067	128685.18
358.517	120578.17
358.966	141524.7
359.416	158589.16
359.865	171723.68
360.315	204806.63
360.764	95610.13
361.213	53545.88
361.663	50835.12
362.112	62837.72
362.561	101543.7
363.01	76508.09
363.459	64453.26
363.908	69844.11
364.357	59272.68
364.806	100064.29
365.255	68756.85
365.703	62924.25
366.152	63009.14
366.601	51076.31
367.05	41392.02
367.498	37553.93
367.947	39240.2
368.395	40801.88
368.844	36081.03
369.292	43637.82
369.74	30119.05
370.189	46199.94
370.637	54182.65
371.085	46729.17
371.533	56920.61
371.981	54934.76
372.429	52327.51
372.877	54515.09
373.325	45594.05
373.773	46548.19
374.221	41441.11
374.669	51425.78
375.116	44427.64
375.564	44756.77
376.012	50077.75
376.459	41243.18
376.907	49263.41
377.354	59664.67
377.801	55570.18
378.249	63734.88
378.696	81327.86
379.143	98353.88
379.591	104878.71
380.038	176946.62
380.485	127732.88
380.932	137672.6
381.379	125480.63
381.826	92112.39
382.273	65326.69
382.72	57070.73
383.166	55573.88
383.613	35985.22
384.06	32368.52
384.506	37371.06
384.953	27440.27
385.4	27611.25
385.846	24153.41
386.292	23570.65
386.739	23043.3
387.185	22771.88
387.631	22724.03
388.078	21949.41
388.524	23429.09
388.97	21580.15
389.416	17931.41
389.862	19010.92
390.308	17947.05
390.754	18158.89
391.2	19647.88
391.645	20076.5
392.091	19066.48
392.537	18367.39
392.983	18390.29
393.428	17966.3
393.874	19203.6
394.319	19159.05
394.765	18068.13
395.21	18524.65
395.655	17338.98
396.101	16184.23
396.546	14552.26
396.991	14680.35
397.436	13600.15
397.881	13106.66
398.326	12418.35
398.771	11702.88
399.216	10233.87
399.661	9196.53
400.106	9133.39
400.551	9318
400.995	8338.38
401.44	8230.27
401.885	7722.34
402.329	7793.91
402.774	7458.1
403.218	7187.77
403.663	6917.69
404.107	7094.67
404.551	7134.69
404.995	6536.72
405.44	6293.67
405.884	6383.58
406.328	6175.06
406.772	6147.18
407.216	5584.32
407.66	5393.29
408.104	5130.8
408.547	4802.67
408.991	4643.52
409.435	4469.14
409.879	4400.95
410.322	4338.83
410.766	4180.82
411.209	3964.21
411.653	3801.43
412.096	3716.64
412.54	3717.08
412.983	3683.52
413.426	3681.42
413.869	3674.2
414.312	3592.85
414.756	3455.68
415.199	3290.26
415.642	3188.28
416.085	3192.66
416.527	3169.43
416.97	3220.46
417.413	3052.64
417.856	3025.41
418.298	3001.43
418.741	2988.1
419.184	2987.8
419.626	3119.96
420.069	3123.15
420.511	3138.11
420.953	3065.55
421.396	3033.3
421.838	2957.05
422.28	3021.72
422.722	3027.31
423.164	3065.92
423.606	3005.83
424.048	3001.67
424.49	2848.67
424.932	2834.69
425.374	2800.71
425.816	2857.37
426.258	2913.93
426.699	2950
427.141	2903.06
427.582	2955.08
428.024	2940.96
428.465	2926.03
428.907	2847.38
429.348	2811.48
429.789	2803.6
430.231	2738.54
430.672	2767.77
431.113	2698.97
431.554	2650.26
431.995	2580.61
432.436	2477.65
432.877	2415.77
433.318	2363.98
433.759	2350.92
434.2	2346.21
434.64	2318.9
435.081	2318.96
435.522	2191.24
435.962	2106.29
436.403	2052.54
436.843	2079.73
437.284	2033.89
437.724	1980.26
438.164	1989.39
438.604	1943.43
439.045	1865.35
439.485	1782.93
439.925	1743.88
440.365	1699.51
440.805	1675.83
441.245	1652.61
441.685	1587.64
442.125	1574.31
442.564	1581
443.004	1542.17
443.444	1535.49
443.883	1534.76
444.323	1522.81
444.762	1528.37
445.202	1545.66
445.641	1568.87
446.081	1561.42
446.52	1571.89
446.959	1553.23
447.398	1509.56
447.837	1488.37
448.276	1461.48
448.716	1470.99
449.154	1483.22
449.593	1444.04
450.032	1440.09
450.471	1412.48
450.91	1409.83
451.349	1403.54
451.787	1397.87
452.226	1419.62
452.664	1419.47
453.103	1419.71
453.541	1418.53
453.98	1413.83
454.418	1422.98
454.856	1395.97
455.295	1394.17
455.733	1404.57
456.171	1414.37
456.609	1412.77
457.047	1411.69
457.485	1427.33
457.923	1428.15
458.361	1410.13
458.798	1414.59
459.236	1408.92
459.674	1419
460.111	1423.86
460.549	1408.55
460.987	1402.35
461.424	1399.29
461.862	1391.32
462.299	1370.98
462.736	1367.26
463.173	1369.78
463.611	1349.05
464.048	1342.85
464.485	1351.76
464.922	1338.17
465.359	1329.99
465.796	1302.51
466.233	1288.71
466.67	1272.5
467.106	1266.83
467.543	1254.74
467.98	1238.03
468.416	1208.2
468.853	1199.47
469.29	1163.01
469.726	1150.09
470.162	1121.09
470.599	1113.44
471.035	1105.62
471.471	1080.4
471.907	1076.22
472.344	1071.2
472.78	1073.46
473.216	1089.55
473.652	1078.83
474.088	1078.61
474.523	1076.35
474.959	1087.79
475.395	1080.13
475.831	1074.84
476.266	1084.05
476.702	1082.55
477.138	1072.42
477.573	1071.06
478.008	1067.76
478.444	1072.47
478.879	1081.5
479.314	1086.32
479.75	1086.14
480.185	1091.34
480.62	1103.3
481.055	1109.5
481.49	1118.14
481.925	1133.92
482.36	1152.12
482.795	1185.8
483.229	1219.13
483.664	1245.84
484.099	1251.91
484.534	1270.35
484.968	1283.07
485.403	1285.02
485.837	1283.72
486.271	1281.15
486.706	1281.1
487.14	1266.17
487.574	1244.23
488.009	1230.88
488.443	1218.62
488.877	1227.33
489.311	1228.58
489.745	1239.27
490.179	1247.07
490.613	1264.37
491.046	1269.67
491.48	1274.98
491.914	1272.88
492.348	1277.34
492.781	1279.78
493.215	1277.97
493.648	1275.97
494.082	1280.51
494.515	1274.91
494.948	1282.51
495.382	1286.12
495.815	1288.84
496.248	1292.97
496.681	1309.3
497.114	1321.06
497.547	1331.53
497.98	1346.93
498.413	1349.08
498.846	1358.4
499.279	1366.36
499.711	1366.47
500.144	1362.34
500.577	1370.49
501.009	1379.53
501.442	1385.49
501.874	1377.18
502.306	1369.94
502.739	1369.53
503.171	1383.92
503.603	1378.46
504.036	1381.97
504.468	1380.4
504.9	1386.83
505.332	1385.8
505.764	1380.74
506.196	1380.3
506.627	1391.29
507.059	1399.94
507.491	1401.89
507.923	1386.65
508.354	1396.54
508.786	1399.83
509.217	1413.1
509.649	1421.34
510.08	1435.2
510.512	1445.33
510.943	1452.41
511.374	1455.07
511.805	1469.18
512.237	1482.09
512.668	1510.85
513.099	1531.23
513.53	1552.58
513.961	1564.2
514.391	1590.95
514.822	1618.09
515.253	1649.69
515.684	1668.31
516.114	1691.43
516.545	1703.37
516.975	1722.47
517.406	1731.12
517.836	1722.66
518.267	1717.06
518.697	1726.67
519.127	1719.93
519.558	1717.47
519.988	1709.86
520.418	1710.53
520.848	1720.19
521.278	1719.89
521.708	1737.17
522.138	1741.96
522.567	1767.04
522.997	1786.73
523.427	1793.68
523.857	1803.02
524.286	1806.29
524.716	1814.45
525.145	1827.08
525.575	1830.47
526.004	1838.73
526.433	1813.75
526.863	1806.83
527.292	1790.47
527.721	1791.2
528.15	1793.08
528.579	1788.44
529.008	1794.82
529.437	1814.34
529.866	1823.96
530.295	1837.15
530.724	1846.47
531.152	1870.76
531.581	1881.87
532.01	1895.5
532.438	1899.46
532.867	1910.16
533.295	1925.96
533.723	1928.96
534.152	1923.06
534.58	1920.01
535.008	1900.47
535.436	1899.78
535.865	1904.81
536.293	1917.46
536.721	1930.92
537.149	1955.03
537.576	1955.23
538.004	1966.25
538.432	1971.58
538.86	1967.83
539.287	1973.07
539.715	1987
540.143	1988.2
540.57	1981.72
540.998	1976.68
541.425	1952.55
541.852	1930.03
542.28	1926.88
542.707	1908.18
543.134	1892.74
543.561	1888.26
543.988	1878.61
544.415	1876.11
544.842	1869.71
545.269	1862.64
545.696	1862.89
546.123	1875.68
546.549	1863.75
546.976	1851.17
547.403	1850.94
547.829	1853.17
548.256	1854.73
548.682	1851.88
549.108	1844.63
549.535	1843.13
549.961	1845.59
550.387	1832.9
550.813	1827.14
551.24	1834.9
551.666	1835.96
552.092	1827.79
552.518	1821.75
552.943	1816.81
553.369	1826.01
553.795	1832.8
554.221	1836.65
554.646	1835.54
555.072	1848.71
555.498	1856.02
555.923	1866.72
556.349	1884.37
556.774	1894.49
557.199	1898.45
557.625	1906.53
558.05	1902.48
558.475	1916.28
558.9	1917.3
559.325	1911.73
559.75	1908.54
560.175	1904.5
560.6	1901.28
561.025	1902.56
561.449	1906.73
561.874	1915.7
562.299	1924
562.723	1934.01
563.148	1926.54
563.572	1934.56
563.997	1948.52
564.421	1957.77
564.846	1961.98
565.27	1969.6
565.694	1970.61
566.118	1987.96
566.542	1999.41
566.966	1998.03
567.39	1999.18
567.814	1992.22
568.238	1996.44
568.662	2006.35
569.086	2013.39
569.509	2026.58
569.933	2014.96
570.357	2010.69
570.78	1992.25
571.204	1984.18
571.627	1976.27
572.05	1979.98
572.474	1984.69
572.897	1974.94
573.32	1972.63
573.743	1967.49
574.166	1952.69
574.589	1957.89
575.012	1956.87
575.435	1961.11
575.858	1956.55
576.281	1949.93
576.704	1935.46
577.126	1927.24
577.549	1919.99
577.972	1912.44
578.394	1905.18
578.817	1901.32
579.239	1884.69
579.661	1873.54
580.084	1859.9
580.506	1848.59
580.928	1848.04
581.35	1840.37
581.772	1839.92
582.194	1829.53
582.616	1819.05
583.038	1804.52
583.46	1796.22
583.882	1796.37
584.303	1804.19
584.725	1801.96
585.147	1807.52
585.568	1823.52
585.99	1841.43
586.411	1851.72
586.833	1873.04
587.254	1878.97
587.675	1900.94
588.096	1917.93
588.518	1914.35
588.939	1897.29
589.36	1898.14
589.781	1888.45
590.202	1855.39
590.623	1846.69
591.043	1846.29
591.464	1831.43
591.885	1828.7
592.305	1823.45
592.726	1808.85
593.147	1813.37
593.567	1808.3
593.987	1800.04
594.408	1795.47
594.828	1795.81
595.248	1790.16
595.669	1768.76
596.089	1763.7
596.509	1757.24
596.929	1742.23
597.349	1745.8
597.769	1734.53
598.189	1729.46
598.608	1732.15
599.028	1735.8
599.448	1737.1
599.867	1723.08
600.287	1720.28
600.706	1716.41
601.126	1705.86
601.545	1706.62
601.965	1707.69
602.384	1703.49
602.803	1709.08
603.222	1707.71
603.641	1702.11
604.061	1700.19
604.48	1698.4
604.898	1710.84
605.317	1719
605.736	1724.74
606.155	1724.12
606.574	1715.22
606.992	1724.98
607.411	1722.41
607.829	1713.92
608.248	1712.91
608.666	1713.83
609.085	1716.78
609.503	1710.25
609.921	1706.87
610.339	1713.91
610.758	1717.78
611.176	1716.19
611.594	1709.47
612.012	1709.27
612.43	1719.26
612.847	1733.6
613.265	1739.84
613.683	1750.41
614.101	1756.75
614.518	1756.2
614.936	1747.01
615.353	1731.8
615.771	1730.83
616.188	1734.37
616.606	1734.15
617.023	1729.56
617.44	1713.38
617.857	1708.94
618.274	1700.69
618.691	1695.79
619.108	1686.83
619.525	1681.82
619.942	1694.1
620.359	1701.33
620.776	1698.1
621.192	1695.02
621.609	1693.72
622.026	1704.84
622.442	1713.44
622.859	1721.5
623.275	1714.3
623.691	1723.64
624.108	1741.06
624.524	1761.32
624.94	1762.56
625.356	1776.23
625.772	1795.44
626.188	1811.67
626.604	1815.02
627.02	1808.65
627.436	1804.92
627.852	1813.97
628.268	1830.77
628.683	1818.5
629.099	1807.37
629.514	1801.23
629.93	1807.49
630.345	1813.04
630.761	1807.41
631.176	1813.01
631.591	1806.97
632.007	1798.7
632.422	1797.31
632.837	1783.14
633.252	1781.19
633.667	1769.49
634.082	1760.46
634.497	1746.03
634.911	1722.63
635.326	1721.17
635.741	1701.32
636.155	1692.14
636.57	1700.79
636.984	1706.59
637.399	1714.49
637.813	1719.8
638.228	1724.85
638.642	1737.78
639.056	1729.17
639.47	1737.81
639.884	1734.44
640.298	1732.83
640.712	1739.36
641.126	1728.31
641.54	1722.55
641.954	1722.96
642.368	1714.16
642.781	1711.39
643.195	1692.28
643.609	1702.05
644.022	1702.14
644.436	1704.72
644.849	1695.47
645.262	1686.61
645.676	1698.66
646.089	1699.72
646.502	1685.71
646.915	1687.01
647.328	1667.75
647.741	1673.26
648.154	1660.68
648.567	1660.81
648.98	1645.59
649.393	1652
649.805	1651.94
650.218	1645.29
650.631	1624.48
651.043	1618.59
651.456	1611.14
651.868	1617.04
652.28	1648.51
652.693	1675
653.105	1691.45
653.517	1712.96
653.929	1717.89
654.341	1730.8
654.753	1714.66
655.165	1731.18
655.577	1733.04
655.989	1732.8
656.401	1725.92
656.813	1672.77
657.224	1645.55
657.636	1604.28
658.047	1580.83
658.459	1556.69
658.87	1550.54
659.282	1538.33
659.693	1510.62
660.104	1492.35
660.515	1477.44
660.926	1482.12
661.338	1484.68
661.749	1481.8
662.159	1473.11
662.57	1473.52
662.981	1473.04
663.392	1466.17
663.803	1480.72
664.213	1484.05
664.624	1484.74
665.035	1497.68
665.445	1479.66
665.855	1473.82
666.266	1463.79
666.676	1466.09
667.086	1454.95
667.497	1458.11
667.907	1452.37
668.317	1439.54
668.727	1435.1
669.137	1440.88
669.547	1438.61
669.956	1447.42
670.366	1451.3
670.776	1456.71
671.186	1464.93
671.595	1471.12
672.005	1478.2
672.414	1475.85
672.824	1471.02
673.233	1481.25
673.642	1483.16
674.052	1487.25
674.461	1486.2
674.87	1492.93
675.279	1484.49
675.688	1485.9
676.097	1484.49
676.506	1476.04
676.915	1499.86
677.323	1502.88
677.732	1494.51
678.141	1489.39
678.549	1465.7
678.958	1462.23
679.366	1456.58
679.775	1463.08
680.183	1474.41
680.592	1480.95
681	1484.68
681.408	1466.64
681.816	1474.45
682.224	1485.04
682.632	1494.55
683.04	1539.42
683.448	1572.39
683.856	1614.92
684.264	1663.13
684.671	1707.38
685.079	1759.76
685.487	1817.34
685.894	1901.81
686.302	1963.33
686.709	2004.55
687.116	2056.89
687.524	2089.2
687.931	2110.33
