Data from C_3_DIV_IL_4N_Splice17_13-19-19-541.txt Node
Date: Sat Mar 14 13:19:19 EDT 2020
User: sa697716
Spectrometer: FLMS03696
Trigger mode: 0
Integration Time (sec): 3.180400E-1
Scans to average: 20
Electric dark correction enabled: true
Nonlinearity correction enabled: true
Boxcar width: 5
XAxis mode: Wavelengths
Number of Pixels in Spectrum: 2048
>>>>>Begin Spectral Data<<<<<
187.83	-355304.58
188.298	2530.14
188.766	1287.33
189.233	1226
189.701	1759.39
190.169	2453.23
190.636	913.52
191.104	700.6
191.571	117.22
192.039	-90.51
192.506	-67.77
192.974	549.13
193.441	-788.88
193.908	-447.16
194.375	-92.31
194.842	22.45
195.31	72.06
195.777	131.56
196.244	328.64
196.711	391.23
197.177	473.43
197.644	680.83
198.111	1175.51
198.578	1618.23
199.045	1327.84
199.511	2175.43
199.978	2497.25
200.445	2159.26
200.911	2410.06
201.378	2673.34
201.844	2432.7
202.31	4134.69
202.777	4289.49
203.243	2408.15
203.709	2302.7
204.176	2760.08
204.642	2288.6
205.108	2152.86
205.574	1750.02
206.04	1591.83
206.506	1470.79
206.972	1389
207.438	1356.66
207.903	1542.61
208.369	1356.2
208.835	1363.92
209.301	1423.81
209.766	1433.05
210.232	1418.15
210.697	1743.18
211.163	2143.24
211.628	3259.33
212.094	2733.2
212.559	3383.15
213.024	2101.09
213.49	2559.4
213.955	2454.27
214.42	2368.89
214.885	2232.14
215.35	2153.86
215.815	2097.73
216.28	2221.28
216.745	1797.21
217.21	1941.34
217.675	1756.81
218.14	1978.73
218.604	2166.45
219.069	2481.29
219.534	2609.86
219.998	2998.36
220.463	3595.27
220.927	4367.12
221.392	4092.98
221.856	4146.54
222.32	5182.87
222.785	6383.44
223.249	8000.75
223.713	8951.28
224.177	8903.59
224.642	11359.4
225.106	13964.89
225.57	15253.49
226.034	11397.02
226.497	17318.58
226.961	15661.11
227.425	18263.47
227.889	20233.58
228.353	20232.55
228.816	41736.96
229.28	39939.25
229.744	33635.03
230.207	20435.3
230.671	20086.97
231.134	33013.18
231.597	38048.65
232.061	37890.2
232.524	36827.07
232.987	25325.79
233.45	22777.65
233.914	20420.02
234.377	20872.74
234.84	19083.9
235.303	22473.6
235.766	25027.02
236.229	25886.13
236.691	16282.61
237.154	18262.25
237.617	13769.99
238.08	14075.56
238.542	16453.16
239.005	11735.38
239.468	11654.5
239.93	10973.83
240.393	9964.93
240.855	8744.59
241.317	8945.05
241.78	10858.3
242.242	11224.3
242.704	12106.7
243.166	10543.69
243.629	9574.74
244.091	11034.53
244.553	12080.02
245.015	13001.61
245.477	16818.09
245.939	24627.88
246.4	26094.2
246.862	25343.22
247.324	23902.34
247.786	26739.6
248.247	35028.52
248.709	36101.87
249.17	26987.91
249.632	25449.31
250.093	29490.5
250.555	25418.9
251.016	15514.92
251.477	14713.53
251.939	15907.84
252.4	16690.32
252.861	19797.92
253.322	18412.57
253.783	21883.2
254.244	28389.47
254.705	22341.08
255.166	19841.33
255.627	19565.78
256.088	27603.36
256.549	29358.14
257.009	25230.55
257.47	30565.85
257.931	24903.83
258.391	18677.65
258.852	19263.68
259.312	20188.34
259.773	24919.3
260.233	21080
260.694	17785.82
261.154	20145.7
261.614	16183.34
262.074	14465.43
262.534	15052.29
262.994	14179.95
263.455	18869.87
263.915	15905.79
264.374	14964.75
264.834	16338.41
265.294	18054.69
265.754	18679.26
266.214	17669.99
266.673	16513.66
267.133	20823.6
267.593	20601.96
268.052	25189.3
268.512	21877.75
268.971	26371.96
269.431	28900.13
269.89	25850.93
270.349	38801.57
270.809	43198.31
271.268	38845.64
271.727	87043.59
272.186	56388.66
272.645	42339.93
273.104	30523.6
273.563	44200.87
274.022	34714.14
274.481	29567.74
274.94	22786.46
275.399	16908.48
275.857	19691.51
276.316	26602.7
276.775	23694.23
277.233	23326.79
277.692	21838.18
278.15	24738.01
278.609	25480.51
279.067	23573.51
279.525	21904.83
279.984	28290.28
280.442	33989.61
280.9	33522.05
281.358	22051.9
281.816	20562.34
282.274	20133.99
282.732	20767.15
283.19	20841.22
283.648	17970.32
284.106	19130.38
284.564	19394.62
285.021	17984.81
285.479	13398.88
285.937	12166.2
286.394	10692.27
286.852	10994.48
287.309	11544.16
287.767	11177.8
288.224	10642.95
288.682	11664.25
289.139	12798.89
289.596	11718.85
290.053	12163.46
290.511	15345.17
290.968	18602.16
291.425	25198.43
291.882	20949.59
292.339	18235.32
292.796	18043.71
293.252	16938.9
293.709	13464.63
294.166	12064.4
294.623	13323.99
295.079	12777.27
295.536	12852.35
295.992	11677.31
296.449	11519.71
296.905	11962.28
297.362	11480.59
297.818	12069.98
298.274	12552.01
298.731	12766.88
299.187	12632.16
299.643	13559.38
300.099	16399.81
300.555	17960.12
301.011	14994.05
301.467	14498.83
301.923	16957.43
302.379	16542.95
302.835	16225.53
303.291	16245.16
303.746	18478.01
304.202	23338.11
304.658	23454.88
305.113	15780.94
305.569	15469.58
306.024	16485.59
306.479	15645.83
306.935	13203.57
307.39	14405.01
307.845	13325.39
308.301	13402.66
308.756	13062.9
309.211	12581.72
309.666	12862.1
310.121	15952.55
310.576	16165.32
311.031	16028.05
311.486	18358.49
311.94	18326.61
312.395	24490.08
312.85	45935.4
313.305	224794.68
313.759	1165997.3
314.214	84452.91
314.668	67092.03
315.123	56466.11
315.577	20297.13
316.032	18050.76
316.486	22630.88
316.94	17903.62
317.394	12468.62
317.849	9703.37
318.303	9206.55
318.757	8685.36
319.211	9601.85
319.665	8395.49
320.119	8501.63
320.572	12162.22
321.026	11377.56
321.48	9444.51
321.934	10249.66
322.387	10252.04
322.841	11074.9
323.295	9968.6
323.748	11449.95
324.202	11614.31
324.655	13934.98
325.108	19551.32
325.562	13816.23
326.015	16381.29
326.468	12422.91
326.921	13934.83
327.374	13034.35
327.827	13585.39
328.28	15378.07
328.733	10330.11
329.186	9095.7
329.639	8664.42
330.092	7279.96
330.545	6947.82
330.997	7021.8
331.45	7688.35
331.903	9018.26
332.355	15490.05
332.808	15071.74
333.26	12415.87
333.713	13472.77
334.165	13579.87
334.617	18176.83
335.069	14676.68
335.522	26500.47
335.974	29378.17
336.426	26772.79
336.878	18546.38
337.33	9435.44
337.782	9211.15
338.234	11570.28
338.686	13850.68
339.137	16395.69
339.589	15413.57
340.041	12078.89
340.493	10376.15
340.944	10609.05
341.396	11461.22
341.847	9647.26
342.299	11404.65
342.75	13930.14
343.201	12148.72
343.653	13923.6
344.104	17139.61
344.555	13483.13
345.006	20936.3
345.457	16112.91
345.908	12791.11
346.359	12024.19
346.81	9790.47
347.261	10288.5
347.712	10121.5
348.163	10851.38
348.613	11060.03
349.064	10323.94
349.515	9037.36
349.965	9290.66
350.416	11162.78
350.866	12275.62
351.317	13829.11
351.767	22843.08
352.217	28911.18
352.668	23976.9
353.118	21995.43
353.568	21103.78
354.018	16660.97
354.468	17616.96
354.918	12642.68
355.368	11052.2
355.818	15607.86
356.268	44974.85
356.718	189049.65
357.168	47018.78
357.617	23590.13
358.067	26198.04
358.517	24603.78
358.966	28952.6
359.416	32477.47
359.865	35113.06
360.315	41846.54
360.764	19545.17
361.213	10952.77
361.663	10344.06
362.112	12766.29
362.561	20670.23
363.01	15613.12
363.459	13147.7
363.908	14217.02
364.357	12098.18
364.806	20449.88
365.255	14047.41
365.703	12873.61
366.152	12924.16
366.601	10498.04
367.05	8540.35
367.498	7775.43
367.947	8112.99
368.395	8444.28
368.844	7503.64
369.292	9021.14
369.74	6227.19
370.189	9531.07
370.637	11215.49
371.085	9668.42
371.533	11772.08
371.981	11323.73
372.429	10789.56
372.877	11221.66
373.325	9348.22
373.773	9490.08
374.221	8426.35
374.669	10444.76
375.116	9005.49
375.564	9068.61
376.012	10125.89
376.459	8353.1
376.907	9981.41
377.354	12047.98
377.801	11284.58
378.249	13003.08
378.696	16586.55
379.143	20117.22
379.591	21374.94
380.038	36301.8
380.485	26184.22
380.932	28237.67
381.379	25936.04
381.826	19107.01
382.273	13592.42
382.72	11840.36
383.166	11555.34
383.613	7493.29
384.06	6753.71
384.506	7827.03
384.953	5731.37
385.4	5764.44
385.846	5061.75
386.292	4896.57
386.739	4771.5
387.185	4693.8
387.631	4690.06
388.078	4568.49
388.524	4895.45
388.97	4519.88
389.416	3786.1
389.862	4036.29
390.308	3823.34
390.754	3880.12
391.2	4204.72
391.645	4310.19
392.091	4154.12
392.537	4024.45
392.983	4004.59
393.428	3956.9
393.874	4249.02
394.319	4270.47
394.765	4056.86
395.21	4157.14
395.655	3894
396.101	3655.56
396.546	3303.45
396.991	3307.81
397.436	3073.46
397.881	2975.51
398.326	2806.39
398.771	2660.68
399.216	2321.38
399.661	2090.12
400.106	2098.22
400.551	2158.64
400.995	1938.9
401.44	1922.52
401.885	1813.87
402.329	1834.08
402.774	1766.23
403.218	1722.26
403.663	1659.82
404.107	1709.21
404.551	1725.42
404.995	1580.45
405.44	1520.4
405.884	1544.45
406.328	1494.81
406.772	1492.85
407.216	1361.93
407.66	1311.76
408.104	1238.42
408.547	1158.99
408.991	1124.47
409.435	1078.55
409.879	1068.27
410.322	1052.66
410.766	1017.83
411.209	971.8
411.653	935.04
412.096	918.29
412.54	921.56
412.983	918.54
413.426	926.12
413.869	924.76
414.312	913.25
414.756	878.61
415.199	843.68
415.642	823.87
416.085	826.55
416.527	820.23
416.97	834.45
417.413	793.23
417.856	784.69
418.298	773.26
418.741	765.94
419.184	761.84
419.626	793.4
420.069	793.49
420.511	799.24
420.953	783.21
421.396	778.57
421.838	758.07
422.28	777.37
422.722	784
423.164	795.29
423.606	786.02
424.048	785.74
424.49	748.76
424.932	744.56
425.374	732.03
425.816	741.61
426.258	755.74
426.699	763.76
427.141	751.83
427.582	762.33
428.024	757.6
428.465	751.66
428.907	732.74
429.348	723.13
429.789	726.33
430.231	715.8
430.672	727.5
431.113	709.24
431.554	699.97
431.995	682.75
432.436	662.83
432.877	652.77
433.318	644.93
433.759	644.5
434.2	644.97
434.64	637.28
435.081	637.82
435.522	604.89
435.962	586.58
436.403	576.76
436.843	583.34
437.284	568.52
437.724	551.71
438.164	550.02
438.604	537.62
439.045	518.27
439.485	499.58
439.925	488.09
440.365	476.8
440.805	468.67
441.245	465.29
441.685	451.73
442.125	449.68
442.564	452.88
443.004	444.1
443.444	445.09
443.883	448.21
444.323	443.68
444.762	443.62
445.202	451.45
445.641	462.79
446.081	458.14
446.52	462.81
446.959	461.27
447.398	452.38
447.837	450.35
448.276	443.57
448.716	448.5
449.154	451.7
449.593	444.53
450.032	443.16
450.471	435.41
450.91	436.91
451.349	436.7
451.787	433.27
452.226	441.15
452.664	439.81
453.103	441.15
453.541	439.65
453.98	442.52
454.418	444.78
454.856	440.09
455.295	439.07
455.733	443.9
456.171	447.03
456.609	446.89
457.047	447.52
457.485	456.09
457.923	457.66
458.361	451.15
458.798	451.88
459.236	452.39
459.674	454.03
460.111	456.46
460.549	450.51
460.987	448.75
461.424	447.81
461.862	444.59
462.299	436.79
462.736	435.97
463.173	438.81
463.611	435.94
464.048	435.33
464.485	438.85
464.922	434.42
465.359	432.79
465.796	432.02
466.233	429.58
466.67	427.49
467.106	428.69
467.543	422.35
467.98	415.95
468.416	403.32
468.853	397.81
469.29	385.72
469.726	381.62
470.162	370.27
470.599	360.77
471.035	357.68
471.471	348.86
471.907	343.92
472.344	342.87
472.78	345.12
473.216	349.23
473.652	346.53
474.088	345.09
474.523	344.7
474.959	349.18
475.395	346.64
475.831	344.99
476.266	346.43
476.702	346.87
477.138	343.91
477.573	342.45
478.008	341.45
478.444	343.41
478.879	348.26
479.314	350.86
479.75	351.13
480.185	353.12
480.62	355.56
481.055	357.93
481.49	361.33
481.925	367.45
482.36	376.35
482.795	386.39
483.229	396.39
483.664	405.35
484.099	406.14
484.534	412.59
484.968	416.81
485.403	418.3
485.837	417.86
486.271	416.9
486.706	416.71
487.14	410.84
487.574	405.89
488.009	402.81
488.443	398.58
488.877	403.85
489.311	405.36
489.745	410.28
490.179	415.14
490.613	424.12
491.046	427.63
491.48	431.65
491.914	432.74
492.348	436.16
492.781	439.19
493.215	441.4
493.648	442.08
494.082	446.11
494.515	448.29
494.948	455.55
495.382	458.71
495.815	463.18
496.248	468.36
496.681	478.01
497.114	487.42
497.547	496.87
497.98	508.12
498.413	515.47
498.846	524.65
499.279	531.32
499.711	534.69
500.144	539.16
500.577	549.54
501.009	558.8
501.442	569.39
501.874	572.71
502.306	576.55
502.739	585.7
503.171	599.07
503.603	604.63
504.036	614.91
504.468	623.37
504.9	635.11
505.332	642.39
505.764	649.47
506.196	657.1
506.627	670.85
507.059	683.96
507.491	692.06
507.923	694.43
508.354	709.83
508.786	721.91
509.217	738.3
509.649	752.26
510.08	770.19
510.512	787
510.943	802.02
511.374	814.89
511.805	833.7
512.237	852.37
512.668	880.03
513.099	903.39
513.53	927.5
513.961	946.68
514.391	974.55
514.822	1004.02
515.253	1034.79
515.684	1058.11
516.114	1084.8
516.545	1104.21
516.975	1128.39
517.406	1145.58
517.836	1150.19
518.267	1158.1
518.697	1175.9
519.127	1182.45
519.558	1190.6
519.988	1195.73
520.418	1206.51
520.848	1223.35
521.278	1233.7
521.708	1265.23
522.138	1278.18
522.567	1306.04
522.997	1328.74
523.427	1343.22
523.857	1358.79
524.286	1369.38
524.716	1384.24
525.145	1401.97
525.575	1412.5
526.004	1426.43
526.433	1408.46
526.863	1409.44
527.292	1402.51
527.721	1408.66
528.15	1415.15
528.579	1416.88
529.008	1427.46
529.437	1447.09
529.866	1459.08
530.295	1474.34
530.724	1485.27
531.152	1509.44
531.581	1523.25
532.01	1539.78
532.438	1548.58
532.867	1561.18
533.295	1578.4
533.723	1584.14
534.152	1583.32
534.58	1583.39
535.008	1569.91
535.436	1573.24
535.865	1578.16
536.293	1589.76
536.721	1603.19
537.149	1623.73
537.576	1626.81
538.004	1636.88
538.432	1643.05
538.86	1641.74
539.287	1647.94
539.715	1659.35
540.143	1660.11
540.57	1656.83
540.998	1653.06
541.425	1632.67
541.852	1615.57
542.28	1613.02
542.707	1600.01
543.134	1588.57
543.561	1585.48
543.988	1580.03
544.415	1579.54
544.842	1575.6
545.269	1570.64
545.696	1572.83
546.123	1585.23
546.549	1575.98
546.976	1566.66
547.403	1566.49
547.829	1569.42
548.256	1572.36
548.682	1569.5
549.108	1564.6
549.535	1564.68
549.961	1566.81
550.387	1556.67
550.813	1552.57
551.24	1559.25
551.666	1559.98
552.092	1552.39
552.518	1546.74
552.943	1541.91
553.369	1549.49
553.795	1554.88
554.221	1555.35
554.646	1553.08
555.072	1563.6
555.498	1567.8
555.923	1575.98
556.349	1589.25
556.774	1596.55
557.199	1597.7
557.625	1602.15
558.05	1597
558.475	1606.91
558.9	1607.73
559.325	1602.3
559.75	1595.98
560.175	1591.06
560.6	1585.52
561.025	1584.46
561.449	1586.72
561.874	1591.74
562.299	1596.08
562.723	1602.54
563.148	1593.49
563.572	1596.89
563.997	1604.72
564.421	1608.76
564.846	1609.8
565.27	1613.96
565.694	1611.96
566.118	1621.71
566.542	1629.13
566.966	1622.74
567.39	1618.15
567.814	1608.31
568.238	1606.9
568.662	1610.94
569.086	1613.56
569.509	1617.5
569.933	1602.96
570.357	1595.21
570.78	1574.94
571.204	1562.8
571.627	1553.72
572.05	1551.02
572.474	1549.96
572.897	1538.14
573.32	1531.29
573.743	1521.47
574.166	1505.35
574.589	1505.43
575.012	1498.73
575.435	1497.75
575.858	1488.39
576.281	1477.47
576.704	1463.53
577.126	1453.1
577.549	1443.88
577.972	1434.94
578.394	1427.27
578.817	1422.84
579.239	1405.62
579.661	1393.66
580.084	1381.84
580.506	1370.9
580.928	1367.14
581.35	1357.75
581.772	1353.41
582.194	1341.18
582.616	1329.77
583.038	1316.03
583.46	1305.56
583.882	1302.04
584.303	1305.46
584.725	1299.85
585.147	1301.89
585.568	1311.27
585.99	1321.7
586.411	1328.27
586.833	1341.88
587.254	1342.5
587.675	1354.19
588.096	1364.8
588.518	1360.7
588.939	1346.14
589.36	1344.35
589.781	1334.52
590.202	1311.22
590.623	1304.04
591.043	1301.01
591.464	1289.92
591.885	1287.76
592.305	1283.66
592.726	1271.34
593.147	1272.64
593.567	1269.07
593.987	1262.47
594.408	1258.26
594.828	1255.49
595.248	1249.62
595.669	1234.64
596.089	1228.98
596.509	1222.29
596.929	1209.97
597.349	1211.8
597.769	1202.19
598.189	1196.53
598.608	1198.33
599.028	1199.17
599.448	1199.23
599.867	1188.63
600.287	1183.9
600.706	1179.66
601.126	1172.14
601.545	1171.57
601.965	1169.57
602.384	1165.67
602.803	1167.81
603.222	1163.49
603.641	1157.86
604.061	1154.58
604.48	1150.29
604.898	1156.8
605.317	1160.25
605.736	1160.86
606.155	1158.21
606.574	1149.03
606.992	1152.97
607.411	1148.27
607.829	1139.34
608.248	1136.02
608.666	1132.76
609.085	1131.59
609.503	1123.74
609.921	1117.99
610.339	1119.71
610.758	1117.39
611.176	1112.98
611.594	1104.34
612.012	1100.01
612.43	1102.47
612.847	1106.74
613.265	1106.5
613.683	1109.25
614.101	1109.59
614.518	1105.63
614.936	1095.63
615.353	1083.7
615.771	1080.48
616.188	1080.25
616.606	1077.02
617.023	1070.92
617.44	1058.18
617.857	1051.74
618.274	1044.03
618.691	1038.18
619.108	1029.06
619.525	1024.06
619.942	1028.23
620.359	1029.88
620.776	1024.51
621.192	1019.81
621.609	1017.04
622.026	1022.3
622.442	1027.14
622.859	1029.15
623.275	1022.83
623.691	1027.74
624.108	1035.78
624.524	1046.86
624.94	1046.83
625.356	1055.13
625.772	1065.36
626.188	1073.91
626.604	1074.87
627.02	1070.9
627.436	1069.13
627.852	1074.86
628.268	1083.98
628.683	1076.87
629.099	1069.72
629.514	1065.06
629.93	1066.83
630.345	1070.93
630.761	1067.78
631.176	1070.15
631.591	1065.73
632.007	1060.72
632.422	1057.17
632.837	1047.41
633.252	1044.49
633.667	1035.23
634.082	1026.96
634.497	1016.04
634.911	998.16
635.326	994.29
635.741	979.98
636.155	969.93
636.57	969.54
636.984	968.38
637.399	969.12
637.813	966.82
638.228	964.8
638.642	966.54
639.056	956.64
639.47	957.23
639.884	948.65
640.298	942.04
640.712	939.31
641.126	927.27
641.54	918.74
641.954	911.54
642.368	899.97
642.781	892.75
643.195	877.6
643.609	876.4
644.022	869.51
644.436	865.22
644.849	852.7
645.262	842.05
645.676	841.57
646.089	835.25
646.502	822.65
646.915	817.27
647.328	801.87
647.741	799.21
648.154	788.47
648.567	784.74
648.98	772.49
649.393	772.07
649.805	768.93
650.218	761.7
650.631	750.48
651.043	744.61
651.456	739.76
651.868	738.96
652.28	749.4
652.693	757.38
653.105	761.07
653.517	766.47
653.929	765.14
654.341	766.37
654.753	756.93
655.165	759.46
655.577	756.21
655.989	750.47
656.401	742.7
656.813	714.78
657.224	698.01
657.636	673.74
658.047	659.28
658.459	642.41
658.87	633.43
659.282	621.77
659.693	604.57
660.104	591.31
660.515	578.06
660.926	573.71
661.338	569.26
661.749	562.34
662.159	555.03
662.57	549.14
662.981	543.92
663.392	536.45
663.803	537.07
664.213	532.51
664.624	526.97
665.035	526.95
665.445	516.01
665.855	510.62
666.266	503.97
666.676	499.78
667.086	492
667.497	490.96
667.907	485.35
668.317	477.38
668.727	475.71
669.137	474.67
669.547	473.1
669.956	472.7
670.366	471.49
670.776	471.25
671.186	473.15
671.595	475.23
672.005	475.23
672.414	475.72
672.824	475.56
673.233	475.32
673.642	476.87
674.052	479.57
674.461	482.67
674.87	484.96
675.279	484.19
675.688	484.03
676.097	486.01
676.506	485.07
676.915	492.75
677.323	494.02
677.732	494.94
678.141	494.79
678.549	487.96
678.958	487.31
679.366	488.12
679.775	492.68
680.183	502.54
680.592	507.51
681	513.33
681.408	511.87
681.816	520.21
682.224	528.13
682.632	539.71
683.04	562.79
683.448	582.41
683.856	607.09
684.264	634.77
684.671	660.56
685.079	691.16
685.487	726.37
685.894	774.14
686.302	814.97
686.709	852.58
687.116	893.05
687.524	930.19
687.931	963.66
688.338	993.78
688.745	1019.7
689.152	1049.12
689.559	1087.69
689.966	1125.85
690.373	1148.62
690.78	1184.28
691.187	1235
691.593	1275.46
692	1310.95
692.407	1362.5
692.813	1424.99
693.22	1475.03
693.626	1526.5
694.032	1570.07
694.439	1632.56
694.845	1682.2
695.251	1742.57
695.657	1799.68
696.063	1882.86
696.469	1944.61
696.875	2002.36
697.281	2035.23
697.687	2076.53
698.093	2109.64
698.498	2172.7
698.904	2221.57
699.31	2294.23
699.715	2350.59
700.12	2425.1
700.526	2440.07
700.931	2497.14
701.337	2539.88
