Data from C_3_DIV_IL_4N_Splice17_13-19-40-316.txt Node
Date: Sat Mar 14 13:19:40 EDT 2020
User: sa697716
Spectrometer: FLMS03696
Trigger mode: 0
Integration Time (sec): 3.180400E-1
Scans to average: 20
Electric dark correction enabled: true
Nonlinearity correction enabled: true
Boxcar width: 5
XAxis mode: Wavelengths
Number of Pixels in Spectrum: 2048
>>>>>Begin Spectral Data<<<<<
187.83	-376597.66
188.298	2771.21
188.766	1527.1
189.233	1341.43
189.701	1918.92
190.169	2638.29
190.636	1033.79
191.104	875.13
191.571	176.76
192.039	-52.4
192.506	-64.34
192.974	431.75
193.441	-739.83
193.908	11.94
194.375	-23.72
194.842	68.1
195.31	98.51
195.777	154.37
196.244	378.66
196.711	427.77
197.177	505.17
197.644	712.15
198.111	1244.87
198.578	1773.1
199.045	1420.92
199.511	2338.73
199.978	2737.06
200.445	2362.77
200.911	2630.53
201.378	2920.2
201.844	2668.07
202.31	4620.62
202.777	4809.41
203.243	2669.5
203.709	2546.23
204.176	3025.39
204.642	2503.36
205.108	2330.14
205.574	1887.38
206.04	1725.07
206.506	1621.74
206.972	1510.63
207.438	1451.55
207.903	1660.72
208.369	1449.94
208.835	1452.55
209.301	1516.2
209.766	1527.19
210.232	1499.75
210.697	1822.51
211.163	2195.04
211.628	3288.99
212.094	2768.3
212.559	3419.18
213.024	2102.14
213.49	2559.64
213.955	2464.26
214.42	2377
214.885	2218.96
215.35	2146.7
215.815	2106.39
216.28	2229.97
216.745	1791.74
217.21	1908.26
217.675	1688.57
218.14	1864.67
218.604	2009.43
219.069	2211.44
219.534	2269.79
219.998	2539.46
220.463	2959.95
220.927	3468.59
221.392	3161.01
221.856	3134.81
222.32	3841.72
222.785	4672.14
223.249	5761.82
223.713	6331.43
224.177	6257.36
224.642	7842.41
225.106	9502.1
225.57	10268.91
226.034	7678.9
226.497	11635.3
226.961	10439.4
227.425	12119.11
227.889	13283.69
228.353	13152.08
228.816	26990.5
229.28	25754.22
229.744	21656.78
230.207	13169.9
230.671	12880.44
231.134	20994.73
231.597	24175.29
232.061	24041.78
232.524	23251.49
232.987	16034.09
233.45	14442.85
233.914	12886.78
234.377	13094.51
234.84	11964.54
235.303	14047.62
235.766	15631.53
236.229	16114.61
236.691	10086.38
237.154	11272.57
237.617	8474.35
238.08	8639.21
238.542	10061.78
239.005	7208.29
239.468	7157.5
239.93	6750.06
240.393	6141.41
240.855	5397.04
241.317	5510.54
241.78	6690.07
242.242	6932.68
242.704	7514.77
243.166	6544.14
243.629	5973.09
244.091	6858.28
244.553	7509.79
245.015	8030.58
245.477	10331.78
245.939	15081.38
246.4	16008.17
246.862	15542.62
247.324	14627.07
247.786	16270.26
248.247	21228.37
248.709	21690.93
249.17	16211
249.632	15315.6
250.093	17792.01
250.555	15346.09
251.016	9376.25
251.477	8868.2
251.939	9554.96
252.4	9969.85
252.861	11783.29
253.322	10980.02
253.783	13027.8
254.244	16819.83
254.705	13179.43
255.166	11680.62
255.627	11492.35
256.088	16200.86
256.549	17184.64
257.009	14755.55
257.47	17873.09
257.931	14569.53
258.391	10884.82
258.852	11234.25
259.312	11764.09
259.773	14461.28
260.233	12248.86
260.694	10336.21
261.154	11660.87
261.614	9397
262.074	8373.2
262.534	8713.93
262.994	8199.79
263.455	10878.44
263.915	9140.76
264.374	8585.34
264.834	9365.72
265.294	10314.71
265.754	10663.53
266.214	10059.28
266.673	9381.03
267.133	11816.82
267.593	11667.41
268.052	14258.44
268.512	12349.17
268.971	14900.28
269.431	16309.74
269.89	14580.66
270.349	21861.04
270.809	24335.03
271.268	21882.09
271.727	48921.95
272.186	31649.84
272.645	23667.64
273.104	17013.54
273.563	24608.2
274.022	19267.76
274.481	16426.38
274.94	12659.4
275.399	9371.28
275.857	10868.38
276.316	14659.07
276.775	13028.15
277.233	12838.44
277.692	12063.31
278.15	13670.27
278.609	14167.02
279.067	13120.46
279.525	12190.48
279.984	15711.69
280.442	18937.25
280.9	18800.41
281.358	12392.56
281.816	11571.03
282.274	11325.12
282.732	11675.95
283.19	11705.13
283.648	10079.87
284.106	10749.5
284.564	10902.64
285.021	10160.03
285.479	7549.29
285.937	6815.53
286.394	6022.1
286.852	6194.6
287.309	6520.71
287.767	6332.61
288.224	6056.69
288.682	6630.56
289.139	7280.71
289.596	6691.97
290.053	6935.3
290.511	8719.06
290.968	10591.29
291.425	14259.75
291.882	11921.09
292.339	10389.77
292.796	10238.36
293.252	9579.84
293.709	7640.89
294.166	6851.08
294.623	7563.01
295.079	7235.24
295.536	7287.94
295.992	6617.07
296.449	6539.01
296.905	6782.44
297.362	6516.11
297.818	6846.43
298.274	7117.77
298.731	7211.28
299.187	7121.77
299.643	7619.83
300.099	9236.06
300.555	10159.45
301.011	8494.44
301.467	8249.93
301.923	9609.72
302.379	9359.25
302.835	9218.36
303.291	9250.59
303.746	10542.62
304.202	13331.49
304.658	13417.11
305.113	9015.82
305.569	8831.23
306.024	9400.55
306.479	8882.35
306.935	7526.9
307.39	8225.41
307.845	7614.58
308.301	7667.17
308.756	7465.67
309.211	7191.81
309.666	7358.82
310.121	9192.15
310.576	9313.74
311.031	9228.68
311.486	10562.9
311.94	10509.19
312.395	14036.98
312.85	26290.82
313.305	129132.94
313.759	676903.96
314.214	49147.56
314.668	39076.98
315.123	32965.07
315.577	11889.62
316.032	10621.48
316.486	13361.22
316.94	10611.98
317.394	7433.14
317.849	5788.04
318.303	5458.71
318.757	5127.56
319.211	5648.41
319.665	4936.94
320.119	4965.32
320.572	7074.09
321.026	6605.45
321.48	5483.07
321.934	5948.24
322.387	5918.94
322.841	6417.81
323.295	5825.53
323.748	6667.43
324.202	6775.28
324.655	8164.7
325.108	11499.26
325.562	8174.87
326.015	9703.62
326.468	7331.97
326.921	8216.41
327.374	7698.68
327.827	8013.78
328.28	9072.24
328.733	6113.45
329.186	5407.74
329.639	5137.95
330.092	4322.67
330.545	4113.67
330.997	4168.13
331.45	4595.28
331.903	5413.44
332.355	9293.9
332.808	9034.49
333.26	7427.3
333.713	8072.69
334.165	8112.77
334.617	10847.07
335.069	8708.31
335.522	15716.32
335.974	17431.92
336.426	15854.14
336.878	10950.87
337.33	5585.48
337.782	5458.02
338.234	6924.7
338.686	8288.86
339.137	9846.16
339.589	9277.9
340.041	7316.19
340.493	6282.48
340.944	6425.75
341.396	6961.27
341.847	5860.77
342.299	6951.41
342.75	8521
343.201	7333.82
343.653	8389.66
344.104	10246.76
344.555	8037.49
345.006	12407.97
345.457	9603.03
345.908	7593.55
346.359	7154.64
346.81	5813.26
347.261	6063.04
347.712	5941.14
348.163	6384.2
348.613	6529.06
349.064	6098.5
349.515	5338.13
349.965	5505.24
350.416	6579.73
350.866	7220.08
351.317	8083.01
351.767	13346.69
352.217	16900.06
352.668	14063.27
353.118	12866.01
353.568	12274.91
354.018	9765.32
354.468	10411.88
354.918	7475.2
355.368	6557.62
355.818	9257.35
356.268	26746.54
356.718	113011.22
357.168	28187.26
357.617	14099.11
358.067	15661.89
358.517	14715.72
358.966	17366.81
359.416	19470.92
359.865	21007.3
360.315	24964.96
360.764	11709.83
361.213	6567.92
361.663	6185.17
362.112	7617.22
362.561	12382.76
363.01	9378.27
363.459	7859.98
363.908	8427.44
364.357	7182.75
364.806	12078.34
365.255	8297.9
365.703	7652.19
366.152	7668.75
366.601	6250.02
367.05	5099.5
367.498	4655.22
367.947	4850.82
368.395	5070.17
368.844	4511.78
369.292	5381.38
369.74	3749.36
370.189	5723.36
370.637	6700.5
371.085	5758.07
371.533	6988.19
371.981	6680.95
372.429	6357.28
372.877	6626.28
373.325	5527.7
373.773	5616.03
374.221	5005.69
374.669	6191.4
375.116	5374.05
375.564	5383.52
376.012	6027.81
376.459	4966.4
376.907	5934.9
377.354	7122.59
377.801	6661.35
378.249	7706.72
378.696	9827.73
379.143	11873.19
379.591	12624.53
380.038	21465.79
380.485	15583.93
380.932	16888.6
381.379	15552.38
381.826	11557.35
382.273	8193.06
382.72	7143.21
383.166	6928.91
383.613	4498.52
384.06	4066.82
384.506	4715.31
384.953	3415.12
385.4	3420.49
385.846	2991.94
386.292	2892.49
386.739	2809.73
387.185	2769.86
387.631	2776.4
388.078	2726.57
388.524	2914.42
388.97	2689.05
389.416	2247.63
389.862	2408.8
390.308	2285.18
390.754	2319.98
391.2	2518.83
391.645	2576.52
392.091	2515.16
392.537	2441.26
392.983	2428.14
393.428	2429.61
393.874	2605.48
394.319	2638.57
394.765	2526.37
395.21	2604.8
395.655	2445.48
396.101	2301.64
396.546	2094.01
396.991	2093.92
397.436	1951.29
397.881	1884.43
398.326	1766.39
398.771	1688.97
399.216	1471.87
399.661	1324.75
400.106	1332.55
400.551	1383.56
400.995	1249.88
401.44	1239.36
401.885	1168.26
402.329	1184.56
402.774	1148.38
403.218	1131.67
403.663	1091.3
404.107	1132.16
404.551	1151.72
404.995	1055.19
405.44	1015.08
405.884	1031.65
406.328	995.22
406.772	996.12
407.216	911.38
407.66	879.95
408.104	826.9
408.547	774.91
408.991	751.28
409.435	720.03
409.879	716.03
410.322	710.69
410.766	692.27
411.209	666.14
411.653	641.49
412.096	635.1
412.54	639.08
412.983	641.63
413.426	650.14
413.869	650.77
414.312	645.24
414.756	623.83
415.199	596.58
415.642	583.52
416.085	589.9
416.527	591.25
416.97	599.38
417.413	570.26
417.856	563.25
418.298	557.91
418.741	553.81
419.184	550.21
419.626	568.76
420.069	570.41
420.511	572.87
420.953	561.31
421.396	556.84
421.838	543.7
422.28	557.66
422.722	565.56
423.164	576.27
423.606	568.78
424.048	567.72
424.49	543.63
424.932	542.33
425.374	534.81
425.816	541
426.258	550.41
426.699	555.84
427.141	550.94
427.582	554.96
428.024	547.05
428.465	541.05
428.907	530.72
429.348	525.19
429.789	525.08
430.231	517.61
430.672	527.64
431.113	516.6
431.554	510.98
431.995	498.66
432.436	486.93
432.877	480.81
433.318	478.37
433.759	477.02
434.2	478.6
434.64	473.19
435.081	475.41
435.522	451.5
435.962	436.34
436.403	428.61
436.843	433.77
437.284	423.8
437.724	412.45
438.164	410.55
438.604	401.92
439.045	389.96
439.485	378.55
439.925	368.89
440.365	359.93
440.805	355.89
441.245	352.92
441.685	341.72
442.125	339.48
442.564	342.58
443.004	337.53
443.444	337.72
443.883	340.25
444.323	335.28
444.762	336.2
445.202	342.38
445.641	349.51
446.081	346.6
446.52	351.11
446.959	351.82
447.398	346.61
447.837	344.67
448.276	341.36
448.716	345.96
449.154	351.13
449.593	346.43
450.032	348.01
450.471	343.43
450.91	346.73
451.349	348.91
451.787	347.9
452.226	353.14
452.664	355.29
453.103	357.69
453.541	357.02
453.98	360.75
454.418	362.99
454.856	359.51
455.295	360.15
455.733	363.95
456.171	365.89
456.609	365.71
457.047	367.1
457.485	373.28
457.923	375.43
458.361	370.34
458.798	371.29
459.236	371.76
459.674	372.06
460.111	374.17
460.549	370.79
460.987	369.22
461.424	368.73
461.862	365.83
462.299	359.54
462.736	359.24
463.173	360.86
463.611	359.46
464.048	359.01
464.485	363.96
464.922	359.39
465.359	356.52
465.796	359.5
466.233	358.59
466.67	357.73
467.106	358.72
467.543	354.86
467.98	350.12
468.416	337.33
468.853	333.9
469.29	322.78
469.726	321.05
470.162	314.07
470.599	304.45
471.035	300.63
471.471	293.63
471.907	290.8
472.344	288.53
472.78	290.59
473.216	296.22
473.652	293.4
474.088	292.84
474.523	292.4
474.959	295.29
475.395	292.61
475.831	291.63
476.266	292.92
476.702	292.55
477.138	290.73
477.573	289.14
478.008	288.18
478.444	290.8
478.879	295.48
479.314	297.02
479.75	297.12
480.185	298.69
480.62	301.16
481.055	302.99
481.49	306.3
481.925	310.71
482.36	319.27
482.795	328.39
483.229	336.53
483.664	343.38
484.099	345.06
484.534	351.07
484.968	355.94
485.403	358.41
485.837	358
486.271	357.37
486.706	358.76
487.14	353.47
487.574	348.64
488.009	346.62
488.443	344.25
488.877	349.89
489.311	352.02
489.745	357.16
490.179	362
490.613	372.6
491.046	377.19
491.48	382.1
491.914	385.22
492.348	390.41
492.781	395.77
493.215	399.24
493.648	402.6
494.082	409.25
494.515	413.4
494.948	422.12
495.382	427.26
495.815	433.69
496.248	441.23
496.681	453.35
497.114	464.81
497.547	475.2
497.98	489.55
498.413	498.11
498.846	509.42
499.279	518.91
499.711	525.74
500.144	532.47
500.577	546.89
501.009	559.57
501.442	572.54
501.874	579.93
502.306	587.8
502.739	600.19
503.171	617.53
503.603	626.14
504.036	640.74
504.468	652.08
504.9	667.11
505.332	678.22
505.764	688.97
506.196	700.36
506.627	717.97
507.059	735.4
507.491	747.97
507.923	752.63
508.354	771.19
508.786	786.08
509.217	807.49
509.649	826.8
510.08	848.67
510.512	869.48
510.943	889.02
511.374	905.27
511.805	929.13
512.237	951.8
512.668	986.26
513.099	1016.87
513.53	1047.03
513.961	1071.09
514.391	1105.75
514.822	1141.86
515.253	1178.65
515.684	1207.6
516.114	1240.1
516.545	1265.67
516.975	1295.68
517.406	1317.64
517.836	1325.07
518.267	1336.56
518.697	1358.75
519.127	1366.57
519.558	1377.02
519.988	1385.27
520.418	1399.82
520.848	1420.7
521.278	1432.53
521.708	1462.17
522.138	1478.3
522.567	1512.3
522.997	1539.23
523.427	1556.62
523.857	1577.11
524.286	1591.02
524.716	1609.42
525.145	1630.5
525.575	1642.96
526.004	1659.03
526.433	1646.49
526.863	1648.03
527.292	1638.9
527.721	1646.59
528.15	1653.33
528.579	1656.1
529.008	1668.2
529.437	1690.95
529.866	1705.24
530.295	1723.94
530.724	1737.22
531.152	1764.22
531.581	1779.7
532.01	1798.82
532.438	1808.16
532.867	1824.8
533.295	1843.54
533.723	1849.89
534.152	1848.2
534.58	1849
535.008	1834.03
535.436	1836.92
535.865	1846.06
536.293	1860.13
536.721	1875.35
537.149	1900.94
537.576	1903.48
538.004	1914.44
538.432	1923.39
538.86	1923.14
539.287	1929.22
539.715	1942.9
540.143	1945.6
540.57	1940.87
540.998	1936.83
541.425	1915.29
541.852	1893.78
542.28	1892.48
542.707	1877.07
543.134	1862.29
543.561	1856.61
543.988	1849.78
544.415	1849.89
544.842	1845.5
545.269	1839.26
545.696	1843.43
546.123	1855.25
546.549	1845.81
546.976	1833.46
547.403	1834.21
547.829	1836.9
548.256	1840.99
548.682	1838.14
549.108	1831.15
549.535	1829.74
549.961	1832.27
550.387	1818.8
550.813	1815.28
551.24	1823.31
551.666	1825.44
552.092	1816.76
552.518	1810.69
552.943	1805.39
553.369	1814.19
553.795	1819.98
554.221	1822.37
554.646	1820.1
555.072	1832.46
555.498	1837.21
555.923	1846.27
556.349	1861.06
556.774	1869.52
557.199	1870.4
557.625	1875.65
558.05	1868.79
558.475	1880.77
558.9	1879.06
559.325	1871.53
559.75	1863.83
560.175	1858
560.6	1851.8
561.025	1850.9
561.449	1852.87
561.874	1859.5
562.299	1865.22
562.723	1873.7
563.148	1862.82
563.572	1868.88
563.997	1878.7
564.421	1884.92
564.846	1885.43
565.27	1889.25
565.694	1885.26
566.118	1896.13
566.542	1903.99
566.966	1896.97
567.39	1890.88
567.814	1877.79
568.238	1875.1
568.662	1879.5
569.086	1881.49
569.509	1888.19
569.933	1871.39
570.357	1864.66
570.78	1842.76
571.204	1828.68
571.627	1816.27
572.05	1813.57
572.474	1814.49
572.897	1801.76
573.32	1793.37
573.743	1782.76
574.166	1763.36
574.589	1762.87
575.012	1754.35
575.435	1752.89
575.858	1742.66
576.281	1731.75
576.704	1716.06
577.126	1703.1
577.549	1691.81
577.972	1680.97
578.394	1669.74
578.817	1663.58
579.239	1644.35
579.661	1630.41
580.084	1613.95
580.506	1600.71
580.928	1596.8
581.35	1585.68
581.772	1580.92
582.194	1566.96
582.616	1554.66
583.038	1540.4
583.46	1528.49
583.882	1524.48
584.303	1529.17
584.725	1524.62
585.147	1527.7
585.568	1538.03
585.99	1549.79
586.411	1556.27
586.833	1571.24
587.254	1571.63
587.675	1584.42
588.096	1596.41
588.518	1591.68
588.939	1573.6
589.36	1570.99
589.781	1558.75
590.202	1528.98
590.623	1520.15
591.043	1517.56
591.464	1504.71
591.885	1501.6
592.305	1497.5
592.726	1484.02
593.147	1485.69
593.567	1480.28
593.987	1472.33
594.408	1466.66
594.828	1464.67
595.248	1457.56
595.669	1438.15
596.089	1429.85
596.509	1422.72
596.929	1407.59
597.349	1408.65
597.769	1397.28
598.189	1390.15
598.608	1391.7
599.028	1394.09
599.448	1393.63
599.867	1381.29
600.287	1375.83
600.706	1371.3
601.126	1362.14
601.545	1361.31
601.965	1358.85
602.384	1352.41
602.803	1355.16
603.222	1350.17
603.641	1342.17
604.061	1337.97
604.48	1333.52
604.898	1341.91
605.317	1346.15
605.736	1346.1
606.155	1341.76
606.574	1331.85
606.992	1336.77
607.411	1330.31
607.829	1320.01
608.248	1316.28
608.666	1313.01
609.085	1310.86
609.503	1301.54
609.921	1295.51
610.339	1296.55
610.758	1294.68
611.176	1289.72
611.594	1279.86
612.012	1275
612.43	1277.72
612.847	1282.32
613.265	1282.32
613.683	1285.34
614.101	1284.3
614.518	1277.43
614.936	1266.85
615.353	1251.8
615.771	1246.72
616.188	1244.9
616.606	1240.74
617.023	1232.7
617.44	1217.81
617.857	1208.99
618.274	1199.04
618.691	1192.85
619.108	1184.05
619.525	1176.47
619.942	1181.58
620.359	1183.08
620.776	1177.05
621.192	1172.5
621.609	1169.36
622.026	1174.84
622.442	1180.29
622.859	1182.73
623.275	1175.2
623.691	1178.25
624.108	1189.04
624.524	1201.33
624.94	1199.66
625.356	1209.91
625.772	1220.65
626.188	1232.02
626.604	1233.57
627.02	1228.87
627.436	1226.52
627.852	1232.33
628.268	1243.75
628.683	1233.7
629.099	1224.32
629.514	1219.69
629.93	1221.21
630.345	1225.36
630.761	1220.07
631.176	1222.09
631.591	1216.89
632.007	1211.27
632.422	1208.25
632.837	1196.83
633.252	1194.24
633.667	1184.83
634.082	1174.49
634.497	1161.92
634.911	1142.87
635.326	1136.46
635.741	1118.37
636.155	1106.32
636.57	1105.24
636.984	1102.13
637.399	1101.25
637.813	1098.05
638.228	1094.32
638.642	1095.47
639.056	1082.89
639.47	1079.83
639.884	1070.2
640.298	1061.82
640.712	1057.23
641.126	1041.45
641.54	1030.44
641.954	1021.63
642.368	1006.98
642.781	996.17
643.195	976.88
643.609	972.34
644.022	962.93
644.436	954.84
644.849	938.83
645.262	924.01
645.676	921.15
646.089	912.97
646.502	897.34
646.915	888.55
647.328	870.9
647.741	866.7
648.154	854.14
648.567	848.89
648.98	835.05
649.393	833.64
649.805	828.53
650.218	820.32
650.631	805.58
651.043	798.01
651.456	791.61
651.868	789.43
652.28	799.99
652.693	807.27
653.105	808.49
653.517	813.38
653.929	809.92
654.341	810.44
654.753	798.52
655.165	799.35
655.577	793.38
655.989	785.6
656.401	775.41
656.813	744.49
657.224	725.57
657.636	699.79
658.047	682.53
658.459	663.75
658.87	652.11
659.282	638.33
659.693	618.6
660.104	602.94
660.515	588.35
660.926	580.25
661.338	572.16
661.749	561.39
662.159	550.2
662.57	540.3
662.981	531.56
663.392	520.45
663.803	517.35
664.213	509.94
664.624	501.76
665.035	498.23
665.445	485.6
665.855	476.86
666.266	469.29
666.676	463.35
667.086	454.17
667.497	450.36
667.907	442.67
668.317	432.61
668.727	429.64
669.137	426.09
669.547	420.86
669.956	418.06
670.366	415.14
670.776	411.94
671.186	411.87
671.595	411.74
672.005	410.44
672.414	409.99
672.824	408.92
673.233	407.13
673.642	407.42
674.052	410
674.461	412.54
674.87	414.76
675.279	414.62
675.688	414.02
676.097	416.04
676.506	414.13
676.915	422.44
677.323	423.76
677.732	423.88
678.141	425.12
678.549	419.82
678.958	420.49
679.366	421.87
679.775	425.5
680.183	436.15
680.592	441.74
681	449.09
681.408	449.14
681.816	458.92
682.224	469.51
682.632	482.95
683.04	506.95
683.448	528.8
683.856	557.1
684.264	589.36
684.671	618.43
685.079	655.37
685.487	698.34
685.894	755.24
686.302	804.17
686.709	849.85
687.116	900.84
687.524	949.41
687.931	994.69
688.338	1035.67
688.745	1071.86
689.152	1113.52
689.559	1164.3
689.966	1214.12
690.373	1245.34
690.78	1294.14
691.187	1359.7
691.593	1413.8
692	1461.77
692.407	1527.42
692.813	1604.56
693.22	1669.44
693.626	1734.06
694.032	1788.97
694.439	1865.98
694.845	1927.97
695.251	2003.99
695.657	2071.45
696.063	2170.16
696.469	2243.58
696.875	2312.37
697.281	2353.18
697.687	2401.1
698.093	2442.53
698.498	2515.69
698.904	2572.67
699.31	2660.02
699.715	2723.1
700.12	2814.36
700.526	2832.84
700.931	2901.66
701.337	2953.18
701.742	2987.13
702.147	3069.97
702.552	3100.61
702.957	3159.72
703.362	3181.56
703.767	3208.99
704.172	3247.81
704.577	3200.02
704.981	3245.57
