Data from C_3_HIR_IL_4N_Splice17_13-39-18-644.txt Node
Date: Sat Mar 14 13:39:18 EDT 2020
User: sa697716
Spectrometer: FLMS03696
Trigger mode: 0
Integration Time (sec): 3.180400E-1
Scans to average: 20
Electric dark correction enabled: true
Nonlinearity correction enabled: true
Boxcar width: 5
XAxis mode: Wavelengths
Number of Pixels in Spectrum: 2048
>>>>>Begin Spectral Data<<<<<
187.83	-485817.95
188.298	3535.2
188.766	1873.29
189.233	1646.81
189.701	2261.74
190.169	3080.18
190.636	1163.01
191.104	971.71
191.571	165.52
192.039	-46.52
192.506	-75.92
192.974	601.53
193.441	-736.29
193.908	58.93
194.375	-0.55
194.842	-13.08
195.31	100.23
195.777	201.53
196.244	501.27
196.711	566.77
197.177	703.25
197.644	972.04
198.111	1688.37
198.578	2364.06
199.045	1882.26
199.511	3100.27
199.978	3663.12
200.445	3096.87
200.911	3409.56
201.378	3743.91
201.844	3392.94
202.31	5825.35
202.777	6066.7
203.243	3372.71
203.709	3202.65
204.176	3815.38
204.642	3127.2
205.108	2916.82
205.574	2358.6
206.04	2132.03
206.506	2015.9
206.972	1906.13
207.438	1842.89
207.903	2101.46
208.369	1839.28
208.835	1839.27
209.301	1933.91
209.766	1972.18
210.232	1963.56
210.697	2444.43
211.163	3039.3
211.628	4606.15
212.094	3855.53
212.559	4788.34
213.024	2999.86
213.49	3677.1
213.955	3584.59
214.42	3470.96
214.885	3257.99
215.35	3132.3
215.815	3026.84
216.28	3228.99
216.745	2653.65
217.21	2887.49
217.675	2665.23
218.14	3016.25
218.604	3402.33
219.069	3917.8
219.534	4160.77
219.998	4883.76
220.463	5974.78
220.927	7419.71
221.392	7029.05
221.856	7142.14
222.32	9080.63
222.785	11272.47
223.249	14256.46
223.713	15987.09
224.177	16076.53
224.642	20692.25
225.106	25560.53
225.57	28000.77
226.034	20876.7
226.497	31901.99
226.961	28858.41
227.425	33642.98
227.889	37362.71
228.353	37461.85
228.816	77408.67
229.28	74124.85
229.744	62680.16
230.207	38132.12
230.671	37532.53
231.134	62229.63
231.597	71856.43
232.061	72083.81
232.524	70391.31
232.987	48596.83
233.45	43789.09
233.914	39362.2
234.377	40451.68
234.84	37082.84
235.303	43814.91
235.766	48989.15
236.229	50722.64
236.691	31998.87
237.154	36002
237.617	27149.03
238.08	27845.17
238.542	32662.38
239.005	23377.04
239.468	23206.02
239.93	21890.25
240.393	19898.8
240.855	17504.39
241.317	17942.01
241.78	21853.05
242.242	22611.47
242.704	24456.68
243.166	21316.06
243.629	19369.44
244.091	22363.65
244.553	24539.47
245.015	26412.09
245.477	34216.91
245.939	50207.6
246.4	53352.4
246.862	51898.6
247.324	48969.55
247.786	54774.55
248.247	71963.66
248.709	74386.21
249.17	55639.86
249.632	52523.63
250.093	60973.39
250.555	52729.11
251.016	32176.67
251.477	30552.28
251.939	33015
252.4	34681.78
252.861	41285.63
253.322	38391.31
253.783	45748.92
254.244	59401.61
254.705	46853.88
255.166	41670.32
255.627	41051.1
256.088	57995.4
256.549	61586.35
257.009	53063.4
257.47	64433.36
257.931	52503.5
258.391	39357.23
258.852	40560.19
259.312	42489.2
259.773	52501.96
260.233	44384.5
260.694	37480.05
261.154	42477.06
261.614	34106.7
262.074	30518.06
262.534	31738.5
262.994	29943.87
263.455	39930.1
263.915	33652.73
264.374	31739.45
264.834	34666.55
265.294	38444.86
265.754	39807.66
266.214	37718.07
266.673	35385.87
267.133	44690.19
267.593	44303.83
268.052	54191.11
268.512	47136.94
268.971	56851.28
269.431	62395.33
269.89	55872.86
270.349	83767.02
270.809	93415.28
271.268	83980.4
271.727	188378.9
272.186	121907.95
272.645	91398.4
273.104	65938.2
273.563	95419.27
274.022	75095.27
274.481	63842.74
274.94	49208.32
275.399	36604.89
275.857	42614.11
276.316	57639.71
276.775	51234.3
277.233	50468.01
277.692	47261.18
278.15	53455.68
278.609	54983.28
279.067	50858.58
279.525	47206.63
279.984	60906.33
280.442	73098.09
280.9	72029.02
281.358	47372.67
281.816	44163.44
282.274	43233.5
282.732	44655.34
283.19	44828.38
283.648	38684.35
284.106	41145.89
284.564	41838.01
285.021	38797.56
285.479	28898.96
285.937	26285.31
286.394	23048.09
286.852	23694.8
287.309	24904.32
287.767	24035.45
288.224	22887.41
288.682	25133.14
289.139	27604.25
289.596	25242.5
290.053	26208
290.511	33083.37
290.968	40135.02
291.425	54502.8
291.882	45436.38
292.339	39534.82
292.796	39273.25
293.252	36976.53
293.709	29333.21
294.166	26289.47
294.623	29093.8
295.079	27938.5
295.536	28081.18
295.992	25495.67
296.449	25194.97
296.905	26168.36
297.362	25067.34
297.818	26360.65
298.274	27380.11
298.731	27917.53
299.187	27643.26
299.643	29689.39
300.099	35951.45
300.555	39398.1
301.011	32915.62
301.467	31728.41
301.923	37133.87
302.379	36306.33
302.835	35685.34
303.291	35728.82
303.746	40689.41
304.202	51394.74
304.658	51561.43
305.113	34650.4
305.569	33943.8
306.024	36182.48
306.479	34448.23
306.935	29056.12
307.39	31723.72
307.845	29284.64
308.301	29475.58
308.756	28711
309.211	27640.65
309.666	28328.59
310.121	35157.54
310.576	35716.96
311.031	35445.23
311.486	40604.37
311.94	40543.04
312.395	54240.81
312.85	101967.54
313.305	499998.97
313.759	2586533.56
314.214	187515.76
314.668	148641.35
315.123	124942.44
315.577	44801
316.032	39867.82
316.486	49991.26
316.94	39448.62
317.394	27458.19
317.849	21328.58
318.303	20202.05
318.757	19068.01
319.211	21092.47
319.665	18474.59
320.119	18713.63
320.572	26839.13
321.026	25085.58
321.48	20868.37
321.934	22752.17
322.387	22790.63
322.841	24628.43
323.295	22156.79
323.748	25538.1
324.202	25910.37
324.655	31105.88
325.108	43449.47
325.562	30695.3
326.015	36451.88
326.468	27537.06
326.921	30819.71
327.374	28729.88
327.827	29913.81
328.28	33880.81
328.733	22697.14
329.186	19943.51
329.639	18999.57
330.092	16021.76
330.545	15253.08
330.997	15396.25
331.45	16847.48
331.903	19729.72
332.355	33953.02
332.808	32986.57
333.26	27207.3
333.713	29532.08
334.165	29780.46
334.617	39749.11
335.069	32110.58
335.522	58074.79
335.974	64225.56
336.426	58585.13
336.878	40569.43
337.33	20581.69
337.782	20109.79
338.234	25187.18
338.686	30136.63
339.137	35672.94
339.589	33605.32
340.041	26305.77
340.493	22592.51
340.944	23143.67
341.396	24961.93
341.847	20974.81
342.299	24758.21
342.75	30207.62
343.201	26405.02
343.653	30330.58
344.104	37299.94
344.555	29378.58
345.006	45791.84
345.457	35098.89
345.908	27876.55
346.359	26190.66
346.81	21334.66
347.261	22454.95
347.712	22117.78
348.163	23693.66
348.613	23984.17
349.064	22382.94
349.515	19570.77
349.965	20070.94
350.416	24177.23
350.866	26550.99
351.317	30049.93
351.767	49816.09
352.217	63003.53
352.668	52210.35
353.118	47804.34
353.568	46136.76
354.018	36446.66
354.468	38474.43
354.918	27562.38
355.368	24084.09
355.818	34050.85
356.268	97882.05
356.718	408964.68
357.168	101772.29
357.617	51110.55
358.067	56893.83
358.517	53250.64
358.966	62484.42
359.416	69908.57
359.865	75482.54
360.315	89843.53
360.764	41833.78
361.213	23395.54
361.663	22175.04
362.112	27357.35
362.561	44150.38
363.01	33296.03
363.459	28047.93
363.908	30358.63
364.357	25777.6
364.806	43521.78
365.255	29919.18
365.703	27450.9
366.152	27528.04
366.601	22293.32
367.05	18082.68
367.498	16424.42
367.947	17133.33
368.395	17811.03
368.844	15751.58
369.292	18987.38
369.74	13107.49
370.189	20058.87
370.637	23446.61
371.085	20178.31
371.533	24605.35
371.981	23712.92
372.429	22594.39
372.877	23487.97
373.325	19633.01
373.773	19996.81
374.221	17810.59
374.669	22103.41
375.116	19091.14
375.564	19241.12
376.012	21517.39
376.459	17678.14
376.907	21069.34
377.354	25429.32
377.801	23735.33
378.249	27208.4
378.696	34727.66
379.143	41946.35
379.591	44723.03
380.038	75527.77
380.485	54529.56
380.932	58872.91
381.379	53835.35
381.826	39542.54
382.273	28097.49
382.72	24503.54
383.166	23839.07
383.613	15423.98
384.06	13897.23
384.506	16049.63
384.953	11767.22
385.4	11810.97
385.846	10297.96
386.292	10024.57
386.739	9800.03
387.185	9650.2
387.631	9625.18
388.078	9325.44
388.524	9952.9
388.97	9151.72
389.416	7604.02
389.862	8065.03
390.308	7614.95
390.754	7733.69
391.2	8362.08
391.645	8536.69
392.091	8153.02
392.537	7872.23
392.983	7865.46
393.428	7720.5
393.874	8252.88
394.319	8251.79
394.765	7811.92
395.21	8020.94
395.655	7499.93
396.101	7005.87
396.546	6303.06
396.991	6348.94
397.436	5878.35
397.881	5666.61
398.326	5353.94
398.771	5058.48
399.216	4413.42
399.661	3967.27
400.106	3942.53
400.551	4021.32
400.995	3600.31
401.44	3560.56
401.885	3332.54
402.329	3355.74
402.774	3216.5
403.218	3109.54
403.663	2988.27
404.107	3067
404.551	3081.92
404.995	2815.99
405.44	2709.16
405.884	2744.09
406.328	2645.03
406.772	2635.64
407.216	2398.61
407.66	2310.2
408.104	2186.41
408.547	2045.65
408.991	1975.64
409.435	1897.21
409.879	1872.79
410.322	1844.15
410.766	1779.01
411.209	1695.59
411.653	1623.48
412.096	1591.35
412.54	1590.13
412.983	1580.41
413.426	1584.55
413.869	1582.49
414.312	1552.43
414.756	1492.32
415.199	1423.01
415.642	1380.96
416.085	1378.54
416.527	1367.17
416.97	1383.93
417.413	1312.56
417.856	1295.69
418.298	1279.75
418.741	1267.72
419.184	1262.4
419.626	1316.19
420.069	1316.81
420.511	1324.39
420.953	1297.03
421.396	1285.59
421.838	1252.15
422.28	1278.17
422.722	1284.85
423.164	1302.09
423.606	1284.97
424.048	1281.9
424.49	1218.96
424.932	1210.05
425.374	1193.1
425.816	1212.19
426.258	1233.91
426.699	1249.33
427.141	1234.18
427.582	1249.67
428.024	1241.14
428.465	1229.56
428.907	1199.47
429.348	1179.57
429.789	1179.5
430.231	1155.11
430.672	1169.55
431.113	1143.67
431.554	1127.56
431.995	1094.68
432.436	1056.09
432.877	1033.99
433.318	1015.56
433.759	1009.79
434.2	1011.41
434.64	1001.69
435.081	1000.29
435.522	947.73
435.962	909.64
436.403	887.15
436.843	899.49
437.284	881.21
437.724	854.92
438.164	855.4
438.604	834.88
439.045	802.63
439.485	768.63
439.925	750.38
440.365	728.84
440.805	719.81
441.245	709.72
441.685	683.13
442.125	674.5
442.564	678.57
443.004	663.19
443.444	660.39
443.883	661.34
444.323	652.62
444.762	652.51
445.202	660.7
445.641	672.44
446.081	665.29
446.52	670.41
446.959	663.24
447.398	647.33
447.837	638.3
448.276	624.51
448.716	627.16
449.154	630.39
449.593	617.38
450.032	613.46
450.471	599.3
450.91	598
451.349	593.67
451.787	589.15
452.226	594.19
452.664	592.17
453.103	593.11
453.541	590.13
453.98	590.61
454.418	591.01
454.856	581.89
455.295	578.92
455.733	583.01
456.171	585.74
456.609	584.81
457.047	582.32
457.485	590.72
457.923	590.9
458.361	581.07
458.798	581.9
459.236	579.23
459.674	580.11
460.111	582.01
460.549	576.01
460.987	572.61
461.424	570.88
461.862	568.7
462.299	558.22
462.736	556.99
463.173	559.79
463.611	555.49
464.048	556.36
464.485	561.96
464.922	557.19
465.359	553.61
465.796	551.84
466.233	547.95
466.67	544.98
467.106	544.81
467.543	539.2
467.98	530.72
468.416	514.06
468.853	507.5
469.29	491.46
469.726	485.91
470.162	474.33
470.599	462.51
471.035	457.38
471.471	444.53
471.907	439.85
472.344	435.97
472.78	438.12
473.216	442.52
473.652	437.13
474.088	436.29
474.523	434.74
474.959	437.14
475.395	433.59
475.831	431.55
476.266	433.82
476.702	432.98
477.138	428.84
477.573	426.74
478.008	426.16
478.444	428.31
478.879	433.28
479.314	434.58
479.75	433.44
480.185	434.55
480.62	437.49
481.055	438.92
481.49	442.06
481.925	447.61
482.36	456.39
482.795	467.72
483.229	478.77
483.664	486.08
484.099	487.05
484.534	494.62
484.968	499.03
485.403	499.58
485.837	497.34
486.271	494.42
486.706	493.49
487.14	485.73
487.574	476.75
488.009	471.08
488.443	465.48
488.877	469.6
489.311	468.9
489.745	472.89
490.179	476.1
490.613	484.86
491.046	486.45
491.48	488.74
491.914	487.25
492.348	489.21
492.781	490.74
493.215	490.23
493.648	488.35
494.082	490.93
494.515	489.37
494.948	492.1
495.382	491.28
495.815	493.1
496.248	494.36
496.681	501
497.114	505.55
497.547	510.27
497.98	517.32
498.413	520.45
498.846	524.38
499.279	527.31
499.711	527.72
500.144	527.32
500.577	533.23
501.009	537.9
501.442	542.52
501.874	541.44
502.306	539.28
502.739	544.54
503.171	549.94
503.603	549.3
504.036	551.75
504.468	552.67
504.9	557.74
505.332	558.52
505.764	559.44
506.196	560.99
506.627	567.94
507.059	575.27
507.491	574.36
507.923	572.49
508.354	581.03
508.786	587.48
509.217	598.31
509.649	606.95
510.08	617.07
510.512	627.19
510.943	636.49
511.374	643.47
511.805	655.69
512.237	667.78
512.668	686.99
513.099	702.78
513.53	719.42
513.961	733.22
514.391	753.74
514.822	777.1
515.253	800.53
515.684	818.24
516.114	839.25
516.545	855.59
516.975	875.19
517.406	889.57
517.836	894.12
518.267	902.58
518.697	918.15
519.127	924.24
519.558	931.8
519.988	937.53
520.418	947.09
520.848	962.2
521.278	971.12
521.708	1017.57
522.138	1031.46
522.567	1057.82
522.997	1078.94
523.427	1093.62
523.857	1110.39
524.286	1122.72
524.716	1138.63
525.145	1158
525.575	1170.48
526.004	1186.29
526.433	1159.26
526.863	1163.66
527.292	1161.5
527.721	1170.46
528.15	1178.35
528.579	1182.72
529.008	1194.13
529.437	1213.86
529.866	1227.33
530.295	1242.84
530.724	1255.81
531.152	1276.53
531.581	1290.15
532.01	1306.03
532.438	1313.69
532.867	1326.83
533.295	1343.56
533.723	1351.41
534.152	1352.61
534.58	1355.16
535.008	1344.95
535.436	1348.07
535.865	1356.82
536.293	1368.28
536.721	1380.84
537.149	1403.22
537.576	1406.98
538.004	1417.29
538.432	1422.72
538.86	1422.15
539.287	1426.67
539.715	1439.41
540.143	1440.93
540.57	1438.45
540.998	1435.64
541.425	1419.06
541.852	1402.42
542.28	1401.41
542.707	1389.3
543.134	1379.91
543.561	1377.87
543.988	1373.61
544.415	1373
544.842	1369.81
545.269	1365.71
545.696	1369.97
546.123	1381.3
546.549	1375.26
546.976	1367.35
547.403	1368.3
547.829	1370.04
548.256	1372.1
548.682	1370.13
549.108	1366.25
549.535	1366.89
549.961	1369.06
550.387	1358.56
550.813	1355.62
551.24	1360.68
551.666	1361.34
552.092	1355.61
552.518	1353.07
552.943	1349.44
553.369	1354.82
553.795	1358.51
554.221	1360.08
554.646	1357.94
555.072	1367.9
555.498	1370.44
555.923	1377.57
556.349	1389.78
556.774	1395.24
557.199	1393.89
557.625	1396.36
558.05	1391.47
558.475	1398.62
558.9	1397.02
559.325	1389.89
559.75	1383.2
560.175	1376.43
560.6	1369.79
561.025	1364.64
561.449	1363.41
561.874	1365.87
562.299	1368.85
562.723	1371.64
563.148	1360.94
563.572	1359.61
563.997	1364.05
564.421	1363.8
564.846	1362.03
565.27	1361.19
565.694	1356.2
566.118	1360.91
566.542	1363.7
566.966	1354.17
567.39	1347.47
567.814	1336.03
568.238	1332.59
568.662	1332.15
569.086	1331.37
569.509	1331.88
569.933	1318.09
570.357	1309.02
570.78	1289.82
571.204	1276.96
571.627	1266.28
572.05	1261.5
572.474	1259.52
572.897	1247.27
573.32	1239.38
573.743	1228.06
574.166	1213.02
574.589	1208.32
575.012	1200.86
575.435	1198.13
575.858	1188.82
576.281	1178.33
576.704	1165.59
577.126	1153.31
577.549	1143.63
577.972	1134.34
578.394	1126.24
578.817	1121.85
579.239	1107.82
579.661	1098.61
580.084	1088.38
580.506	1079.34
580.928	1075.42
581.35	1066.06
581.772	1062.55
582.194	1053.44
582.616	1042.94
583.038	1031.07
583.46	1021.23
583.882	1019.42
584.303	1018.58
584.725	1013.38
585.147	1016.59
585.568	1022.83
585.99	1031.07
586.411	1035.12
586.833	1043.81
587.254	1044.84
587.675	1053.64
588.096	1060.57
588.518	1054.91
588.939	1044.55
589.36	1041.7
589.781	1028.79
590.202	1011.34
590.623	1003.79
591.043	1000.75
591.464	991.57
591.885	988.34
592.305	983.67
592.726	973.75
593.147	974.03
593.567	969.23
593.987	963.32
594.408	959.21
594.828	954.52
595.248	951.19
595.669	939.24
596.089	932.41
596.509	927.28
596.929	917.82
597.349	917.97
597.769	911.09
598.189	906.97
598.608	907.08
599.028	908.33
599.448	908.26
599.867	897.5
600.287	893.49
600.706	891.58
601.126	884.64
601.545	884.08
601.965	882.47
602.384	878.79
602.803	879.79
603.222	877.31
603.641	872.47
604.061	869.96
604.48	867.14
604.898	870.95
605.317	873.28
605.736	873.72
606.155	871.98
606.574	865.13
606.992	867.47
607.411	863.34
607.829	855.39
608.248	852.2
608.666	848.79
609.085	848.21
609.503	842.96
609.921	839.39
610.339	840.25
610.758	837.91
611.176	834.92
611.594	828.64
612.012	826.29
612.43	828.98
612.847	831.98
613.265	833.13
613.683	834.52
614.101	834.69
614.518	829.34
614.936	822.02
615.353	813.51
615.771	810.23
616.188	809.97
616.606	807.17
617.023	801.66
617.44	792.29
617.857	786.39
618.274	780.5
618.691	776.88
619.108	771.28
619.525	766.94
619.942	769.59
620.359	770.82
620.776	767.42
621.192	764.8
621.609	763.67
622.026	767.55
622.442	771.37
622.859	773.47
623.275	767.77
623.691	770.58
624.108	778.01
624.524	786.93
624.94	786.6
625.356	791.95
625.772	799
626.188	805.83
626.604	807.27
627.02	804.03
627.436	802.27
627.852	806.69
628.268	815.11
628.683	809.58
629.099	803.3
629.514	799.18
629.93	801.13
630.345	803.75
630.761	800.95
631.176	802.65
631.591	800.3
632.007	796.73
632.422	794.84
632.837	786.38
633.252	785.16
633.667	779.3
634.082	773.65
634.497	766.33
634.911	755.13
635.326	751.68
635.741	740.41
636.155	732.29
636.57	733.22
636.984	732.22
637.399	734.13
637.813	732.36
638.228	730.2
638.642	733.11
639.056	724.98
639.47	724.85
639.884	719.7
640.298	715.98
640.712	715.36
641.126	706.79
641.54	701.72
641.954	696.16
642.368	688.51
642.781	686.31
643.195	675.53
643.609	677.27
644.022	672.15
644.436	670.34
644.849	662.21
645.262	654.85
645.676	656.66
646.089	654.27
646.502	648.06
646.915	646.27
647.328	635.58
647.741	635.33
648.154	628.2
648.567	630.92
648.98	624.02
649.393	625.45
649.805	625.42
650.218	621.5
650.631	612.81
651.043	609.29
651.456	607.09
651.868	607.74
652.28	618.61
652.693	626.1
653.105	627.98
653.517	634.12
653.929	635.63
654.341	640.4
654.753	634.78
655.165	639.91
655.577	639.79
655.989	637.77
656.401	634.05
656.813	614.87
657.224	606.03
657.636	589.63
658.047	582.19
658.459	573.03
658.87	568.72
659.282	563.8
659.693	554.36
660.104	547.97
660.515	541.35
660.926	541.87
661.338	542.14
661.749	540.1
662.159	538.38
662.57	537.87
662.981	537.64
663.392	536.29
663.803	542.63
664.213	543.87
664.624	544.29
665.035	550.31
665.445	544.43
665.855	543.14
666.266	541.13
666.676	541.35
667.086	537.19
667.497	539.79
667.907	538.46
668.317	533.8
668.727	535.94
669.137	537.79
669.547	538.21
669.956	542.56
670.366	545.84
670.776	548.89
671.186	554.3
671.595	558.84
672.005	561.98
672.414	563.17
672.824	563.3
673.233	565.25
673.642	568.5
674.052	572.77
674.461	576.48
674.87	579.75
675.279	580.16
675.688	580.38
676.097	582.49
676.506	581.36
676.915	592.42
677.323	595.71
677.732	594.23
678.141	593.62
678.549	585.12
678.958	583.57
679.366	582.94
679.775	584.82
680.183	594.8
680.592	598.57
681	601.09
681.408	593.81
681.816	597.31
682.224	601.03
682.632	608.18
683.04	626.29
683.448	641.03
683.856	660.26
684.264	681.42
684.671	696.64
685.079	717.11
685.487	742.11
685.894	778.04
686.302	803.31
686.709	823.31
687.116	845.49
687.524	864.12
687.931	877.75
688.338	886.36
688.745	892.13
689.152	902.29
689.559	921.93
689.966	941.83
690.373	947.26
690.78	966.81
691.187	1001.77
691.593	1027.65
692	1049.99
692.407	1087.42
692.813	1138.01
693.22	1177.73
693.626	1218.94
694.032	1254.6
694.439	1307.74
694.845	1352.82
695.251	1409.08
695.657	1462.24
696.063	1536.98
696.469	1596.94
696.875	1655.62
697.281	1693.2
697.687	1741.15
698.093	1786.04
698.498	1855.97
698.904	1912.89
699.31	1994.11
699.715	2060.98
700.12	2144.63
700.526	2176.63
700.931	2247.91
701.337	2308.03
