Data from C_3_HIR_IL_4N_Splice17_13-39-20-792.txt Node
Date: Sat Mar 14 13:39:20 EDT 2020
User: sa697716
Spectrometer: FLMS03696
Trigger mode: 0
Integration Time (sec): 3.180400E-1
Scans to average: 20
Electric dark correction enabled: true
Nonlinearity correction enabled: true
Boxcar width: 5
XAxis mode: Wavelengths
Number of Pixels in Spectrum: 2048
>>>>>Begin Spectral Data<<<<<
187.83	-429953.3
188.298	2978.35
188.766	1562.48
189.233	1414.51
189.701	2006.91
190.169	2730.99
190.636	1070.29
191.104	944.63
191.571	192.43
192.039	-70.36
192.506	-38.67
192.974	685.75
193.441	-1349.69
193.908	-430.22
194.375	-148.5
194.842	-31.27
195.31	47.98
195.777	176.66
196.244	487.97
196.711	582.79
197.177	742.26
197.644	1074.64
198.111	1868.27
198.578	2613.41
199.045	2078.2
199.511	3418.99
199.978	3969.37
200.445	3386.51
200.911	3735.85
201.378	4153.03
201.844	3764.5
202.31	6444.53
202.777	6699.19
203.243	3696.1
203.709	3517.29
204.176	4182.54
204.642	3433.97
205.108	3223.25
205.574	2596.92
206.04	2371.62
206.506	2233.01
206.972	2112.99
207.438	2057.42
207.903	2343.49
208.369	2060.95
208.835	2063.67
209.301	2167.15
209.766	2233.15
210.232	2231.59
210.697	2790.9
211.163	3484.33
211.628	5278.65
212.094	4477.92
212.559	5492.42
213.024	3423.23
213.49	4224.37
213.955	4150.38
214.42	4081.94
214.885	3805.8
215.35	3647.65
215.815	3539.67
216.28	3762.84
216.745	3100.6
217.21	3378.72
217.675	3147.72
218.14	3606.06
218.604	4110.77
219.069	4789.64
219.534	5109.51
219.998	6065.54
220.463	7479.4
220.927	9359.26
221.392	8948.58
221.856	9150.17
222.32	11677.87
222.785	14543.01
223.249	18472.62
223.713	20740.72
224.177	20859.48
224.642	26912.13
225.106	33286.57
225.57	36523.99
226.034	27232.37
226.497	41530.83
226.961	37573.94
227.425	43828.14
227.889	48764.18
228.353	48881.59
228.816	101199.33
229.28	96930.31
229.744	81992.9
230.207	49817.12
230.671	49091.45
231.134	81426.44
231.597	93988.04
232.061	94259.26
232.524	92093.52
232.987	63540.41
233.45	57211.31
233.914	51387.54
234.377	52797.28
234.84	48377.07
235.303	57179.43
235.766	63887.79
236.229	66080.32
236.691	41686.25
237.154	46884.86
237.617	35309.2
238.08	36229.99
238.542	42515.42
239.005	30387.81
239.468	30157.08
239.93	28441.08
240.393	25862.66
240.855	22716.43
241.317	23289.82
241.78	28373.3
242.242	29369.62
242.704	31691.22
243.166	27568.86
243.629	25015.89
244.091	28855.4
244.553	31639.36
245.015	34065.68
245.477	44140.06
245.939	64797.73
246.4	68800.75
246.862	66975.47
247.324	63152.15
247.786	70848.6
248.247	93036.27
248.709	96218.73
249.17	72087.76
249.632	68012.3
250.093	78818.9
250.555	68115.63
251.016	41551.02
251.477	39448.1
251.939	42559.54
252.4	44711.36
252.861	53203.12
253.322	49513.55
253.783	58961.14
254.244	76497.76
254.705	60355.93
255.166	53691.69
255.627	52899.32
256.088	74633.09
256.549	79307.32
257.009	68335.91
257.47	82802.23
257.931	67424.59
258.391	50523.2
258.852	52111.28
259.312	54639.24
259.773	67466.17
260.233	57003.01
260.694	48051.36
261.154	54546.3
261.614	43759
262.074	39155.47
262.534	40715.21
262.994	38352.75
263.455	51131.79
263.915	43059.15
264.374	40577.11
264.834	44322.35
265.294	49153.65
265.754	50913.7
266.214	48189.66
266.673	45173.58
267.133	56984.21
267.593	56556.93
268.052	69207.87
268.512	60193.53
268.971	72513.85
269.431	79443.03
269.89	71149.32
270.349	106657.82
270.809	118824.81
271.268	106723.55
271.727	239364.98
272.186	155054.8
272.645	116217.48
273.104	83845
273.563	121297.14
274.022	95454.79
274.481	81202.28
274.94	62519.25
275.399	46452.43
275.857	54090.58
276.316	73117.36
276.775	65037.05
277.233	63986.29
277.692	59879
278.15	67709.12
278.609	69659.31
279.067	64454.87
279.525	59845.11
279.984	77281.28
280.442	92788.27
280.9	91445.21
281.358	60182.25
281.816	56031.34
282.274	54854.03
282.732	56639.85
283.19	56892.79
283.648	49071.53
284.106	52234.76
284.564	53084.42
285.021	49181.66
285.479	36641.53
285.937	33335.6
286.394	29211.58
286.852	30060.04
287.309	31602.26
287.767	30504.33
288.224	28975.63
288.682	31774.38
289.139	34855.09
289.596	31899.5
290.053	33141.86
290.511	41812.57
290.968	50697.66
291.425	68818.1
291.882	57269.7
292.339	49843.97
292.796	49481.88
293.252	46693.32
293.709	37102.36
294.166	33248.85
294.623	36765.76
295.079	35289.01
295.536	35451.98
295.992	32176.46
296.449	31839.93
296.905	33075.4
297.362	31693.97
297.818	33355.72
298.274	34579.87
298.731	35227.32
299.187	34884.03
299.643	37436.63
300.099	45308.54
300.555	49689.82
301.011	41533.4
301.467	39978.46
301.923	46857.73
302.379	45750.63
302.835	44943.24
303.291	45011.39
303.746	51225.31
304.202	64711.61
304.658	65008.28
305.113	43688.83
305.569	42801.83
306.024	45640.96
306.479	43503.2
306.935	36639.34
307.39	40048.76
307.845	36952.07
308.301	37175.34
308.756	36264.85
309.211	34923.19
309.666	35769.81
310.121	44383.58
310.576	45092.27
311.031	44706.82
311.486	51224.58
311.94	51210.2
312.395	68447.28
312.85	128735.67
313.305	632206.98
313.759	3268202.05
314.214	236720.79
314.668	187512.54
315.123	157695.52
315.577	56548.87
316.032	50292.61
316.486	62997.47
316.94	49605.75
317.394	34508.25
317.849	26791.51
318.303	25382.09
318.757	23929.56
319.211	26479.78
319.665	23155.57
320.119	23432.05
320.572	33613.08
321.026	31391.62
321.48	26125.81
321.934	28537.9
322.387	28607.55
322.841	30911.59
323.295	27775.24
323.748	32059.46
324.202	32488.51
324.655	39051.49
325.108	54511.72
325.562	38484.01
326.015	45754.39
326.468	34567.88
326.921	38682.83
327.374	36064.73
327.827	37541.38
328.28	42484.37
328.733	28409.86
329.186	24990.85
329.639	23798.69
330.092	20076.95
330.545	19102.97
330.997	19259.92
331.45	21037.42
331.903	24618.01
332.355	42407.71
332.808	41244
333.26	34024.9
333.713	36911
334.165	37164.39
334.617	49614.15
335.069	40104.7
335.522	72556.7
335.974	80388.79
336.426	73470.62
336.878	50893.5
337.33	25757.37
337.782	25135.07
338.234	31468.54
338.686	37717.92
339.137	44722.19
339.589	42111.07
340.041	32965.95
340.493	28330.6
340.944	28994.82
341.396	31191.78
341.847	26244.87
342.299	30987.83
342.75	37796.04
343.201	33058.55
343.653	37966.58
344.104	46678.37
344.555	36742.8
345.006	57168.3
345.457	43704.77
345.908	34724.11
346.359	32685.39
346.81	26601.96
347.261	28041.02
347.712	27614.41
348.163	29594.98
348.613	29935.31
349.064	27933.49
349.515	24452.99
349.965	25096.53
350.416	30231.78
350.866	33176.78
351.317	37508.47
351.767	62068.99
352.217	78350
352.668	65035.01
353.118	59552.31
353.568	57484.18
354.018	45429.67
354.468	47844.13
354.918	34286.49
355.368	29977.63
355.818	42299.66
356.268	121529.35
356.718	507976.81
357.168	126316.18
357.617	63397.36
358.067	70562.65
358.517	66074.15
358.966	77353.87
359.416	86687.65
359.865	93743.46
360.315	111620.54
360.764	52148.16
361.213	29260.62
361.663	27762.27
362.112	34270.84
362.561	55245.75
363.01	41636.3
363.459	35019.78
363.908	37920.81
364.357	32196.18
364.806	54351.34
365.255	37364.39
365.703	34165.92
366.152	34224.45
366.601	27731.14
367.05	22472.1
367.498	20419.03
367.947	21322.64
368.395	22181.29
368.844	19598.33
369.292	23636.4
369.74	16299.66
370.189	24957.18
370.637	29243.16
371.085	25187.23
371.533	30642.46
371.981	29571.58
372.429	28158.72
372.877	29282.81
373.325	24469.28
373.773	24934.37
374.221	22208.46
374.669	27552.85
375.116	23773.21
375.564	23957.61
376.012	26773.44
376.459	22037.66
376.907	26325.89
377.354	31812.19
377.801	29618.92
378.249	33976.04
378.696	43377.86
379.143	52432.64
379.591	55843.08
380.038	94360.48
380.485	68081.77
380.932	73364.9
381.379	67096.59
381.826	49283.51
382.273	34936.62
382.72	30511.46
383.166	29718.05
383.613	19271.39
384.06	17351.62
384.506	20040.78
384.953	14700.07
385.4	14748.06
385.846	12898.65
386.292	12533.49
386.739	12241.36
387.185	12096.67
387.631	12069.79
388.078	11678.38
388.524	12471.88
388.97	11475.29
389.416	9550.92
389.862	10130.37
390.308	9595.54
390.754	9726.84
391.2	10526.71
391.645	10746.1
392.091	10251.53
392.537	9895.28
392.983	9903.43
393.428	9702.24
393.874	10379.35
394.319	10391.05
394.765	9829.33
395.21	10070.94
395.655	9406.07
396.101	8798.16
396.546	7914.71
396.991	7967.67
397.436	7383.55
397.881	7108.17
398.326	6718.53
398.771	6339.04
399.216	5525.12
399.661	4961
400.106	4929.45
400.551	5033.69
400.995	4497.05
401.44	4440.46
401.885	4159.1
402.329	4187.66
402.774	4011.24
403.218	3872.81
403.663	3722.57
404.107	3823.24
404.551	3847.58
404.995	3520.11
405.44	3390.08
405.884	3438.95
406.328	3320.49
406.772	3310.16
407.216	3011.2
407.66	2903.22
408.104	2751.42
408.547	2572.35
408.991	2485.57
409.435	2388.4
409.879	2353.49
410.322	2315.96
410.766	2234.75
411.209	2123.05
411.653	2032.13
412.096	1985.34
412.54	1982.26
412.983	1970.05
413.426	1974.62
413.869	1967.41
414.312	1929.47
414.756	1857.83
415.199	1769.81
415.642	1713.5
416.085	1715.02
416.527	1701.81
416.97	1728.57
417.413	1639.28
417.856	1619.2
418.298	1599.58
418.741	1588.36
419.184	1580.12
419.626	1646.58
420.069	1646.7
420.511	1656.68
420.953	1618.46
421.396	1603.66
421.838	1561.16
422.28	1597.15
422.722	1604.33
423.164	1623.74
423.606	1596.65
424.048	1594.46
424.49	1511.16
424.932	1503.49
425.374	1481.25
425.816	1508.42
426.258	1535.35
426.699	1553.73
427.141	1530.06
427.582	1550.07
428.024	1545.33
428.465	1533.97
428.907	1495.65
429.348	1479.23
429.789	1479.44
430.231	1447.73
430.672	1465.1
431.113	1429.45
431.554	1407.99
431.995	1371.25
432.436	1324.53
432.877	1294.5
433.318	1271.76
433.759	1265.36
434.2	1264.28
434.64	1248.57
435.081	1252.11
435.522	1186.78
435.962	1142.72
436.403	1115.9
436.843	1133.97
437.284	1108.38
437.724	1077.13
438.164	1077.63
438.604	1053
439.045	1011.72
439.485	970.52
439.925	947.79
440.365	923.42
440.805	910.19
441.245	898.15
441.685	861.34
442.125	854.52
442.564	857.62
443.004	836.31
443.444	832.22
443.883	832.77
444.323	824.06
444.762	823.83
445.202	833.67
445.641	846.14
446.081	839.06
446.52	843.92
446.959	832.54
447.398	811.3
447.837	801.16
448.276	784.78
448.716	789.31
449.154	794.72
449.593	775.23
450.032	768.07
450.471	753.93
450.91	752.05
451.349	748.66
451.787	742.43
452.226	753.14
452.664	751.76
453.103	752.07
453.541	749.26
453.98	746.66
454.418	750.26
454.856	738.42
455.295	734.63
455.733	739.72
456.171	741.85
456.609	742.21
457.047	739.4
457.485	749.75
457.923	749.91
458.361	739.76
458.798	740.59
459.236	737.72
459.674	743.02
460.111	747.11
460.549	740.11
460.987	736.75
461.424	733.9
461.862	729.52
462.299	715.79
462.736	714.94
463.173	715.69
463.611	709.03
464.048	706.58
464.485	710.74
464.922	701.49
465.359	695.4
465.796	689.44
466.233	683.85
466.67	677.71
467.106	677.25
467.543	669.94
467.98	660.61
468.416	641.24
468.853	634.94
469.29	614.02
469.726	608.59
470.162	592.88
470.599	582.52
471.035	576.22
471.471	561.97
471.907	557.6
472.344	553.16
472.78	555.22
473.216	561.54
473.652	554.33
474.088	553.54
474.523	551.19
474.959	556.59
475.395	550.28
475.831	548.43
476.266	549.92
476.702	547
477.138	541.81
477.573	538.96
478.008	536.72
478.444	540.42
478.879	545.87
479.314	547.99
479.75	546.67
480.185	548.65
480.62	551.57
481.055	554.52
481.49	559.27
481.925	566.45
482.36	577.37
482.795	592.82
483.229	606.57
483.664	617.59
484.099	617.99
484.534	626.03
484.968	631.57
485.403	632.64
485.837	630.67
486.271	627.58
486.706	626.08
487.14	615.38
487.574	603.55
488.009	595.84
488.443	587.61
488.877	592.35
489.311	591.98
489.745	596.73
490.179	599.54
490.613	609.44
491.046	611.87
491.48	613.91
491.914	612.59
492.348	614.45
492.781	616.48
493.215	615.46
493.648	613.39
494.082	614.97
494.515	612.42
494.948	616.26
495.382	615.79
495.815	616.37
496.248	617.58
496.681	624.83
497.114	630.63
497.547	634.71
497.98	643.03
498.413	644.47
498.846	648.65
499.279	650.76
499.711	649.84
500.144	647.17
500.577	651.37
501.009	655.11
501.442	658.92
501.874	655.96
502.306	652.51
502.739	655.46
503.171	661.86
503.603	660.71
504.036	663.21
504.468	662.79
504.9	666.35
505.332	666.87
505.764	667.01
506.196	666.64
506.627	672.46
507.059	678.44
507.491	677.61
507.923	672.27
508.354	678.7
508.786	683.09
509.217	692.36
509.649	700.03
510.08	709.72
510.512	718.97
510.943	726.94
511.374	732.33
511.805	743.62
512.237	755.54
512.668	775.59
513.099	792.24
513.53	809.25
513.961	822.39
514.391	843.4
514.822	867.74
515.253	891.91
515.684	910.11
516.114	930.44
516.545	946.45
516.975	965.36
517.406	978.57
517.836	981.23
518.267	987.69
518.697	1002.28
519.127	1007.48
519.558	1013.35
519.988	1017.05
520.418	1026.78
520.848	1042.12
521.278	1051.11
521.708	1093.49
522.138	1106.62
522.567	1132.49
522.997	1153.77
523.427	1168.63
523.857	1184.7
524.286	1195.86
524.716	1211.36
525.145	1229.11
525.575	1242.28
526.004	1256.86
526.433	1230.62
526.863	1234.89
527.292	1232.72
527.721	1241.97
528.15	1250.12
528.579	1254.14
529.008	1266.24
529.437	1286.46
529.866	1299.77
530.295	1314.8
530.724	1328.42
531.152	1351.89
531.581	1364.77
532.01	1380.46
532.438	1388.52
532.867	1401.25
533.295	1418.27
533.723	1424.9
534.152	1425.32
534.58	1426.82
535.008	1416.54
535.436	1419.47
535.865	1427.09
536.293	1439.21
536.721	1451.74
537.149	1473.18
537.576	1477.52
538.004	1487.74
538.432	1493.87
538.86	1493.46
539.287	1499.67
539.715	1510.97
540.143	1512.82
540.57	1509.92
540.998	1508.27
541.425	1492.67
541.852	1476.24
542.28	1474.29
542.707	1461.41
543.134	1451.52
543.561	1447.47
543.988	1442.7
544.415	1442.66
544.842	1437.96
545.269	1432.95
545.696	1435.23
546.123	1445.61
546.549	1438.26
546.976	1429.67
547.403	1431.28
547.829	1434.02
548.256	1437.62
548.682	1435.44
549.108	1431.53
549.535	1433.1
549.961	1436.04
550.387	1426.37
550.813	1423.44
551.24	1429.52
551.666	1431.27
552.092	1423.1
552.518	1417.45
552.943	1413.07
553.369	1419.77
553.795	1422.46
554.221	1423.32
554.646	1420.7
555.072	1429.7
555.498	1431.91
555.923	1438.18
556.349	1449.34
556.774	1456.4
557.199	1456.64
557.625	1460.98
558.05	1455.34
558.475	1463.72
558.9	1462.27
559.325	1454.43
559.75	1447.82
560.175	1441.21
560.6	1435.07
561.025	1430.46
561.449	1428.02
561.874	1431.6
562.299	1433.19
562.723	1435.73
563.148	1425.31
563.572	1425.33
563.997	1430.63
564.421	1430.97
564.846	1427.81
565.27	1427.41
565.694	1423.46
566.118	1430.92
566.542	1433.01
566.966	1423.56
567.39	1415.8
567.814	1402.72
568.238	1399.18
568.662	1398.1
569.086	1396.85
569.509	1398.99
569.933	1383.79
570.357	1374.42
570.78	1353.75
571.204	1340.79
571.627	1329.49
572.05	1325.88
572.474	1324.17
572.897	1310.81
573.32	1303.89
573.743	1292.82
574.166	1276.29
574.589	1274.13
575.012	1266.4
575.435	1263.03
575.858	1254.52
576.281	1244.51
576.704	1230.87
577.126	1220.1
577.549	1210.76
577.972	1201.54
578.394	1193.67
578.817	1190.18
579.239	1174.37
579.661	1163.72
580.084	1152.81
580.506	1141.53
580.928	1137.28
581.35	1128.35
581.772	1123.9
582.194	1113.98
582.616	1103.87
583.038	1091.66
583.46	1080.41
583.882	1078.23
584.303	1079.27
584.725	1075.57
585.147	1080.83
585.568	1089.12
585.99	1097.69
586.411	1102.06
586.833	1113.13
587.254	1112.87
587.675	1123.39
588.096	1132.04
588.518	1128.1
588.939	1115.7
589.36	1113.3
589.781	1099.76
590.202	1079.78
590.623	1072.72
591.043	1069.78
591.464	1059.15
591.885	1056.96
592.305	1051.53
592.726	1041.74
593.147	1041.25
593.567	1037.04
593.987	1031
594.408	1027.45
594.828	1024.12
595.248	1019.88
595.669	1007.2
596.089	1001.03
596.509	994.98
596.929	984.63
597.349	985.06
597.769	976.87
598.189	971.89
598.608	972.2
599.028	972.54
599.448	970.67
599.867	959.98
600.287	955.41
600.706	952.19
601.126	945.57
601.545	945.47
601.965	942.94
602.384	939.32
602.803	941.05
603.222	938.4
603.641	934.35
604.061	932.82
604.48	929.84
604.898	935.86
605.317	938.6
605.736	939.7
606.155	938.08
606.574	932.31
606.992	935.65
607.411	932.28
607.829	924.86
608.248	921.44
608.666	918.53
609.085	919.3
609.503	912.97
609.921	909.35
610.339	910.7
610.758	909.31
611.176	905.57
611.594	898.97
612.012	896.19
612.43	899.08
612.847	902.82
613.265	904.68
613.683	906.51
614.101	907.49
614.518	904.21
614.936	896.84
615.353	886.67
615.771	884.71
616.188	885.11
616.606	882.08
617.023	877.46
617.44	868.51
617.857	862.3
618.274	856.29
618.691	853.04
619.108	846.48
619.525	842.3
619.942	847.85
620.359	849.16
620.776	845.33
621.192	844.61
621.609	842.86
622.026	847.77
622.442	853.24
622.859	855.69
623.275	850.27
623.691	854.49
624.108	862.65
624.524	871.16
624.94	871.69
625.356	877.76
625.772	885.13
626.188	891.85
626.604	892.65
627.02	888.79
627.436	887.22
627.852	891.6
628.268	899.88
628.683	892.87
629.099	886.06
629.514	881.73
629.93	884.97
630.345	887.82
630.761	885.9
631.176	887.66
631.591	884.95
632.007	880.83
632.422	878.59
632.837	869.98
633.252	868.44
633.667	862.28
634.082	857.24
634.497	849.21
634.911	837.78
635.326	835.58
635.741	824.37
636.155	817.2
636.57	819.32
636.984	819.66
637.399	823.67
637.813	823.07
638.228	823.52
638.642	826
639.056	819.28
639.47	818.88
639.884	813.93
640.298	810.59
640.712	811.91
641.126	804.63
641.54	799.81
641.954	794.34
642.368	788.76
642.781	786.66
643.195	777.09
643.609	780.31
644.022	778.46
644.436	776.93
644.849	769.96
645.262	762.06
645.676	763.56
646.089	761.83
646.502	756.49
646.915	755.26
647.328	744.61
647.741	745.66
648.154	736.9
648.567	739.61
648.98	733.13
649.393	736.16
649.805	736.93
650.218	734.04
650.631	725.37
651.043	720.96
651.456	717.93
651.868	719.07
652.28	732.61
652.693	744.42
653.105	748.68
653.517	756.29
653.929	757.52
654.341	762.32
654.753	756.26
655.165	762.92
655.577	764.62
655.989	765.52
656.401	761.59
656.813	738.62
657.224	726.95
657.636	708.17
658.047	699.45
658.459	688.97
658.87	685.57
659.282	679.68
659.693	669.34
660.104	661.43
660.515	653.23
660.926	655.14
661.338	656.75
661.749	655.46
662.159	653.63
662.57	653.38
662.981	654.5
663.392	652.86
663.803	660.79
664.213	662.59
664.624	663.07
665.035	671.24
665.445	664.98
665.855	663.11
666.266	660.79
666.676	662.02
667.086	658.61
667.497	661.67
667.907	660.92
668.317	656.76
668.727	658.64
669.137	661.99
669.547	661.95
669.956	667.17
670.366	671.35
670.776	676.33
671.186	681.28
671.595	687.03
672.005	691.99
672.414	691.43
672.824	691.26
673.233	694.79
673.642	697.95
674.052	701.73
674.461	705.54
674.87	710.77
675.279	708.92
675.688	710.38
676.097	712.47
676.506	708.93
676.915	724.47
677.323	727.68
677.732	725.35
678.141	724.66
678.549	714.36
678.958	712.92
679.366	710.34
679.775	712.91
680.183	723.52
680.592	727.04
681	730.57
681.408	721.87
681.816	725.8
682.224	729.88
682.632	736.19
683.04	758
683.448	772.89
683.856	793.66
684.264	817.88
684.671	835.31
685.079	859.07
685.487	885.79
685.894	923.45
686.302	951.12
686.709	971.52
687.116	994.37
687.524	1010.51
687.931	1022.8
688.338	1028.87
688.745	1030.42
689.152	1035.98
689.559	1050.41
689.966	1066.36
690.373	1067.01
690.78	1082.62
691.187	1113.56
691.593	1136.86
692	1157.33
692.407	1189.85
692.813	1238.68
693.22	1276.69
693.626	1316.8
694.032	1352.05
694.439	1404.54
694.845	1447.19
695.251	1502.45
695.657	1556.2
696.063	1633.14
696.469	1692.23
696.875	1753.31
697.281	1791.19
697.687	1839.06
698.093	1881.6
698.498	1951.31
698.904	2010.84
699.31	2096.27
699.715	2164.93
