Data from C_3_DEC_OH_4N_Splice17_13-33-31-383.txt Node
Date: Sat Mar 14 13:33:31 EDT 2020
User: sa697716
Spectrometer: FLMS03696
Trigger mode: 0
Integration Time (sec): 3.180400E-1
Scans to average: 20
Electric dark correction enabled: true
Nonlinearity correction enabled: true
Boxcar width: 5
XAxis mode: Wavelengths
Number of Pixels in Spectrum: 2048
>>>>>Begin Spectral Data<<<<<
187.83	-392504.26
188.298	2828.34
188.766	1530.59
189.233	1363.05
189.701	1961.29
190.169	2807.49
190.636	1098.35
191.104	836.62
191.571	104.93
192.039	-93.34
192.506	-50.7
192.974	712.68
193.441	-1095.56
193.908	-187.58
194.375	-65.17
194.842	-0.48
195.31	127.2
195.777	205.77
196.244	413.14
196.711	465.3
197.177	606.01
197.644	858.72
198.111	1512.16
198.578	2111.26
199.045	1669.75
199.511	2742.05
199.978	3222.53
200.445	2777.4
200.911	3097.38
201.378	3454.41
201.844	3154.45
202.31	5398.91
202.777	5637.35
203.243	3129.3
203.709	2965.68
204.176	3564.65
204.642	2950.73
205.108	2788.09
205.574	2249.36
206.04	2050.97
206.506	1937.21
206.972	1841.67
207.438	1805.17
207.903	2078.52
208.369	1849.94
208.835	1894.26
209.301	2009.19
209.766	2093.3
210.232	2110.96
210.697	2717.51
211.163	3457.92
211.628	5387.55
212.094	4631.32
212.559	5786.39
213.024	3670.52
213.49	4556.96
213.955	4508.28
214.42	4513.57
214.885	4277.54
215.35	4169.78
215.815	4055.75
216.28	4402.76
216.745	3719.97
217.21	4210.48
217.675	4138.42
218.14	4990.96
218.604	6009.46
219.069	7342.44
219.534	8118.93
219.998	9995.96
220.463	12701.04
220.927	16445.51
221.392	16002.41
221.856	16604.4
222.32	21532.09
222.785	27002.1
223.249	34504.61
223.713	38947.35
224.177	39304.34
224.642	51010.03
225.106	63177.07
225.57	69515.33
226.034	51788.3
226.497	79150.85
226.961	71704.15
227.425	83636.24
227.889	93271.24
228.353	93629.36
228.816	193902.89
229.28	185847.61
229.744	157033.41
230.207	95463.93
230.671	94078.32
231.134	156296.23
231.597	180249.46
232.061	180568.65
232.524	176505.98
232.987	121647.56
233.45	109438.59
233.914	98267.51
234.377	100895.6
234.84	92378.12
235.303	109110.63
235.766	121779.02
236.229	125832.05
236.691	79375.26
237.154	89293.95
237.617	67099.46
238.08	68790.15
238.542	80552.3
239.005	57522.51
239.468	57043.07
239.93	53705.3
240.393	48752.54
240.855	42765.94
241.317	43821.5
241.78	53347.2
242.242	55087.12
242.704	59415.8
243.166	51659.16
243.629	46810.59
244.091	53982.75
244.553	59196.66
245.015	63642.29
245.477	82464.68
245.939	120983.98
246.4	128450.93
246.862	124990.16
247.324	117906.78
247.786	132250.79
248.247	173635.78
248.709	179899.1
249.17	134547.54
249.632	126613.37
250.093	146751.13
250.555	126804.76
251.016	77348.06
251.477	73367.96
251.939	79197.43
252.4	83204.01
252.861	98990.95
253.322	92083.72
253.783	109730.37
254.244	142485.45
254.705	112611.3
255.166	100374.44
255.627	98898.88
256.088	139504.34
256.549	148317.04
257.009	127835.2
257.47	155341.24
257.931	126787.28
258.391	95172.2
258.852	98248.51
259.312	103285.62
259.773	127856.74
260.233	108161.89
260.694	91386.1
261.154	103955.87
261.614	83455.32
262.074	74830.34
262.534	77846.44
262.994	73438.63
263.455	98096.22
263.915	82780.7
264.374	78121.57
264.834	85509.22
265.294	95042.99
265.754	98609.66
266.214	93563.88
266.673	87923.72
267.133	111170.44
267.593	110561.62
268.052	135560.26
268.512	118096.15
268.971	142452.21
269.431	156341.78
269.89	140105.66
270.349	210172.89
270.809	234512.38
271.268	210968.36
271.727	473870.95
272.186	307196.05
272.645	230467.66
273.104	166521.14
273.563	241256.31
274.022	190105.02
274.481	161631.47
274.94	124530.59
275.399	92717.14
275.857	108096.44
276.316	146327.69
276.775	130352.71
277.233	128415.44
277.692	120176.36
278.15	135889.94
278.609	139641.19
279.067	129231.3
279.525	120097.04
279.984	155218.57
280.442	186290.07
280.9	183416.24
281.358	120652.6
281.816	112304.92
282.274	109927.63
282.732	113673.59
283.19	114230.13
283.648	98672.65
284.106	105074.83
284.564	106880.92
285.021	99009.81
285.479	73786.57
285.937	67190.77
286.394	58865.23
286.852	60629.38
287.309	63695.42
287.767	61455.2
288.224	58443.25
288.682	64208.54
289.139	70491.27
289.596	64528.63
290.053	67195.29
290.511	85004.99
290.968	103209.06
291.425	140565.24
291.882	116988.31
292.339	101983.56
292.796	101520.31
293.252	95860.05
293.709	76085.09
294.166	68308.1
294.623	75646.79
295.079	72716.85
295.536	73027.16
295.992	66333.33
296.449	65584.3
296.905	68200.5
297.362	65370.76
297.818	68820.63
298.274	71348.83
298.731	72848.21
299.187	72113.62
299.643	77504.13
300.099	93712.89
300.555	102904.48
301.011	86078.52
301.467	82820.38
301.923	97164.46
302.379	94947.97
302.835	93237.93
303.291	93392.3
303.746	106367.41
304.202	134360.7
304.658	134905.74
305.113	90701.08
305.569	88810.55
306.024	94665.04
306.479	90320.61
306.935	75998.02
307.39	83031.2
307.845	76647.24
308.301	77023.85
308.756	75024.76
309.211	72288.34
309.666	73999.42
310.121	91739.41
310.576	93183.58
311.031	92479.7
311.486	105970.27
311.94	106045.59
312.395	141817.88
312.85	266608.75
313.305	1312761.58
313.759	6774346.66
314.214	490635.85
314.668	388496.09
315.123	326414.15
315.577	116899.23
316.032	103939.02
316.486	130290.95
316.94	102640.21
317.394	71422.68
317.849	55513.29
318.303	52632.97
318.757	49770.24
319.211	55117.13
319.665	48334.53
320.119	49042.3
320.572	70498.23
321.026	65847.22
321.48	54836.73
321.934	59932.11
322.387	60148.18
322.841	64947.1
323.295	58174.28
323.748	67147.62
324.202	68049.68
324.655	81652.45
325.108	113855.04
325.562	80354.07
326.015	95671.18
326.468	72277.66
326.921	80758.89
327.374	75209.24
327.827	78266.04
328.28	88676.15
328.733	59333.8
329.186	52176.92
329.639	49709.75
330.092	41942.44
330.545	39917.57
330.997	40170.51
331.45	43818.98
331.903	51277.19
332.355	88377.64
332.808	85964.15
333.26	70976.41
333.713	76936.44
334.165	77476.77
334.617	103565.17
335.069	83855.92
335.522	151749.72
335.974	168053.16
336.426	153713.31
336.878	106691.59
337.33	54019.09
337.782	52712.34
338.234	65910.78
338.686	79030.78
339.137	93738.6
339.589	88312.75
340.041	69151.61
340.493	59551.92
340.944	61033.67
341.396	65798.06
341.847	55283.98
342.299	65207.43
342.75	79572.85
343.201	69821.83
343.653	80431.42
344.104	99063.89
344.555	78111.58
345.006	122027.77
345.457	93226.35
345.908	74270.05
346.359	69867.92
346.81	57058.84
347.261	60307.13
347.712	59534.5
348.163	63867.01
348.613	64523.41
349.064	60268.67
349.515	52737.98
349.965	54006.01
350.416	65188.84
350.866	71592
351.317	81088.64
351.767	134205.62
352.217	169693.94
352.668	140808.48
353.118	128984.93
353.568	124727.41
354.018	98464.17
354.468	103802.65
354.918	74443.38
355.368	65102.26
355.818	91914.58
356.268	264649.56
356.718	1105285.98
357.168	274571.84
357.617	137890.36
358.067	153558.58
358.517	143776.43
358.966	168564.53
359.416	189005.61
359.865	204583.21
360.315	244046.23
360.764	113996.18
361.213	63880.37
361.663	60769.64
362.112	75144.72
362.561	121541.06
363.01	91650.53
363.459	77261.47
363.908	83787.51
364.357	71092.45
364.806	120265.54
365.255	82684.54
365.703	75693.97
366.152	75763.86
366.601	61377.56
367.05	49803.98
367.498	45204.66
367.947	47309.19
368.395	49221.16
368.844	43554.79
369.292	52733.78
369.74	36382.22
370.189	55813.94
370.637	65408.48
371.085	56508.85
371.533	68872.7
371.981	66535.93
372.429	63361.2
372.877	65982.76
373.325	55192.15
373.773	56314.21
374.221	50135.15
374.669	62240.31
375.116	53827.53
375.564	54322.78
376.012	60729.36
376.459	50036.12
376.907	59727.19
377.354	72310.36
377.801	67253.32
378.249	77184.06
378.696	98588.12
379.143	119191.51
379.591	126936.27
380.038	214015.1
380.485	154235.11
380.932	166353.36
381.379	151496.76
381.826	111174.48
382.273	78888.73
382.72	69019.54
383.166	67153.43
383.613	43464.55
384.06	39147.99
384.506	45261.3
384.953	33235.49
385.4	33481.5
385.846	29286.97
386.292	28601.78
386.739	27993.38
387.185	27647.04
387.631	27588.81
388.078	26664.68
388.524	28462.33
388.97	26185.32
389.416	21746.15
389.862	23045.34
390.308	21752.39
390.754	22002.91
391.2	23789.87
391.645	24281.11
392.091	23067.24
392.537	22200.38
392.983	22223.82
393.428	21708.54
393.874	23230.48
394.319	23198.95
394.765	21882.95
395.21	22450.04
395.655	20979.86
396.101	19593.3
396.546	17617.43
396.991	17786.13
397.436	16487.09
397.881	15892.83
398.326	15070.75
398.771	14183
399.216	12395.77
399.661	11155.81
400.106	11071.7
400.551	11304.41
400.995	10122.3
401.44	10003.29
401.885	9389.84
402.329	9471.36
402.774	9070.47
403.218	8732.31
403.663	8412.88
404.107	8627.49
404.551	8656.5
404.995	7929.17
405.44	7637.75
405.884	7749.37
406.328	7498.75
406.772	7459.6
407.216	6783.68
407.66	6543.47
408.104	6229.24
408.547	5828.79
408.991	5635.29
409.435	5429.89
409.879	5345.9
410.322	5266.9
410.766	5068.99
411.209	4802.31
411.653	4605.9
412.096	4495.27
412.54	4493.57
412.983	4454.88
413.426	4451.31
413.869	4441.96
414.312	4342.86
414.756	4179.76
415.199	3983.18
415.642	3861.32
416.085	3859.54
416.527	3825.39
416.97	3889.14
417.413	3689.02
417.856	3652.61
418.298	3624.33
418.741	3606.97
419.184	3607.94
419.626	3768.64
420.069	3773.63
420.511	3791.4
420.953	3706.98
421.396	3672.45
421.838	3580.13
422.28	3657.12
422.722	3668.83
423.164	3713.57
423.606	3641.7
424.048	3634.94
424.49	3443.83
424.932	3422.69
425.374	3381.74
425.816	3447.62
426.258	3516.47
426.699	3560.71
427.141	3501.75
427.582	3558.92
428.024	3541.85
428.465	3519.09
428.907	3421.87
429.348	3375.51
429.789	3363.55
430.231	3277.31
430.672	3312.5
431.113	3224.15
431.554	3161.54
431.995	3076.35
432.436	2948.19
432.877	2869
433.318	2807.13
433.759	2787.55
434.2	2785.18
434.64	2749.61
435.081	2751.94
435.522	2595.22
435.962	2495.79
436.403	2430.93
436.843	2461.85
437.284	2409.87
437.724	2348.08
438.164	2361.5
438.604	2308.87
439.045	2209.47
439.485	2113.76
439.925	2063.48
440.365	2010.01
440.805	1979.05
441.245	1951.78
441.685	1875.78
442.125	1860.24
442.564	1867.48
443.004	1816.06
443.444	1807.76
443.883	1806.8
444.323	1792.89
444.762	1799.63
445.202	1821.55
445.641	1847.44
446.081	1835.69
446.52	1845.67
446.959	1818.47
447.398	1765.04
447.837	1738.84
448.276	1702.68
448.716	1715.1
449.154	1729.13
449.593	1681.17
450.032	1672.41
450.471	1640.52
450.91	1638.97
451.349	1628.07
451.787	1621.67
452.226	1643.46
452.664	1642.89
453.103	1645.33
453.541	1644.35
453.98	1635.88
454.418	1647.64
454.856	1618.49
455.295	1614.05
455.733	1624.05
456.171	1635.34
456.609	1633.17
457.047	1634.8
457.485	1653.52
457.923	1653.19
458.361	1629.84
458.798	1633.84
459.236	1626.57
459.674	1637.51
460.111	1643.89
460.549	1625.39
460.987	1618.7
461.424	1613.92
461.862	1601.87
462.299	1576.47
462.736	1571.82
463.173	1574.72
463.611	1550.54
464.048	1543.09
464.485	1551.03
464.922	1533.99
465.359	1524.97
465.796	1491.6
466.233	1476.2
466.67	1458.1
467.106	1451.88
467.543	1437.9
467.98	1418.3
468.416	1383.64
468.853	1374.09
469.29	1334.21
469.726	1320.5
470.162	1287.62
470.599	1281.2
471.035	1273.21
471.471	1246.06
471.907	1242.75
472.344	1236.99
472.78	1240.1
473.216	1258.18
473.652	1244.73
474.088	1245.14
474.523	1241.37
474.959	1254.44
475.395	1244.48
475.831	1237
476.266	1244.96
476.702	1242.28
477.138	1229.42
477.573	1227.05
478.008	1223.52
478.444	1229.33
478.879	1238.74
479.314	1245.41
479.75	1245.55
480.185	1253.26
480.62	1267.46
481.055	1275.49
481.49	1286.18
481.925	1305.62
482.36	1328.82
482.795	1367.99
483.229	1406
483.664	1437.49
484.099	1443.31
484.534	1465.54
484.968	1478.36
485.403	1481.9
485.837	1480.36
486.271	1476.4
486.706	1477.66
487.14	1460.16
487.574	1434.58
488.009	1420.03
488.443	1405.38
488.877	1415.47
489.311	1417.46
489.745	1429.17
490.179	1437.69
490.613	1456.88
491.046	1465.25
491.48	1470.05
491.914	1465.89
492.348	1471.73
492.781	1473.95
493.215	1470.58
493.648	1468.78
494.082	1472.6
494.515	1466.68
494.948	1474.49
495.382	1478.88
495.815	1478.76
496.248	1481.84
496.681	1499.98
497.114	1514.18
497.547	1525.17
497.98	1541.39
498.413	1541.61
498.846	1550.85
499.279	1557.51
499.711	1556.51
500.144	1549.69
500.577	1558.61
501.009	1568.02
501.442	1573.62
501.874	1561.56
502.306	1553.77
502.739	1552.75
503.171	1567.47
503.603	1558.27
504.036	1562.38
504.468	1557.71
504.9	1563.15
505.332	1560
505.764	1551.89
506.196	1548.33
506.627	1558.91
507.059	1565.06
507.491	1566.15
507.923	1546.66
508.354	1554.95
508.786	1555.35
509.217	1566.85
509.649	1573.2
510.08	1585.25
510.512	1592.94
510.943	1599.51
511.374	1599.11
511.805	1611.07
512.237	1620.9
512.668	1651.37
513.099	1672.73
513.53	1692.59
513.961	1702.97
514.391	1729.25
514.822	1756.68
515.253	1788.07
515.684	1804.96
516.114	1827.24
516.545	1839.02
516.975	1856.89
517.406	1863.3
517.836	1849.77
518.267	1843.6
518.697	1851.74
519.127	1843.38
519.558	1839.05
519.988	1829.11
520.418	1827.59
520.848	1835.96
521.278	1832.83
521.708	1836.97
522.138	1839.54
522.567	1865.89
522.997	1883.87
523.427	1890.02
523.857	1897.83
524.286	1899.18
524.716	1908.76
525.145	1921.03
525.575	1923.33
526.004	1930.77
526.433	1916.53
526.863	1908.48
527.292	1888.3
527.721	1887.88
528.15	1888.04
528.579	1882.87
529.008	1888.48
529.437	1906.01
529.866	1915.36
530.295	1927.9
530.724	1938.08
531.152	1962.06
531.581	1974.03
532.01	1989.34
532.438	1993.85
532.867	2006.8
533.295	2023.81
533.723	2027.02
534.152	2022.86
534.58	2019.86
535.008	2000.79
535.436	1999.2
535.865	2004.62
536.293	2016.5
536.721	2031.87
537.149	2057.11
537.576	2057.93
538.004	2069.21
538.432	2074.58
538.86	2069.98
539.287	2075.14
539.715	2088.3
540.143	2089.56
540.57	2083.47
540.998	2077.3
541.425	2050.69
541.852	2026.53
542.28	2021.69
542.707	2002.54
543.134	1986.82
543.561	1980.57
543.988	1971.49
544.415	1969.8
544.842	1962.14
545.269	1954.22
545.696	1956.23
546.123	1970.14
546.549	1958.09
546.976	1943.7
547.403	1943
547.829	1946.13
548.256	1948.96
548.682	1944.97
549.108	1937.96
549.535	1937.91
549.961	1941.27
550.387	1928.16
550.813	1921.47
551.24	1929.09
551.666	1932.44
552.092	1922.54
552.518	1916.03
552.943	1910.71
553.369	1921.21
553.795	1927.34
554.221	1930.34
554.646	1927.86
555.072	1941.7
555.498	1949.13
555.923	1961.41
556.349	1979.41
556.774	1990.55
557.199	1994.3
557.625	2003.66
558.05	1998.75
558.475	2014.09
558.9	2015.86
559.325	2009.52
559.75	2004.46
560.175	2002.18
560.6	1998.02
561.025	1999.77
561.449	2006.2
561.874	2016.3
562.299	2025.17
562.723	2036.58
563.148	2029.84
563.572	2040.02
563.997	2057.3
564.421	2068.6
564.846	2073.73
565.27	2083.93
565.694	2085.9
566.118	2104.4
566.542	2117.67
566.966	2115.52
567.39	2116.9
567.814	2108.47
568.238	2113.17
568.662	2124.7
569.086	2135.11
569.509	2149.21
569.933	2136.72
570.357	2134.37
570.78	2115.72
571.204	2107.62
571.627	2101.48
572.05	2106.06
572.474	2113.25
572.897	2104.72
573.32	2101.04
573.743	2095.18
574.166	2079.59
574.589	2086.33
575.012	2083.9
575.435	2089.38
575.858	2084.3
576.281	2076.83
576.704	2063.34
577.126	2054.84
577.549	2047.49
577.972	2042.35
578.394	2037.06
578.817	2034.69
579.239	2018.1
579.661	2008.25
580.084	1994.19
580.506	1982.92
580.928	1984.84
581.35	1975.81
581.772	1975.97
582.194	1964.33
582.616	1953.2
583.038	1938.63
583.46	1930.68
583.882	1931.58
584.303	1941.26
584.725	1940.86
585.147	1948.52
585.568	1965.48
585.99	1986.49
586.411	1998.86
586.833	2020.65
587.254	2026.99
587.675	2048.39
588.096	2068.51
588.518	2065.11
588.939	2045.9
589.36	2045.08
589.781	2035.79
590.202	2002.11
590.623	1993.76
591.043	1993.15
591.464	1981.32
591.885	1978.77
592.305	1974.47
592.726	1958.53
593.147	1962.79
593.567	1959.29
593.987	1952.14
594.408	1946.12
594.828	1945.2
595.248	1940.16
595.669	1918.04
596.089	1909.5
596.509	1902.68
596.929	1885.38
597.349	1888.39
597.769	1876.52
598.189	1868.81
598.608	1873.28
599.028	1878.01
599.448	1881.19
599.867	1865.93
600.287	1862.73
600.706	1860.29
601.126	1850.76
601.545	1852.75
601.965	1853.39
602.384	1849.34
602.803	1857.22
603.222	1854.78
603.641	1848.71
604.061	1847.07
604.48	1844.93
604.898	1859.74
605.317	1870.89
605.736	1876.92
606.155	1876.72
606.574	1868.79
606.992	1879.74
607.411	1877.28
607.829	1869.31
608.248	1870.21
608.666	1871.52
609.085	1875.26
609.503	1867.52
609.921	1863.19
610.339	1871.61
610.758	1876.86
611.176	1875.36
611.594	1868.13
612.012	1868.56
612.43	1878.14
612.847	1892.59
613.265	1899.26
613.683	1911.66
614.101	1920.31
614.518	1920.57
614.936	1911.27
615.353	1894.95
615.771	1895.99
616.188	1901.86
616.606	1901.76
617.023	1897.8
617.44	1882.55
617.857	1876.53
618.274	1868.59
618.691	1863.3
619.108	1852.54
619.525	1847.54
619.942	1861.9
620.359	1869.15
620.776	1865.09
621.192	1862.15
621.609	1860.07
622.026	1871.27
622.442	1881.77
622.859	1887.99
623.275	1879.44
623.691	1890.07
624.108	1908.22
624.524	1929.87
624.94	1930.65
625.356	1946.54
625.772	1967.45
626.188	1985.95
626.604	1989.12
627.02	1983.81
627.436	1981.81
627.852	1993.38
628.268	2012.02
628.683	1999.09
629.099	1987.49
629.514	1981.5
629.93	1987.5
630.345	1994.93
630.761	1991.2
631.176	1998.09
631.591	1991.1
632.007	1983.7
632.422	1981.87
632.837	1966.3
633.252	1964.79
633.667	1951.18
634.082	1940.56
634.497	1925.73
634.911	1898.6
635.326	1896.81
635.741	1876.01
636.155	1866.14
636.57	1873.81
636.984	1879
637.399	1889.79
637.813	1897.37
638.228	1904.38
638.642	1918.91
639.056	1910.51
639.47	1921.48
639.884	1917.54
640.298	1917.26
640.712	1925.25
641.126	1915.65
641.54	1911.82
641.954	1915.5
642.368	1907.54
642.781	1904.9
643.195	1886.96
643.609	1899.91
644.022	1901.13
644.436	1906.36
644.849	1897.15
645.262	1889.04
645.676	1903.88
646.089	1907.37
646.502	1890.24
646.915	1889.89
647.328	1870.95
647.741	1878.36
648.154	1863.85
648.567	1865.82
648.98	1850.3
649.393	1858.32
649.805	1859.8
650.218	1852.85
650.631	1830.05
651.043	1823.97
651.456	1819.32
651.868	1825.6
652.28	1862.44
652.693	1893.63
653.105	1912.84
653.517	1936.73
653.929	1943.1
654.341	1960.06
654.753	1942.11
655.165	1960.99
655.577	1963.65
655.989	1962.15
656.401	1957.44
656.813	1894.47
657.224	1864.2
657.636	1817.29
658.047	1790.51
658.459	1763.27
658.87	1755.66
659.282	1743.26
659.693	1712.83
660.104	1693.4
660.515	1677.91
660.926	1682.4
661.338	1688.86
661.749	1687.21
662.159	1679.83
662.57	1683.27
662.981	1683.97
663.392	1678.31
663.803	1697.62
664.213	1703.07
664.624	1705.42
665.035	1722.02
665.445	1703.02
665.855	1694.23
666.266	1683.93
666.676	1686.23
667.086	1673.05
667.497	1677.17
667.907	1669.04
668.317	1653.75
668.727	1647.04
669.137	1654.28
669.547	1651.93
669.956	1661.93
670.366	1668.29
670.776	1674.15
671.186	1684.87
671.595	1691.85
672.005	1699.71
672.414	1697.48
672.824	1692
673.233	1703.77
673.642	1704.67
674.052	1706.61
674.461	1706.59
674.87	1715.9
675.279	1705.24
675.688	1706.12
676.097	1704.42
676.506	1694.16
676.915	1722.51
677.323	1724.52
677.732	1716.32
678.141	1709.83
678.549	1682.7
678.958	1676.53
679.366	1668.93
679.775	1676.38
680.183	1688.23
680.592	1695.03
681	1699.18
681.408	1676.35
681.816	1685.13
682.224	1695.11
682.632	1704.23
683.04	1755.84
683.448	1793.28
683.856	1840.39
684.264	1892.1
684.671	1940.37
685.079	1996.63
685.487	2058.18
685.894	2151.17
686.302	2215.82
686.709	2258.01
