Data from C_3_DIV_WI_4N_Splice17_12-56-43-855.txt Node
Date: Sat Mar 14 12:56:43 EDT 2020
User: sa697716
Spectrometer: FLMS03696
Trigger mode: 0
Integration Time (sec): 3.180400E-1
Scans to average: 20
Electric dark correction enabled: true
Nonlinearity correction enabled: true
Boxcar width: 5
XAxis mode: Wavelengths
Number of Pixels in Spectrum: 2048
>>>>>Begin Spectral Data<<<<<
187.83	-238023
188.298	1826.79
188.766	1014.08
189.233	937.04
189.701	1333.59
190.169	1857.09
190.636	696.64
191.104	602.86
191.571	95.76
192.039	-79.94
192.506	-62.71
192.974	550.59
193.441	-951.7
193.908	-249.19
194.375	-25.98
194.842	45.8
195.31	158.58
195.777	202.06
196.244	418.62
196.711	465.42
197.177	563.4
197.644	770.9
198.111	1376.46
198.578	1977.43
199.045	1554.21
199.511	2534.27
199.978	2920.56
200.445	2458.03
200.911	2716.35
201.378	3002.91
201.844	2712.3
202.31	4637.69
202.777	4821.41
203.243	2644.17
203.709	2489.76
204.176	2971.67
204.642	2451.68
205.108	2289.28
205.574	1860.68
206.04	1680.77
206.506	1596.23
206.972	1521.49
207.438	1464.19
207.903	1674.16
208.369	1480.02
208.835	1470.42
209.301	1528.03
209.766	1539.91
210.232	1531.88
210.697	1880.51
211.163	2307.3
211.628	3409.05
212.094	2814.83
212.559	3448.01
213.024	2137.71
213.49	2586.78
213.955	2509.8
214.42	2452.14
214.885	2290.97
215.35	2186.13
215.815	2125.02
216.28	2236.95
216.745	1812.16
217.21	1957.27
217.675	1771.19
218.14	1957.17
218.604	2135.83
219.069	2373.76
219.534	2458.43
219.998	2786.45
220.463	3293.32
220.927	3943.99
221.392	3641.52
221.856	3635.68
222.32	4486.06
222.785	5490.39
223.249	6830.29
223.713	7533.1
224.177	7504.61
224.642	9533.74
225.106	11647.47
225.57	12660.9
226.034	9431.15
226.497	14369.52
226.961	13002.63
227.425	15130.64
227.889	16727.7
228.353	16688.88
228.816	34453.59
229.28	32845.49
229.744	27575.8
230.207	16774.46
230.671	16498.29
231.134	27129.03
231.597	31215.66
232.061	31060.83
232.524	30228.67
232.987	20758.72
233.45	18680.68
233.914	16735.61
234.377	17115.37
234.84	15670.86
235.303	18464.52
235.766	20591.27
236.229	21240.47
236.691	13356.17
237.154	15000.16
237.617	11293.12
238.08	11555.32
238.542	13518.41
239.005	9661.5
239.468	9600.09
239.93	9051.32
240.393	8228.89
240.855	7212.16
241.317	7384.81
241.78	8969.34
242.242	9282.53
242.704	10050.55
243.166	8757.94
243.629	7971.84
244.091	9185.01
244.553	10057.63
245.015	10794.7
245.477	13947.43
245.939	20477.96
246.4	21716.43
246.862	21125.05
247.324	19896.94
247.786	22185.76
248.247	29031.16
248.709	29876.51
249.17	22341.38
249.632	21081.84
250.093	24486.65
250.555	21132.16
251.016	12899.9
251.477	12255.74
251.939	13222.2
252.4	13874.21
252.861	16477.08
253.322	15356.49
253.783	18266.57
254.244	23662.21
254.705	18637.07
255.166	16553.28
255.627	16316.54
256.088	22992.93
256.549	24393.17
257.009	20980.13
257.47	25436.14
257.931	20711.69
258.391	15519.94
258.852	16013.31
259.312	16784.07
259.773	20730.01
260.233	17552.06
260.694	14803.03
261.154	16774.71
261.614	13501.79
262.074	12066.32
262.534	12542.95
262.994	11809.98
263.455	15708.52
263.915	13212.14
264.374	12450.67
264.834	13580.27
265.294	15012.05
265.754	15526.71
266.214	14707.37
266.673	13754.48
267.133	17363.37
267.593	17203.8
268.052	21071.47
268.512	18349.05
268.971	22168.7
269.431	24281.33
269.89	21744.7
270.349	32594.28
270.809	36331.9
271.268	32649.67
271.727	73197.02
272.186	47372.57
272.645	35510.33
273.104	25574.17
273.563	36926.46
274.022	28948.47
274.481	24641.45
274.94	18984.99
275.399	14101.68
275.857	16421.3
276.316	22174.3
276.775	19720.14
277.233	19465.7
277.692	18258.68
278.15	20709.97
278.609	21376.71
279.067	19809.42
279.525	18420.99
279.984	23763.21
280.442	28594.58
280.9	28255.11
281.358	18615.77
281.816	17355.59
282.274	16957.7
282.732	17503.89
283.19	17549.36
283.648	15125.86
284.106	16132.71
284.564	16416.47
285.021	15256.81
285.479	11364.5
285.937	10314.31
286.394	9068.84
286.852	9337.91
287.309	9826.99
287.767	9513.15
288.224	9078.28
288.682	9966.99
289.139	10944.48
289.596	10007.26
290.053	10385.69
290.511	13097.57
290.968	15911.41
291.425	21496.9
291.882	17938.87
292.339	15621.39
292.796	15498.49
293.252	14578.99
293.709	11583.74
294.166	10359.83
294.623	11457.52
295.079	11002.17
295.536	11065.68
295.992	10043.17
296.449	9954.77
296.905	10352.87
297.362	9925.41
297.818	10408.48
298.274	10820.67
298.731	11018.4
299.187	10910.12
299.643	11690.6
300.099	14140.07
300.555	15506.48
301.011	12939.2
301.467	12518.42
301.923	14583.48
302.379	14241.87
302.835	14006.01
303.291	14021.11
303.746	15960.59
304.202	20190.06
304.658	20302.42
305.113	13657.94
305.569	13378.86
306.024	14280.36
306.479	13563.42
306.935	11462.93
307.39	12517.42
307.845	11572.4
308.301	11648.76
308.756	11342.92
309.211	10926.83
309.666	11190.56
310.121	13907.97
310.576	14120.96
311.031	14017.85
311.486	16026.82
311.94	16001.55
312.395	21456.8
312.85	40239.75
313.305	197204.76
313.759	1025575.4
314.214	74357.84
314.668	59071.08
315.123	49748.93
315.577	17853.9
316.032	15880.63
316.486	19889.61
316.94	15741.9
317.394	10939.35
317.849	8535.91
318.303	8083.15
318.757	7625.76
319.211	8432.66
319.665	7359.66
320.119	7444.55
320.572	10663.33
321.026	9969.67
321.48	8302.27
321.934	9043.15
322.387	9068.14
322.841	9787.21
323.295	8832.96
323.748	10122.29
324.202	10258.73
324.655	12336.82
325.108	17291.29
325.562	12228.16
326.015	14512.73
326.468	10984.53
326.921	12259.26
327.374	11441.3
327.827	11912.22
328.28	13468.56
328.733	9071.28
329.186	7988.39
329.639	7624.48
330.092	6415.51
330.545	6104.71
330.997	6168.13
331.45	6737.89
331.903	7935.55
332.355	13644.84
332.808	13271.62
333.26	10943.25
333.713	11870.26
334.165	11961.69
334.617	15944.26
335.069	12824.78
335.522	23175.52
335.974	25663.31
336.426	23460.65
336.878	16149.17
337.33	8191.01
337.782	7987.65
338.234	10027.92
338.686	11969.89
339.137	14187.67
339.589	13355.57
340.041	10502.02
340.493	9015.9
340.944	9249.46
341.396	9968.08
341.847	8439.98
342.299	9992.74
342.75	12211.26
343.201	10638.77
343.653	12285.88
344.104	15073.59
344.555	11888.78
345.006	18447.37
345.457	14217.23
345.908	11282.48
346.359	10618.65
346.81	8622.35
347.261	9041.67
347.712	8872.96
348.163	9488.02
348.613	9630.59
349.064	8997.44
349.515	7875.05
349.965	8088
350.416	9697.91
350.866	10637.05
351.317	12002.34
351.767	19864.33
352.217	25118.6
352.668	20918.49
353.118	19206.8
353.568	18404.08
354.018	14594
354.468	15379.83
354.918	11055.85
355.368	9680.58
355.818	13689.02
356.268	39408.78
356.718	165448.98
357.168	41235.81
357.617	20678.35
358.067	22984.9
358.517	21567.86
358.966	25303.63
359.416	28501.24
359.865	30735.44
360.315	36577.28
360.764	17035.53
361.213	9559.98
361.663	9002.57
362.112	11108.85
362.561	17987.06
363.01	13604.77
363.459	11421.16
363.908	12297.92
364.357	10451.9
364.806	17609.09
365.255	12159.52
365.703	11174.43
366.152	11192.53
366.601	9096.31
367.05	7425.85
367.498	6745.64
367.947	7033.75
368.395	7328.17
368.844	6511.71
369.292	7795.56
369.74	5418.17
370.189	8263.28
370.637	9641.99
371.085	8329.21
371.533	10175.25
371.981	9745.75
372.429	9317.51
372.877	9742.93
373.325	8187.11
373.773	8346.93
374.221	7453.5
374.669	9247.76
375.116	8021.24
375.564	8128.29
376.012	9092.79
376.459	7499.13
376.907	8942.91
377.354	10815.5
377.801	10112.15
378.249	11635.1
378.696	14844.99
379.143	18011.93
379.591	19170.48
380.038	32525.95
380.485	23572.95
380.932	25471.46
381.379	23517.56
381.826	17454.49
382.273	12404.48
382.72	10804.59
383.166	10528.24
383.613	6846.33
384.06	6197.18
384.506	7192.04
384.953	5258.38
385.4	5274.54
385.846	4611.68
386.292	4460.3
386.739	4356.86
387.185	4304.23
387.631	4303.94
388.078	4187.67
388.524	4487.22
388.97	4145.2
389.416	3468.67
389.862	3704.33
390.308	3517.25
390.754	3571.19
391.2	3874.62
391.645	3970.87
392.091	3821.19
392.537	3709.88
392.983	3718.79
393.428	3668.88
393.874	3925.69
394.319	3957.26
394.765	3769.71
395.21	3883.08
395.655	3649.27
396.101	3419.12
396.546	3080.25
396.991	3093.6
397.436	2869.55
397.881	2762.25
398.326	2605.02
398.771	2472.2
399.216	2152.42
399.661	1929.95
400.106	1922.3
400.551	1978
400.995	1776.59
401.44	1757.41
401.885	1651.41
402.329	1668.04
402.774	1604.27
403.218	1559.57
403.663	1495.36
404.107	1533.45
404.551	1548.15
404.995	1413.01
405.44	1353.06
405.884	1369.87
406.328	1319.19
406.772	1313.27
407.216	1193.6
407.66	1146.9
408.104	1084.04
408.547	1014.58
408.991	982.67
409.435	939.53
409.879	929.63
410.322	916.37
410.766	883.52
411.209	843.88
411.653	807.62
412.096	792.92
412.54	792.39
412.983	785.5
413.426	789.06
413.869	785.9
414.312	774.69
414.756	745.32
415.199	709.87
415.642	690.42
416.085	691.46
416.527	687.15
416.97	695.48
417.413	660.23
417.856	653.65
418.298	644.03
418.741	637.76
419.184	632.92
419.626	655.63
420.069	658.59
420.511	662.81
420.953	648.84
421.396	642.02
421.838	623.77
422.28	640.48
422.722	645.02
423.164	653.73
423.606	643.81
424.048	643.7
424.49	615.47
424.932	609.72
425.374	601.35
425.816	611.72
426.258	625.81
426.699	636.78
427.141	628.05
427.582	635.91
428.024	630.92
428.465	627.2
428.907	611.5
429.348	601.79
429.789	603.51
430.231	594
430.672	599.56
431.113	585.29
431.554	574.55
431.995	557.47
432.436	539.12
432.877	530.01
433.318	523.02
433.759	519.79
434.2	522.23
434.64	515.76
435.081	515.61
435.522	491.93
435.962	474.56
436.403	465.03
436.843	471.49
437.284	459.92
437.724	446.72
438.164	445.1
438.604	434.82
439.045	417.12
439.485	402.86
439.925	394.01
440.365	383.45
440.805	376.43
441.245	373.39
441.685	359.16
442.125	356.65
442.564	359.32
443.004	350.1
443.444	350.01
443.883	351.08
444.323	345.16
444.762	342.92
445.202	346.44
445.641	355.95
446.081	351.74
446.52	354.69
446.959	352.43
447.398	344.56
447.837	342.5
448.276	334.8
448.716	336.85
449.154	339.1
449.593	332.44
450.032	331.17
450.471	321.78
450.91	321.11
451.349	321.89
451.787	319.62
452.226	322.82
452.664	321.18
453.103	321.57
453.541	320.43
453.98	322.78
454.418	323.76
454.856	320.63
455.295	319.95
455.733	322.8
456.171	323.23
456.609	322.1
457.047	322.86
457.485	328.9
457.923	331.17
458.361	325.69
458.798	324.66
459.236	323.35
459.674	322.71
460.111	323.63
460.549	320.93
460.987	320.05
461.424	319.3
461.862	316.51
462.299	310.32
462.736	310.26
463.173	311.68
463.611	311.38
464.048	312.02
464.485	315.68
464.922	312.68
465.359	309.32
465.796	311.24
466.233	310.43
466.67	310.03
467.106	311.2
467.543	305.6
467.98	301.24
468.416	291.62
468.853	288.26
469.29	278.73
469.726	276.72
470.162	270.21
470.599	261.24
471.035	258.05
471.471	250.51
471.907	246.84
472.344	245.92
472.78	248.31
473.216	250.14
473.652	247.28
474.088	246.4
474.523	245.14
474.959	246.71
475.395	244.31
475.831	242.93
476.266	243.35
476.702	242.61
477.138	240.21
477.573	238.14
478.008	237.73
478.444	239.28
478.879	242.68
479.314	243.65
479.75	243.44
480.185	244.23
480.62	245.95
481.055	246.92
481.49	249.12
481.925	252
482.36	257.8
482.795	263.57
483.229	268.8
483.664	273.05
484.099	273.77
484.534	278.12
484.968	280.33
485.403	279.88
485.837	278.74
486.271	277.25
486.706	277
487.14	271.7
487.574	268.08
488.009	265.63
488.443	262.97
488.877	265.49
489.311	265.6
489.745	269.07
490.179	271.98
490.613	278.48
491.046	280.93
491.48	283.68
491.914	284.96
492.348	286.64
492.781	289.76
493.215	291.09
493.648	291.87
494.082	294.95
494.515	295.84
494.948	300.87
495.382	302.91
495.815	306.49
496.248	310.08
496.681	316.77
497.114	323
497.547	328.46
497.98	336.14
498.413	341.48
498.846	347.6
499.279	352.61
499.711	355.22
500.144	358.16
500.577	365.39
501.009	372.16
501.442	379.69
501.874	383.06
502.306	386.18
502.739	394.05
503.171	402.48
503.603	407.07
504.036	414.17
504.468	420.08
504.9	428.3
505.332	434.22
505.764	440.05
506.196	446.07
506.627	456.81
507.059	466.85
507.491	472.27
507.923	476.1
508.354	487.26
508.786	497.26
509.217	511.58
509.649	523.59
510.08	537.4
510.512	551
510.943	563.94
511.374	574.89
511.805	591.03
512.237	606.58
512.668	628.46
513.099	648.84
513.53	668.79
513.961	684.92
514.391	708.52
514.822	734.38
515.253	759.93
515.684	779.82
516.114	802.59
516.545	820.66
516.975	842.32
517.406	858.94
517.836	866.13
518.267	875.79
518.697	893.48
519.127	901.26
519.558	909.88
519.988	916.9
520.418	928.67
520.848	944.18
521.278	954.25
521.708	987.61
522.138	1000.65
522.567	1025.56
522.997	1046.56
523.427	1059.78
523.857	1076.15
524.286	1087.52
524.716	1102.96
525.145	1119.94
525.575	1131.61
526.004	1145.63
526.433	1128.51
526.863	1132.57
527.292	1129.52
527.721	1137.52
528.15	1144.9
528.579	1148.34
529.008	1159.01
529.437	1176.43
529.866	1188.07
530.295	1202.16
530.724	1213.54
531.152	1235.28
531.581	1247.6
532.01	1261.96
532.438	1268.46
532.867	1281.05
533.295	1295.75
533.723	1301.42
534.152	1302.06
534.58	1303.74
535.008	1294.51
535.436	1297.17
535.865	1303.2
536.293	1313.92
536.721	1325.1
537.149	1345.06
537.576	1347.2
538.004	1357.31
538.432	1362.34
538.86	1361.79
539.287	1366.67
539.715	1375.8
540.143	1377.17
540.57	1376.19
540.998	1374.06
541.425	1359.71
541.852	1344.66
542.28	1343.99
542.707	1331.6
543.134	1322.99
543.561	1319.5
543.988	1314.77
544.415	1315
544.842	1312.23
545.269	1306.91
545.696	1308.53
546.123	1317.16
546.549	1310.19
546.976	1301.61
547.403	1302.17
547.829	1303.54
548.256	1306.04
548.682	1303.39
549.108	1299.29
549.535	1298.64
549.961	1300.13
550.387	1290.97
550.813	1288.46
551.24	1293.36
551.666	1294.34
552.092	1287.78
552.518	1284.09
552.943	1280.12
553.369	1285.57
553.795	1288.96
554.221	1289.66
554.646	1287.53
555.072	1294.9
555.498	1297.58
555.923	1303.05
556.349	1312.78
556.774	1317.95
557.199	1317.21
557.625	1319.67
558.05	1314.12
558.475	1320.63
558.9	1319.88
559.325	1311.99
559.75	1306.1
560.175	1299.02
560.6	1292.94
561.025	1289.54
561.449	1287.95
561.874	1289.31
562.299	1290.94
562.723	1293.88
563.148	1284
563.572	1283.27
563.997	1288.06
564.421	1288.51
564.846	1285.62
565.27	1285.81
565.694	1280.8
566.118	1286.02
566.542	1288.7
566.966	1280.41
567.39	1274.66
567.814	1263.98
568.238	1260.06
568.662	1259.69
569.086	1258.12
569.509	1258.99
569.933	1244.31
570.357	1236.06
570.78	1217.72
571.204	1205.89
571.627	1195.09
572.05	1188.85
572.474	1185.97
572.897	1174.07
573.32	1165.98
573.743	1155.41
574.166	1139.77
574.589	1135.99
575.012	1127.23
575.435	1123.64
575.858	1114.4
576.281	1104.69
576.704	1092.13
577.126	1080.63
577.549	1069.73
577.972	1059.6
578.394	1051.12
578.817	1045.99
579.239	1032.53
579.661	1022.42
580.084	1010.38
580.506	1000.36
580.928	996.35
581.35	988.07
581.772	984.27
582.194	975.82
582.616	967.4
583.038	957.41
583.46	947.89
583.882	944.57
584.303	945.54
584.725	941.28
585.147	942.62
585.568	947.34
585.99	953.65
586.411	955.79
586.833	962.54
587.254	962.22
587.675	967.56
588.096	974.04
588.518	969.59
588.939	958.48
589.36	956.57
589.781	946.4
590.202	929.03
590.623	922.76
591.043	919.53
591.464	912.19
591.885	908.41
592.305	905.27
592.726	897.06
593.147	896.71
593.567	892.69
593.987	887.43
594.408	883.41
594.828	879.79
595.248	875.51
595.669	864.51
596.089	859.41
596.509	855.43
596.929	846.38
597.349	846
597.769	838.78
598.189	834.67
598.608	834.17
599.028	835.27
599.448	835.11
599.867	826.39
600.287	822.07
600.706	818.73
601.126	811.85
601.545	810.48
601.965	808.22
602.384	804.92
602.803	804.86
603.222	801.38
603.641	796.3
604.061	793.16
604.48	789.69
604.898	793.49
605.317	794.28
605.736	793.42
606.155	790.55
606.574	784.12
606.992	784.99
607.411	781.35
607.829	774.25
608.248	769.92
608.666	766.72
609.085	764.89
609.503	758.39
609.921	753.87
610.339	754.25
610.758	751.86
611.176	747.28
611.594	740.95
612.012	737.19
612.43	738.12
612.847	739.22
613.265	737.68
613.683	738.43
614.101	737.33
614.518	732.87
614.936	725.41
615.353	715.48
615.771	711.7
616.188	710.4
616.606	706.68
617.023	700.62
617.44	692.62
617.857	687.07
618.274	679.81
618.691	675.8
619.108	669.5
619.525	664.6
619.942	666.5
620.359	667.28
620.776	662.33
621.192	659.51
621.609	657.53
622.026	659.91
622.442	662.37
622.859	663.63
623.275	658.1
623.691	660.73
624.108	665.9
624.524	673.01
624.94	671.91
625.356	676.95
625.772	681.75
626.188	687.71
626.604	688.28
627.02	685.59
627.436	684.58
627.852	688.43
628.268	694.25
628.683	689.31
629.099	685.12
629.514	682.52
629.93	683.64
630.345	686.81
630.761	683.8
631.176	685.01
631.591	682.71
632.007	678.89
632.422	676.35
632.837	668.77
633.252	667.4
633.667	660.93
634.082	655.83
634.497	648.49
634.911	637.17
635.326	633.54
635.741	623.28
636.155	615.38
636.57	615.12
636.984	613.97
637.399	614.07
637.813	611.5
638.228	608.38
638.642	607.8
639.056	600.51
639.47	598.27
639.884	592.37
640.298	587.42
640.712	584.94
641.126	576
641.54	569.14
641.954	562.53
642.368	554.4
642.781	550.52
643.195	539.73
643.609	538.24
644.022	533.54
644.436	529.61
644.849	520.63
645.262	512.04
645.676	510.54
646.089	506.03
646.502	499.73
646.915	494.8
647.328	483.9
647.741	481.62
648.154	474.43
648.567	473
648.98	465.75
649.393	464.87
649.805	463.27
650.218	458.52
650.631	450.15
651.043	445.7
651.456	442.03
651.868	441.22
652.28	447.08
652.693	451.25
653.105	452.07
653.517	455.08
653.929	454.64
654.341	456.27
654.753	450.89
655.165	453.24
655.577	450.94
655.989	448.45
656.401	443.7
656.813	428.38
657.224	418.48
657.636	404.14
658.047	396.35
658.459	386.32
658.87	380.03
659.282	372.88
659.693	363.74
660.104	357.45
660.515	350.74
660.926	350.02
661.338	347
661.749	343.72
662.159	339.91
662.57	336.04
662.981	334.46
663.392	330.48
663.803	332.2
664.213	330.23
664.624	327.2
665.035	327.61
665.445	320.07
665.855	318.64
666.266	316.74
666.676	316
667.086	312.61
667.497	313.07
667.907	312.32
668.317	308.57
668.727	310.65
669.137	310.45
669.547	310.02
669.956	312
670.366	313.62
670.776	314.37
671.186	315.46
671.595	317.99
672.005	318.38
672.414	319.45
672.824	320.76
673.233	321.14
673.642	323.42
674.052	327.55
674.461	329.99
674.87	331.5
675.279	332.45
675.688	334.45
676.097	337.17
676.506	338.66
676.915	345.44
677.323	347.29
677.732	347.71
678.141	348.6
678.549	343.44
678.958	343.86
679.366	344.45
679.775	345.83
680.183	353.32
680.592	355.8
681	359.63
681.408	357.54
681.816	362.36
682.224	366.48
682.632	374.22
683.04	388.91
683.448	400.51
683.856	416.12
684.264	434.12
684.671	446.92
685.079	465.66
685.487	484.71
685.894	513.5
686.302	537.58
686.709	559.27
687.116	581.51
687.524	604.77
687.931	625.86
688.338	643.24
688.745	659.26
689.152	678.17
689.559	704.33
689.966	732.72
690.373	750
690.78	777.05
691.187	815.02
691.593	847.71
692	875.71
692.407	916.82
692.813	968.46
693.22	1011.37
693.626	1057.34
694.032	1098.65
694.439	1153.26
694.845	1200.47
695.251	1256.05
695.657	1308.84
696.063	1383.08
696.469	1442.67
696.875	1499.77
697.281	1538.6
697.687	1584.92
698.093	1626.1
698.498	1689.54
698.904	1743.59
699.31	1816.36
699.715	1877.45
700.12	1956.37
700.526	1986.1
700.931	2050.8
701.337	2104.14
701.742	2146.83
702.147	2222.35
702.552	2262.12
702.957	2321.8
703.362	2353.87
703.767	2392.92
704.172	2438.45
704.577	2421.83
704.981	2471.27
705.386	2499.42
705.791	2507.57
706.195	2577.34
706.6	2599.21
