Data from C_3_DEC_NC_4N_Splice17_13-05-40-368.txt Node
Date: Sat Mar 14 13:05:40 EDT 2020
User: sa697716
Spectrometer: FLMS03696
Trigger mode: 0
Integration Time (sec): 3.180400E-1
Scans to average: 20
Electric dark correction enabled: true
Nonlinearity correction enabled: true
Boxcar width: 5
XAxis mode: Wavelengths
Number of Pixels in Spectrum: 2048
>>>>>Begin Spectral Data<<<<<
187.83	-212368.71
188.298	1608.7
188.766	898.23
189.233	768.92
189.701	1123.47
190.169	1607.98
190.636	590.75
191.104	467.14
191.571	67.94
192.039	-101.27
192.506	-86.44
192.974	501.07
193.441	-934.9
193.908	-486.05
194.375	-159.14
194.842	-24.22
195.31	34.43
195.777	165.63
196.244	376.21
196.711	465.54
197.177	585.48
197.644	848.24
198.111	1473.83
198.578	2066.54
199.045	1691.27
199.511	2730.28
199.978	3131.95
200.445	2661.81
200.911	2917.32
201.378	3244.94
201.844	2943.57
202.31	5033.27
202.777	5226.65
203.243	2903.78
203.709	2765.89
204.176	3252.76
204.642	2673.56
205.108	2499.47
205.574	2024.03
206.04	1832.16
206.506	1721.32
206.972	1611.54
207.438	1544.05
207.903	1747.79
208.369	1521.16
208.835	1532.18
209.301	1612.23
209.766	1648.73
210.232	1625.32
210.697	2016.73
211.163	2485.09
211.628	3733.54
212.094	3177.23
212.559	3925.79
213.024	2446.35
213.49	2995.67
213.955	2914.57
214.42	2836.75
214.885	2650.41
215.35	2541.41
215.815	2450.32
216.28	2599.63
216.745	2104.86
217.21	2275.24
217.675	2073.03
218.14	2318.04
218.604	2564.12
219.069	2901.28
219.534	3040.58
219.998	3501.76
220.463	4233.32
220.927	5182.82
221.392	4874.13
221.856	4933.87
222.32	6173.12
222.785	7611.53
223.249	9551.29
223.713	10640.34
224.177	10629.04
224.642	13616.08
225.106	16775.41
225.57	18312.99
226.034	13608.89
226.497	20688.86
226.961	18706.8
227.425	21780.35
227.889	24127.19
228.353	24171.41
228.816	49882.36
229.28	47581.91
229.744	40063.06
230.207	24361.33
230.671	23935.55
231.134	39569.16
231.597	45730.3
232.061	45664.54
232.524	44558.01
232.987	30681.71
233.45	27556.77
233.914	24729.99
234.377	25398.16
234.84	23239.45
235.303	27384.09
235.766	30590.52
236.229	31599.51
236.691	19838.37
237.154	22291.18
237.617	16750.15
238.08	17135.98
238.542	20045.56
239.005	14332.46
239.468	14213.18
239.93	13399.83
240.393	12173.78
240.855	10676.82
241.317	10925.09
241.78	13297.76
242.242	13722.15
242.704	14817.2
243.166	12899.8
243.629	11730.69
244.091	13508.9
244.553	14773.91
245.015	15854.87
245.477	20488.52
245.939	29988.89
246.4	31845.55
246.862	30928.44
247.324	29201.73
247.786	32651.04
248.247	42829.42
248.709	44143.54
249.17	33014.28
249.632	31176.7
250.093	36174.99
250.555	31244.75
251.016	19095.1
251.477	18106.65
251.939	19565.07
252.4	20495.93
252.861	24375.39
253.322	22672.62
253.783	27008.09
254.244	35014.55
254.705	27583.98
255.166	24562.95
255.627	24207.47
256.088	34137.65
256.549	36317.77
257.009	31283.21
257.47	38000.99
257.931	30961.42
258.391	23229.54
258.852	23943.89
259.312	25103.98
259.773	31048.25
260.233	26202.91
260.694	22120.31
261.154	25072.94
261.614	20116.61
262.074	17980.38
262.534	18671.62
262.994	17597.91
263.455	23427.67
263.915	19727.32
264.374	18583.47
264.834	20278.62
265.294	22478.92
265.754	23247.88
266.214	22007.46
266.673	20606.5
267.133	25998.06
267.593	25784.99
268.052	31540.38
268.512	27411.97
268.971	33066.8
269.431	36236.14
269.89	32439.4
270.349	48602.24
270.809	54197.68
271.268	48709.16
271.727	109136.53
272.186	70676.96
272.645	52992.29
273.104	38184.08
273.563	55312.79
274.022	43476.15
274.481	37012.93
274.94	28500.78
275.399	21172.59
275.857	24653.96
276.316	33337.63
276.775	29648.24
277.233	29177.94
277.692	27319.63
278.15	30974.49
278.609	31847.39
279.067	29462.24
279.525	27331.74
279.984	35259.34
280.442	42389.68
280.9	41818.4
281.358	27504.69
281.816	25652.37
282.274	25120.43
282.732	25961.97
283.19	26055.64
283.648	22480.1
284.106	23917.48
284.564	24341.75
285.021	22587.08
285.479	16827.08
285.937	15266.43
286.394	13407.08
286.852	13809.3
287.309	14509.8
287.767	14009.27
288.224	13339.53
288.682	14644.34
289.139	16084.15
289.596	14703.63
290.053	15269.24
290.511	19251.28
290.968	23392.21
291.425	31714.29
291.882	26368.42
292.339	22931.07
292.796	22742.32
293.252	21382.8
293.709	16996.26
294.166	15247.23
294.623	16859.66
295.079	16180.07
295.536	16244.55
295.992	14707.09
296.449	14533.08
296.905	15109.69
297.362	14484.9
297.818	15218.53
298.274	15793.88
298.731	16066.97
299.187	15879.92
299.643	17036.21
300.099	20582.88
300.555	22604.1
301.011	18909.05
301.467	18264.55
301.923	21373.19
302.379	20878.46
302.835	20515.98
303.291	20537.61
303.746	23362.18
304.202	29529.1
304.658	29672.1
305.113	19996.74
305.569	19578.2
306.024	20868.69
306.479	19819
306.935	16695.72
307.39	18248.51
307.845	16872.93
308.301	16991.66
308.756	16564.98
309.211	15963.37
309.666	16355.37
310.121	20322.89
310.576	20628.7
311.031	20477.07
311.486	23469.39
311.94	23487.29
312.395	31429.06
312.85	59087.01
313.305	289610.86
313.759	1501175.2
314.214	108915.6
314.668	86353.78
315.123	72486.78
315.577	26062.01
316.032	23207
316.486	29041.44
316.94	22901.15
317.394	15941.91
317.849	12381.01
318.303	11741.69
318.757	11075.68
319.211	12218.68
319.665	10675.45
320.119	10824.2
320.572	15494.94
321.026	14469.04
321.48	12052.53
321.934	13138.34
322.387	13139.49
322.841	14195.29
323.295	12759.25
323.748	14687.99
324.202	14924.58
324.655	17940.35
325.108	25061.75
325.562	17689.57
326.015	21024.95
326.468	15906.86
326.921	17803.36
327.374	16630.8
327.827	17309.29
328.28	19586.47
328.733	13131.06
329.186	11548.4
329.639	11022.64
330.092	9275.28
330.545	8843.56
330.997	8921.1
331.45	9763.24
331.903	11425.25
332.355	19642.67
332.808	19093.69
333.26	15774.92
333.713	17090.78
334.165	17216.8
334.617	22959.59
335.069	18549.3
335.522	33547.16
335.974	37196.52
336.426	33939.04
336.878	23535.23
337.33	11959.34
337.782	11674.8
338.234	14660.51
338.686	17569.5
339.137	20796.97
339.589	19589.98
340.041	15383.53
340.493	13244.02
340.944	13542.39
341.396	14614.7
341.847	12295.68
342.299	14507.87
342.75	17761.44
343.201	15470.84
343.653	17781.24
344.104	21847.21
344.555	17209.44
345.006	26749.27
345.457	20447.32
345.908	16274.93
346.359	15303.72
346.81	12442.34
347.261	13107.46
347.712	12899.83
348.163	13853.73
348.613	14042.9
349.064	13100.44
349.515	11455.73
349.965	11755.4
350.416	14175.33
350.866	15516.42
351.317	17526.9
351.767	29049
352.217	36644.64
352.668	30424.64
353.118	27892.34
353.568	26895.95
354.018	21318.7
354.468	22523.8
354.918	16163.41
355.368	14143.8
355.818	20054.41
356.268	57753.09
356.718	242229.76
357.168	60398.37
357.617	30309.2
358.067	33660.19
358.517	31594.12
358.966	37083.33
359.416	41672.38
359.865	45020.2
360.315	53623.14
360.764	24986.17
361.213	13987.36
361.663	13236.01
362.112	16373.06
362.561	26403.69
363.01	19952.22
363.459	16797.78
363.908	18225.13
364.357	15465.1
364.806	26135.97
365.255	17948.85
365.703	16498.9
366.152	16533.07
366.601	13429.29
367.05	10891.73
367.498	9933.78
367.947	10360.07
368.395	10754.55
368.844	9487.48
369.292	11415.7
369.74	7897.51
370.189	12109.53
370.637	14145.94
371.085	12199.6
371.533	14848.48
371.981	14332.79
372.429	13634.58
372.877	14222.83
373.325	11913.75
373.773	12138.39
374.221	10824.96
374.669	13401.85
375.116	11581.51
375.564	11693.15
376.012	13102.99
376.459	10788.09
376.907	12848.85
377.354	15523.75
377.801	14461.86
378.249	16655.86
378.696	21311.29
379.143	25829.45
379.591	27563.95
380.038	46648.88
380.485	33710.46
380.932	36402.33
381.379	33330.83
381.826	24522.7
382.273	17431.69
382.72	15209.34
383.166	14778.21
383.613	9564.82
384.06	8590.14
384.506	9937.56
384.953	7285.91
385.4	7316.38
385.846	6393.58
386.292	6221.2
386.739	6087.85
387.185	5995.43
387.631	6005.81
388.078	5841.73
388.524	6242.31
388.97	5760.54
389.416	4803.5
389.862	5110.69
390.308	4831.6
390.754	4890.74
391.2	5300.51
391.645	5421.89
392.091	5202.62
392.537	5019.17
392.983	5014.56
393.428	4947.67
393.874	5304.84
394.319	5315.35
394.765	5034.19
395.21	5176.17
395.655	4854.87
396.101	4554.36
396.546	4107.66
396.991	4140.81
397.436	3846.44
397.881	3713.38
398.326	3501.41
398.771	3312.6
399.216	2897.65
399.661	2607.92
400.106	2602.22
400.551	2666.38
400.995	2386.87
401.44	2359.83
401.885	2212.53
402.329	2234.58
402.774	2138.81
403.218	2077.45
403.663	2001.06
404.107	2051.79
404.551	2069.02
404.995	1893.92
405.44	1823.14
405.884	1848.87
406.328	1788.1
406.772	1784.2
407.216	1625.27
407.66	1573.16
408.104	1488.3
408.547	1392.52
408.991	1348.76
409.435	1293.16
409.879	1275.75
410.322	1258.45
410.766	1214.9
411.209	1153.33
411.653	1105.21
412.096	1084.67
412.54	1082.03
412.983	1077.39
413.426	1079.41
413.869	1078.62
414.312	1059.55
414.756	1022.74
415.199	975.6
415.642	948.88
416.085	953.76
416.527	948.98
416.97	960.26
417.413	911.71
417.856	900.2
418.298	890.2
418.741	883.5
419.184	882.42
419.626	914.03
420.069	913.19
420.511	917.54
420.953	897.78
421.396	888.43
421.838	867.08
422.28	887.93
422.722	893.68
423.164	907.28
423.606	890.7
424.048	888.05
424.49	846.06
424.932	842.79
425.374	831.04
425.816	841.8
426.258	858.37
426.699	865.89
427.141	853.61
427.582	866.11
428.024	858.55
428.465	852.65
428.907	832.88
429.348	824.34
429.789	824.82
430.231	808.18
430.672	821.97
431.113	804.52
431.554	794.39
431.995	772.39
432.436	746.35
432.877	732.47
433.318	722.04
433.759	716.26
434.2	715.4
434.64	709.01
435.081	711.03
435.522	672.84
435.962	647.52
436.403	634.79
436.843	643.36
437.284	628.95
437.724	611.33
438.164	610.97
438.604	598.54
439.045	576.14
439.485	553.48
439.925	542.22
440.365	529.08
440.805	521.57
441.245	515.46
441.685	498.69
442.125	495.14
442.564	498.68
443.004	489.81
443.444	489.16
443.883	491.04
444.323	484.6
444.762	482.61
445.202	488.73
445.641	499.17
446.081	495.39
446.52	497.8
446.959	492.02
447.398	480.25
447.837	475.39
448.276	466.64
448.716	470.2
449.154	474
449.593	465.17
450.032	464.39
450.471	453.9
450.91	452.96
451.349	452.23
451.787	449.72
452.226	456.33
452.664	454.84
453.103	456.34
453.541	454.68
453.98	456.06
454.418	459.45
454.856	451.7
455.295	450.12
455.733	454.27
456.171	456.71
456.609	456.8
457.047	456.75
457.485	463.47
457.923	463.97
458.361	458.55
458.798	458.68
459.236	456.55
459.674	459.45
460.111	463.08
460.549	457.77
460.987	456.21
461.424	455.12
461.862	451.28
462.299	443.54
462.736	443.48
463.173	443.46
463.611	440.57
464.048	440.63
464.485	443.83
464.922	439.21
465.359	437.95
465.796	437.24
466.233	433.94
466.67	433.14
467.106	434.25
467.543	430.78
467.98	426.15
468.416	415.24
468.853	411.17
469.29	399.62
469.726	395.36
470.162	384.74
470.599	376.48
471.035	373.6
471.471	363.55
471.907	359.58
472.344	356.34
472.78	357.81
473.216	360.57
473.652	357.08
474.088	355.28
474.523	355.2
474.959	358.97
475.395	354.47
475.831	353.75
476.266	355.45
476.702	354.89
477.138	351.08
477.573	349.93
478.008	349.28
478.444	351.14
478.879	355.65
479.314	356.83
479.75	356.48
480.185	359.32
480.62	362.2
481.055	364.27
481.49	366.92
481.925	372.61
482.36	379.76
482.795	390
483.229	400.1
483.664	408.21
484.099	409.65
484.534	416.53
484.968	419.92
485.403	420.17
485.837	419.66
486.271	419.53
486.706	420.09
487.14	413.97
487.574	407.82
488.009	404.08
488.443	400.52
488.877	405.35
489.311	406.84
489.745	412.14
490.179	416.87
490.613	426.39
491.046	430.01
491.48	433
491.914	434.94
492.348	439.32
492.781	443.7
493.215	445.53
493.648	446.67
494.082	450.72
494.515	452.27
494.948	458.62
495.382	461.86
495.815	466.04
496.248	471.93
496.681	482.28
497.114	490.76
497.547	498.87
497.98	510.58
498.413	517.14
498.846	525.91
499.279	533.82
499.711	538.89
500.144	543.07
500.577	553.45
501.009	563.68
501.442	574.28
501.874	578.36
502.306	583.23
502.739	591.83
503.171	605.38
503.603	611.48
504.036	622.13
504.468	630.85
504.9	642.59
505.332	651.09
505.764	658.44
506.196	666.94
506.627	682.79
507.059	696.23
507.491	706.6
507.923	709.63
508.354	725.02
508.786	737.11
509.217	754.34
509.649	770.12
510.08	788.77
510.512	806.77
510.943	822.79
511.374	836.13
511.805	857.06
512.237	877.09
512.668	907.34
513.099	934.04
513.53	961.19
513.961	982.9
514.391	1013.73
514.822	1047.31
515.253	1081.21
515.684	1106.88
516.114	1136.08
516.545	1158.73
516.975	1185.62
517.406	1205.52
517.836	1213.12
518.267	1223.43
518.697	1243.69
519.127	1252.57
519.558	1262.86
519.988	1270.37
520.418	1284.06
520.848	1303.35
521.278	1314.52
521.708	1342.57
522.138	1357.82
522.567	1387.02
522.997	1413.23
523.427	1429.79
523.857	1447.3
524.286	1459.23
524.716	1475.91
525.145	1495.43
525.575	1507.66
526.004	1523.62
526.433	1512.97
526.863	1515.43
527.292	1510.56
527.721	1517.48
528.15	1525.84
528.579	1529.06
529.008	1541.34
529.437	1564.01
529.866	1578.77
530.295	1595.9
530.724	1609.06
531.152	1634.58
531.581	1649.64
532.01	1666.64
532.438	1676.26
532.867	1690.03
533.295	1708.03
533.723	1713.81
534.152	1712.5
534.58	1712.72
535.008	1698.49
535.436	1700.58
535.865	1708.79
536.293	1722.3
536.721	1737.86
537.149	1761.25
537.576	1763.07
538.004	1775.96
538.432	1783.52
538.86	1782.43
539.287	1789.2
539.715	1802.96
540.143	1805.5
540.57	1800.99
540.998	1796.58
541.425	1774.5
541.852	1754.54
542.28	1753.92
542.707	1737.73
543.134	1725.04
543.561	1721.34
543.988	1714.21
544.415	1713.91
544.842	1706.98
545.269	1700.83
545.696	1702.58
546.123	1714.7
546.549	1705.7
546.976	1695.07
547.403	1695.75
547.829	1697.68
548.256	1699.03
548.682	1695.69
549.108	1689.09
549.535	1690.95
549.961	1692.58
550.387	1681.13
550.813	1676.68
551.24	1682.73
551.666	1683.19
552.092	1674.06
552.518	1668.61
552.943	1663.56
553.369	1671.54
553.795	1676.51
554.221	1678.43
554.646	1676.75
555.072	1687.85
555.498	1692.48
555.923	1700.05
556.349	1713.14
556.774	1720.73
557.199	1721.43
557.625	1726.14
558.05	1719.02
558.475	1728.59
558.9	1726.69
559.325	1717.52
559.75	1710.29
560.175	1702.93
560.6	1696.39
561.025	1693.75
561.449	1694.01
561.874	1697.95
562.299	1701.5
562.723	1707.51
563.148	1696.43
563.572	1698.21
563.997	1706.76
564.421	1710.61
564.846	1709.68
565.27	1712.24
565.694	1707.9
566.118	1715.91
566.542	1721.79
566.966	1713.93
567.39	1708.44
567.814	1695.91
568.238	1692.83
568.662	1694.26
569.086	1694.12
569.509	1698
569.933	1681.33
570.357	1672.65
570.78	1651.51
571.204	1636.97
571.627	1623.75
572.05	1619.81
572.474	1617.53
572.897	1604.33
573.32	1595.6
573.743	1584.66
574.166	1567.11
574.589	1565.28
575.012	1556.84
575.435	1553.89
575.858	1543.37
576.281	1532.65
576.704	1516.28
577.126	1504.34
577.549	1493.14
577.972	1483.28
578.394	1472.87
578.817	1465.44
579.239	1447.92
579.661	1434.85
580.084	1419.55
580.506	1406.63
580.928	1402.71
581.35	1391.01
581.772	1385.7
582.194	1373.17
582.616	1361.07
583.038	1345.94
583.46	1333.54
583.882	1328.51
584.303	1330.34
584.725	1325.67
585.147	1328.16
585.568	1335.78
585.99	1345.71
586.411	1349.44
586.833	1361.17
587.254	1360.21
587.675	1371.95
588.096	1382.49
588.518	1376.54
588.939	1361.02
589.36	1358.02
589.781	1345.01
590.202	1319.67
590.623	1311.1
591.043	1307.91
591.464	1295.98
591.885	1292.72
592.305	1287.02
592.726	1274.61
593.147	1276.37
593.567	1271.48
593.987	1264.4
594.408	1259.61
594.828	1257.35
595.248	1251.13
595.669	1236.22
596.089	1229.39
596.509	1222.49
596.929	1210.76
597.349	1210.86
597.769	1201.04
598.189	1195.06
598.608	1195.73
599.028	1197.03
599.448	1195.22
599.867	1183.7
600.287	1178.16
600.706	1174.51
601.126	1165.96
601.545	1163.69
601.965	1161.57
602.384	1156.34
602.803	1157.55
603.222	1152.56
603.641	1146
604.061	1142.99
604.48	1138.85
604.898	1145.14
605.317	1147.41
605.736	1148.32
606.155	1145.65
606.574	1137.36
606.992	1140.03
607.411	1134.89
607.829	1126.91
608.248	1123.34
608.666	1119.08
609.085	1118.44
609.503	1109.85
609.921	1104.94
610.339	1105.59
610.758	1103.41
611.176	1098.67
611.594	1091.55
612.012	1087.87
612.43	1089.8
612.847	1093.68
613.265	1094.64
613.683	1095.89
614.101	1096.99
614.518	1091.01
614.936	1081.87
615.353	1069.43
615.771	1065.8
616.188	1063.85
616.606	1059.46
617.023	1051.95
617.44	1039.95
617.857	1033.16
618.274	1025.38
618.691	1019.17
619.108	1010.64
619.525	1004.32
619.942	1008.83
620.359	1010.34
620.776	1006.05
621.192	1002.22
621.609	1000.23
622.026	1004.86
622.442	1008.46
622.859	1011.67
623.275	1004.76
623.691	1009.28
624.108	1018.31
624.524	1028.7
624.94	1028.25
625.356	1035.42
625.772	1046.53
626.188	1055.4
626.604	1055.74
627.02	1052.11
627.436	1049.22
627.852	1054.3
628.268	1063.53
628.683	1055.34
629.099	1047.49
629.514	1042.43
629.93	1044.57
630.345	1047.65
630.761	1043.89
631.176	1046.03
631.591	1040.25
632.007	1035.05
632.422	1032.92
632.837	1022.31
633.252	1019.36
633.667	1009.64
634.082	1000.43
634.497	988.8
634.911	971.19
635.326	966.13
635.741	949.75
636.155	938.85
636.57	936.53
636.984	932.82
637.399	930.94
637.813	927.05
638.228	922.68
638.642	921.47
639.056	909.18
639.47	904.32
639.884	893.58
640.298	885.15
640.712	881.58
641.126	868.25
641.54	857.2
641.954	847.6
642.368	834.21
642.781	825.48
643.195	809.59
643.609	806.68
644.022	798.83
644.436	792.15
644.849	780.51
645.262	767.52
645.676	764.6
646.089	758.86
646.502	747.28
646.915	740.83
647.328	725.5
647.741	722.24
648.154	710.87
648.567	707.4
648.98	697.26
649.393	695.33
649.805	692.44
650.218	686.19
650.631	674.13
651.043	669.16
651.456	665.04
651.868	665.18
652.28	675.5
652.693	683.49
653.105	687.36
653.517	692.97
653.929	693.1
654.341	695.91
654.753	687.94
655.165	691.84
655.577	690.56
655.989	686.2
656.401	679.72
656.813	655.95
657.224	642.61
657.636	621.9
658.047	608.73
658.459	594.96
658.87	586.71
659.282	578.34
659.693	563.95
660.104	552.44
660.515	542.62
660.926	541.07
661.338	537.65
661.749	531.91
662.159	526.16
662.57	521.56
662.981	517.66
663.392	511.81
663.803	512.84
664.213	510.86
664.624	507.71
665.035	507.71
665.445	495.75
665.855	490.97
666.266	485.2
666.676	482.58
667.086	476.81
667.497	475.69
667.907	472.75
668.317	466.1
668.727	465.24
669.137	464.59
669.547	464.2
669.956	466.68
670.366	467.44
670.776	469.92
671.186	472.99
671.595	477.05
672.005	479.57
672.414	480.26
672.824	480.78
673.233	482.08
673.642	484.98
674.052	488.39
674.461	492.78
674.87	496.63
675.279	496.7
675.688	498.6
676.097	501.34
676.506	501.59
676.915	512.62
677.323	517.66
677.732	519.29
678.141	521.36
678.549	515.51
678.958	516.54
679.366	517.57
679.775	522.54
680.183	533
680.592	538.53
681	545.32
681.408	543.71
681.816	551.05
682.224	559.2
682.632	569.06
683.04	594.7
683.448	615.6
683.856	642.04
684.264	670.16
684.671	696.07
685.079	728.75
685.487	765.16
685.894	814.4
686.302	857.57
686.709	895.46
687.116	940.02
687.524	977.75
687.931	1012.7
688.338	1044.57
688.745	1072.72
689.152	1104.47
689.559	1146.02
689.966	1187.72
690.373	1211.76
690.78	1252.78
691.187	1310.85
691.593	1358.37
692	1400.55
692.407	1459.91
692.813	1532.89
693.22	1592.95
693.626	1655.06
694.032	1709.38
694.439	1784.49
694.845	1846.06
695.251	1920.55
695.657	1989.97
696.063	2086.52
696.469	2163.81
696.875	2234.73
697.281	2277.08
697.687	2329.73
698.093	2374.02
698.498	2450.84
698.904	2512.71
699.31	2603.3
699.715	2668.35
700.12	2761.47
