Data from C_3_DIV_OH_2N_Splice17_12-48-02-291.txt Node
Date: Sat Mar 14 12:48:02 EDT 2020
User: sa697716
Spectrometer: FLMS03696
Trigger mode: 0
Integration Time (sec): 3.180400E-1
Scans to average: 20
Electric dark correction enabled: true
Nonlinearity correction enabled: true
Boxcar width: 5
XAxis mode: Wavelengths
Number of Pixels in Spectrum: 2048
>>>>>Begin Spectral Data<<<<<
187.83	-371266.78
188.298	2926.36
188.766	1665.03
189.233	1491.27
189.701	2032.15
190.169	2654.76
190.636	1003.03
191.104	746.39
191.571	106.12
192.039	-86.35
192.506	-72.62
192.974	624.08
193.441	-815.84
193.908	88.83
194.375	65.98
194.842	104.1
195.31	155.36
195.777	219.77
196.244	328.13
196.711	202.22
197.177	180.86
197.644	164.93
198.111	271.34
198.578	352.07
199.045	255.04
199.511	353.16
199.978	342.14
200.445	337.8
200.911	328.39
201.378	276.6
201.844	301.1
202.31	487.85
202.777	494.74
203.243	270.73
203.709	256.05
204.176	302.31
204.642	256.78
205.108	240.17
205.574	147.97
206.04	75.65
206.506	88.28
206.972	54.96
207.438	57.64
207.903	68.33
208.369	86.3
208.835	108.08
209.301	122.21
209.766	125.72
210.232	146.85
210.697	166.95
211.163	214.25
211.628	305.18
212.094	306.74
212.559	463.1
213.024	307.33
213.49	403.51
213.955	374.64
214.42	320
214.885	284.3
215.35	273.47
215.815	393.33
216.28	470.83
216.745	385.06
217.21	464.7
217.675	403.72
218.14	475.27
218.604	529.06
219.069	641.33
219.534	750.51
219.998	889.12
220.463	1103.08
220.927	1294.99
221.392	1234.05
221.856	1312.22
222.32	1633.67
222.785	2088.91
223.249	2675.87
223.713	3050.2
224.177	3113.75
224.642	3978.83
225.106	4921.16
225.57	5450.73
226.034	4211.66
226.497	6495.94
226.961	5963.69
227.425	7074.49
227.889	7855.13
228.353	7881.66
228.816	16326.23
229.28	15866.31
229.744	13486.93
230.207	8404.44
230.671	8328.43
231.134	13592.51
231.597	15876.6
232.061	15908.01
232.524	15474.66
232.987	10738
233.45	9797.94
233.914	8844.41
234.377	9046.67
234.84	8312.61
235.303	9763.61
235.766	10914.81
236.229	11370.87
236.691	7158.76
237.154	8037.21
237.617	6105.11
238.08	6248.62
238.542	7315.08
239.005	5255.76
239.468	5236.51
239.93	4957.18
240.393	4528.78
240.855	3991.65
241.317	4090.06
241.78	4960.42
242.242	5178.22
242.704	5643.36
243.166	4958.92
243.629	4559.22
244.091	5277.53
244.553	5817.53
245.015	6291.11
245.477	8138.36
245.939	11972.95
246.4	12761.96
246.862	12448.25
247.324	11746.57
247.786	13103.7
248.247	17212.7
248.709	17661.19
249.17	13265.45
249.632	12593.01
250.093	14743.72
250.555	12807.19
251.016	7881.5
251.477	7525.81
251.939	8201.7
252.4	8662.46
252.861	10295.2
253.322	9641.7
253.783	11532.5
254.244	15006.56
254.705	11836.89
255.166	10472.68
255.627	10348.08
256.088	14680.9
256.549	15644.24
257.009	13443.45
257.47	16289.52
257.931	13341.35
258.391	9995.81
258.852	10329.84
259.312	10822.76
259.773	13390.11
260.233	11437.85
260.694	9701.32
261.154	10982.37
261.614	8874.44
262.074	7973.65
262.534	8333.66
262.994	7893.21
263.455	10554.02
263.915	8946.1
264.374	8465.26
264.834	9250.17
265.294	10233.93
265.754	10625.8
266.214	10087.91
266.673	9463.43
267.133	11973.58
267.593	11881.49
268.052	14606.07
268.512	12746.79
268.971	15459.98
269.431	16978.24
269.89	15283.35
270.349	22992.12
270.809	25711.81
271.268	23181.2
271.727	52007.31
272.186	33723.81
272.645	25355.92
273.104	18261.5
273.563	26438.82
274.022	20746.65
274.481	17779.34
274.94	13759.72
275.399	10248.54
275.857	11968.33
276.316	16236.3
276.775	14523.66
277.233	14378.08
277.692	13547.24
278.15	15402.19
278.609	15972.38
279.067	14824.92
279.525	13799.46
279.984	17815.81
280.442	21460.16
280.9	21258.39
281.358	14026.61
281.816	13088.93
282.274	12816.67
282.732	13178.13
283.19	13239.89
283.648	11408.65
284.106	12156.55
284.564	12333.09
285.021	11460.78
285.479	8552.06
285.937	7751.33
286.394	6813.91
286.852	7014.98
287.309	7400.78
287.767	7229.8
288.224	6911.77
288.682	7613.83
289.139	8408.64
289.596	7754.84
290.053	8115.11
290.511	10274.89
290.968	12562.45
291.425	17141.06
291.882	14447.05
292.339	12639.39
292.796	12567.13
293.252	11894.15
293.709	9522.95
294.166	8558.78
294.623	9493
295.079	9106.87
295.536	9209.67
295.992	8378.73
296.449	8311.7
296.905	8641.53
297.362	8347.72
297.818	8812.69
298.274	9178.83
298.731	9333.67
299.187	9260.26
299.643	9951.32
300.099	12068.56
300.555	13205.07
301.011	11046.31
301.467	10691.44
301.923	12461.17
302.379	12158.97
302.835	11944.53
303.291	11947.68
303.746	13617.9
304.202	17211.93
304.658	17294.03
305.113	11629.77
305.569	11427.38
306.024	12169.38
306.479	11517.84
306.935	9754.61
307.39	10615.97
307.845	9798.94
308.301	9884.17
308.756	9602.57
309.211	9267.18
309.666	9491.94
310.121	11807.11
310.576	11964.99
311.031	11847.35
311.486	13559.81
311.94	13489.52
312.395	18002.48
312.85	33791.56
313.305	164959.19
313.759	860185.26
314.214	62131.8
314.668	49183.43
315.123	41341
315.577	14889.73
316.032	13279.18
316.486	16653.12
316.94	13162.7
317.394	9195.47
317.849	7152.54
318.303	6803.6
318.757	6423.56
319.211	7131.03
319.665	6240.67
320.119	6330.99
320.572	9055.9
321.026	8515.62
321.48	7103.93
321.934	7746.57
322.387	7765.34
322.841	8408.7
323.295	7612.64
323.748	8723.14
324.202	8836.3
324.655	10659.79
325.108	14993.67
325.562	10595.31
326.015	12517.65
326.468	9460.59
326.921	10577.25
327.374	9868.34
327.827	10289.62
328.28	11570.51
328.733	7775.8
329.186	6839.77
329.639	6507.39
330.092	5444.02
330.545	5179.38
330.997	5234.89
331.45	5747.29
331.903	6747.07
332.355	11571.52
332.808	11217.46
333.26	9245.09
333.713	10036.65
334.165	10088.78
334.617	13418.35
335.069	10809.55
335.522	19502.53
335.974	21598.53
336.426	19628.08
336.878	13550.94
337.33	6899.64
337.782	6727.81
338.234	8485.14
338.686	10143.36
339.137	12034.59
339.589	11344.29
340.041	8921.77
340.493	7706.68
340.944	7901.81
341.396	8545.63
341.847	7232.03
342.299	8578.01
342.75	10530.09
343.201	9138.73
343.653	10512.02
344.104	12975.37
344.555	10271.34
345.006	15983.5
345.457	12337
345.908	9811.95
346.359	9266.44
346.81	7555.31
347.261	7944.65
347.712	7807.71
348.163	8397.35
348.613	8583.37
349.064	8032.88
349.515	7038.61
349.965	7223.13
350.416	8673.78
350.866	9518.55
351.317	10723
351.767	17797.29
352.217	22500.4
352.668	18733.32
353.118	17211.13
353.568	16482.26
354.018	13024.78
354.468	13742.74
354.918	9895.29
355.368	8672.43
355.818	12269.37
356.268	35310.49
356.718	148045.63
357.168	36964.68
357.617	18517.55
358.067	20572.68
358.517	19369.4
358.966	22785.13
359.416	25611.95
359.865	27689.8
360.315	32888.82
360.764	15382.75
361.213	8647.45
361.663	8179.58
362.112	10087.96
362.561	16360.06
363.01	12369.39
363.459	10401.62
363.908	11228.96
364.357	9586.66
364.806	16175.24
365.255	11135.96
365.703	10219.48
366.152	10249.37
366.601	8297.98
367.05	6739
367.498	6114.07
367.947	6363.26
368.395	6585.48
368.844	5827.49
369.292	6965.61
369.74	4840.01
370.189	7377.43
370.637	8637.51
371.085	7434.28
371.533	9031.94
371.981	8692.31
372.429	8296.35
372.877	8658.38
373.325	7255.5
373.773	7401.21
374.221	6581.93
374.669	8117.48
375.116	7026.67
375.564	7079.55
376.012	7911.21
376.459	6557.02
376.907	7825.46
377.354	9463.18
377.801	8830.31
378.249	10149.28
378.696	12942.55
379.143	15700.9
379.591	16669.39
380.038	28269.48
380.485	20378.57
380.932	21930.46
381.379	20116.51
381.826	14848.99
382.273	10495.45
382.72	9091.9
383.166	8849.06
383.613	5731.33
384.06	5151.24
384.506	6002.84
384.953	4383.32
385.4	4386.11
385.846	3830.87
386.292	3690.59
386.739	3586
387.185	3538.9
387.631	3540.12
388.078	3439.89
388.524	3661.71
388.97	3366
389.416	2795.76
389.862	2967.38
390.308	2824.37
390.754	2870.85
391.2	3094.79
391.645	3142.62
392.091	3029.11
392.537	2922.84
392.983	2906.6
393.428	2878.27
393.874	3074.04
394.319	3075.25
394.765	2922.19
395.21	2969.47
395.655	2762.75
396.101	2587.59
396.546	2332.41
396.991	2309.96
397.436	2137.57
397.881	2046.67
398.326	1909.85
398.771	1810.45
399.216	1562.45
399.661	1385.93
400.106	1380.61
400.551	1411.38
400.995	1255.32
401.44	1238.92
401.885	1158.94
402.329	1170.15
402.774	1128.55
403.218	1108.61
403.663	1058.19
404.107	1091.11
404.551	1103.76
404.995	1005.72
405.44	965.32
405.884	977.48
406.328	939.96
406.772	936.32
407.216	852.2
407.66	814.89
408.104	754.57
408.547	701.9
408.991	675.62
409.435	645.03
409.879	638.1
410.322	627.18
410.766	606.34
411.209	579.22
411.653	555.35
412.096	543.01
412.54	541.19
412.983	539.37
413.426	544.47
413.869	538.3
414.312	530.53
414.756	506.53
415.199	480.89
415.642	468.96
416.085	464.86
416.527	457.71
416.97	460.1
417.413	437.48
417.856	430.07
418.298	422.32
418.741	417.85
419.184	411.18
419.626	423.48
420.069	423.1
420.511	423.86
420.953	417.09
421.396	414.41
421.838	400.67
422.28	409.1
422.722	413.89
423.164	417.39
423.606	413.72
424.048	412.05
424.49	394.63
424.932	389.31
425.374	379.45
425.816	380.89
426.258	387.91
426.699	395.27
427.141	392.44
427.582	395
428.024	391.49
428.465	385.09
428.907	375.44
429.348	367.79
429.789	371.33
430.231	368.91
430.672	377.42
431.113	366.58
431.554	358
431.995	344.19
432.436	333.23
432.877	326.32
433.318	322.84
433.759	319.61
434.2	318.98
434.64	311.44
435.081	307.56
435.522	290.82
435.962	278.79
436.403	273.87
436.843	273.21
437.284	263.16
437.724	252.73
438.164	248.94
438.604	243.56
439.045	236.87
439.485	229.75
439.925	223.53
440.365	215.08
440.805	211.84
441.245	208.87
441.685	203.63
442.125	200.93
442.564	201.4
443.004	197.01
443.444	194.97
443.883	193.75
444.323	187.44
444.762	182.69
445.202	182.4
445.641	186.7
446.081	182.71
446.52	182.41
446.959	180.71
447.398	176.7
447.837	173.46
448.276	169.26
448.716	168.7
449.154	168.75
449.593	167.36
450.032	168.14
450.471	160.45
450.91	159.62
451.349	160.64
451.787	157.5
452.226	158
452.664	157.54
453.103	156.81
453.541	156.26
453.98	160.35
454.418	159.73
454.856	158.6
455.295	158.49
455.733	160.4
456.171	158.51
456.609	159.65
457.047	160.47
457.485	164.07
457.923	167.08
458.361	163.89
458.798	162.51
459.236	162.31
459.674	161.12
460.111	162.61
460.549	161.62
460.987	161.28
461.424	160.2
461.862	159.53
462.299	156.57
462.736	156.42
463.173	156.99
463.611	158.69
464.048	159.92
464.485	161.4
464.922	159.72
465.359	157.55
465.796	166.03
466.233	166.94
466.67	167.66
467.106	168.74
467.543	165.12
467.98	161.76
468.416	154.11
468.853	151.04
469.29	145.82
469.726	144.06
470.162	139.98
470.599	129.39
471.035	125.23
471.471	121.16
471.907	117.51
472.344	115.99
472.78	118.1
473.216	118
473.652	117.38
474.088	115.82
474.523	115.85
474.959	116.56
475.395	114.69
475.831	115.73
476.266	115.56
476.702	115.46
477.138	115.08
477.573	114.41
478.008	114.87
478.444	116.3
478.879	120.33
479.314	120.99
479.75	121.38
480.185	122.12
480.62	122.43
481.055	122.65
481.49	124.27
481.925	126.32
482.36	131.3
482.795	134.58
483.229	137.07
483.664	138.75
484.099	138.94
484.534	141.33
484.968	142.54
485.403	141.65
485.837	141.2
486.271	140.18
486.706	139.18
487.14	134.67
487.574	132.39
488.009	130.82
488.443	128.83
488.877	131.3
489.311	130.87
489.745	131.86
490.179	133.88
490.613	138.23
491.046	138.56
491.48	139.01
491.914	138.59
492.348	138.79
492.781	139.26
493.215	138.9
493.648	136.62
494.082	135.9
494.515	135.59
494.948	137.07
495.382	134.2
495.815	133.91
496.248	134.27
496.681	134.87
497.114	134.77
497.547	135.19
497.98	136.66
498.413	137.35
498.846	138.56
499.279	137.77
499.711	135.46
500.144	133.83
500.577	134.74
501.009	134.1
501.442	135.57
501.874	135.16
502.306	132.67
502.739	135.39
503.171	135.02
503.603	133.82
504.036	132.73
504.468	131.66
504.9	131.68
505.332	130.15
505.764	129.17
506.196	127.13
506.627	126.78
507.059	126.41
507.491	120.66
507.923	118.5
508.354	118.38
508.786	118.15
509.217	118.28
509.649	117.9
510.08	117.36
510.512	117.76
510.943	117.58
511.374	116.24
511.805	116.75
512.237	116.87
512.668	116.58
513.099	115.6
513.53	115.8
513.961	116.23
514.391	117.21
514.822	120.75
515.253	121.81
515.684	121.14
516.114	121.76
516.545	122.02
516.975	121.8
517.406	121.53
517.836	119.48
518.267	118.69
518.697	118.37
519.127	117.1
519.558	113.01
519.988	110.44
520.418	108.92
520.848	107.42
521.278	105.28
521.708	135.79
522.138	136.17
522.567	136.43
522.997	136.22
523.427	134.59
523.857	134.33
524.286	133.79
524.716	134.31
525.145	134.97
525.575	135.71
526.004	135.25
526.433	103.3
526.863	101.34
527.292	101.81
527.721	101.97
528.15	101.63
528.579	101.27
529.008	101.32
529.437	100.69
529.866	100.32
530.295	100.31
530.724	101.9
531.152	103.12
531.581	104.51
532.01	104.49
532.438	103.42
532.867	103.44
533.295	103.55
533.723	103.29
534.152	103.13
534.58	103.15
535.008	102.09
535.436	102.5
535.865	101.96
536.293	100.83
536.721	100.41
537.149	102.05
537.576	102.96
538.004	104.04
538.432	103.67
538.86	104.47
539.287	104.05
539.715	104
540.143	101.76
540.57	101.79
540.998	102.07
541.425	103.14
541.852	101.23
542.28	100.21
542.707	98.46
543.134	98.56
543.561	98.05
543.988	97.73
544.415	97.39
544.842	96.76
545.269	97.02
545.696	97.65
546.123	97.01
546.549	96.73
546.976	96.53
547.403	96.67
547.829	95.21
548.256	94.1
548.682	94.4
549.108	95.6
549.535	95.87
549.961	94.39
550.387	92.95
550.813	94.29
551.24	95.16
551.666	94.02
552.092	93.41
552.518	93.85
552.943	94.51
553.369	94.31
553.795	94.05
554.221	94.09
554.646	94.59
555.072	96.87
555.498	94.69
555.923	94.17
556.349	96.04
556.774	96.45
557.199	96.2
557.625	96.06
558.05	96.67
558.475	97.38
558.9	98.37
559.325	99.39
559.75	99.36
560.175	99.24
560.6	99.19
561.025	98.49
561.449	98.78
561.874	99.26
562.299	100.94
562.723	100.71
563.148	99.6
563.572	98.78
563.997	99.37
564.421	97.94
564.846	98.28
565.27	99.64
565.694	100.6
566.118	101.51
566.542	104.02
566.966	103.44
567.39	104.22
567.814	105.43
568.238	106.92
568.662	106.86
569.086	108.71
569.509	109.66
569.933	110.92
570.357	111.3
570.78	110.96
571.204	112.1
571.627	112.04
572.05	112.83
572.474	113.55
572.897	113.83
573.32	115.3
573.743	114.72
574.166	115.41
574.589	114.16
575.012	114.25
575.435	114.03
575.858	112.86
576.281	112.64
576.704	111.49
577.126	111.21
577.549	110.69
577.972	108.86
578.394	109.74
578.817	112.23
579.239	111.98
579.661	112.27
580.084	114.34
580.506	113.97
580.928	113.73
581.35	113.92
581.772	113.34
582.194	112.86
582.616	112.37
583.038	110.09
583.46	106.72
583.882	107.07
584.303	105.76
584.725	103.97
585.147	110.78
585.568	112.78
585.99	114.55
586.411	116.55
586.833	118.96
587.254	120.12
587.675	121.47
588.096	123.04
588.518	122.06
588.939	122.48
589.36	123.18
589.781	114.43
590.202	116.56
590.623	115.37
591.043	114.01
591.464	113.07
591.885	114.18
592.305	114.14
592.726	113.47
593.147	114.35
593.567	113.82
593.987	112.97
594.408	113.46
594.828	108.49
595.248	109.45
595.669	109.6
596.089	108.67
596.509	107.54
596.929	107.32
597.349	108.02
597.769	107.36
598.189	107.55
598.608	107.52
599.028	108.32
599.448	108.88
599.867	107.07
600.287	105.8
600.706	106.51
601.126	106.18
601.545	107.16
601.965	106.83
602.384	106.32
602.803	105.97
603.222	106.66
603.641	105.32
604.061	106.07
604.48	106.4
604.898	107.35
605.317	107.13
605.736	107.5
606.155	108.37
606.574	107.77
606.992	108.53
607.411	109.08
607.829	107.35
608.248	107.79
608.666	107.41
609.085	108.33
609.503	108.36
609.921	109.32
610.339	109.92
610.758	108.24
611.176	108.32
611.594	108.82
612.012	108.28
612.43	111.06
612.847	112.21
613.265	114.18
613.683	114.59
614.101	115.38
614.518	114.08
614.936	113.45
615.353	114.02
615.771	115
616.188	115.76
616.606	116.69
617.023	116.12
617.44	115.57
617.857	113.58
618.274	112.54
618.691	113.27
619.108	113.09
619.525	112.64
619.942	114.29
620.359	115.2
620.776	114.69
621.192	115.76
621.609	116.15
622.026	117.83
622.442	119.9
622.859	120.59
623.275	119.29
623.691	120.76
624.108	122.87
624.524	123.24
624.94	123.56
625.356	123.77
625.772	124
626.188	124.41
626.604	124.37
627.02	123.35
627.436	124.18
627.852	126.58
628.268	127.93
628.683	126.16
629.099	125.67
629.514	123.63
629.93	124.76
630.345	125.78
630.761	124.96
631.176	125.29
631.591	127.62
632.007	127.92
632.422	126.08
632.837	124.92
633.252	127.35
633.667	126.66
634.082	126.86
634.497	126.91
634.911	127.45
635.326	127.89
635.741	127.21
636.155	124.84
636.57	126.27
636.984	127.46
637.399	131.13
637.813	130.9
638.228	132.24
638.642	133.9
639.056	133.28
639.47	133.04
639.884	133.54
640.298	134
640.712	135.94
641.126	135.52
641.54	135.31
641.954	132.45
642.368	132.88
642.781	136.39
643.195	134.89
643.609	136.7
644.022	136.63
644.436	137.05
644.849	136.39
645.262	135.3
645.676	135.17
646.089	135.8
646.502	137.76
646.915	137.75
647.328	134.29
647.741	136.34
648.154	136.19
648.567	140.52
648.98	140.89
649.393	141.73
649.805	143.3
650.218	144
650.631	143.32
651.043	142.31
651.456	141.82
651.868	141.82
652.28	143.84
652.693	144.9
653.105	144.19
653.517	145.38
653.929	147.33
654.341	147.86
654.753	147.43
655.165	148.54
655.577	148.63
655.989	149.11
656.401	147.74
656.813	145.38
657.224	144.07
657.636	139.5
658.047	139.43
658.459	136.49
658.87	135.54
659.282	133.99
659.693	133.59
660.104	132.69
660.515	131.31
660.926	133.84
661.338	133.42
661.749	132.69
662.159	133.73
662.57	133.48
662.981	135.12
663.392	135.39
663.803	137.2
664.213	136.59
664.624	136.98
665.035	139.02
665.445	136.22
665.855	137.18
666.266	138.7
666.676	138.78
667.086	137.16
667.497	137.45
667.907	137.23
668.317	135.68
668.727	140.2
669.137	139.78
669.547	139.88
669.956	140.36
670.366	141.12
670.776	141.08
671.186	142.21
671.595	143.17
672.005	142.49
672.414	143.51
672.824	144.79
673.233	140.77
673.642	141.61
674.052	143.67
674.461	146.26
674.87	146.07
675.279	147.68
675.688	146.4
676.097	148.15
676.506	148.47
676.915	150.32
677.323	149.57
677.732	149.61
678.141	148.43
678.549	144.09
678.958	140.53
679.366	138.43
679.775	135.08
680.183	138.84
680.592	137.62
681	137.53
681.408	135.02
681.816	135.08
682.224	134.68
682.632	136.83
683.04	139.46
683.448	141.72
683.856	145.53
684.264	151.41
684.671	151.47
685.079	153.98
685.487	155.58
685.894	160.1
686.302	161.39
686.709	162.9
687.116	164.13
687.524	166.19
687.931	167.99
688.338	166.55
688.745	161.45
689.152	159.29
689.559	158.82
689.966	159.86
690.373	157.39
690.78	157.99
691.187	157.61
691.593	156.93
692	153.05
692.407	151.52
692.813	155.74
693.22	156.56
693.626	153.93
694.032	152.35
694.439	152.4
694.845	150.24
695.251	148.49
695.657	148.74
696.063	147.56
696.469	147.22
696.875	147.48
697.281	142.78
697.687	139.77
698.093	138.88
698.498	140.01
698.904	137
699.31	137.91
699.715	143.09
700.12	144.66
700.526	144.88
700.931	145.16
701.337	144.94
701.742	144.58
702.147	145.82
702.552	145.37
702.957	143.7
703.362	144
703.767	142.72
704.172	138.03
704.577	132.73
704.981	130.35
705.386	130.2
705.791	127.81
706.195	126.55
706.6	125.98
707.004	124.97
707.408	123.19
707.813	124.59
708.217	123.58
708.621	122.71
709.025	125.18
709.43	126.96
709.834	128.61
710.237	129.49
710.641	128.36
711.045	128.38
711.449	129.95
711.853	134.91
712.256	133.01
712.66	134.04
713.064	135.19
713.467	136.62
713.87	138.23
714.274	138.47
714.677	141.44
715.08	146.65
715.484	150.9
715.887	159.76
