Data from C_3_DIV_PA_2N_Splice17_13-15-48-812.txt Node
Date: Sat Mar 14 13:15:48 EDT 2020
User: sa697716
Spectrometer: FLMS03696
Trigger mode: 0
Integration Time (sec): 3.180400E-1
Scans to average: 20
Electric dark correction enabled: true
Nonlinearity correction enabled: true
Boxcar width: 5
XAxis mode: Wavelengths
Number of Pixels in Spectrum: 2048
>>>>>Begin Spectral Data<<<<<
187.83	-271569.15
188.298	2162.24
188.766	1154.99
189.233	1060.21
189.701	1447.22
190.169	2055.04
190.636	794.72
191.104	702.27
191.571	113.1
192.039	-32.56
192.506	-16.79
192.974	565.37
193.441	-854.17
193.908	-203.53
194.375	-37.24
194.842	13.61
195.31	105.7
195.777	180.68
196.244	342.94
196.711	243.02
197.177	282.82
197.644	321.83
198.111	516.19
198.578	716.78
199.045	561.21
199.511	870.5
199.978	941.08
200.445	841.16
200.911	917.13
201.378	976.45
201.844	935.56
202.31	1552.85
202.777	1623.7
203.243	910.13
203.709	877.49
204.176	1035.65
204.642	869.42
205.108	830.84
205.574	637.87
206.04	534.73
206.506	501.01
206.972	444.74
207.438	435.11
207.903	499.31
208.369	451.48
208.835	448.47
209.301	470.29
209.766	463.72
210.232	458.39
210.697	568.94
211.163	719.04
211.628	1055.48
212.094	935.69
212.559	1257.11
213.024	801.37
213.49	1008.3
213.955	987.48
214.42	935.85
214.885	909.69
215.35	897.5
215.815	951.6
216.28	1022.06
216.745	833.16
217.21	933.94
217.675	829.17
218.14	949.59
218.604	1043.36
219.069	1227.31
219.534	1366.83
219.998	1593.58
220.463	1946.08
220.927	2364.13
221.392	2264.54
221.856	2353.31
222.32	2953.53
222.785	3692.18
223.249	4690.4
223.713	5310.57
224.177	5350.24
224.642	6822.22
225.106	8460.32
225.57	9323.2
226.034	7042.65
226.497	10800.93
226.961	9862.28
227.425	11609.88
227.889	12950.44
228.353	13000.97
228.816	26948.71
229.28	26006.07
229.744	22091.6
230.207	13565.75
230.671	13438.76
231.134	22295.49
231.597	25928.19
232.061	26016.71
232.524	25499.32
232.987	17696.59
233.45	16080.76
233.914	14544.65
234.377	14962.32
234.84	13773.84
235.303	16302.6
235.766	18295.53
236.229	18989.73
236.691	12014.4
237.154	13549.99
237.617	10240.84
238.08	10512.87
238.542	12329.39
239.005	8847.19
239.468	8817.75
239.93	8332.63
240.393	7596.01
240.855	6684.05
241.317	6843.41
241.78	8316.46
242.242	8642.7
242.704	9381.25
243.166	8209.97
243.629	7505.27
244.091	8688.8
244.553	9583.7
245.015	10367.02
245.477	13462.11
245.939	19808.4
246.4	21155.08
246.862	20662.8
247.324	19553.11
247.786	21953.16
248.247	28852.05
248.709	29826.7
249.17	22411.74
249.632	21241.92
250.093	24805.37
250.555	21531.14
251.016	13217.36
251.477	12586.28
251.939	13673.12
252.4	14394.61
252.861	17169.11
253.322	16064.19
253.783	19179.07
254.244	24950.17
254.705	19689.36
255.166	17542.58
255.627	17328.2
256.088	24510.64
256.549	26147.53
257.009	22552.22
257.47	27425.03
257.931	22415.75
258.391	16851.02
258.852	17436
259.312	18331.69
259.773	22742.45
260.233	19315.49
260.694	16379.04
261.154	18668.17
261.614	15108.36
262.074	13586.53
262.534	14231.2
262.994	13502.63
263.455	18084.55
263.915	15357.65
264.374	14579.32
264.834	16000.25
265.294	17797.13
265.754	18551.87
266.214	17653.03
266.673	16609.52
267.133	21074.12
267.593	20993.39
268.052	25836.04
268.512	22577.47
268.971	27334.93
269.431	30086.35
269.89	27064.55
270.349	40850.11
270.809	45738.9
271.268	41298.78
271.727	92977.73
272.186	60504.06
272.645	45589.74
273.104	32955.16
273.563	47896.15
274.022	37837.83
274.481	32344.06
274.94	25061.26
275.399	18674.43
275.857	21825.71
276.316	29630.51
276.775	26454.79
277.233	26126.8
277.692	24541.46
278.15	27896.83
278.609	28825.3
279.067	26757.38
279.525	24946.12
279.984	32279.41
280.442	38852.97
280.9	38433.74
281.358	25368.36
281.816	23693.08
282.274	23278.19
282.732	24105.32
283.19	24275.12
283.648	20984.49
284.106	22389.74
284.564	22754.4
285.021	21145.46
285.479	15785.29
285.937	14358.48
286.394	12616.22
286.852	13015.03
287.309	13715.53
287.767	13299.31
288.224	12691.34
288.682	13973.33
289.139	15422.45
289.596	14218.92
290.053	14842.29
290.511	18868.44
290.968	23048.69
291.425	31510.37
291.882	26409.4
292.339	23108.73
292.796	23047.05
293.252	21809.4
293.709	17422.68
294.166	15671.38
294.623	17364.18
295.079	16715.42
295.536	16838.29
295.992	15317.21
296.449	15163.67
296.905	15786.78
297.362	15199.33
297.818	16012.58
298.274	16653.21
298.731	17007.17
299.187	16861.61
299.643	18151.46
300.099	22020.71
300.555	24199.07
301.011	20251.65
301.467	19592.01
301.923	22974.9
302.379	22455.91
302.835	22109.25
303.291	22192.71
303.746	25269.97
304.202	31962.39
304.658	32140.59
305.113	21677.67
305.569	21282.75
306.024	22732.84
306.479	21652.93
306.935	18288.51
307.39	19984.78
307.845	18486.25
308.301	18615.5
308.756	18182.25
309.211	17562.79
309.666	17995.39
310.121	22337.67
310.576	22672
311.031	22527.24
311.486	25845.72
311.94	25835.1
312.395	34557.18
312.85	64933.89
313.305	319113.82
313.759	1656018.56
314.214	120128.56
314.668	95545.98
315.123	80558.06
315.577	29021.31
316.032	25882.95
316.486	32486.65
316.94	25713.22
317.394	17977.65
317.849	14026.29
318.303	13331.67
318.757	12627.63
319.211	14029.42
319.665	12325.05
320.119	12528.19
320.572	18007.29
321.026	16890.43
321.48	14110.64
321.934	15446.66
322.387	15508.21
322.841	16793.89
323.295	15154.69
323.748	17479.98
324.202	17746.27
324.655	21374.01
325.108	29894.08
325.562	21167.59
326.015	25174.08
326.468	19079.12
326.921	21385.54
327.374	19989.98
327.827	20872.78
328.28	23650.87
328.733	15879.53
329.186	13983.47
329.639	13333.24
330.092	11259.84
330.545	10741.24
330.997	10858.7
331.45	11875.9
331.903	13917.6
332.355	24020.35
332.808	23352.78
333.26	19268.74
333.713	20951.17
334.165	21107.46
334.617	28217.51
335.069	22787.58
335.522	41203.55
335.974	45671.09
336.426	41741.36
336.878	28971.73
337.33	14680.79
337.782	14337.56
338.234	18000.62
338.686	21540.4
339.137	25613.19
339.589	24140.08
340.041	18988.22
340.493	16368.94
340.944	16798.94
341.396	18145.09
341.847	15306.69
342.299	18137.96
342.75	22252.49
343.201	19526.81
343.653	22517.99
344.104	27774.6
344.555	21958.95
345.006	34306.26
345.457	26392.48
345.908	21059.96
346.359	19873.92
346.81	16225.31
347.261	17141.33
347.712	16907.98
348.163	18157.72
348.613	18471.9
349.064	17282.62
349.515	15135.91
349.965	15526.96
350.416	18723.52
350.866	20576.3
351.317	23331.75
351.767	38700.75
352.217	48911.95
352.668	40680.02
353.118	37323.37
353.568	35966.53
354.018	28443.57
354.468	30056.85
354.918	21594.14
355.368	18888.46
355.818	26714.15
356.268	76784.73
356.718	321740.12
357.168	80259.88
357.617	40288.25
358.067	44838.43
358.517	42089.95
358.966	49494.72
359.416	55659.58
359.865	60294.11
360.315	71948.08
360.764	33647.77
361.213	18907.41
361.663	17966.26
362.112	22229.1
362.561	36015.03
363.01	27252.11
363.459	23006.02
363.908	24959.48
364.357	21239.03
364.806	35963.52
365.255	24791.12
365.703	22789.23
366.152	22877.97
366.601	18572.08
367.05	15102.16
367.498	13724.29
367.947	14396.25
368.395	14999.22
368.844	13320.1
369.292	16095.75
369.74	11140.13
370.189	17131.85
370.637	20121.22
371.085	17395.29
371.533	21272.88
371.981	20556.94
372.429	19662.95
372.877	20519.41
373.325	17213.83
373.773	17558.11
374.221	15686.49
374.669	19509.19
375.116	16924.38
375.564	17095.74
376.012	19184.37
376.459	15841.26
376.907	18973.35
377.354	23021.85
377.801	21505.32
378.249	24752.52
378.696	31710.78
379.143	38452.29
379.591	41114.46
380.038	69583.17
380.485	50358.71
380.932	54501.52
381.379	50011.13
381.826	36889.18
382.273	26270.34
382.72	23027.44
383.166	22527
383.613	14658.68
384.06	13240.21
384.506	15352.16
384.953	11289.17
385.4	11393.83
385.846	9982.38
386.292	9738.06
386.739	9536.97
387.185	9435.52
387.631	9439.99
388.078	9144.01
388.524	9784.3
388.97	9027.71
389.416	7519.9
389.862	7996.53
390.308	7568.42
390.754	7680.54
391.2	8321.65
391.645	8506.55
392.091	8121.48
392.537	7820.43
392.983	7813.64
393.428	7662.48
393.874	8209.7
394.319	8222.64
394.765	7783.41
395.21	7987.65
395.655	7483.73
396.101	6989.47
396.546	6298.92
396.991	6335.96
397.436	5879.98
397.881	5677.67
398.326	5363.66
398.771	5052.87
399.216	4407.59
399.661	3946.38
400.106	3921.88
400.551	3995.69
400.995	3578.09
401.44	3534.45
401.885	3328.13
402.329	3367.29
402.774	3228.63
403.218	3121
403.663	3005.13
404.107	3080.11
404.551	3108.28
404.995	2843.54
405.44	2740.66
405.884	2783.1
406.328	2685.52
406.772	2666.68
407.216	2420
407.66	2334.4
408.104	2213.38
408.547	2065.05
408.991	1997.24
409.435	1918.13
409.879	1890.51
410.322	1863.88
410.766	1793.61
411.209	1704.03
411.653	1632.82
412.096	1592.57
412.54	1588.85
412.983	1571.85
413.426	1576.4
413.869	1572.43
414.312	1538.66
414.756	1479.55
415.199	1406.54
415.642	1363.99
416.085	1363.68
416.527	1352.46
416.97	1376.34
417.413	1305.45
417.856	1295.97
418.298	1284.07
418.741	1276.59
419.184	1275.43
419.626	1327.65
420.069	1332.45
420.511	1341.13
420.953	1314.21
421.396	1303.27
421.838	1267.66
422.28	1296.38
422.722	1302.22
423.164	1318.49
423.606	1296.88
424.048	1294.29
424.49	1233.83
424.932	1225.02
425.374	1206.94
425.816	1229.5
426.258	1254.21
426.699	1273.56
427.141	1259.92
427.582	1281.33
428.024	1274.71
428.465	1264.26
428.907	1230.93
429.348	1211.47
429.789	1208
430.231	1182.57
430.672	1195.4
431.113	1165.25
431.554	1144.11
431.995	1108.12
432.436	1065.36
432.877	1038.64
433.318	1021.55
433.759	1013.31
434.2	1011.43
434.64	999.46
435.081	997.64
435.522	941.21
435.962	904.62
436.403	879.97
436.843	889.63
437.284	868
437.724	843.6
438.164	840.84
438.604	823.65
439.045	790.83
439.485	757.4
439.925	740.38
440.365	720.36
440.805	708.61
441.245	700.25
441.685	674.32
442.125	666.53
442.564	668.97
443.004	653.69
443.444	649.41
443.883	648.36
444.323	640.91
444.762	638.73
445.202	645.41
445.641	655.32
446.081	649.61
446.52	652.27
446.959	644.07
447.398	626.64
447.837	617.32
448.276	603.82
448.716	606.48
449.154	610.48
449.593	595.63
450.032	592.4
450.471	577.72
450.91	574.7
451.349	571.74
451.787	567.41
452.226	574.72
452.664	572.87
453.103	573.59
453.541	572.8
453.98	573.86
454.418	578
454.856	567.7
455.295	568.61
455.733	574.46
456.171	577.2
456.609	578.29
457.047	578.5
457.485	587.5
457.923	589.48
458.361	581.46
458.798	579.89
459.236	578.24
459.674	581.51
460.111	583.08
460.549	577.02
460.987	574.9
461.424	573.31
461.862	569.35
462.299	559.51
462.736	557.29
463.173	559.04
463.611	555.24
464.048	552.41
464.485	557.22
464.922	551.33
465.359	548.09
465.796	543.83
466.233	539.41
466.67	536.16
467.106	536.3
467.543	530.62
467.98	524.46
468.416	509.68
468.853	505.62
469.29	491.18
469.726	487.97
470.162	475.54
470.599	467.13
471.035	462.98
471.471	451.54
471.907	447.9
472.344	446.32
472.78	448.31
473.216	454.66
473.652	450.55
474.088	449.43
474.523	448.65
474.959	453.7
475.395	450.24
475.831	449.22
476.266	453
476.702	452.28
477.138	447.32
477.573	446.19
478.008	444.86
478.444	448.93
478.879	455
479.314	457.22
479.75	457.55
480.185	460.9
480.62	464.68
481.055	467.06
481.49	472.34
481.925	480.64
482.36	491.47
482.795	505.3
483.229	518.54
483.664	529.37
484.099	531.66
484.534	540.59
484.968	546.28
485.403	549.04
485.837	548.13
486.271	546.16
486.706	546.04
487.14	537.23
487.574	528.92
488.009	523.47
488.443	518.57
488.877	522.93
489.311	522.97
489.745	527.53
490.179	530.62
490.613	540.31
491.046	542.75
491.48	544.44
491.914	543.82
492.348	545.61
492.781	546.6
493.215	544.82
493.648	542.69
494.082	544.37
494.515	541.37
494.948	544.7
495.382	544.42
495.815	545.22
496.248	546.86
496.681	553.59
497.114	557.79
497.547	560.99
497.98	566.92
498.413	568.05
498.846	570.1
499.279	571.06
499.711	568.15
500.144	563.42
500.577	565.77
501.009	567.23
501.442	566.49
501.874	561.48
502.306	556.62
502.739	556.84
503.171	559.42
503.603	554.63
504.036	555.02
504.468	551.75
504.9	552.14
505.332	548.29
505.764	543.49
506.196	540.94
506.627	542.18
507.059	542.22
507.491	536.53
507.923	527.96
508.354	527.89
508.786	525.24
509.217	526.85
509.649	526.71
510.08	528.06
510.512	529.03
510.943	527.87
511.374	524.98
511.805	525.75
512.237	526.72
512.668	532.31
513.099	536.1
513.53	539.08
513.961	539.3
514.391	543.59
514.822	549.78
515.253	555.84
515.684	557.52
516.114	560.65
516.545	561.95
516.975	563.54
517.406	561.87
517.836	554.35
518.267	550.1
518.697	550.13
519.127	544.82
519.558	539.37
519.988	532.56
520.418	528.8
520.848	527.64
521.278	522.97
521.708	552.52
522.138	552.58
522.567	557.75
522.997	559.99
523.427	559.08
523.857	560.12
524.286	558.14
524.716	559.33
525.145	562.16
525.575	562.33
526.004	562.77
526.433	526.89
526.863	521.59
527.292	516.38
527.721	516.07
528.15	514.55
528.579	511.72
529.008	513.2
529.437	516.7
529.866	517.7
530.295	520.24
530.724	523.52
531.152	529.93
531.581	534.13
532.01	537.43
532.438	537.21
532.867	540.52
533.295	545.39
533.723	545.79
534.152	544.55
534.58	544.45
535.008	540.2
535.436	541.21
535.865	542.4
536.293	545.59
536.721	550.19
537.149	558.36
537.576	559.71
538.004	563.78
538.432	565.71
538.86	566.26
539.287	569.03
539.715	572.99
540.143	572.96
540.57	572.74
540.998	571.7
541.425	566.84
541.852	561.12
542.28	561.32
542.707	556.31
543.134	553.79
543.561	553.22
543.988	551.18
544.415	551.53
544.842	550.27
545.269	549.44
545.696	552.12
546.123	556.48
546.549	554.21
546.976	551.9
547.403	552.76
547.829	553.52
548.256	554.88
548.682	555.64
549.108	555.75
549.535	556.86
549.961	558.22
550.387	554.8
550.813	554.82
551.24	558.08
551.666	558.78
552.092	557.42
552.518	557.13
552.943	556.92
553.369	560.18
553.795	562.83
554.221	564.57
554.646	565.45
555.072	571.66
555.498	572.75
555.923	576.76
556.349	583.47
556.774	587.94
557.199	589.97
557.625	593.64
558.05	594.55
558.475	600.08
558.9	602.13
559.325	602.21
559.75	602.16
560.175	603.22
560.6	604.34
561.025	605.8
561.449	608.33
561.874	613.64
562.299	618.45
562.723	623.14
563.148	621.87
563.572	626.15
563.997	632.07
564.421	635.96
564.846	639.38
565.27	643.69
565.694	647.04
566.118	655.98
566.542	663
566.966	664.4
567.39	666.06
567.814	666.33
568.238	670.01
568.662	675.74
569.086	681.57
569.509	688.52
569.933	688.43
570.357	689.64
570.78	685.95
571.204	686.52
571.627	686.72
572.05	691.2
572.474	696.8
572.897	697.23
573.32	699.74
573.743	699.51
574.166	696.74
574.589	699.49
575.012	700.67
575.435	704.34
575.858	703.87
576.281	704.17
576.704	701.53
577.126	699.65
577.549	698.2
577.972	697.43
578.394	698.01
578.817	700.84
579.239	696.88
579.661	695.95
580.084	693.82
580.506	691.24
580.928	692.21
581.35	690.75
581.772	692.46
582.194	690.6
582.616	687.78
583.038	683.1
583.46	680.4
583.882	682.56
584.303	686.03
584.725	685.73
585.147	692.97
585.568	701.25
585.99	708.6
586.411	714.03
586.833	722.05
587.254	724.54
587.675	733.35
588.096	739.57
588.518	737.9
588.939	731.96
589.36	732.71
589.781	724.95
590.202	714.97
590.623	713.04
591.043	712.35
591.464	707.89
591.885	708.9
592.305	707.58
592.726	703.32
593.147	706.31
593.567	704.65
593.987	701.55
594.408	700.61
594.828	698.47
595.248	696.76
595.669	690.29
596.089	687.76
596.509	684.51
596.929	679.03
597.349	679.99
597.769	675.01
598.189	672.92
598.608	674.96
599.028	676.16
599.448	676.23
599.867	669.83
600.287	666.78
600.706	667.23
601.126	664.06
601.545	664.67
601.965	665.11
602.384	663.64
602.803	666.38
603.222	665.01
603.641	663.33
604.061	664.03
604.48	663.93
604.898	671.11
605.317	674.25
605.736	676.38
606.155	677.43
606.574	674.51
606.992	679.61
607.411	679.16
607.829	676.58
608.248	677.19
608.666	677.77
609.085	681.26
609.503	678.62
609.921	678.59
610.339	682.66
610.758	684.79
611.176	685.1
611.594	683.32
612.012	683.56
612.43	689.2
612.847	695.26
613.265	699.11
613.683	703.39
614.101	706.86
614.518	706.52
614.936	703.72
615.353	698.98
615.771	700.24
616.188	702.85
616.606	704.62
617.023	703.68
617.44	698.43
617.857	696.15
618.274	693.16
618.691	693.01
619.108	690.3
619.525	689.61
619.942	695.37
620.359	698.83
620.776	697.75
621.192	697.81
621.609	697.8
622.026	703.57
622.442	708.99
622.859	712.78
623.275	708.96
623.691	712.96
624.108	721.05
624.524	730.14
624.94	731.35
625.356	737.65
625.772	746.01
626.188	753.08
626.604	754.58
627.02	752.63
627.436	751.34
627.852	757.22
628.268	765.75
628.683	760.22
629.099	754.96
629.514	752.47
629.93	755.84
630.345	759.06
630.761	757.59
631.176	760.92
631.591	760.87
632.007	760.32
632.422	760.69
632.837	755.73
633.252	757.9
633.667	755.62
634.082	753.73
634.497	750.08
634.911	742.27
635.326	745.05
635.741	739.25
636.155	736.4
636.57	742.34
636.984	747.78
637.399	756.15
637.813	760.64
638.228	765.75
638.642	774.96
639.056	775.67
639.47	784.29
639.884	785.57
640.298	789.07
640.712	797.63
641.126	797.65
641.54	799.19
641.954	802.18
642.368	803.47
642.781	809.01
643.195	805.84
643.609	815.95
644.022	819.74
644.436	826.74
644.849	827.32
645.262	826.48
645.676	837.84
646.089	843.55
646.502	841.74
646.915	845.34
647.328	838.75
647.741	844.91
648.154	841.14
648.567	846.95
648.98	842.16
649.393	847.75
649.805	850.69
650.218	848.22
650.631	839.73
651.043	839.13
651.456	838.34
651.868	842.47
652.28	860.13
652.693	874.66
653.105	882.23
653.517	893.59
653.929	898.3
654.341	906.73
654.753	900.59
655.165	910.41
655.577	911.86
655.989	912.92
656.401	910.91
656.813	885.42
657.224	874.15
657.636	854.84
658.047	845.12
658.459	832.86
658.87	830.64
659.282	825.84
659.693	813.37
660.104	806.31
660.515	800.29
660.926	804.09
661.338	806.32
661.749	805.09
662.159	802.15
662.57	803.33
662.981	805.18
663.392	803.7
663.803	813.42
664.213	815.59
664.624	816.43
665.035	824.62
665.445	816.29
665.855	813.64
666.266	809.97
666.676	809.7
667.086	803.79
667.497	805.39
667.907	801.22
668.317	793.61
668.727	792.96
669.137	796.02
669.547	793.46
669.956	796.86
670.366	798.85
670.776	801.14
671.186	805.41
671.595	808.32
672.005	811.5
672.414	810.18
672.824	807.7
673.233	810.4
673.642	809.89
674.052	811.5
674.461	811.68
674.87	814.59
675.279	809.95
675.688	809.94
676.097	809.47
676.506	803.31
676.915	815.5
677.323	814.63
677.732	808.54
678.141	805.81
678.549	791.94
678.958	787.36
679.366	783.84
679.775	784.33
680.183	789.81
680.592	790.8
681	792.05
681.408	779.56
681.816	780.99
682.224	784.14
682.632	786.22
683.04	806.75
683.448	821.1
683.856	838.61
684.264	859.27
684.671	876.28
685.079	898.74
685.487	921.98
685.894	959.77
686.302	983.11
686.709	996.69
687.116	1013.8
687.524	1021.61
687.931	1023.66
688.338	1021.68
688.745	1012.58
689.152	1005.54
689.559	1005.4
689.966	1004.17
690.373	985.81
690.78	981.96
691.187	989.73
691.593	987.57
692	979.28
692.407	982.38
692.813	992.91
693.22	995.01
693.626	997.79
694.032	993.45
694.439	1001.42
694.845	1000.81
695.251	1007.77
695.657	1011.01
696.063	1027.01
696.469	1034.45
696.875	1039.75
697.281	1031.69
697.687	1027.96
698.093	1022.14
698.498	1030.8
698.904	1031.36
699.31	1046.25
699.715	1054.05
700.12	1069.83
700.526	1060.15
700.931	1067.94
701.337	1070.15
701.742	1066.02
702.147	1079.88
702.552	1075.39
702.957	1081.38
703.362	1076.96
703.767	1074.13
704.172	1072.23
704.577	1046.56
704.981	1050.95
705.386	1045.83
705.791	1033.95
706.195	1046.85
706.6	1039.92
707.004	1053.47
