Data from C_3_DEC_NC_4N_Splice17_13-05-55-207.txt Node
Date: Sat Mar 14 13:05:55 EDT 2020
User: sa697716
Spectrometer: FLMS03696
Trigger mode: 0
Integration Time (sec): 3.180400E-1
Scans to average: 20
Electric dark correction enabled: true
Nonlinearity correction enabled: true
Boxcar width: 5
XAxis mode: Wavelengths
Number of Pixels in Spectrum: 2048
>>>>>Begin Spectral Data<<<<<
187.83	-382446.38
188.298	2718.13
188.766	1439.99
189.233	1344.51
189.701	1889.12
190.169	2389.32
190.636	908.5
191.104	690.98
191.571	144.23
192.039	-43.75
192.506	29.91
192.974	661.15
193.441	-1114.59
193.908	-297.67
194.375	-58.23
194.842	38.7
195.31	-15.64
195.777	145.24
196.244	355.83
196.711	472.72
197.177	599.77
197.644	856.46
198.111	1452.52
198.578	2002.09
199.045	1580.33
199.511	2589.62
199.978	2987.36
200.445	2547
200.911	2814.8
201.378	3145.13
201.844	2852.47
202.31	4825.11
202.777	4990.36
203.243	2799.8
203.709	2660.12
204.176	3170.31
204.642	2599.83
205.108	2443.61
205.574	1995.24
206.04	1804.21
206.506	1683.75
206.972	1577.71
207.438	1512.31
207.903	1735.78
208.369	1500.85
208.835	1501.44
209.301	1572.71
209.766	1612.28
210.232	1590.85
210.697	1969.5
211.163	2443.11
211.628	3699.25
212.094	3115.88
212.559	3868.39
213.024	2402.85
213.49	2947.09
213.955	2887.34
214.42	2821.12
214.885	2603.62
215.35	2498.52
215.815	2426.77
216.28	2571.38
216.745	2097.83
217.21	2260.12
217.675	2062.21
218.14	2315.76
218.604	2577.61
219.069	2923.05
219.534	3060.83
219.998	3564.93
220.463	4304.86
220.927	5265.71
221.392	4942.24
221.856	4991.73
222.32	6266.76
222.785	7728.38
223.249	9682.65
223.713	10770.7
224.177	10756.81
224.642	13752.36
225.106	16883.6
225.57	18397.11
226.034	13663.57
226.497	20800.85
226.961	18731.56
227.425	21862.12
227.889	24268.2
228.353	24270.65
228.816	50100.57
229.28	47822.74
229.744	40284.05
230.207	24484.64
230.671	24132.34
231.134	39864.64
231.597	45959.66
232.061	45998.14
232.524	44825.31
232.987	30848.2
233.45	27746.5
233.914	24884.72
234.377	25546.36
234.84	23392.96
235.303	27584.44
235.766	30756.19
236.229	31736.33
236.691	19958.45
237.154	22401.95
237.617	16833.88
238.08	17234.48
238.542	20170.36
239.005	14431.21
239.468	14305.26
239.93	13478.81
240.393	12237.67
240.855	10741.97
241.317	11015.12
241.78	13384.6
242.242	13836.81
242.704	14937.03
243.166	12991.6
243.629	11818.81
244.091	13611.29
244.553	14920.57
245.015	16014.27
245.477	20708.35
245.939	30340.39
246.4	32184.27
246.862	31302.24
247.324	29498.3
247.786	33008.38
248.247	43286.14
248.709	44607.17
249.17	33342.59
249.632	31437.48
250.093	36506.49
250.555	31558.84
251.016	19260.71
251.477	18267.01
251.939	19713.35
252.4	20674.01
252.861	24547.34
253.322	22844.7
253.783	27217.87
254.244	35369.5
254.705	27925.42
255.166	24848.85
255.627	24452.93
256.088	34511.11
256.549	36691.68
257.009	31616.57
257.47	38462.3
257.931	31395.18
258.391	23544.8
258.852	24279.64
259.312	25437.4
259.773	31421.36
260.233	26590.41
260.694	22452.77
261.154	25431.61
261.614	20450.87
262.074	18301.05
262.534	19007.91
262.994	17925.03
263.455	23874.79
263.915	20100.99
264.374	18933.4
264.834	20665.18
265.294	22879.63
265.754	23703.87
266.214	22484.12
266.673	21058.54
267.133	26547.63
267.593	26298.03
268.052	32161.92
268.512	27942.97
268.971	33688.56
269.431	36932.65
269.89	33070.38
270.349	49555.41
270.809	55236.22
271.268	49591.25
271.727	111046.35
272.186	71905.83
272.645	53957.43
273.104	38900.89
273.563	56389.31
274.022	44360.68
274.481	37739.34
274.94	29060.63
275.399	21599.8
275.857	25140.01
276.316	34017.77
276.775	30245.88
277.233	29833.9
277.692	27942.3
278.15	31612.06
278.609	32498.09
279.067	30091.97
279.525	27965.09
279.984	36115.43
280.442	43399.04
280.9	42786.38
281.358	28136.06
281.816	26222.81
282.274	25661.61
282.732	26504.99
283.19	26659.25
283.648	23015.37
284.106	24494.57
284.564	24868.43
285.021	23071.33
285.479	17198.45
285.937	15635.18
286.394	13719.5
286.852	14140.43
287.309	14846.08
287.767	14341.29
288.224	13625.86
288.682	14941.45
289.139	16415.51
289.596	15029.26
290.053	15607.4
290.511	19676.24
290.968	23876.28
291.425	32373.12
291.882	26948.23
292.339	23450.7
292.796	23258.38
293.252	21920.03
293.709	17422.34
294.166	15581.26
294.623	17212.57
295.079	16501.23
295.536	16580.06
295.992	15057.06
296.449	14885.15
296.905	15460.68
297.362	14823.87
297.818	15595.29
298.274	16178.34
298.731	16468.97
299.187	16292.02
299.643	17477.57
300.099	21143.2
300.555	23186.11
301.011	19356.16
301.467	18656.16
301.923	21835.51
302.379	21325.94
302.835	20931.46
303.291	20953.68
303.746	23877.12
304.202	30179.38
304.658	30336.53
305.113	20416.17
305.569	20002.96
306.024	21354.1
306.479	20338.09
306.935	17149.03
307.39	18752.09
307.845	17315.17
308.301	17444.44
308.756	16989.38
309.211	16364.55
309.666	16757.27
310.121	20806.76
310.576	21124.75
311.031	20948.67
311.486	23970.74
311.94	23919.92
312.395	31928.72
312.85	60024.01
313.305	294379.87
313.759	1523976.27
314.214	110631.23
314.668	87920.56
315.123	73926.74
315.577	26524
316.032	23580.47
316.486	29574.7
316.94	23356.37
317.394	16283.58
317.849	12645.42
318.303	11966.82
318.757	11305.51
319.211	12495.09
319.665	10911.95
320.119	11050.36
320.572	15838.2
321.026	14804.22
321.48	12309.88
321.934	13427.47
322.387	13440.1
322.841	14514.72
323.295	13066.84
323.748	15027.88
324.202	15236.67
324.655	18301.62
325.108	25520.34
325.562	18019.37
326.015	21368.44
326.468	16163.39
326.921	18083.04
327.374	16856.11
327.827	17588.83
328.28	19941.13
328.733	13377.53
329.186	11755.21
329.639	11210.56
330.092	9448.87
330.545	9012.56
330.997	9119.12
331.45	9983.91
331.903	11694.81
332.355	20153.74
332.808	19552.5
333.26	16109.61
333.713	17504.25
334.165	17659.28
334.617	23577.17
335.069	19060.84
335.522	34473.36
335.974	38114.85
336.426	34755.87
336.878	24065.1
337.33	12197.87
337.782	11919.36
338.234	14916.34
338.686	17822.91
339.137	21114.74
339.589	19893.55
340.041	15624.45
340.493	13408.12
340.944	13734.1
341.396	14795.15
341.847	12471.07
342.299	14734.49
342.75	18020.56
343.201	15741.82
343.653	18058.93
344.104	22160.78
344.555	17419.76
345.006	27097.61
345.457	20775.74
345.908	16517.47
346.359	15576.25
346.81	12660.84
347.261	13341.9
347.712	13124.45
348.163	14086.08
348.613	14287.31
349.064	13350.31
349.515	11717.68
349.965	12026.27
350.416	14474.44
350.866	15861.53
351.317	17929.55
351.767	29763.79
352.217	37708.29
352.668	31342.67
353.118	28721.49
353.568	27729.39
354.018	21973.09
354.468	23183.51
354.918	16634.43
355.368	14549.91
355.818	20564.49
356.268	59055.88
356.718	246866.81
357.168	61255.34
357.617	30737.43
358.067	34197.55
358.517	32055.36
358.966	37531.75
359.416	42100.47
359.865	45451.85
360.315	54166.61
360.764	25283.88
361.213	14177.09
361.663	13420.62
362.112	16557.23
362.561	26757.03
363.01	20217.36
363.459	17008.33
363.908	18446.28
364.357	15691.26
364.806	26534.79
365.255	18275.95
365.703	16791.37
366.152	16855.31
366.601	13706.01
367.05	11137.21
367.498	10134.33
367.947	10556.89
368.395	10980.41
368.844	9734.81
369.292	11709.63
369.74	8099.67
370.189	12392.79
370.637	14510.44
371.085	12507.06
371.533	15179.88
371.981	14644.08
372.429	13928.4
372.877	14496.19
373.325	12121.42
373.773	12335
374.221	10979.09
374.669	13578.68
375.116	11732.27
375.564	11804.6
376.012	13201.06
376.459	10921.97
376.907	13014.63
377.354	15706.83
377.801	14695.92
378.249	16893.33
378.696	21553.14
379.143	26049.39
379.591	27724.55
380.038	46959.03
380.485	33985.83
380.932	36705.48
381.379	33528.14
381.826	24725.67
382.273	17583.56
382.72	15347.16
383.166	14940.82
383.613	9687.47
384.06	8723.41
384.506	10113.65
384.953	7414.06
385.4	7444.23
385.846	6489.54
386.292	6297.4
386.739	6148.53
387.185	6077.04
387.631	6077.76
388.078	5900.65
388.524	6303.67
388.97	5823.83
389.416	4857.02
389.862	5151.17
390.308	4883.95
390.754	4973.36
391.2	5403.5
391.645	5522.57
392.091	5288.92
392.537	5108.61
392.983	5106.22
393.428	5021.69
393.874	5372.22
394.319	5381.05
394.765	5114.16
395.21	5248.16
395.655	4897.17
396.101	4582.57
396.546	4138.71
396.991	4163.95
397.436	3867.26
397.881	3730.63
398.326	3523.1
398.771	3335.13
399.216	2915.44
399.661	2615.38
400.106	2611.42
400.551	2685.2
400.995	2409.85
401.44	2385.86
401.885	2240.9
402.329	2257.09
402.774	2163.23
403.218	2100.42
403.663	2022.3
404.107	2075.56
404.551	2092.6
404.995	1917.04
405.44	1841.83
405.884	1864.54
406.328	1794.54
406.772	1784.99
407.216	1627.01
407.66	1572.4
408.104	1491.15
408.547	1397.44
408.991	1353.52
409.435	1301.93
409.879	1283.31
410.322	1266.87
410.766	1223.23
411.209	1170.23
411.653	1125.14
412.096	1103.36
412.54	1105.21
412.983	1097.27
413.426	1099.93
413.869	1099.77
414.312	1081.5
414.756	1041.77
415.199	993.56
415.642	968.94
416.085	969.2
416.527	963.82
416.97	976.59
417.413	927.83
417.856	917.01
418.298	907.57
418.741	897.6
419.184	890.76
419.626	925.09
420.069	925.4
420.511	930.52
420.953	910.73
421.396	899.26
421.838	874.91
422.28	892.9
422.722	899.74
423.164	908.65
423.606	895.24
424.048	896.22
424.49	851.49
424.932	847.49
425.374	833.76
425.816	847.3
426.258	863.22
426.699	875.86
427.141	865.15
427.582	875.59
428.024	871.8
428.465	865.56
428.907	842.97
429.348	834.67
429.789	833.05
430.231	815.88
430.672	826.83
431.113	809.18
431.554	795.96
431.995	773.06
432.436	748.31
432.877	733.91
433.318	723.68
433.759	722.52
434.2	723.48
434.64	718.47
435.081	721.03
435.522	684.47
435.962	658.99
436.403	647.41
436.843	658.44
437.284	643.94
437.724	623.99
438.164	623.92
438.604	610
439.045	587.69
439.485	564.37
439.925	551.64
440.365	536.27
440.805	529.44
441.245	523.36
441.685	504.85
442.125	500.14
442.564	505.1
443.004	494.63
443.444	493.22
443.883	493.8
444.323	487.95
444.762	486.71
445.202	494.01
445.641	504.75
446.081	498.29
446.52	501.96
446.959	497.79
447.398	485.53
447.837	480.12
448.276	470.65
448.716	474.75
449.154	478.6
449.593	469.33
450.032	467.86
450.471	456.18
450.91	457.54
451.349	455.65
451.787	452.83
452.226	459.89
452.664	459.4
453.103	461.32
453.541	460.26
453.98	461.1
454.418	464.17
454.856	456.79
455.295	456.57
455.733	460.66
456.171	462.74
456.609	462.51
457.047	461.97
457.485	469.12
457.923	469.8
458.361	462.73
458.798	463.08
459.236	461.53
459.674	464.55
460.111	467.41
460.549	463.55
460.987	461.64
461.424	460.85
461.862	458.78
462.299	451.23
462.736	451.71
463.173	452.97
463.611	449.41
464.048	448.77
464.485	452.36
464.922	447.84
465.359	444.55
465.796	443.52
466.233	440.28
466.67	438.37
467.106	439.57
467.543	434.53
467.98	429.25
468.416	418.15
468.853	415.12
469.29	403.85
469.726	400.09
470.162	389.82
470.599	381.71
471.035	378.77
471.471	368.99
471.907	365.59
472.344	364.03
472.78	365.19
473.216	369.03
473.652	365.73
474.088	363.38
474.523	362.96
474.959	366.59
475.395	363.69
475.831	361.68
476.266	363.45
476.702	361.97
477.138	357.11
477.573	356.08
478.008	354.93
478.444	355.58
478.879	360.15
479.314	361.79
479.75	360.74
480.185	362.51
480.62	365.71
481.055	367.57
481.49	370.62
481.925	376.34
482.36	384.44
482.795	395.02
483.229	405.57
483.664	413.5
484.099	414.69
484.534	421.03
484.968	424.9
485.403	425.81
485.837	424.91
486.271	423.45
486.706	423.65
487.14	417.5
487.574	411.31
488.009	407.58
488.443	404.6
488.877	409.7
489.311	412.22
489.745	417.37
490.179	421.74
490.613	431.15
491.046	434.8
491.48	438.99
491.914	440.64
492.348	444.73
492.781	448.62
493.215	450.37
493.648	451.61
494.082	455.8
494.515	457.73
494.948	464.41
495.382	467.85
495.815	472.52
496.248	477.47
496.681	487.53
497.114	496.46
497.547	505.29
497.98	516.15
498.413	522.92
498.846	531.75
499.279	539.88
499.711	544.93
500.144	548.49
500.577	559.67
501.009	570.46
501.442	581.03
501.874	585.43
502.306	589.12
502.739	599.11
503.171	612.88
503.603	618.78
504.036	628.2
504.468	636.61
504.9	649.59
505.332	658.18
505.764	665.69
506.196	674.62
506.627	689.96
507.059	704.8
507.491	714.4
507.923	717.28
508.354	733.32
508.786	746.2
509.217	764.35
509.649	780.55
510.08	800.48
510.512	817.84
510.943	834.65
511.374	847.84
511.805	868.33
512.237	888.42
512.668	919.25
513.099	945.82
513.53	973.31
513.961	995.75
514.391	1026.1
514.822	1058.22
515.253	1093.07
515.684	1119.13
516.114	1149.4
516.545	1173.58
516.975	1201.6
517.406	1220.93
517.836	1228.25
518.267	1239.42
518.697	1259.18
519.127	1267.85
519.558	1277.91
519.988	1285.13
520.418	1298.68
520.848	1317.99
521.278	1328.53
521.708	1356.71
522.138	1372.26
522.567	1402.92
522.997	1427.8
523.427	1444.86
523.857	1463.1
524.286	1475.42
524.716	1491.76
525.145	1511.21
525.575	1522.66
526.004	1538.64
526.433	1526.96
526.863	1528.93
527.292	1522.21
527.721	1529.54
528.15	1536.88
528.579	1539.51
529.008	1551.04
529.437	1573.07
529.866	1586.3
530.295	1603.32
530.724	1616.22
531.152	1642.66
531.581	1658.19
532.01	1674.68
532.438	1683.04
532.867	1696.92
533.295	1714.2
533.723	1721.42
534.152	1720.41
534.58	1720.46
535.008	1707.31
535.436	1709.53
535.865	1716.07
536.293	1728.63
536.721	1744.29
537.149	1768.93
537.576	1771.22
538.004	1783.21
538.432	1789.57
538.86	1788.38
539.287	1795.07
539.715	1807.84
540.143	1809.92
540.57	1805.46
540.998	1802.49
541.425	1780.97
541.852	1759.77
542.28	1759.39
542.707	1743.59
543.134	1730.25
543.561	1726.19
543.988	1718.58
544.415	1717.66
544.842	1711.97
545.269	1706.15
545.696	1706.79
546.123	1717.94
546.549	1709.33
546.976	1696.74
547.403	1696.91
547.829	1699.39
548.256	1702.72
548.682	1701.08
549.108	1694.78
549.535	1695.43
549.961	1697.31
550.387	1685.41
550.813	1681.88
551.24	1687.87
551.666	1688.94
552.092	1680.36
552.518	1674.58
552.943	1668.34
553.369	1675.45
553.795	1681.4
554.221	1683
554.646	1680.45
555.072	1691.29
555.498	1695.16
555.923	1704.75
556.349	1719.17
556.774	1727.11
557.199	1727.53
557.625	1732.33
558.05	1725.92
558.475	1734.81
558.9	1732.51
559.325	1723.87
559.75	1717.05
560.175	1710.55
560.6	1702.75
561.025	1699.67
561.449	1699.65
561.874	1704.49
562.299	1708.18
562.723	1714.07
563.148	1702.59
563.572	1704.67
563.997	1712.62
564.421	1715.24
564.846	1714.34
565.27	1715.3
565.694	1710.46
566.118	1719.42
566.542	1725.53
566.966	1717.47
567.39	1710.71
567.814	1698.29
568.238	1695.81
568.662	1698.73
569.086	1699.22
569.509	1702.35
569.933	1686.69
570.357	1678.13
570.78	1656.7
571.204	1640.58
571.627	1627.84
572.05	1623.28
572.474	1621.21
572.897	1607.71
573.32	1598.35
573.743	1587.08
574.166	1570.31
574.589	1568.57
575.012	1560.49
575.435	1557.59
575.858	1548.01
576.281	1536.66
576.704	1521.44
577.126	1510.45
577.549	1499.98
577.972	1489.56
578.394	1479.89
578.817	1471.9
579.239	1453.76
579.661	1440.65
580.084	1425.53
580.506	1412.77
580.928	1408.42
581.35	1397.6
581.772	1391.35
582.194	1377.85
582.616	1366.76
583.038	1352.7
583.46	1343.12
583.882	1339.04
584.303	1341.28
584.725	1337.15
585.147	1339.2
585.568	1346.95
585.99	1356.63
586.411	1361.54
586.833	1373.91
587.254	1373.03
587.675	1383.19
588.096	1392.39
588.518	1387.71
588.939	1371.86
589.36	1368.17
589.781	1355.12
590.202	1330.1
590.623	1321.46
591.043	1317.75
591.464	1305.35
591.885	1302.33
592.305	1298.48
592.726	1285.62
593.147	1286.26
593.567	1280.82
593.987	1273.87
594.408	1270.66
594.828	1268.5
595.248	1263.43
595.669	1247.8
596.089	1240.91
596.509	1232.8
596.929	1218.91
597.349	1218.45
597.769	1208.33
598.189	1202.89
598.608	1203.21
599.028	1204.17
599.448	1202.92
599.867	1191.26
600.287	1186.12
600.706	1183.26
601.126	1175.32
601.545	1174.49
601.965	1173.38
602.384	1168.11
602.803	1169.28
603.222	1164.14
603.641	1157.37
604.061	1153.2
604.48	1148.49
604.898	1154.69
605.317	1157.48
605.736	1158.2
606.155	1155.98
606.574	1147.02
606.992	1150.78
607.411	1146.27
607.829	1138.38
608.248	1134.2
608.666	1132.02
609.085	1130.8
609.503	1123.04
609.921	1116.68
610.339	1117.69
610.758	1114.56
611.176	1108.58
611.594	1100.35
612.012	1095.53
612.43	1097.98
612.847	1102.87
613.265	1102.65
613.683	1104.97
614.101	1105.16
614.518	1100.19
614.936	1090.22
615.353	1078.23
615.771	1076.42
616.188	1075.38
616.606	1071.41
617.023	1064.56
617.44	1052
617.857	1045.01
618.274	1036.74
618.691	1030.73
619.108	1022.34
619.525	1016.59
619.942	1021.02
620.359	1021.98
620.776	1016.55
621.192	1013.19
621.609	1010.16
622.026	1015.27
622.442	1019.13
622.859	1021.69
623.275	1015.65
623.691	1019.63
624.108	1028.66
624.524	1039.42
624.94	1038.92
625.356	1046.74
625.772	1056.83
626.188	1066.42
626.604	1067.06
627.02	1063.34
627.436	1061.34
627.852	1066.52
628.268	1074.93
628.683	1067.79
629.099	1060.17
629.514	1056.08
629.93	1058.4
630.345	1061.72
630.761	1057.89
631.176	1059.12
631.591	1054.07
632.007	1047.83
632.422	1043.88
632.837	1033.62
633.252	1029.55
633.667	1019.14
634.082	1008.53
634.497	996.12
634.911	978.34
635.326	972.27
635.741	956.29
636.155	945.3
636.57	943.65
636.984	940.59
637.399	940.33
637.813	935.78
638.228	932.54
638.642	932.83
639.056	921.36
639.47	917.66
639.884	907.73
640.298	899.33
640.712	894.72
641.126	881.9
641.54	870.95
641.954	861.35
642.368	849.41
642.781	840.2
643.195	823.67
643.609	821.83
644.022	814
644.436	806.85
644.849	794.05
645.262	781.61
645.676	779.25
646.089	773.52
646.502	761.05
646.915	754.48
647.328	739.55
647.741	735.73
648.154	722.75
648.567	718.96
648.98	708.34
649.393	707.01
649.805	704.7
650.218	698.67
650.631	687.87
651.043	682.36
651.456	676.81
651.868	675.64
652.28	686.63
652.693	695.59
653.105	699.47
653.517	705.23
653.929	705.49
654.341	707.44
654.753	697.79
655.165	699.73
655.577	697.55
655.989	694.05
656.401	688.27
656.813	662.75
657.224	648.48
657.636	627.5
658.047	616.27
658.459	603
658.87	595.34
659.282	586.89
659.693	573.04
660.104	563.17
660.515	553.18
660.926	550.33
661.338	547.54
661.749	541.54
662.159	535.19
662.57	529.68
662.981	525.07
663.392	519.05
663.803	520.64
664.213	517.03
664.624	511.48
665.035	512.75
665.445	502.79
665.855	498.2
666.266	493.95
666.676	491.88
667.086	486.49
667.497	485.78
667.907	481.77
668.317	475.37
668.727	475.72
669.137	476.31
669.547	475.08
669.956	478.32
670.366	479.17
670.776	480.13
671.186	482.53
671.595	485.24
672.005	487.72
672.414	488.19
672.824	488.53
673.233	489.57
673.642	492.59
674.052	495.36
674.461	498.45
674.87	503.48
675.279	504.27
675.688	507.13
676.097	509.79
676.506	509.72
676.915	520.98
677.323	524.98
677.732	526.72
678.141	528.19
678.549	523.4
678.958	523.39
679.366	524.64
679.775	528.76
680.183	539.55
680.592	545.21
681	551.38
681.408	549.74
681.816	556.52
682.224	565.01
682.632	576.18
683.04	600.1
683.448	620.64
683.856	644.87
684.264	676.17
684.671	701.25
685.079	734.45
685.487	771.31
685.894	820.71
686.302	862.65
686.709	899.42
687.116	941.98
687.524	980.06
687.931	1015.22
688.338	1047.82
688.745	1072.93
689.152	1105.59
689.559	1147.24
689.966	1189.67
690.373	1214.35
690.78	1257.31
691.187	1316.78
691.593	1363.55
692	1405.89
692.407	1465.4
692.813	1538
693.22	1597.76
693.626	1657.88
694.032	1709.08
694.439	1782.02
694.845	1842.87
695.251	1917.71
695.657	1985.5
696.063	2084.43
696.469	2159.64
696.875	2229.91
697.281	2273.13
697.687	2324.2
698.093	2370.31
698.498	2448.41
698.904	2510.17
699.31	2600.2
699.715	2666.21
