Data from C_3_HIR_WI_4N_Splice17_13-10-25-303.txt Node
Date: Sat Mar 14 13:10:25 EDT 2020
User: sa697716
Spectrometer: FLMS03696
Trigger mode: 0
Integration Time (sec): 3.180400E-1
Scans to average: 20
Electric dark correction enabled: true
Nonlinearity correction enabled: true
Boxcar width: 5
XAxis mode: Wavelengths
Number of Pixels in Spectrum: 2048
>>>>>Begin Spectral Data<<<<<
187.83	-303120.54
188.298	2227.07
188.766	1185.99
189.233	1090.07
189.701	1563.59
190.169	2113.8
190.636	852.38
191.104	709.38
191.571	130.33
192.039	-38.14
192.506	28.74
192.974	585.63
193.441	-984.51
193.908	-245.99
194.375	-53.8
194.842	64.86
195.31	160.98
195.777	225.58
196.244	441.45
196.711	477.18
197.177	568.22
197.644	799.55
198.111	1335.71
198.578	1872.04
199.045	1478.35
199.511	2382.09
199.978	2750.57
200.445	2297.4
200.911	2485.66
201.378	2766.88
201.844	2497.31
202.31	4302.86
202.777	4474.03
203.243	2482.28
203.709	2337.57
204.176	2750.24
204.642	2272.01
205.108	2110.19
205.574	1727.53
206.04	1572.14
206.506	1464.55
206.972	1377.64
207.438	1312.63
207.903	1496.59
208.369	1324.77
208.835	1336.29
209.301	1408.36
209.766	1433.22
210.232	1422.32
210.697	1748.76
211.163	2152.41
211.628	3223.56
212.094	2734.86
212.559	3403.47
213.024	2118.22
213.49	2581.07
213.955	2483.35
214.42	2399.88
214.885	2242.08
215.35	2136.54
215.815	2093.83
216.28	2230.5
216.745	1810.9
217.21	1943.09
217.675	1769.3
218.14	1965.56
218.604	2163.81
219.069	2458.9
219.534	2581.74
219.998	2950.27
220.463	3530.5
220.927	4275.11
221.392	3988.73
221.856	4020.18
222.32	5006.29
222.785	6154.33
223.249	7701.52
223.713	8553.74
224.177	8499.52
224.642	10831.09
225.106	13338.75
225.57	14556.31
226.034	10827.67
226.497	16478.46
226.961	14887.23
227.425	17318.02
227.889	19121.92
228.353	19113.5
228.816	39388.16
229.28	37664.96
229.744	31659.83
230.207	19208.21
230.671	18879.45
231.134	31093.39
231.597	35813.81
232.061	35691.1
232.524	34743.63
232.987	23892.09
233.45	21505.96
233.914	19320.68
234.377	19778.59
234.84	18115.65
235.303	21339.46
235.766	23780.95
236.229	24538.15
236.691	15442.65
237.154	17324.15
237.617	13037.95
238.08	13344.74
238.542	15593.43
239.005	11148.53
239.468	11078.77
239.93	10431.66
240.393	9496.72
240.855	8340.9
241.317	8539.24
241.78	10376.08
242.242	10741.81
242.704	11637.36
243.166	10150.41
243.629	9224.97
244.091	10596.86
244.553	11601.11
245.015	12489.7
245.477	16153.48
245.939	23629.28
246.4	25083.54
246.862	24392.4
247.324	22984.38
247.786	25632.06
248.247	33527.06
248.709	34562
249.17	25887.51
249.632	24457.84
250.093	28335.66
250.555	24432.59
251.016	14948.47
251.477	14192.73
251.939	15309.53
252.4	16058.21
252.861	19075.52
253.322	17762
253.783	21144.71
254.244	27432.02
254.705	21576.26
255.166	19174.95
255.627	18876.9
256.088	26616.29
256.549	28263.43
257.009	24344.08
257.47	29495.75
257.931	24032.09
258.391	18025.82
258.852	18558.68
259.312	19456.88
259.773	24037.7
260.233	20336.61
260.694	17179.3
261.154	19486.56
261.614	15646.46
262.074	13980.92
262.534	14557.42
262.994	13740.4
263.455	18287.49
263.915	15440.46
264.374	14545.67
264.834	15877.37
265.294	17588.64
265.754	18215.35
266.214	17241.57
266.673	16166.87
267.133	20404.06
267.593	20218.62
268.052	24742.62
268.512	21518.27
268.971	25945.71
269.431	28449.25
269.89	25454.15
270.349	38150.55
270.809	42510.65
271.268	38175.12
271.727	85510.66
272.186	55400.38
272.645	41528.29
273.104	29901.93
273.563	43263.78
274.022	33955.37
274.481	28896.9
274.94	22292.09
275.399	16567.15
275.857	19270.16
276.316	26064.94
276.775	23188.4
277.233	22838.89
277.692	21421.04
278.15	24254.37
278.609	24990.81
279.067	23140.93
279.525	21506.14
279.984	27726.48
280.442	33263.9
280.9	32851
281.358	21612.29
281.816	20158.31
282.274	19732.85
282.732	20331.73
283.19	20413.2
283.648	17574.78
284.106	18718.51
284.564	18985.88
285.021	17607.74
285.479	13136.51
285.937	11919.45
286.394	10467.36
286.852	10763.23
287.309	11279.89
287.767	10930.14
288.224	10401.84
288.682	11415.13
289.139	12528.99
289.596	11471.61
290.053	11926.6
290.511	15022.95
290.968	18242.81
291.425	24742.95
291.882	20613.7
292.339	17968.2
292.796	17799.56
293.252	16743.89
293.709	13340.21
294.166	11954.92
294.623	13201.38
295.079	12651.98
295.536	12744.66
295.992	11560.58
296.449	11417.11
296.905	11856.46
297.362	11386.68
297.818	11962.66
298.274	12423.94
298.731	12627.62
299.187	12481.67
299.643	13404.74
300.099	16209.41
300.555	17745.81
301.011	14809.89
301.467	14303.45
301.923	16719.76
302.379	16307.53
302.835	16019.83
303.291	16031.82
303.746	18239.9
304.202	23069.52
304.658	23128.19
305.113	15564.26
305.569	15248.09
306.024	16260.21
306.479	15438.6
306.935	13034.39
307.39	14222.83
307.845	13139.61
308.301	13213.46
308.756	12860.3
309.211	12365.79
309.666	12661.04
310.121	15733.35
310.576	15938.84
311.031	15813.88
311.486	18115.54
311.94	18087.1
312.395	24205.9
312.85	45497.96
313.305	223454.22
313.759	1158480.31
314.214	84057.62
314.668	66675.34
315.123	55989.18
315.577	20144.33
316.032	17896.7
316.486	22419.71
316.94	17687.98
317.394	12323.9
317.849	9562.97
318.303	9045.09
318.757	8536.84
319.211	9438.46
319.665	8261.81
320.119	8372.14
320.572	11989.36
321.026	11232.89
321.48	9345.2
321.934	10160.67
322.387	10160.97
322.841	10994.18
323.295	9933.93
323.748	11429.74
324.202	11578.1
324.655	13919.26
325.108	19481.42
325.562	13765.69
326.015	16339.27
326.468	12379.04
326.921	13873.99
327.374	12962.3
327.827	13513.44
328.28	15244.73
328.733	10217.7
329.186	8991.7
329.639	8552.41
330.092	7185.38
330.545	6850.28
330.997	6909.73
331.45	7552.78
331.903	8856.88
332.355	15200.55
332.808	14766.81
333.26	12194.35
333.713	13253.83
334.165	13360.27
334.617	17841.37
335.069	14413.76
335.522	26024.03
335.974	28813.87
336.426	26321.37
336.878	18194.14
337.33	9230.92
337.782	8981.67
338.234	11275.36
338.686	13485.34
339.137	15972.29
339.589	15038.03
340.041	11803.08
340.493	10133.27
340.944	10369.84
341.396	11173.96
341.847	9417.24
342.299	11145.63
342.75	13628.64
343.201	11850.99
343.653	13638.13
344.104	16734.93
344.555	13179.87
345.006	20476.84
345.457	15719.26
345.908	12498.2
346.359	11744.52
346.81	9572.66
347.261	10076.48
347.712	9911.29
348.163	10615.68
348.613	10770.35
349.064	10070.18
349.515	8816.53
349.965	9051.03
350.416	10885.01
350.866	11955.02
351.317	13476.44
351.767	22284.81
352.217	28089.02
352.668	23359.46
353.118	21368.42
353.568	20510.78
354.018	16234.09
354.468	17152.49
354.918	12305.41
355.368	10752.91
355.818	15156.31
356.268	43661.06
356.718	182777.75
357.168	45492.82
357.617	22766.59
358.067	25452.38
358.517	23928.09
358.966	28120.04
359.416	31606
359.865	34103.48
360.315	40608.83
360.764	19000.77
361.213	10660.36
361.663	10078.98
362.112	12452.41
362.561	20114.56
363.01	15142.87
363.459	12717.51
363.908	13726.86
364.357	11663.18
364.806	19708.74
365.255	13569.38
365.703	12420.1
366.152	12420.33
366.601	10076.72
367.05	8196.2
367.498	7448.5
367.947	7770.36
368.395	8056.17
368.844	7133.14
369.292	8555.79
369.74	5929.17
370.189	9050.98
370.637	10622.23
371.085	9160.1
371.533	11123.01
371.981	10690.62
372.429	10220.67
372.877	10644.46
373.325	8908.07
373.773	9060.3
374.221	8069.81
374.669	9940.55
375.116	8594.82
375.564	8639.42
376.012	9651.98
376.459	7985.78
376.907	9516.78
377.354	11497.31
377.801	10753.93
378.249	12352.83
378.696	15760.36
379.143	19060.62
379.591	20372.81
380.038	34472.42
380.485	24905.89
380.932	26809.11
381.379	24590.09
381.826	18183.36
382.273	12874.11
382.72	11229.2
383.166	10983.79
383.613	7153.63
384.06	6466.97
384.506	7507.57
384.953	5517.66
385.4	5572.29
385.846	4901.72
386.292	4771.2
386.739	4672.55
387.185	4651.71
387.631	4665.94
388.078	4571.72
388.524	4908.42
388.97	4555.11
389.416	3814
389.862	4085.19
390.308	3882.25
390.754	3974.12
391.2	4337.73
391.645	4486.67
392.091	4341.34
392.537	4248.58
392.983	4275.67
393.428	4253.29
393.874	4590.12
394.319	4664.24
394.765	4491.63
395.21	4692.26
395.655	4482.75
396.101	4291.42
396.546	3952.93
396.991	4071.52
397.436	3866.42
397.881	3822.87
398.326	3715.93
398.771	3613.58
399.216	3241.61
399.661	2991.32
400.106	3052.19
400.551	3194.36
400.995	2917.17
401.44	2930.04
401.885	2790.51
402.329	2855.14
402.774	2770.31
403.218	2709.58
403.663	2638.27
404.107	2744.36
404.551	2797.82
404.995	2604.73
405.44	2545.59
405.884	2623.01
406.328	2576.03
406.772	2602.42
407.216	2407.56
407.66	2365.81
408.104	2291.43
408.547	2189.65
408.991	2154.44
409.435	2108.7
409.879	2108.97
410.322	2106.72
410.766	2061.94
411.209	1988.94
411.653	1938.4
412.096	1926.86
412.54	1954.04
412.983	1964.09
413.426	1989.79
413.869	2011.24
414.312	1990.48
414.756	1935.31
415.199	1867.62
415.642	1832.25
416.085	1849.51
416.527	1854.42
416.97	1896.86
417.413	1813.09
417.856	1804.94
418.298	1794.92
418.741	1786.98
419.184	1788.66
419.626	1868.69
420.069	1870.28
420.511	1884.83
420.953	1854
421.396	1846.35
421.838	1810.24
422.28	1864.21
422.722	1883.77
423.164	1925.74
423.606	1914.05
424.048	1930.69
424.49	1852.33
424.932	1863.97
425.374	1852.44
425.816	1892.82
426.258	1923.12
426.699	1926.99
427.141	1869.16
427.582	1874.77
428.024	1852.05
428.465	1841.29
428.907	1806.29
429.348	1807.11
429.789	1821.47
430.231	1798.55
430.672	1838.47
431.113	1819.23
431.554	1832.5
431.995	1837.71
432.436	1824.37
432.877	1830.89
433.318	1833.54
433.759	1854.24
434.2	1870.76
434.64	1870.87
435.081	1893.95
435.522	1816.33
435.962	1775.11
436.403	1757.49
436.843	1807.65
437.284	1789.11
437.724	1757.7
438.164	1779.51
438.604	1754
439.045	1700.5
439.485	1645.68
439.925	1631.71
440.365	1611.58
440.805	1608.56
441.245	1603.57
441.685	1553.34
442.125	1551.29
442.564	1567.89
443.004	1534.8
443.444	1537.68
443.883	1547.57
444.323	1552.17
444.762	1571.82
445.202	1603.8
445.641	1639.03
446.081	1643.25
446.52	1668.07
446.959	1664.96
447.398	1637.52
447.837	1636.83
448.276	1625.13
448.716	1653.98
449.154	1674.71
449.593	1632.1
450.032	1626.65
450.471	1600.71
450.91	1602.11
451.349	1596.34
451.787	1590.27
452.226	1611.71
452.664	1606.85
453.103	1604.77
453.541	1601.99
453.98	1593.7
454.418	1607.09
454.856	1578.16
455.295	1573.73
455.733	1581.79
456.171	1589.33
456.609	1583.26
457.047	1581.77
457.485	1600.15
457.923	1599.27
458.361	1576.49
458.798	1584.29
459.236	1583.23
459.674	1600.44
460.111	1611.53
460.549	1600.7
460.987	1598.88
461.424	1601.45
461.862	1597.71
462.299	1578.17
462.736	1581.81
463.173	1590.48
463.611	1571.17
464.048	1567.01
464.485	1584.91
464.922	1579.35
465.359	1581.61
465.796	1560
466.233	1559.17
466.67	1552.94
467.106	1559.15
467.543	1555.79
467.98	1549.74
468.416	1528.6
468.853	1535.64
469.29	1505.78
469.726	1502.69
470.162	1474.06
470.599	1478.66
471.035	1479.22
471.471	1457.41
471.907	1465.01
472.344	1467.17
472.78	1476.87
473.216	1502.32
473.652	1488.25
474.088	1488.12
474.523	1485.89
474.959	1505.41
475.395	1495.15
475.831	1486.56
476.266	1495.68
476.702	1491.33
477.138	1476.03
477.573	1473.77
478.008	1468.89
478.444	1474.54
478.879	1484.75
479.314	1487.51
479.75	1481.44
480.185	1485.13
480.62	1492.34
481.055	1493.38
481.49	1494.28
481.925	1501.9
482.36	1505.13
482.795	1522.43
483.229	1536.06
483.664	1542.2
484.099	1526.94
484.534	1532.56
484.968	1531.09
485.403	1524.6
485.837	1513.51
486.271	1503.95
486.706	1504.36
487.14	1494.18
487.574	1479.52
488.009	1476.24
488.443	1469.71
488.877	1484.64
489.311	1488.37
489.745	1503.38
490.179	1513.64
490.613	1535.88
491.046	1546.77
491.48	1554.64
491.914	1553.37
492.348	1562.6
492.781	1569.19
493.215	1572.89
493.648	1580.76
494.082	1595.79
494.515	1596.22
494.948	1610.39
495.382	1620.63
495.815	1625.79
496.248	1633.35
496.681	1656.48
497.114	1673.65
497.547	1687.54
497.98	1705.75
498.413	1705.78
498.846	1714.6
499.279	1726.15
499.711	1731.49
500.144	1730.59
500.577	1747.31
501.009	1763.56
501.442	1777.38
501.874	1777.68
502.306	1784.24
502.739	1800.36
503.171	1836.72
503.603	1848.04
504.036	1868.01
504.468	1877.15
504.9	1898.93
505.332	1911.88
505.764	1921.04
506.196	1936.03
506.627	1965.15
507.059	1987.73
507.491	2005.26
507.923	1997.24
508.354	2024.27
508.786	2044.91
509.217	2079.7
509.649	2107.09
510.08	2141.44
510.512	2167.9
510.943	2190.31
511.374	2204.71
511.805	2238.98
512.237	2270.44
512.668	2327.23
513.099	2367.48
513.53	2400.4
513.961	2415.43
514.391	2454.06
514.822	2494.87
515.253	2544.74
515.684	2578.19
516.114	2622.64
516.545	2653.37
516.975	2696.39
517.406	2725.32
517.836	2731.96
518.267	2752.88
518.697	2800.18
519.127	2821.13
519.558	2845.85
519.988	2861.79
520.418	2889.79
520.848	2930.95
521.278	2952.96
521.708	2947.01
522.138	2972.42
522.567	3030.55
522.997	3071.35
523.427	3089.57
523.857	3107.16
524.286	3115.59
524.716	3135.03
525.145	3163.07
525.575	3177.08
526.004	3199.17
526.433	3220.09
526.863	3214.47
527.292	3191.82
527.721	3206.03
528.15	3226.33
528.579	3237.18
529.008	3263.88
529.437	3308.54
529.866	3329.75
530.295	3355.58
530.724	3369.72
531.152	3413.01
531.581	3433.83
532.01	3463.7
532.438	3475.17
532.867	3497.84
533.295	3526.47
533.723	3532.87
534.152	3526.03
534.58	3525.32
535.008	3495.16
535.436	3497.03
535.865	3510.98
536.293	3533.87
536.721	3554.79
537.149	3591.02
537.576	3582.33
538.004	3599.27
538.432	3609.77
538.86	3604.02
539.287	3615.7
539.715	3638.54
540.143	3644.8
540.57	3639.99
540.998	3637.6
541.425	3599.74
541.852	3570.89
542.28	3581.02
542.707	3560
543.134	3544.43
543.561	3545.89
543.988	3541.36
544.415	3548.69
544.842	3544.99
545.269	3537.37
545.696	3546.95
546.123	3581.95
546.549	3569.18
546.976	3551.02
547.403	3557.08
547.829	3566.78
548.256	3578.15
548.682	3577.47
549.108	3570
549.535	3577.35
549.961	3588.19
550.387	3566.94
550.813	3559.71
551.24	3577.73
551.666	3585.85
552.092	3574.14
552.518	3565.99
552.943	3555.94
553.369	3571.64
553.795	3582.66
554.221	3584.46
554.646	3576.39
555.072	3595.09
555.498	3600.94
555.923	3611.98
556.349	3632.84
556.774	3640.31
557.199	3637.45
557.625	3646.33
558.05	3631.94
558.475	3650.39
558.9	3645.3
559.325	3626.76
559.75	3614.53
560.175	3603.72
560.6	3592.96
561.025	3590.7
561.449	3593.22
561.874	3602
562.299	3603.68
562.723	3612.04
563.148	3586.59
563.572	3589.22
563.997	3604.11
564.421	3610.73
564.846	3604.1
565.27	3602.95
565.694	3587.63
566.118	3601.43
566.542	3606.7
566.966	3587.39
567.39	3569.1
567.814	3538.08
568.238	3527.96
568.662	3530.87
569.086	3529.81
569.509	3543.15
569.933	3513.28
570.357	3504.36
570.78	3468.08
571.204	3445.95
571.627	3431.89
572.05	3435.91
572.474	3442.4
572.897	3425.33
573.32	3416.31
573.743	3403.97
574.166	3371.04
574.589	3376.5
575.012	3363.43
575.435	3364
575.858	3349.53
576.281	3331.76
576.704	3307.72
577.126	3293.26
577.549	3280.61
577.972	3270.36
578.394	3256.74
578.817	3247.89
579.239	3219.41
579.661	3203.09
580.084	3179.79
580.506	3162.95
580.928	3164.46
581.35	3149.74
581.772	3145.41
582.194	3122.07
582.616	3098.27
583.038	3069.39
583.46	3050.44
583.882	3040.9
584.303	3045.63
584.725	3033.62
585.147	3021.51
585.568	3024.38
585.99	3024.35
586.411	3010.47
586.833	3015.13
587.254	2997.58
587.675	3009.35
588.096	3018.24
588.518	2995.42
588.939	2950.72
589.36	2934.84
589.781	2916.15
590.202	2861.79
590.623	2852.42
591.043	2859.54
591.464	2842.43
591.885	2837.48
592.305	2827.36
592.726	2802.55
593.147	2804.41
593.567	2795.47
593.987	2781.39
594.408	2769.64
594.828	2765.01
595.248	2749.55
595.669	2711.14
596.089	2695.94
596.509	2685.23
596.929	2658.04
597.349	2655.27
597.769	2631.44
598.189	2613.27
598.608	2608.98
599.028	2607.22
599.448	2603.2
599.867	2576.79
600.287	2566.88
600.706	2556.26
601.126	2534.65
601.545	2529.58
601.965	2524.45
602.384	2514.01
602.803	2516.62
603.222	2506.09
603.641	2491.76
604.061	2482.23
604.48	2472.03
604.898	2481.53
605.317	2485.77
605.736	2482.79
606.155	2470.34
606.574	2447.06
606.992	2447.64
607.411	2431.38
607.829	2409.62
608.248	2397.97
608.666	2389.56
609.085	2381.91
609.503	2360.44
609.921	2342.88
610.339	2340.67
610.758	2333.78
611.176	2319.9
611.594	2299.29
612.012	2289.79
612.43	2290.17
612.847	2293.85
613.265	2286.09
613.683	2286.08
614.101	2282.9
614.518	2271.08
614.936	2249.64
615.353	2221.93
615.771	2214.67
616.188	2213.58
616.606	2205.56
617.023	2194.11
617.44	2171.88
617.857	2163.18
618.274	2150.82
618.691	2139.77
619.108	2123.13
619.525	2111.98
619.942	2119.91
620.359	2119.98
620.776	2106.12
621.192	2093.51
621.609	2080.46
622.026	2084.09
622.442	2084.31
622.859	2081.35
623.275	2062.87
623.691	2067
624.108	2078.83
624.524	2095.96
624.94	2090.01
625.356	2098.23
625.772	2113.91
626.188	2129.64
626.604	2126.13
627.02	2113.78
627.436	2106.95
627.852	2113.81
628.268	2128.3
628.683	2109.14
629.099	2090.82
629.514	2081.19
629.93	2086.78
630.345	2092.02
630.761	2084.45
631.176	2089.13
631.591	2080.54
632.007	2072.2
632.422	2069.53
632.837	2051.93
633.252	2048.25
633.667	2034.3
634.082	2022.01
634.497	2003.53
634.911	1974.46
635.326	1970.83
635.741	1945.08
636.155	1932.1
636.57	1933.74
636.984	1933.73
637.399	1935.42
637.813	1936.07
638.228	1935
638.642	1940.1
639.056	1923.96
639.47	1925.05
639.884	1912.94
640.298	1904.44
640.712	1903.6
641.126	1886.63
641.54	1876.7
641.954	1872.3
642.368	1856.16
642.781	1843.58
643.195	1817.77
643.609	1819.74
644.022	1809.85
644.436	1801.51
644.849	1780.94
645.262	1760.09
645.676	1759.82
646.089	1747.6
646.502	1720.05
646.915	1708.55
647.328	1682.1
647.741	1680.71
648.154	1661.84
648.567	1656.52
648.98	1636.93
649.393	1640.21
649.805	1636.96
650.218	1626.85
650.631	1604.74
651.043	1597.61
651.456	1590.45
651.868	1591.47
652.28	1614.39
652.693	1625.39
653.105	1624.05
653.517	1625.36
653.929	1612.94
654.341	1610.57
654.753	1584.13
655.165	1588.74
655.577	1582.5
655.989	1573.58
656.401	1562.62
656.813	1509.75
657.224	1488.96
657.636	1460.01
658.047	1446.66
658.459	1429.01
658.87	1426.4
659.282	1416.56
659.693	1388.6
660.104	1368.62
660.515	1349.72
660.926	1348.73
661.338	1346.6
661.749	1338.1
662.159	1323.36
662.57	1316.69
662.981	1309.49
663.392	1296.83
663.803	1302.49
664.213	1298.11
664.624	1290.8
665.035	1295.88
665.445	1273.27
665.855	1259.87
666.266	1244.8
666.676	1239.35
667.086	1223.36
667.497	1219.23
667.907	1206.89
668.317	1189.37
668.727	1179.31
669.137	1177.62
669.547	1168.2
669.956	1168.22
670.366	1167.41
670.776	1165.83
671.186	1168.55
671.595	1169.22
672.005	1170.84
672.414	1166.39
672.824	1161.29
673.233	1166.46
673.642	1165.7
674.052	1168.36
674.461	1169.14
674.87	1172.98
675.279	1166.35
675.688	1165.37
676.097	1163.61
676.506	1156.03
676.915	1174.84
677.323	1175.58
677.732	1170.77
678.141	1167.77
678.549	1149.26
678.958	1145.18
679.366	1140.74
679.775	1145.16
680.183	1156.28
680.592	1163.62
681	1168.42
681.408	1154.73
681.816	1162.15
682.224	1170.7
682.632	1179.86
683.04	1216.96
683.448	1241.34
683.856	1270.39
684.264	1299.77
684.671	1323.59
685.079	1357
685.487	1396.48
685.894	1458.18
686.302	1503.67
686.709	1536.23
687.116	1578.49
687.524	1611.09
687.931	1640.97
688.338	1671.39
688.745	1700.56
689.152	1735.22
689.559	1781.11
689.966	1824.61
690.373	1838.28
690.78	1875.08
691.187	1939.11
691.593	1983.77
692	2019.63
692.407	2080.81
