Data from C_3_DEC_OH_4N_Splice17_13-26-12-103.txt Node
Date: Sat Mar 14 13:26:12 EDT 2020
User: sa697716
Spectrometer: FLMS03696
Trigger mode: 0
Integration Time (sec): 3.180400E-1
Scans to average: 20
Electric dark correction enabled: true
Nonlinearity correction enabled: true
Boxcar width: 5
XAxis mode: Wavelengths
Number of Pixels in Spectrum: 2048
>>>>>Begin Spectral Data<<<<<
187.83	-400432.81
188.298	2796.61
188.766	1560.52
189.233	1394.53
189.701	1994.91
190.169	2720.53
190.636	1111.27
191.104	939.82
191.571	211.54
192.039	14.51
192.506	28.06
192.974	500.25
193.441	-762.11
193.908	-25.32
194.375	-8.23
194.842	86.79
195.31	197.66
195.777	230.93
196.244	435.5
196.711	417.14
197.177	484.64
197.644	620.18
198.111	1029.83
198.578	1421.11
199.045	1124.04
199.511	1795.6
199.978	2066.79
200.445	1785.24
200.911	1957.78
201.378	2135.19
201.844	1973.86
202.31	3345.86
202.777	3518.12
203.243	1982.01
203.709	1887.29
204.176	2250.67
204.642	1892.84
205.108	1766.86
205.574	1437.07
206.04	1292.76
206.506	1226.74
206.972	1123.92
207.438	1098.06
207.903	1253.59
208.369	1097.09
208.835	1085.77
209.301	1148.25
209.766	1151.36
210.232	1143.68
210.697	1391.21
211.163	1686.03
211.628	2482.29
212.094	2096.61
212.559	2600.35
213.024	1620.47
213.49	1975.36
213.955	1937.06
214.42	1855.3
214.885	1717.77
215.35	1642.51
215.815	1624.9
216.28	1741.6
216.745	1403.14
217.21	1521.39
217.675	1349.43
218.14	1499.41
218.604	1607.48
219.069	1793.58
219.534	1873.5
219.998	2119.65
220.463	2512.09
220.927	2982.74
221.392	2761.8
221.856	2782.9
222.32	3400.88
222.785	4178.4
223.249	5157.11
223.713	5754.56
224.177	5721.96
224.642	7251.14
225.106	8925
225.57	9681.22
226.034	7209.69
226.497	10937.2
226.961	9873.4
227.425	11562.3
227.889	12755.82
228.353	12775.31
228.816	26261.86
229.28	25100.95
229.744	21074.43
230.207	12837.27
230.671	12645.71
231.134	20744.53
231.597	24004.94
232.061	23906.85
232.524	23230.9
232.987	15993.49
233.45	14373.19
233.914	12862.94
234.377	13095.6
234.84	11971.76
235.303	14051.92
235.766	15659.06
236.229	16145.23
236.691	10125.84
237.154	11368.92
237.617	8585.23
238.08	8782.65
238.542	10271.42
239.005	7367.13
239.468	7348.88
239.93	6952.41
240.393	6345.48
240.855	5586.87
241.317	5739.57
241.78	6985.82
242.242	7247.86
242.704	7848.62
243.166	6840.16
243.629	6259.32
244.091	7232.96
244.553	7927.65
245.015	8541.26
245.477	11036.08
245.939	16158.97
246.4	17178.69
246.862	16694.04
247.324	15748.63
247.786	17597.91
248.247	23110.53
248.709	23761.68
249.17	17760.07
249.632	16823.01
250.093	19573.4
250.555	16919.68
251.016	10346.01
251.477	9809.31
251.939	10617.34
252.4	11095.25
252.861	13165.33
253.322	12281.47
253.783	14595.73
254.244	18897.67
254.705	14851.27
255.166	13144.6
255.627	12933.69
256.088	18287.64
256.549	19459.95
257.009	16733.9
257.47	20394.5
257.931	16618.39
258.391	12455.44
258.852	12842.76
259.312	13474.61
259.773	16636.76
260.233	14123.63
260.694	11950.31
261.154	13535.42
261.614	10911.66
262.074	9739.86
262.534	10128.62
262.994	9560.04
263.455	12706.99
263.915	10715.62
264.374	10083.12
264.834	11005.33
265.294	12159.5
265.754	12569.92
266.214	11890.95
266.673	11095.04
267.133	14009.04
267.593	13850.24
268.052	16966.86
268.512	14726.91
268.971	17838.86
269.431	19587.5
269.89	17540.84
270.349	26347.04
270.809	29422.84
271.268	26471.36
271.727	59387.2
272.186	38485.83
272.645	28905.65
273.104	20791.87
273.563	30123.76
274.022	23588.6
274.481	20107.91
274.94	15503.35
275.399	11496.4
275.857	13370.35
276.316	18064.44
276.775	16069.99
277.233	15848.87
277.692	14887.1
278.15	16904.61
278.609	17437.61
279.067	16155.1
279.525	15028.78
279.984	19446.24
280.442	23373.04
280.9	23159.86
281.358	15267.02
281.816	14289.82
282.274	13991.82
282.732	14411.91
283.19	14471.11
283.648	12515.48
284.106	13342.18
284.564	13548.77
285.021	12581.85
285.479	9397.05
285.937	8515.56
286.394	7487.42
286.852	7694.48
287.309	8109.18
287.767	7896.95
288.224	7532.36
288.682	8266.77
289.139	9117.95
289.596	8373.32
290.053	8705.82
290.511	10997.12
290.968	13373.36
291.425	18182.17
291.882	15239.76
292.339	13275.41
292.796	13148.45
293.252	12392.52
293.709	9900.99
294.166	8868.52
294.623	9816.95
295.079	9428.28
295.536	9509.64
295.992	8653.31
296.449	8580.49
296.905	8875.68
297.362	8540.4
297.818	8976.9
298.274	9339.86
298.731	9497.7
299.187	9408.67
299.643	10107.33
300.099	12239.91
300.555	13406.05
301.011	11204
301.467	10836.99
301.923	12694.34
302.379	12418.96
302.835	12226.94
303.291	12247.94
303.746	13961.03
304.202	17661.2
304.658	17704.63
305.113	11914.39
305.569	11701.74
306.024	12473.86
306.479	11836.59
306.935	10035
307.39	10926.68
307.845	10109.54
308.301	10192.98
308.756	9916.39
309.211	9585.02
309.666	9839.49
310.121	12278.17
310.576	12442.29
311.031	12358.89
311.486	14135.42
311.94	14097.06
312.395	18933.15
312.85	35628.45
313.305	174441.55
313.759	908887.71
314.214	65845.6
314.668	52340.63
315.123	44070.44
315.577	15881.04
316.032	14192.36
316.486	17799.33
316.94	14102.14
317.394	9845.13
317.849	7647.86
318.303	7257.58
318.757	6861.33
319.211	7590.62
319.665	6635.91
320.119	6722.04
320.572	9633.1
321.026	8998.58
321.48	7510.2
321.934	8158.73
322.387	8159.79
322.841	8833.84
323.295	7990.57
323.748	9179.86
324.202	9324.87
324.655	11246.92
325.108	15786.05
325.562	11169.76
326.015	13263.46
326.468	10036.21
326.921	11239.62
327.374	10501.18
327.827	10968.03
328.28	12421.25
328.733	8344.67
329.186	7338.61
329.639	7001.14
330.092	5891.94
330.545	5617.01
330.997	5689.51
331.45	6241.62
331.903	7345.54
332.355	12625.91
332.808	12244.32
333.26	10095.7
333.713	10958.17
334.165	11046.15
334.617	14728.29
335.069	11814.82
335.522	21410.97
335.974	23735.7
336.426	21653.57
336.878	14969.69
337.33	7614.09
337.782	7455.58
338.234	9358.17
338.686	11200.62
339.137	13268.26
339.589	12522.15
340.041	9874.33
340.493	8481.96
340.944	8672.98
341.396	9356.01
341.847	7924.34
342.299	9402.25
342.75	11520.54
343.201	10056.55
343.653	11569.16
344.104	14212.51
344.555	11186.57
345.006	17371.83
345.457	13365.18
345.908	10615.9
346.359	10037.1
346.81	8157.3
347.261	8549.32
347.712	8397.54
348.163	8979.95
348.613	9156.06
349.064	8590.52
349.515	7521.28
349.965	7743.67
350.416	9329.34
350.866	10258.58
351.317	11557.29
351.767	19162.4
352.217	24331.04
352.668	20251.07
353.118	18624.05
353.568	17855.7
354.018	14162.53
354.468	15019.13
354.918	10765.64
355.368	9421.89
355.818	13299.81
356.268	38221.54
356.718	160565.23
357.168	40017.58
357.617	20010.64
358.067	22319.35
358.517	21001.72
358.966	24605.61
359.416	27650.07
359.865	29948.29
360.315	35721.27
360.764	16719.55
361.213	9425.02
361.663	8900.18
362.112	10987.83
362.561	17891.93
363.01	13497.28
363.459	11364.59
363.908	12298.76
364.357	10488.54
364.806	17742.38
365.255	12226.65
365.703	11258.17
366.152	11259.94
366.601	9150.84
367.05	7450.63
367.498	6765.55
367.947	7055.83
368.395	7328.28
368.844	6498.47
369.292	7774.07
369.74	5386.36
370.189	8233.31
370.637	9645.96
371.085	8335.92
371.533	10160.12
371.981	9760.54
372.429	9332.19
372.877	9763.39
373.325	8205.07
373.773	8351.62
374.221	7444.75
374.669	9223.52
375.116	7974.59
375.564	8027.92
376.012	8966.59
376.459	7388.08
376.907	8838.81
377.354	10664.91
377.801	9962.75
378.249	11485.94
378.696	14717.27
379.143	17853.31
379.591	19050.81
380.038	32328.04
380.485	23439.6
380.932	25359.29
381.379	23399.94
381.826	17337.76
382.273	12331.81
382.72	10762.61
383.166	10489.37
383.613	6829.99
384.06	6164.33
384.506	7139.85
384.953	5236.34
385.4	5264.68
385.846	4612.45
386.292	4462.14
386.739	4350.05
387.185	4291.35
387.631	4294.07
388.078	4181.33
388.524	4454.11
388.97	4115.06
389.416	3436.33
389.862	3664.21
390.308	3474.12
390.754	3539.07
391.2	3850.32
391.645	3927.34
392.091	3792.85
392.537	3678.15
392.983	3665.17
393.428	3630.31
393.874	3895.71
394.319	3924.99
394.765	3724.39
395.21	3827.57
395.655	3584.81
396.101	3361.24
396.546	3051.65
396.991	3058.71
397.436	2840.98
397.881	2753.24
398.326	2596.57
398.771	2466.4
399.216	2157.66
399.661	1943.97
400.106	1951.24
400.551	2011.52
400.995	1806.14
401.44	1788.51
401.885	1683.6
402.329	1702.03
402.774	1634.31
403.218	1599.37
403.663	1541.91
404.107	1587.24
404.551	1608.22
404.995	1467.31
405.44	1408.31
405.884	1430.79
406.328	1381.79
406.772	1381.26
407.216	1260.58
407.66	1218.68
408.104	1148.01
408.547	1077.3
408.991	1047.53
409.435	1006.22
409.879	998.74
410.322	992.63
410.766	962.92
411.209	923.54
411.653	888.42
412.096	876.45
412.54	879
412.983	879.08
413.426	883.26
413.869	879.16
414.312	867.02
414.756	836
415.199	795.77
415.642	774.53
416.085	775.16
416.527	769.69
416.97	781.51
417.413	744.21
417.856	735.35
418.298	727.19
418.741	722.13
419.184	717.48
419.626	746.76
420.069	748.65
420.511	754.69
420.953	739.06
421.396	736.2
421.838	713.29
422.28	730.27
422.722	736.51
423.164	746.97
423.606	736.24
424.048	735.42
424.49	699.21
424.932	695.28
425.374	682.47
425.816	694.79
426.258	706.61
426.699	719.06
427.141	708.86
427.582	716.8
428.024	712.7
428.465	707.37
428.907	690.3
429.348	683.66
429.789	684.7
430.231	673.28
430.672	681.5
431.113	665.69
431.554	654.6
431.995	636.23
432.436	616.23
432.877	602.8
433.318	594.57
433.759	589.12
434.2	585.46
434.64	576.93
435.081	578.22
435.522	547.53
435.962	523.47
436.403	514.09
436.843	518.8
437.284	505.33
437.724	490.96
438.164	487.77
438.604	476.58
439.045	462.23
439.485	444.27
439.925	433.62
440.365	422.55
440.805	420.17
441.245	414.02
441.685	400.46
442.125	396.58
442.564	397.93
443.004	391.27
443.444	391.71
443.883	390.1
444.323	384.46
444.762	380.93
445.202	385.36
445.641	391.69
446.081	385.87
446.52	387.8
446.959	383.88
447.398	375.25
447.837	368.56
448.276	360.28
448.716	363.42
449.154	365.36
449.593	358.69
450.032	356.64
450.471	348.59
450.91	347.86
451.349	347.56
451.787	345.72
452.226	350.02
452.664	350.47
453.103	351.71
453.541	350.48
453.98	353.36
454.418	355.48
454.856	351.84
455.295	350.84
455.733	355.21
456.171	356.53
456.609	355.1
457.047	355.99
457.485	361.66
457.923	362.68
458.361	356.98
458.798	355.4
459.236	353.46
459.674	353.26
460.111	355.09
460.549	350.82
460.987	348.31
461.424	347.33
461.862	343.61
462.299	338.07
462.736	337.69
463.173	338.72
463.611	337.85
464.048	339.1
464.485	341.57
464.922	336.78
465.359	334.81
465.796	338.4
466.233	337.06
466.67	335.99
467.106	336.02
467.543	331.33
467.98	326.86
468.416	316.07
468.853	311.26
469.29	301.97
469.726	298.75
470.162	290.43
470.599	279.42
471.035	276.15
471.471	269.37
471.907	265.25
472.344	263.98
472.78	264.84
473.216	267.84
473.652	264.49
474.088	263.44
474.523	263.64
474.959	266.29
475.395	264.93
475.831	264.22
476.266	265.49
476.702	265.62
477.138	262.96
477.573	261.89
478.008	261.88
478.444	264.65
478.879	268.24
479.314	269.85
479.75	270.12
480.185	270.74
480.62	273.04
481.055	274.43
481.49	277.23
481.925	281.04
482.36	287.93
482.795	294.72
483.229	301.49
483.664	308.1
484.099	308.85
484.534	313.6
484.968	317.5
485.403	317.87
485.837	316.99
486.271	315.33
486.706	316.04
487.14	310.87
487.574	306.83
488.009	304.48
488.443	301.43
488.877	305.12
489.311	305.6
489.745	309.19
490.179	312.56
490.613	320.54
491.046	322.92
491.48	325.26
491.914	326.25
492.348	328.71
492.781	331.23
493.215	332.14
493.648	332.97
494.082	337.23
494.515	338.85
494.948	344.03
495.382	344.93
495.815	348.82
496.248	352.28
496.681	359.37
497.114	365.98
497.547	373.02
497.98	382.19
498.413	387.56
498.846	393.62
499.279	398.69
499.711	401
500.144	404.04
500.577	412.07
501.009	419.93
501.442	427.62
501.874	430.69
502.306	432.25
502.739	440.56
503.171	449.96
503.603	453.74
504.036	460.21
504.468	465.93
504.9	474.85
505.332	480.28
505.764	484.95
506.196	491.24
506.627	501.86
507.059	513.05
507.491	517.17
507.923	518.84
508.354	530.41
508.786	539.85
509.217	553.24
509.649	564.68
510.08	579.05
510.512	592.43
510.943	603.96
511.374	613.72
511.805	627.87
512.237	643.36
512.668	665.86
513.099	684.26
513.53	703.15
513.961	718.5
514.391	740.21
514.822	763.15
515.253	787.57
515.684	805.97
516.114	826.54
516.545	844.23
516.975	861.91
517.406	874.68
517.836	879.17
518.267	886.41
518.697	901.83
519.127	907.19
519.558	913.45
519.988	918.41
520.418	927.91
520.848	941.73
521.278	948.5
521.708	987.29
522.138	999.31
522.567	1021.26
522.997	1039.13
523.427	1049.75
523.857	1063.93
524.286	1073.63
524.716	1086.14
525.145	1100.29
525.575	1109.6
526.004	1120.88
526.433	1093.82
526.863	1095.19
527.292	1091.18
527.721	1097.79
528.15	1104.07
528.579	1105.61
529.008	1114.32
529.437	1129.33
529.866	1139.13
530.295	1151.26
530.724	1160.68
531.152	1180.96
531.581	1191.18
532.01	1202.69
532.438	1208.77
532.867	1218.23
533.295	1231.73
533.723	1235.83
534.152	1235.67
534.58	1236.08
535.008	1225.85
535.436	1227.8
535.865	1232.61
536.293	1241.67
536.721	1253.1
537.149	1269.88
537.576	1273.23
538.004	1281.9
538.432	1286.6
538.86	1285.29
539.287	1289.67
539.715	1298.53
540.143	1299.14
540.57	1296.15
540.998	1293.54
541.425	1278.98
541.852	1264.45
542.28	1263.14
542.707	1250.6
543.134	1242.18
543.561	1239.32
543.988	1234.79
544.415	1235.25
544.842	1232.33
545.269	1227.99
545.696	1229.68
546.123	1239.44
546.549	1232.97
546.976	1222.72
547.403	1223.86
547.829	1224.38
548.256	1225.96
548.682	1224.45
549.108	1219.95
549.535	1219.16
549.961	1220.68
550.387	1213.13
550.813	1209.03
551.24	1213.1
551.666	1215.11
552.092	1207.99
552.518	1204.51
552.943	1202.19
553.369	1207.1
553.795	1210.51
554.221	1211.97
554.646	1210.5
555.072	1217.21
555.498	1219.57
555.923	1226.37
556.349	1236.44
556.774	1243.12
557.199	1243.81
557.625	1246.33
558.05	1242.37
558.475	1249.39
558.9	1249.15
559.325	1242.99
559.75	1239.46
560.175	1234.81
560.6	1230.06
561.025	1227.75
561.449	1227.81
561.874	1230.7
562.299	1233.61
562.723	1237.11
563.148	1229.23
563.572	1231.19
563.997	1237.66
564.421	1239.36
564.846	1238.29
565.27	1239.97
565.694	1237.81
566.118	1245.02
566.542	1249.72
566.966	1244.71
567.39	1240.76
567.814	1233.27
568.238	1231.46
568.662	1232.5
569.086	1232.98
569.509	1236.66
569.933	1225.52
570.357	1219.09
570.78	1202.91
571.204	1194.2
571.627	1184.47
572.05	1181.42
572.474	1178.77
572.897	1168.81
573.32	1162.83
573.743	1154.93
574.166	1142.52
574.589	1141.28
575.012	1135.48
575.435	1134.28
575.858	1125.54
576.281	1117.42
576.704	1106.3
577.126	1098.03
577.549	1090.07
577.972	1083.45
578.394	1076.57
578.817	1072.99
579.239	1059.89
579.661	1051.24
580.084	1041.48
580.506	1033.01
580.928	1030.67
581.35	1023.45
581.772	1020.36
582.194	1011.31
582.616	1001.96
583.038	992.24
583.46	983.71
583.882	982.29
584.303	983.66
584.725	979.43
585.147	983.09
585.568	989.46
585.99	998.19
586.411	1001.95
586.833	1011.87
587.254	1012.74
587.675	1019.88
588.096	1026.85
588.518	1021.73
588.939	1010.8
589.36	1008.28
589.781	997.47
590.202	980.04
590.623	972.76
591.043	970.25
591.464	961.04
591.885	958.93
592.305	955.5
592.726	945.81
593.147	946.98
593.567	943.4
593.987	937.85
594.408	934.49
594.828	930.44
595.248	926.5
595.669	915.83
596.089	911.32
596.509	905.93
596.929	896.81
597.349	898.17
597.769	890.59
598.189	885.94
598.608	886.95
599.028	886.95
599.448	887.38
599.867	878.73
600.287	874.12
600.706	871.67
601.126	865.65
601.545	864.67
601.965	862.36
602.384	858.26
602.803	859.06
603.222	856.23
603.641	852.9
604.061	850.02
604.48	846.76
604.898	852.21
605.317	854.32
605.736	855.2
606.155	853.63
606.574	847.28
606.992	850.56
607.411	847.74
607.829	841.26
608.248	837.54
608.666	835.34
609.085	834.8
609.503	827.81
609.921	823.11
610.339	823.64
610.758	821.57
611.176	818.84
611.594	812.72
612.012	809.93
612.43	812.31
612.847	815.9
613.265	817
613.683	818.75
614.101	819.8
614.518	815.94
614.936	809.32
615.353	801.22
615.771	798.52
616.188	797.72
616.606	794.33
617.023	788.56
617.44	779.56
617.857	773.39
618.274	767.62
618.691	763.32
619.108	757.89
619.525	752.82
619.942	755.2
620.359	756.13
620.776	752.43
621.192	750.4
621.609	748.42
622.026	751.98
622.442	755.2
622.859	756.54
623.275	751.15
623.691	754.15
624.108	762.2
624.524	771.23
624.94	770.15
625.356	776.15
625.772	782.89
626.188	788.82
626.604	788.79
627.02	786.38
627.436	785.25
627.852	789.7
628.268	797.03
628.683	789.74
629.099	783.63
629.514	780.79
629.93	782.97
630.345	785.93
630.761	783.25
631.176	784.2
631.591	781.08
632.007	776.52
632.422	774.63
632.837	766.24
633.252	764.31
633.667	757.54
634.082	750.76
634.497	741.5
634.911	728.54
635.326	724.96
635.741	714.45
636.155	706.24
636.57	706.65
636.984	704.59
637.399	705.04
637.813	702.51
638.228	699.25
638.642	700.01
639.056	692.27
639.47	690.44
639.884	683.8
640.298	677.73
640.712	674.67
641.126	664.43
641.54	655.44
641.954	647.93
642.368	639.46
642.781	634.22
643.195	621.48
643.609	619.52
644.022	613.19
644.436	608.15
644.849	599.14
645.262	589.82
645.676	587.84
646.089	584.98
646.502	576.49
646.915	571.5
647.328	560.57
647.741	559.32
648.154	551.6
648.567	550.79
648.98	543.16
649.393	542.47
649.805	540.41
650.218	536.76
650.631	528.12
651.043	524.41
651.456	521.46
651.868	520.23
652.28	527.53
652.693	533.38
653.105	535.83
653.517	541.15
653.929	540.64
654.341	543.83
654.753	537.47
655.165	540.02
655.577	538.67
655.989	535.29
656.401	530.36
656.813	512.45
657.224	501.07
657.636	483.85
658.047	475.1
658.459	464.91
658.87	458.45
659.282	450.18
659.693	439.88
660.104	431.58
660.515	422.73
660.926	419.46
661.338	415.52
661.749	410.9
662.159	406.11
662.57	400.98
662.981	397.85
663.392	393.05
663.803	394.2
664.213	390.73
664.624	386.72
665.035	388.18
665.445	381.37
665.855	378.99
666.266	375.64
666.676	374.64
667.086	369.78
667.497	368.43
667.907	365.32
668.317	359.89
668.727	361.3
669.137	360.32
669.547	358.74
669.956	360.65
670.366	360.79
670.776	361.5
671.186	363.07
671.595	364.94
672.005	366.79
672.414	367.93
672.824	369.04
673.233	368.77
673.642	371.67
674.052	375.39
674.461	377.95
674.87	380.81
675.279	381.78
675.688	382.7
676.097	385.44
676.506	385.81
676.915	393.72
677.323	396.82
677.732	397.19
678.141	397.68
678.549	391.78
678.958	391.15
679.366	391.78
679.775	393.7
680.183	402.31
680.592	405.49
681	409.48
681.408	406.97
681.816	412.23
682.224	417.84
682.632	426.35
683.04	445.01
683.448	461.56
683.856	480.98
684.264	503.48
684.671	521.31
685.079	545.79
685.487	572.5
685.894	609.86
686.302	638.96
686.709	665.38
687.116	696.02
687.524	720.97
687.931	743.25
688.338	764.4
688.745	781.92
689.152	804.06
689.559	833.43
689.966	863.03
690.373	878.54
690.78	907.1
691.187	948.03
691.593	980.17
692	1008.29
692.407	1048.91
692.813	1100.18
693.22	1141.37
693.626	1181.94
694.032	1216.86
694.439	1266.54
694.845	1307.85
695.251	1359.08
695.657	1404.23
696.063	1471.08
696.469	1523.18
696.875	1571.59
697.281	1598.66
697.687	1633.87
698.093	1665.27
698.498	1716.25
698.904	1757.57
699.31	1820.61
699.715	1867.7
700.12	1932.05
700.526	1947.87
700.931	1999.16
701.337	2039.16
701.742	2067.08
702.147	2126.29
702.552	2149.49
702.957	2195.76
703.362	2214.39
703.767	2235.15
704.172	2264.73
704.577	2237.8
704.981	2272.59
705.386	2286.9
705.791	2282.7
706.195	2334.45
