Data from C_3_DIV_WI_4N_Splice17_12-56-28-311.txt Node
Date: Sat Mar 14 12:56:28 EDT 2020
User: sa697716
Spectrometer: FLMS03696
Trigger mode: 0
Integration Time (sec): 3.180400E-1
Scans to average: 20
Electric dark correction enabled: true
Nonlinearity correction enabled: true
Boxcar width: 5
XAxis mode: Wavelengths
Number of Pixels in Spectrum: 2048
>>>>>Begin Spectral Data<<<<<
187.83	-371802.32
188.298	2651.19
188.766	1398.49
189.233	1260.75
189.701	1829.56
190.169	2565.43
190.636	946.46
191.104	743.55
191.571	89.8
192.039	-73.01
192.506	29.17
192.974	807.19
193.441	-1198.99
193.908	-367.66
194.375	-113.07
194.842	-4.95
195.31	149.2
195.777	152.24
196.244	379.89
196.711	436.91
197.177	535.2
197.644	761.46
198.111	1340.78
198.578	1831.03
199.045	1458.86
199.511	2393.54
199.978	2762.73
200.445	2351.01
200.911	2622.59
201.378	2905.52
201.844	2623.52
202.31	4504.18
202.777	4696.64
203.243	2605.15
203.709	2482.45
204.176	2950.71
204.642	2409.8
205.108	2235.99
205.574	1809.5
206.04	1642.94
206.506	1542.75
206.972	1452.2
207.438	1401.41
207.903	1606.71
208.369	1405.59
208.835	1395.63
209.301	1458.65
209.766	1493.37
210.232	1492.42
210.697	1848.87
211.163	2272.36
211.628	3394.04
212.094	2843.11
212.559	3497.12
213.024	2149.04
213.49	2598.31
213.955	2506.57
214.42	2422.94
214.885	2253.88
215.35	2146.31
215.815	2072.53
216.28	2207.53
216.745	1787.93
217.21	1918.02
217.675	1721.24
218.14	1905.21
218.604	2082.85
219.069	2350.95
219.534	2429.18
219.998	2748.91
220.463	3270.61
220.927	3915.09
221.392	3609.92
221.856	3613.02
222.32	4476.21
222.785	5492.32
223.249	6845.25
223.713	7597.82
224.177	7547.55
224.642	9608.58
225.106	11777.68
225.57	12766.66
226.034	9495.48
226.497	14404.54
226.961	13009.17
227.425	15124.6
227.889	16653.48
228.353	16622.39
228.816	34154.93
229.28	32516.29
229.744	27305.96
230.207	16623.52
230.671	16332.17
231.134	26840.14
231.597	30916.25
232.061	30784.64
232.524	29945.95
232.987	20651.42
233.45	18577.22
233.914	16673.22
234.377	17094.05
234.84	15637.43
235.303	18353.87
235.766	20492.82
236.229	21137.92
236.691	13288.61
237.154	14898.93
237.617	11204.8
238.08	11461.38
238.542	13394.52
239.005	9567.84
239.468	9492.14
239.93	8949.27
240.393	8137.41
240.855	7137.17
241.317	7306.23
241.78	8887.2
242.242	9200.57
242.704	9966.97
243.166	8685.36
243.629	7915.65
244.091	9117.01
244.553	9985.39
245.015	10729.75
245.477	13869.09
245.939	20298.38
246.4	21580.65
246.862	20948.77
247.324	19743.82
247.786	22035.46
248.247	28806.33
248.709	29632.74
249.17	22177.62
249.632	20981.66
250.093	24371.4
250.555	21064.93
251.016	12886.28
251.477	12208.91
251.939	13202.45
252.4	13850.52
252.861	16449.06
253.322	15318.55
253.783	18225.44
254.244	23597.08
254.705	18549.72
255.166	16484.95
255.627	16232.72
256.088	22881.02
256.549	24314.35
257.009	20932
257.47	25373.49
257.931	20664.29
258.391	15499.16
258.852	15972.1
259.312	16732.13
259.773	20638.91
260.233	17446.75
260.694	14704.44
261.154	16661.91
261.614	13402.84
262.074	11960.56
262.534	12440.19
262.994	11736.76
263.455	15615.68
263.915	13168.94
264.374	12391.92
264.834	13523.72
265.294	14960.16
265.754	15509.52
266.214	14682.19
266.673	13725.01
267.133	17327.21
267.593	17175.9
268.052	20996.8
268.512	18252.67
268.971	22013.03
269.431	24167.67
269.89	21647.66
270.349	32438.07
270.809	36188.71
271.268	32536.51
271.727	72918.78
272.186	47210.27
272.645	35357.47
273.104	25467.39
273.563	36870.37
274.022	28930.15
274.481	24647.32
274.94	19025.11
275.399	14146.67
275.857	16431.06
276.316	22218.14
276.775	19787.01
277.233	19501.98
277.692	18275.7
278.15	20726.87
278.609	21368.26
279.067	19798.54
279.525	18387.69
279.984	23676.29
280.442	28456.7
280.9	28155.41
281.358	18513.82
281.816	17249.98
282.274	16868.21
282.732	17438.91
283.19	17509
283.648	15110.08
284.106	16092.31
284.564	16374.38
285.021	15197.62
285.479	11328.53
285.937	10255.98
286.394	9007.2
286.852	9270.13
287.309	9759.8
287.767	9463.86
288.224	9021.25
288.682	9894.52
289.139	10865.28
289.596	9932.37
290.053	10313.7
290.511	13000.39
290.968	15824.43
291.425	21481.61
291.882	17896.54
292.339	15585.38
292.796	15412.68
293.252	14507.79
293.709	11520.66
294.166	10318.93
294.623	11392.88
295.079	10927.61
295.536	11002.39
295.992	9993.24
296.449	9875.6
296.905	10275.56
297.362	9857.97
297.818	10360.11
298.274	10725.83
298.731	10926.25
299.187	10804.86
299.643	11601.98
300.099	14065.62
300.555	15401.63
301.011	12854.77
301.467	12448.07
301.923	14530.78
302.379	14182.41
302.835	13934.26
303.291	13966.27
303.746	15914.97
304.202	20163.94
304.658	20258.02
305.113	13608.91
305.569	13360.57
306.024	14220.38
306.479	13492.45
306.935	11415.37
307.39	12466.59
307.845	11539.48
308.301	11643.51
308.756	11340.59
309.211	10923.51
309.666	11209.65
310.121	13956.62
310.576	14149.03
311.031	14052.96
311.486	16065.72
311.94	16027.92
312.395	21415.64
312.85	40214.39
313.305	196929.5
313.759	1021832.18
314.214	74108.16
314.668	58801.78
315.123	49580.36
315.577	17817.65
316.032	15857.16
316.486	19830.64
316.94	15690.76
317.394	10958.53
317.849	8502.93
318.303	8045.94
318.757	7602.69
319.211	8394.46
319.665	7345.35
320.119	7426.78
320.572	10623.81
321.026	9950.14
321.48	8303.45
321.934	9012.3
322.387	9012.98
322.841	9760.22
323.295	8808.14
323.748	10105.04
324.202	10280.63
324.655	12341.18
325.108	17254.36
325.562	12215.53
326.015	14522.15
326.468	10988.79
326.921	12314.39
327.374	11511.88
327.827	11998.49
328.28	13603.4
328.733	9121
329.186	8000.43
329.639	7633.83
330.092	6431.22
330.545	6138.83
330.997	6186.62
331.45	6783.63
331.903	7967.44
332.355	13643.29
332.808	13242.85
333.26	10908.76
333.713	11873.03
334.165	11973.45
334.617	15951.27
335.069	12854.1
335.522	23157.42
335.974	25658.43
336.426	23355.41
336.878	16166.31
337.33	8237.13
337.782	8047.13
338.234	10116.02
338.686	12075.53
339.137	14320.86
339.589	13497.8
340.041	10600.43
340.493	9117.59
340.944	9347.23
341.396	10093.38
341.847	8513.88
342.299	10053.35
342.75	12288.62
343.201	10711.14
343.653	12311.38
344.104	15097.43
344.555	11850.52
345.006	18371.72
345.457	14111.3
345.908	11187.65
346.359	10552.66
346.81	8573.57
347.261	9006.51
347.712	8846.03
348.163	9446.99
348.613	9615.53
349.064	8991.06
349.515	7882.36
349.965	8091.31
350.416	9726.13
350.866	10681.77
351.317	11992.56
351.767	19862.37
352.217	25123.38
352.668	20842.67
353.118	19137.72
353.568	18337.92
354.018	14511.9
354.468	15309.62
354.918	10997.26
355.368	9620.37
355.818	13585.48
356.268	39165.21
356.718	164496.19
357.168	41007.39
357.617	20613.52
358.067	22888.52
358.517	21472.98
358.966	25171.74
359.416	28441.19
359.865	30758.57
360.315	36524.99
360.764	17045.27
361.213	9571.06
361.663	9043.25
362.112	11136.37
362.561	17981.6
363.01	13595.37
363.459	11422.5
363.908	12342.49
364.357	10477.45
364.806	17666.65
365.255	12134.28
365.703	11170.39
366.152	11175.18
366.601	9042.85
367.05	7363.87
367.498	6691.83
367.947	6977.08
368.395	7266.3
368.844	6434.42
369.292	7691.45
369.74	5337.8
370.189	8191.06
370.637	9579.52
371.085	8270.78
371.533	10080.84
371.981	9717.56
372.429	9277.17
372.877	9689.25
373.325	8114.9
373.773	8322.66
374.221	7417.92
374.669	9157.46
375.116	7922
375.564	7982.01
376.012	8920.64
376.459	7362.36
376.907	8806.4
377.354	10685.16
377.801	9988.91
378.249	11541.43
378.696	14716.06
379.143	17878.2
379.591	19087.13
380.038	32399.33
380.485	23525.64
380.932	25405.23
381.379	23401.23
381.826	17252.65
382.273	12229.19
382.72	10683.09
383.166	10414.88
383.613	6770.67
384.06	6129.74
384.506	7146.53
384.953	5247.46
385.4	5259.97
385.846	4611.11
386.292	4467.05
386.739	4372.78
387.185	4314.49
387.631	4319.33
388.078	4213.4
388.524	4494.91
388.97	4138.96
389.416	3444.61
389.862	3662.46
390.308	3475.8
390.754	3536.39
391.2	3846.2
391.645	3918.52
392.091	3798.35
392.537	3674.67
392.983	3670.6
393.428	3642.37
393.874	3909.48
394.319	3943.78
394.765	3766.11
395.21	3873.2
395.655	3635.96
396.101	3401.6
396.546	3083
396.991	3080.42
397.436	2858.85
397.881	2755.82
398.326	2591.97
398.771	2453.68
399.216	2127.86
399.661	1905.34
400.106	1901.39
400.551	1956.05
400.995	1752.38
401.44	1729.14
401.885	1626.63
402.329	1644.67
402.774	1578.39
403.218	1540.07
403.663	1482.31
404.107	1529.73
404.551	1542.4
404.995	1413.49
405.44	1353.25
405.884	1374.42
406.328	1325.55
406.772	1319.16
407.216	1200.12
407.66	1155.77
408.104	1085.94
408.547	1014.28
408.991	981.86
409.435	941.96
409.879	927.39
410.322	917.93
410.766	887.55
411.209	847.34
411.653	813.08
412.096	799.71
412.54	798.08
412.983	796.37
413.426	801.16
413.869	795.41
414.312	781.04
414.756	751.74
415.199	713.22
415.642	692.43
416.085	694.38
416.527	689.34
416.97	695.3
417.413	661.53
417.856	652.47
418.298	643.79
418.741	636.67
419.184	634.3
419.626	658.48
420.069	659.71
420.511	665.15
420.953	651.91
421.396	645.97
421.838	630.04
422.28	645.87
422.722	649.99
423.164	659.19
423.606	651.78
424.048	650.88
424.49	619.02
424.932	616.31
425.374	604.52
425.816	612.11
426.258	624.08
426.699	629.38
427.141	621.24
427.582	627.91
428.024	624.07
428.465	618.78
428.907	602.77
429.348	595.9
429.789	597.68
430.231	589.86
430.672	600.35
431.113	585.14
431.554	576.03
431.995	559.74
432.436	543.48
432.877	532.56
433.318	528.28
433.759	526.98
434.2	528.58
434.64	520.39
435.081	521.58
435.522	492.5
435.962	473.88
436.403	468.15
436.843	472.81
437.284	462.64
437.724	447.33
438.164	443.91
438.604	432.82
439.045	417.18
439.485	402.64
439.925	391.6
440.365	382.15
440.805	377.05
441.245	372.46
441.685	360.83
442.125	355.52
442.564	357.96
443.004	351.09
443.444	351.9
443.883	351.01
444.323	344.15
444.762	342.77
445.202	346.86
445.641	356.79
446.081	352.15
446.52	355.32
446.959	352.63
447.398	345.83
447.837	341.17
448.276	334.11
448.716	337.68
449.154	341.46
449.593	335.29
450.032	333.84
450.471	324.49
450.91	323.35
451.349	320.5
451.787	317.75
452.226	322.4
452.664	321.14
453.103	320.73
453.541	318.69
453.98	320.68
454.418	321.62
454.856	318.01
455.295	316.32
455.733	318.28
456.171	320.13
456.609	320.54
457.047	319.37
457.485	325.97
457.923	327.66
458.361	322.16
458.798	321.57
459.236	319.81
459.674	319.93
460.111	322.33
460.549	320.1
460.987	318.32
461.424	316.8
461.862	315.39
462.299	310.32
462.736	309.87
463.173	312.38
463.611	310.98
464.048	311.7
464.485	315.75
464.922	312.47
465.359	309.84
465.796	312.53
466.233	311.71
466.67	310.71
467.106	310.88
467.543	306.45
467.98	302
468.416	293.5
468.853	290.24
469.29	280.71
469.726	277.99
470.162	270.57
470.599	261.66
471.035	258.14
471.471	251.36
471.907	248.46
472.344	247.28
472.78	247.57
473.216	249.26
473.652	246.41
474.088	244.83
474.523	243.78
474.959	247.1
475.395	245.26
475.831	244.25
476.266	244.44
476.702	243.41
477.138	240.19
477.573	239.83
478.008	237.99
478.444	239.75
478.879	242.68
479.314	244.05
479.75	242.66
480.185	242.24
480.62	243.08
481.055	244.13
481.49	245.45
481.925	249.74
482.36	256.2
482.795	262.65
483.229	268.06
483.664	273.61
484.099	273.75
484.534	278.22
484.968	281.38
485.403	281.73
485.837	281.13
486.271	280.07
486.706	279.54
487.14	273.73
487.574	269.65
488.009	267.1
488.443	263.82
488.877	267.27
489.311	267.2
489.745	270.76
490.179	274.2
490.613	280.33
491.046	282.69
491.48	284.72
491.914	286.34
492.348	289.28
492.781	291.8
493.215	292.98
493.648	293.06
494.082	297.08
494.515	298.55
494.948	303.48
495.382	305.34
495.815	308.03
496.248	311.59
496.681	317.27
497.114	323.31
497.547	329.26
497.98	336.9
498.413	342.33
498.846	348.3
499.279	352.9
499.711	355.68
500.144	358.21
500.577	366.43
501.009	373.3
501.442	380.52
501.874	383.6
502.306	386.59
502.739	395.06
503.171	404.11
503.603	408.07
504.036	415.31
504.468	420.32
504.9	429.19
505.332	434.96
505.764	440.83
506.196	447.47
506.627	458.34
507.059	468.88
507.491	474.21
507.923	477.14
508.354	488.88
508.786	497.64
509.217	512.09
509.649	523.72
510.08	537.79
510.512	551.41
510.943	563.74
511.374	573.71
511.805	588.93
512.237	604.58
512.668	625.93
513.099	644.77
513.53	665.85
513.961	682.14
514.391	705.44
514.822	731.42
515.253	756.96
515.684	777.49
516.114	801.53
516.545	819.3
516.975	839.52
517.406	856.59
517.836	864.12
518.267	873.22
518.697	890.37
519.127	898.9
519.558	907.32
519.988	915.18
520.418	925.9
520.848	940.99
521.278	951.97
521.708	987.07
522.138	1000.96
522.567	1026.14
522.997	1048.2
523.427	1062.44
523.857	1078.43
524.286	1089.34
524.716	1104.14
525.145	1122.06
525.575	1134.52
526.004	1148.23
526.433	1131.56
526.863	1134.95
527.292	1131.95
527.721	1138.63
528.15	1146.02
528.579	1149.62
529.008	1160.17
529.437	1178.02
529.866	1190.68
530.295	1204.34
530.724	1216.14
531.152	1236.73
531.581	1249.03
532.01	1263.85
532.438	1272.49
532.867	1284.53
533.295	1298.99
533.723	1305.11
534.152	1304.29
534.58	1304.96
535.008	1294.71
535.436	1297.62
535.865	1304.64
536.293	1315.56
536.721	1327.22
537.149	1345.39
537.576	1348.36
538.004	1358.42
538.432	1363.67
538.86	1364.63
539.287	1369.66
539.715	1379.54
540.143	1381.07
540.57	1378.66
540.998	1375.75
541.425	1359.91
541.852	1345.11
542.28	1344.43
542.707	1332.28
543.134	1323.41
543.561	1319.91
543.988	1314.46
544.415	1314.58
544.842	1310.35
545.269	1305.14
545.696	1308.16
546.123	1317.39
546.549	1310.29
546.976	1300.79
547.403	1301.67
547.829	1303.17
548.256	1304.72
548.682	1304.26
549.108	1300.45
549.535	1301.33
549.961	1303.62
550.387	1293.64
550.813	1290.69
551.24	1295.34
551.666	1296.42
552.092	1290.18
552.518	1286.26
552.943	1283.34
553.369	1288.47
553.795	1292.73
554.221	1293.31
554.646	1290.48
555.072	1298.58
555.498	1300.99
555.923	1307.43
556.349	1318.33
556.774	1322.27
557.199	1322.31
557.625	1324.24
558.05	1318.54
558.475	1323.82
558.9	1321.06
559.325	1314.46
559.75	1307.95
560.175	1302.54
560.6	1296.22
561.025	1291.89
561.449	1291
561.874	1293
562.299	1294.56
562.723	1296.87
563.148	1287.57
563.572	1287.96
563.997	1291.92
564.421	1292.88
564.846	1289.23
565.27	1288.57
565.694	1283.85
566.118	1288.43
566.542	1289.85
566.966	1281.32
567.39	1274.7
567.814	1264.6
568.238	1261.26
568.662	1260.34
569.086	1258.38
569.509	1259.53
569.933	1246.95
570.357	1238.05
570.78	1219.97
571.204	1208.02
571.627	1197.48
572.05	1192.73
572.474	1188.73
572.897	1176.35
573.32	1168.94
573.743	1158.97
574.166	1144.3
574.589	1139.88
575.012	1132.16
575.435	1128.69
575.858	1119.72
576.281	1109.66
576.704	1096.59
577.126	1085.07
577.549	1075.74
577.972	1066.33
578.394	1057.3
578.817	1052.66
579.239	1038.56
579.661	1028.34
580.084	1017.14
580.506	1006.97
580.928	1001.95
581.35	993.01
581.772	988.57
582.194	978.07
582.616	968.28
583.038	956.96
583.46	945.87
583.882	941.8
584.303	941.89
584.725	937.67
585.147	939.79
585.568	945.96
585.99	952
586.411	955.07
586.833	963.75
587.254	963.23
587.675	971.71
588.096	979.36
588.518	975.12
588.939	964.04
589.36	961.73
589.781	950.78
590.202	933.81
590.623	927.14
591.043	924.8
591.464	916.06
591.885	913.53
592.305	908.17
592.726	899.26
593.147	899.46
593.567	895.19
593.987	888.82
594.408	884.49
594.828	880.2
595.248	877.09
595.669	865.88
596.089	861.09
596.509	856.27
596.929	847.37
597.349	846.49
597.769	839.1
598.189	834.29
598.608	834.51
599.028	835.74
599.448	835.06
599.867	826.19
600.287	821.62
600.706	817.86
601.126	811.38
601.545	811.04
601.965	809.79
602.384	806.54
602.803	807.42
603.222	804.03
603.641	798.96
604.061	796.41
604.48	792.4
604.898	796.22
605.317	797.52
605.736	796.61
606.155	793.37
606.574	785.45
606.992	786.19
607.411	782.13
607.829	774.59
608.248	771.33
608.666	767.61
609.085	766.07
609.503	759.46
609.921	754.71
610.339	754.84
610.758	751.31
611.176	747.11
611.594	740.64
612.012	737.05
612.43	737.75
612.847	738.38
613.265	737.55
613.683	737.27
614.101	735.86
614.518	731.15
614.936	723.65
615.353	714.89
615.771	712.16
616.188	710.62
616.606	707.03
617.023	702.03
617.44	692.59
617.857	687.55
618.274	682.19
618.691	677.84
619.108	672.09
619.525	667.29
619.942	669.69
620.359	670.02
620.776	665.97
621.192	662.93
621.609	661.14
622.026	665.25
622.442	667.97
622.859	668.59
623.275	663.92
623.691	665.09
624.108	670.2
624.524	676.35
624.94	674.99
625.356	679.39
625.772	685.69
626.188	690.56
626.604	690.17
627.02	686.46
627.436	684.74
627.852	689.03
628.268	695.85
628.683	690.7
629.099	686.61
629.514	684.17
629.93	685.87
630.345	687.53
630.761	685.55
631.176	686.83
631.591	684.72
632.007	681.96
632.422	679.26
632.837	671.9
633.252	670.8
633.667	664.05
634.082	658.11
634.497	649.97
634.911	639.76
635.326	635.96
635.741	625.46
636.155	617.94
636.57	617.02
636.984	614.66
637.399	614.76
637.813	612.71
638.228	610.01
638.642	609.85
639.056	603
639.47	599.46
639.884	593.34
640.298	587.71
640.712	584.62
641.126	576.02
641.54	569.58
641.954	562.71
642.368	553.82
642.781	550.49
643.195	539.82
643.609	538.34
644.022	534.52
644.436	530.14
644.849	522.46
645.262	514.48
645.676	512.88
646.089	509.12
646.502	502.19
646.915	498.04
647.328	487.25
647.741	485.25
648.154	478.31
648.567	476.83
648.98	470.67
649.393	470.18
649.805	468.11
650.218	464.18
650.631	456.66
651.043	453.28
651.456	450.07
651.868	448.59
652.28	454.64
652.693	458.51
653.105	458.57
653.517	461.01
653.929	460.37
654.341	461.38
654.753	455.08
655.165	456.02
655.577	453.71
655.989	450.12
656.401	445.24
656.813	429.82
657.224	420.86
657.636	407.26
658.047	398.93
658.459	389.24
658.87	383.64
659.282	376.68
659.693	367.5
660.104	360.02
660.515	352.79
660.926	352.31
661.338	349.11
661.749	344.47
662.159	340.54
662.57	336.26
662.981	334.01
663.392	330.65
663.803	331.04
664.213	329.67
664.624	327.31
665.035	329.05
665.445	321.95
665.855	320.86
666.266	318.94
666.676	318.01
667.086	314.99
667.497	315.89
667.907	313.78
668.317	310.69
668.727	312.13
669.137	311.96
669.547	311.7
669.956	313.46
670.366	314.55
670.776	317.37
671.186	318.92
671.595	322.06
672.005	322.3
672.414	324.01
672.824	325.79
673.233	324.47
673.642	327.06
674.052	329.22
674.461	332.31
674.87	333.63
675.279	333.3
675.688	334.27
676.097	336.64
676.506	337.51
676.915	343.85
677.323	345.2
677.732	346.64
678.141	347.5
678.549	342.9
678.958	342.41
679.366	343.09
679.775	344.06
680.183	351.97
680.592	354.13
681	356.29
681.408	354.46
681.816	358.48
682.224	362.28
682.632	368.94
683.04	383.77
683.448	395.43
683.856	410.39
684.264	428.58
684.671	443.2
685.079	463.16
685.487	484.99
685.894	514.95
686.302	538.72
686.709	561.1
687.116	585.76
687.524	608.21
687.931	628.32
688.338	646.58
688.745	662.54
689.152	680.86
689.559	706.63
689.966	734.12
690.373	750.38
690.78	778.97
691.187	818.41
691.593	850.57
692	881.05
692.407	922.88
692.813	975.85
693.22	1018.98
693.626	1062.81
694.032	1103.16
694.439	1158.72
694.845	1205.19
695.251	1261.52
695.657	1314.02
696.063	1387.24
696.469	1445.44
696.875	1502.79
697.281	1540.91
697.687	1586.18
698.093	1628.09
698.498	1691.24
698.904	1743.18
699.31	1816.99
699.715	1877.36
700.12	1955.65
700.526	1985.39
700.931	2050
701.337	2103.85
701.742	2144.6
702.147	2220.85
702.552	2260.09
702.957	2318.88
703.362	2351.92
703.767	2390.83
704.172	2434.37
704.577	2415.94
704.981	2466.12
705.386	2495.69
