Data from C_3_DIV_PA_2N_Splice17_13-16-00-684.txt Node
Date: Sat Mar 14 13:16:00 EDT 2020
User: sa697716
Spectrometer: FLMS03696
Trigger mode: 0
Integration Time (sec): 3.180400E-1
Scans to average: 20
Electric dark correction enabled: true
Nonlinearity correction enabled: true
Boxcar width: 5
XAxis mode: Wavelengths
Number of Pixels in Spectrum: 2048
>>>>>Begin Spectral Data<<<<<
187.83	-319306.23
188.298	2418.79
188.766	1329.05
189.233	1169.2
189.701	1685.18
190.169	2323.19
190.636	837.66
191.104	697.94
191.571	126.13
192.039	-27.85
192.506	0.39
192.974	689.27
193.441	-879.78
193.908	-62.85
194.375	-24.18
194.842	61.95
195.31	122.55
195.777	170.12
196.244	329.68
196.711	271.13
197.177	307.57
197.644	356.72
198.111	605.79
198.578	807.03
199.045	615.08
199.511	972.61
199.978	1078.68
200.445	940.24
200.911	1001.65
201.378	1058.25
201.844	988.74
202.31	1696.2
202.777	1799.82
203.243	1002.08
203.709	937.93
204.176	1156.5
204.642	968.6
205.108	933.67
205.574	756.31
206.04	665.48
206.506	646.63
206.972	589.69
207.438	564.62
207.903	626.76
208.369	572.42
208.835	589.92
209.301	619.02
209.766	620.42
210.232	607.44
210.697	746.9
211.163	906.21
211.628	1329.86
212.094	1178.03
212.559	1519.12
213.024	978.88
213.49	1212.04
213.955	1176.39
214.42	1091.7
214.885	1027.06
215.35	1014.63
215.815	1055.65
216.28	1156.19
216.745	953.59
217.21	1048.44
217.675	951
218.14	1084.13
218.604	1201.64
219.069	1414.68
219.534	1536.49
219.998	1795.6
220.463	2195.44
220.927	2669.5
221.392	2545.86
221.856	2623.78
222.32	3293.1
222.785	4124.32
223.249	5225.1
223.713	5906.32
224.177	5931.16
224.642	7634.66
225.106	9494.62
225.57	10413.44
226.034	7869.89
226.497	12092.15
226.961	11049.37
227.425	13037.7
227.889	14541.11
228.353	14666.4
228.816	30399.29
229.28	29364.86
229.744	24908.65
230.207	15269.74
230.671	15169.63
231.134	25070.25
231.597	29061.89
232.061	29159.56
232.524	28593.07
232.987	19816.06
233.45	17956.84
233.914	16231.65
234.377	16704.3
234.84	15368.73
235.303	18188.47
235.766	20374.27
236.229	21196.57
236.691	13406.5
237.154	15144.09
237.617	11432.98
238.08	11752.34
238.542	13820.81
239.005	9923.76
239.468	9883.55
239.93	9343.69
240.393	8516.2
240.855	7522.93
241.317	7731.07
241.78	9438.21
242.242	9787.82
242.704	10633.29
243.166	9304.96
243.629	8493.85
244.091	9836.46
244.553	10819.06
245.015	11712.78
245.477	15193.88
245.939	22327.32
246.4	23826.34
246.862	23240.58
247.324	21983.79
247.786	24695.39
248.247	32491.2
248.709	33543.12
249.17	25166.63
249.632	23901.96
250.093	27836.27
250.555	24210.18
251.016	14845.19
251.477	14125.28
251.939	15312.69
252.4	16152.33
252.861	19253.65
253.322	17996.91
253.783	21522.58
254.244	28019.49
254.705	22119.68
255.166	19740.93
255.627	19516.56
256.088	27587.54
256.549	29401.99
257.009	25382
257.47	30816.67
257.931	25193.44
258.391	18909.31
258.852	19568.51
259.312	20582.56
259.773	25508.89
260.233	21640.72
260.694	18327.8
261.154	20884.25
261.614	16895.82
262.074	15213.53
262.534	15930.18
262.994	15113.55
263.455	20268.66
263.915	17200
264.374	16297.68
264.834	17906.75
265.294	19949.95
265.754	20782.38
266.214	19809.87
266.673	18638.03
267.133	23633.78
267.593	23564.7
268.052	28958.6
268.512	25324.07
268.971	30692
269.431	33834.38
269.89	30450.03
270.349	45898.71
270.809	51429.92
271.268	46454.21
271.727	104600.63
272.186	68075.59
272.645	51229.02
273.104	37105.72
273.563	53907.16
274.022	42538.08
274.481	36379.47
274.94	28189.27
275.399	21026.24
275.857	24558.51
276.316	33321.38
276.775	29758.93
277.233	29432.35
277.692	27688.47
278.15	31442.57
278.609	32498.3
279.067	30195.27
279.525	28140.65
279.984	36383.2
280.442	43879.79
280.9	43421.17
281.358	28643.56
281.816	26768.82
282.274	26272.76
282.732	27202.48
283.19	27404.93
283.648	23715.91
284.106	25307.73
284.564	25775.63
285.021	23964.56
285.479	17892.85
285.937	16316.12
286.394	14363.96
286.852	14842.27
287.309	15638.59
287.767	15189.53
288.224	14526.75
288.682	15990.34
289.139	17654.45
289.596	16248.45
290.053	17014.43
290.511	21637.29
290.968	26402.24
291.425	36069.1
291.882	30244.7
292.339	26484.26
292.796	26393.38
293.252	24987.5
293.709	19970.51
294.166	17981.11
294.623	19933.37
295.079	19171.7
295.536	19304.53
295.992	17599.75
296.449	17448.14
296.905	18167.38
297.362	17499
297.818	18465.15
298.274	19222.07
298.731	19623.6
299.187	19469.27
299.643	20963.26
300.099	25421.55
300.555	27940.06
301.011	23387.67
301.467	22605.08
301.923	26535.11
302.379	25949.34
302.835	25548.63
303.291	25593.51
303.746	29221.19
304.202	37000.41
304.658	37313.2
305.113	25161.35
305.569	24738.01
306.024	26415.63
306.479	25172.52
306.935	21250.64
307.39	23228.46
307.845	21467.49
308.301	21658.4
308.756	21121.84
309.211	20373.81
309.666	20867.95
310.121	25903.56
310.576	26302.08
311.031	26129.07
311.486	29986.64
311.94	29986.5
312.395	40207.89
312.85	75728.96
313.305	372517.14
313.759	1929389.63
314.214	139907.67
314.668	111036.59
315.123	93776.1
315.577	33751.22
316.032	30142.29
316.486	37853.21
316.94	29972.41
317.394	20918.41
317.849	16318.72
318.303	15515.81
318.757	14713.76
319.211	16349.55
319.665	14364.82
320.119	14584.38
320.572	20982.73
321.026	19653.8
321.48	16427.37
321.934	17978.39
322.387	18073.28
322.841	19585.28
323.295	17647.15
323.748	20396.55
324.202	20746.22
324.655	24974.18
325.108	34985.06
325.562	24776.94
326.015	29492.22
326.468	22352.37
326.921	25063.93
327.374	23449.4
327.827	24443.65
328.28	27723.82
328.733	18589.45
329.186	16366.52
329.639	15642.39
330.092	13200.01
330.545	12573.91
330.997	12711.82
331.45	13893.34
331.903	16286.62
332.355	28050.45
332.808	27268.45
333.26	22539.77
333.713	24477.74
334.165	24657.97
334.617	32872.99
335.069	26564.28
335.522	48072.06
335.974	53245.59
336.426	48713.88
336.878	33770.77
337.33	17127.33
337.782	16740.24
338.234	20979.05
338.686	25162.98
339.137	29873.9
339.589	28204.51
340.041	22160.21
340.493	19114.7
340.944	19624.44
341.396	21174.23
341.847	17868.81
342.299	21144.63
342.75	25945.48
343.201	22765.18
343.653	26266.49
344.104	32422.19
344.555	25638.68
345.006	40107.15
345.457	30773.64
345.908	24555.94
346.359	23222.25
346.81	18956.56
347.261	20031.31
347.712	19734.7
348.163	21187.62
348.613	21482.93
349.064	20088.2
349.515	17618.39
349.965	18090.24
350.416	21843
350.866	24007.39
351.317	27164.77
351.767	45035.87
352.217	56949.96
352.668	47335.05
353.118	43421.32
353.568	41921.06
354.018	33151.88
354.468	34970.63
354.918	25079.47
355.368	21932.31
355.818	31039.15
356.268	89482.64
356.718	375016.68
357.168	93440.42
357.617	47007.37
358.067	52350.97
358.517	49172.45
358.966	57813.47
359.416	64960.77
359.865	70414.37
360.315	84175.8
360.764	39425.14
361.213	22093.26
361.663	20981.31
362.112	25969.04
362.561	42060.43
363.01	31846.36
363.459	26877.55
363.908	29204.89
364.357	24857.45
364.806	42100.31
365.255	28999.7
365.703	26574.37
366.152	26661.84
366.601	21661.12
367.05	17634.02
367.498	16040.37
367.947	16787.25
368.395	17495.31
368.844	15486.28
369.292	18703.53
369.74	12950.33
370.189	19894.11
370.637	23309.69
371.085	20201.66
371.533	24702.65
371.981	23888.31
372.429	22829.66
372.877	23810.66
373.325	19981.89
373.773	20447.22
374.221	18262.49
374.669	22685.81
375.116	19637.17
375.564	19885.1
376.012	22265.38
376.459	18399.32
376.907	22046.02
377.354	26727.71
377.801	25009.67
378.249	28738.31
378.696	36798.85
379.143	44676.87
379.591	47763.59
380.038	80991.99
380.485	58670.83
380.932	63543.65
381.379	58138.5
381.826	42809.34
382.273	30531.78
382.72	26743.54
383.166	26146.11
383.613	17005.35
384.06	15385.78
384.506	17833.17
384.953	13114.59
385.4	13240.52
385.846	11606.13
386.292	11326.43
386.739	11096.82
387.185	10981.89
387.631	10988.4
388.078	10664.78
388.524	11397.2
388.97	10507.62
389.416	8773.16
389.862	9320.79
390.308	8802.48
390.754	8929.47
391.2	9670.82
391.645	9882.07
392.091	9415.41
392.537	9085.07
392.983	9078.94
393.428	8902.08
393.874	9524.2
394.319	9511.53
394.765	9001.59
395.21	9251.36
395.655	8658.51
396.101	8113.12
396.546	7314.73
396.991	7371.32
397.436	6831.75
397.881	6596.43
398.326	6236.67
398.771	5885.89
399.216	5137.18
399.661	4615.58
400.106	4581.61
400.551	4676.15
400.995	4188.53
401.44	4137.21
401.885	3884.15
402.329	3924.13
402.774	3759.16
403.218	3632.59
403.663	3492.99
404.107	3588.84
404.551	3608.67
404.995	3308.56
405.44	3187.97
405.884	3231.15
406.328	3121.31
406.772	3105.57
407.216	2820.5
407.66	2715.29
408.104	2573.71
408.547	2403.63
408.991	2320.35
409.435	2231.77
409.879	2197.45
410.322	2163.3
410.766	2081.97
411.209	1974.24
411.653	1890.75
412.096	1846.43
412.54	1847.34
412.983	1833.18
413.426	1836.34
413.869	1831.8
414.312	1790.74
414.756	1721.75
415.199	1639.07
415.642	1586.83
416.085	1587.24
416.527	1574.93
416.97	1599.14
417.413	1519.74
417.856	1507.23
418.298	1495.91
418.741	1490.94
419.184	1491.7
419.626	1556.16
420.069	1558.98
420.511	1570.88
420.953	1537.77
421.396	1524.65
421.838	1490.86
422.28	1521.04
422.722	1524.35
423.164	1542.35
423.606	1513.39
424.048	1509.78
424.49	1434.63
424.932	1429.88
425.374	1412.22
425.816	1440.43
426.258	1470.56
426.699	1487.95
427.141	1469.65
427.582	1498.18
428.024	1492.19
428.465	1483.12
428.907	1446.03
429.348	1427.04
429.789	1424.71
430.231	1391.91
430.672	1407.17
431.113	1369.72
431.554	1343.4
431.995	1303.61
432.436	1250.16
432.877	1219.16
433.318	1196.83
433.759	1187.59
434.2	1183.43
434.64	1163.94
435.081	1163.35
435.522	1098.53
435.962	1058
436.403	1032.38
436.843	1046.2
437.284	1021.63
437.724	993.87
438.164	996.77
438.604	973.59
439.045	936.88
439.485	900.29
439.925	881.85
440.365	857.45
440.805	844.7
441.245	832.86
441.685	800.98
442.125	796
442.564	798.92
443.004	776.36
443.444	773.24
443.883	772.29
444.323	764.14
444.762	763.01
445.202	771.58
445.641	782.06
446.081	775.84
446.52	780.06
446.959	768.59
447.398	747.02
447.837	736.06
448.276	721.56
448.716	725.78
449.154	730.19
449.593	710.94
450.032	707.24
450.471	693.88
450.91	693.11
451.349	691.04
451.787	687.45
452.226	696.67
452.664	695.92
453.103	697.1
453.541	695.38
453.98	695.18
454.418	700.28
454.856	690.84
455.295	689.33
455.733	694.78
456.171	697.74
456.609	697.83
457.047	698.37
457.485	709.13
457.923	708.84
458.361	699.34
458.798	700.04
459.236	697.6
459.674	701.01
460.111	703.89
460.549	696.69
460.987	694.01
461.424	691.67
461.862	687.69
462.299	676.87
462.736	677.7
463.173	679.69
463.611	672.32
464.048	669.96
464.485	675.22
464.922	668.06
465.359	664.11
465.796	657.65
466.233	653.34
466.67	647.81
467.106	646.17
467.543	639.19
467.98	631.62
468.416	615.75
468.853	612.67
469.29	595.26
469.726	589.7
470.162	575.49
470.599	567.32
471.035	562.99
471.471	550.34
471.907	547.49
472.344	545.53
472.78	548.16
473.216	554.85
473.652	547.36
474.088	547.08
474.523	546.22
474.959	551.33
475.395	546.77
475.831	544.78
476.266	548.48
476.702	548.4
477.138	542.84
477.573	542.04
478.008	541.58
478.444	545.8
478.879	550.69
479.314	554.83
479.75	556.1
480.185	560.18
480.62	566.37
481.055	569.66
481.49	573.71
481.925	582.42
482.36	593.46
482.795	611.17
483.229	627.93
483.664	641.54
484.099	643.68
484.534	653.91
484.968	659.5
485.403	660.55
485.837	659.37
486.271	660.09
486.706	660.99
487.14	653.3
487.574	641.79
488.009	635.48
488.443	629.74
488.877	635.91
489.311	636.58
489.745	642.98
490.179	647.86
490.613	659.28
491.046	662.13
491.48	664.49
491.914	662.76
492.348	666.01
492.781	668.59
493.215	667.4
493.648	664.99
494.082	667.35
494.515	664.58
494.948	667.88
495.382	668.19
495.815	668.09
496.248	669.53
496.681	677.55
497.114	683.03
497.547	686.54
497.98	694.16
498.413	694.54
498.846	697.99
499.279	699.91
499.711	697.68
500.144	692.87
500.577	695.61
501.009	698.18
501.442	699.14
501.874	692.77
502.306	686.87
502.739	685.85
503.171	690.61
503.603	684.19
504.036	683.41
504.468	680.32
504.9	681.35
505.332	677.34
505.764	671.87
506.196	667.42
506.627	668.8
507.059	669.39
507.491	664.16
507.923	652.83
508.354	654.02
508.786	652.12
509.217	653.62
509.649	653.16
510.08	655.55
510.512	655.99
510.943	655.61
511.374	651.85
511.805	653.53
512.237	655.09
512.668	663.11
513.099	666.82
513.53	670.2
513.961	670.62
514.391	676.25
514.822	683.41
515.253	691.71
515.684	692.87
516.114	697.06
516.545	696.97
516.975	699.01
517.406	696.33
517.836	688.11
518.267	681.78
518.697	681.22
519.127	674.77
519.558	668.46
519.988	660.83
520.418	657.75
520.848	657.17
521.278	652.85
521.708	679.39
522.138	678.58
522.567	683.95
522.997	688.26
523.427	686.88
523.857	687.27
524.286	684.6
524.716	685.62
525.145	688.27
525.575	688.95
526.004	689.88
526.433	655.28
526.863	651.22
527.292	645.68
527.721	643.75
528.15	643.94
528.579	641.92
529.008	644.38
529.437	649.65
529.866	652.21
530.295	655.24
530.724	658.24
531.152	666.46
531.581	670.31
532.01	674.38
532.438	676.47
532.867	680.33
533.295	686.41
533.723	687.65
534.152	686.59
534.58	685.96
535.008	680.55
535.436	682.17
535.865	684.39
536.293	688.9
536.721	694.99
537.149	703.91
537.576	705.11
538.004	709.97
538.432	713.03
538.86	713.48
539.287	716.86
539.715	722.1
540.143	722.18
540.57	721.67
540.998	721.25
541.425	714.99
541.852	708.92
542.28	709.38
542.707	703.9
543.134	700.62
543.561	699.45
543.988	697.97
544.415	699.28
544.842	698.23
545.269	696.86
545.696	699.93
546.123	706
546.549	703.54
546.976	700.79
547.403	702.86
547.829	704.25
548.256	707.16
548.682	707.66
549.108	707.51
549.535	710.32
549.961	712.84
550.387	708.96
550.813	709.27
551.24	714.09
551.666	716.16
552.092	713.88
552.518	713.29
552.943	713.25
553.369	717.85
553.795	721.44
554.221	723.14
554.646	724.72
555.072	733.05
555.498	735.4
555.923	739.73
556.349	747.7
556.774	753.55
557.199	756.65
557.625	761.39
558.05	762
558.475	769.04
558.9	771.74
559.325	772.1
559.75	771.69
560.175	772.59
560.6	774.6
561.025	777.1
561.449	781.15
561.874	787.04
562.299	792.64
562.723	799.34
563.148	798.56
563.572	803.8
563.997	812.03
564.421	818.3
564.846	822.67
565.27	829.06
565.694	832.76
566.118	842.67
566.542	852.4
566.966	854.47
567.39	857.18
567.814	858.45
568.238	863.81
568.662	870.92
569.086	877.31
569.509	886.66
569.933	884.74
570.357	887.19
570.78	882.97
571.204	882.18
571.627	882.98
572.05	888.24
572.474	893.91
572.897	893.47
573.32	896.15
573.743	896.56
574.166	893.07
574.589	898.26
575.012	899.64
575.435	903.74
575.858	904.48
576.281	903.45
576.704	899.91
577.126	898.39
577.549	897.78
577.972	896.06
578.394	895.78
578.817	897.94
579.239	892.66
579.661	890.18
580.084	887.16
580.506	884.12
580.928	886.25
581.35	884.29
581.772	885.19
582.194	882.13
582.616	878.73
583.038	873.42
583.46	869.47
583.882	871.21
584.303	876.48
584.725	876.64
585.147	883.27
585.568	892.69
585.99	902.99
586.411	909.58
586.833	920.16
587.254	923.55
587.675	934.79
588.096	944.38
588.518	942.94
588.939	935.46
589.36	937.09
589.781	930.52
590.202	917.34
590.623	914.62
591.043	915.47
591.464	909.85
591.885	910.04
592.305	908.14
592.726	902.09
593.147	904.83
593.567	903.23
593.987	899.73
594.408	896.52
594.828	894
595.248	891.83
595.669	881.71
596.089	878.66
596.509	876.14
596.929	868.82
597.349	870.55
597.769	865.5
598.189	862.84
598.608	864.79
599.028	867.59
599.448	869.23
599.867	861.2
600.287	859.68
600.706	858.38
601.126	853.95
601.545	855.6
601.965	856.32
602.384	854.31
602.803	857.37
603.222	856
603.641	853.55
604.061	853
604.48	852.89
604.898	860.14
605.317	864.78
605.736	867.06
606.155	868.13
606.574	864.25
606.992	870.46
607.411	870.01
607.829	866.72
608.248	866.68
608.666	868.61
609.085	871.52
609.503	869.27
609.921	869.46
610.339	875.24
610.758	876.95
611.176	877.74
611.594	875.34
612.012	876.29
612.43	882.65
612.847	890.79
613.265	895.26
613.683	901.73
614.101	906.55
614.518	906.61
614.936	903.15
615.353	896.88
615.771	899.29
616.188	902.07
616.606	903.37
617.023	903.03
617.44	898.02
617.857	895.8
618.274	893.04
618.691	891.31
619.108	887.83
619.525	885.77
619.942	893.56
620.359	896.93
620.776	896.38
621.192	896.08
621.609	895.43
622.026	901.88
622.442	907.53
622.859	911.17
623.275	907.34
623.691	913.04
624.108	923.33
624.524	935.04
624.94	935.62
625.356	944.18
625.772	955.21
626.188	964.94
626.604	965.88
627.02	964.12
627.436	963.53
627.852	969.52
628.268	979.63
628.683	973.13
629.099	966.92
629.514	964.6
629.93	968.3
630.345	972.06
630.761	969.56
631.176	973.32
631.591	971.77
632.007	970.46
632.422	970.44
632.837	963.59
633.252	966.79
633.667	962.55
634.082	959.23
634.497	954.76
634.911	944.91
635.326	948.44
635.741	942.43
636.155	940.54
636.57	948.79
636.984	956.63
637.399	966.81
637.813	973.28
638.228	981.5
638.642	994.49
639.056	995.67
639.47	1007.39
639.884	1010.43
640.298	1015.35
640.712	1025.07
641.126	1024.7
641.54	1028.86
641.954	1035.3
642.368	1036.75
642.781	1041.6
643.195	1037.29
643.609	1047.5
644.022	1053.23
644.436	1061.81
644.849	1062.67
645.262	1062.75
645.676	1075.48
646.089	1081.14
646.502	1077.31
646.915	1081.97
647.328	1074.76
647.741	1081.2
648.154	1077.5
648.567	1081.49
648.98	1075.07
649.393	1082.1
649.805	1085.78
650.218	1083.76
650.631	1073.83
651.043	1072.63
651.456	1071.37
651.868	1077.34
652.28	1101.39
652.693	1121.27
653.105	1133.16
653.517	1146.47
653.929	1150.89
654.341	1161.24
654.753	1152.75
655.165	1164.24
655.577	1166.21
655.989	1166.53
656.401	1164.62
656.813	1130.51
657.224	1115.15
657.636	1090.64
658.047	1080.65
658.459	1067.42
658.87	1064.96
659.282	1059.95
659.693	1043.92
660.104	1035.89
660.515	1028.7
660.926	1032.65
661.338	1037.32
661.749	1037.93
662.159	1034.19
662.57	1035.72
662.981	1035.96
663.392	1033.92
663.803	1046.48
664.213	1050.53
664.624	1051.09
665.035	1061.59
665.445	1051.24
665.855	1047.99
666.266	1040.94
666.676	1041.81
667.086	1031.5
667.497	1034.31
667.907	1029.89
668.317	1018.79
668.727	1015.3
669.137	1017.51
669.547	1014.54
669.956	1019.49
670.366	1021.91
670.776	1025.33
671.186	1031.11
671.595	1036.99
672.005	1041.69
672.414	1038.81
672.824	1036.59
673.233	1040.78
673.642	1042.21
674.052	1044.19
674.461	1043.75
674.87	1046.87
675.279	1040.4
675.688	1039.48
676.097	1038.02
676.506	1029.74
676.915	1045.7
677.323	1045.26
677.732	1039.75
678.141	1035.19
678.549	1016.95
678.958	1011.37
679.366	1005.91
679.775	1007.24
680.183	1013.01
680.592	1014.92
681	1015.49
681.408	998.8
681.816	1001.24
682.224	1004.18
682.632	1007.61
683.04	1035.49
683.448	1055.02
683.856	1079.15
684.264	1106.94
684.671	1130.39
685.079	1157.66
685.487	1189.71
685.894	1238.22
686.302	1268.72
686.709	1287.27
687.116	1309.98
687.524	1318.94
687.931	1320.06
688.338	1313.71
688.745	1302.24
689.152	1292.47
689.559	1292.7
689.966	1289.9
690.373	1268.59
690.78	1262.35
691.187	1271.97
691.593	1267.09
692	1257.79
692.407	1263.79
692.813	1279.98
693.22	1281.62
693.626	1285.38
694.032	1282.39
694.439	1294.98
694.845	1294.66
695.251	1305.26
695.657	1311.62
696.063	1337.08
696.469	1347.37
696.875	1354.15
697.281	1343.3
697.687	1341.03
698.093	1335.24
698.498	1345.64
698.904	1347.89
699.31	1366.92
699.715	1375.93
700.12	1397.17
700.526	1384.66
700.931	1395.31
701.337	1400.88
701.742	1398.25
702.147	1417.11
702.552	1411.98
702.957	1421.42
