Data from C_3_DEC_CT_2N_Splice17_13-00-49-498.txt Node
Date: Sat Mar 14 13:00:49 EDT 2020
User: sa697716
Spectrometer: FLMS03696
Trigger mode: 0
Integration Time (sec): 3.180400E-1
Scans to average: 20
Electric dark correction enabled: true
Nonlinearity correction enabled: true
Boxcar width: 5
XAxis mode: Wavelengths
Number of Pixels in Spectrum: 2048
>>>>>Begin Spectral Data<<<<<
187.83	-260667.3
188.298	1911.06
188.766	1031.48
189.233	928.29
189.701	1348.73
190.169	1890.17
190.636	686.92
191.104	546.98
191.571	77.17
192.039	-113.82
192.506	-158.56
192.974	298.25
193.441	-551.78
193.908	-120.24
194.375	-51.85
194.842	-1.54
195.31	125.62
195.777	165.83
196.244	401.78
196.711	578.04
197.177	733.82
197.644	1042.51
198.111	1818.9
198.578	2549.87
199.045	2076.66
199.511	3443.67
199.978	4070.31
200.445	3433.3
200.911	3815.56
201.378	4303.15
201.844	3888.21
202.31	6644.05
202.777	6935.49
203.243	3849.7
203.709	3705.58
204.176	4409.83
204.642	3628.35
205.108	3397.9
205.574	2793.43
206.04	2573.19
206.506	2420.22
206.972	2294.38
207.438	2242.83
207.903	2565.63
208.369	2254.1
208.835	2243.01
209.301	2358.19
209.766	2441.47
210.232	2428.74
210.697	3017.53
211.163	3753.44
211.628	5685.27
212.094	4764.8
212.559	5858.51
213.024	3677.32
213.49	4487.4
213.955	4391.34
214.42	4318.78
214.885	4021.6
215.35	3853.19
215.815	3688.02
216.28	3938.77
216.745	3245.06
217.21	3551.32
217.675	3343.35
218.14	3816.07
218.604	4403.31
219.069	5174.98
219.534	5532.94
219.998	6597
220.463	8166.59
220.927	10322.43
221.392	9837.44
221.856	10086.95
222.32	12900.31
222.785	16027.3
223.249	20408.76
223.713	22905.56
224.177	22996.56
224.642	29715.98
225.106	36762.75
225.57	40372.47
226.034	30032
226.497	45904.47
226.961	41499.12
227.425	48366.33
227.889	53902.54
228.353	54018.81
228.816	111781.27
229.28	107058.71
229.744	90435.37
230.207	54989.24
230.671	54153.16
231.134	89874.84
231.597	103644.37
232.061	103947.68
232.524	101653.48
232.987	70045.52
233.45	63033.2
233.914	56595.27
234.377	58144.7
234.84	53200.23
235.303	62776.63
235.766	70075.71
236.229	72407.94
236.691	45653.07
237.154	51312.51
237.617	38574.89
238.08	39547.94
238.542	46309.63
239.005	33101.51
239.468	32850.68
239.93	30983.8
240.393	28168.73
240.855	24736.06
241.317	25354.35
241.78	30880.06
242.242	31904.26
242.704	34454.99
243.166	29981.32
243.629	27210.49
244.091	31363.63
244.553	34379.84
245.015	37001.9
245.477	47903.15
245.939	70309.1
246.4	74728.32
246.862	72701.3
247.324	68605.92
247.786	76831.52
248.247	100885.73
248.709	104403.24
249.17	78141.96
249.632	73622.98
250.093	85357.19
250.555	73787.63
251.016	44976.25
251.477	42679.67
251.939	46087.18
252.4	48407.68
252.861	57658.59
253.322	53635.71
253.783	63913.69
254.244	83021.87
254.705	65583.5
255.166	58371.63
255.627	57527.94
256.088	81210.74
256.549	86355.6
257.009	74449.94
257.47	90484.75
257.931	73832.98
258.391	55416.79
258.852	57186.14
259.312	60038.6
259.773	74214.47
260.233	62747.27
260.694	52974.07
261.154	60243.11
261.614	48338.3
262.074	43275.02
262.534	44981.58
262.994	42420.83
263.455	56614.1
263.915	47735.53
264.374	45052.52
264.834	49268.92
265.294	54777.25
265.754	56805.76
266.214	53824.38
266.673	50528.48
267.133	63903.38
267.593	63522.34
268.052	77804.08
268.512	67749.22
268.971	81739.23
269.431	89722.83
269.89	80459.16
270.349	120623.53
270.809	134608.59
271.268	121142.4
271.727	272175.95
272.186	176334.67
272.645	132354.74
273.104	95638.76
273.563	138558.86
274.022	109178.93
274.481	92823.78
274.94	71554.7
275.399	53283.92
275.857	62135.1
276.316	84134.56
276.775	74887.34
277.233	73810.55
277.692	69075.32
278.15	78156.87
278.609	80375.36
279.067	74429.01
279.525	69198.65
279.984	89413.37
280.442	107352
280.9	105695.75
281.358	69517.04
281.816	64796.69
282.274	63449.38
282.732	65594.42
283.19	65881.05
283.648	56901.9
284.106	60588.53
284.564	61611.03
285.021	57088.93
285.479	42525.41
285.937	38693.41
286.394	33911.92
286.852	34896.64
287.309	36670.63
287.767	35393.03
288.224	33662.7
288.682	36932.78
289.139	40522.98
289.596	37086.16
290.053	38573.46
290.511	48769.13
290.968	59194.57
291.425	80508.72
291.882	66985.54
292.339	58317.79
292.796	57969.29
293.252	54648.25
293.709	43395.3
294.166	38914.63
294.623	43021.61
295.079	41309.49
295.536	41449.66
295.992	37637.14
296.449	37185.12
296.905	38661.86
297.362	37052.76
297.818	38972.71
298.274	40441.18
298.731	41258.65
299.187	40840.51
299.643	43868.12
300.099	53021.51
300.555	58194.73
301.011	48628.59
301.467	46804.12
301.923	54852.87
302.379	53586.03
302.835	52663.27
303.291	52739.03
303.746	60040.1
304.202	75825.75
304.658	76122.1
305.113	51260.48
305.569	50225.61
306.024	53545.77
306.479	51067.44
306.935	43014.22
307.39	47000.08
307.845	43372.91
308.301	43591.74
308.756	42436.86
309.211	40844.53
309.666	41824.56
310.121	51793.04
310.576	52540.21
311.031	52157.17
311.486	59770.82
311.94	59663.04
312.395	79747.5
312.85	149850.63
313.305	737006.63
313.759	3808399.7
314.214	276254
314.668	218891.1
315.123	184043.18
315.577	66000.51
316.032	58672.38
316.486	73497.84
316.94	57967.77
317.394	40349.15
317.849	31367.44
318.303	29715.85
318.757	28073.46
319.211	31021.17
319.665	27187.92
320.119	27534.44
320.572	39521.75
321.026	36924.6
321.48	30736.32
321.934	33586.68
322.387	33696
322.841	36379.32
323.295	32603.49
323.748	37590.76
324.202	38153.33
324.655	45726.06
325.108	63793.06
325.562	45032.09
326.015	53555.1
326.468	40466.12
326.921	45198.77
327.374	42061.4
327.827	43738.51
328.28	49535.85
328.733	33156.19
329.186	29108.18
329.639	27730.72
330.092	23383.6
330.545	22246.53
330.997	22400.34
331.45	24431.91
331.903	28587.68
332.355	49211.56
332.808	47824.69
333.26	39462.63
333.713	42790.4
334.165	43143.11
334.617	57635.14
335.069	46611.51
335.522	84334.11
335.974	93241.66
336.426	85262.31
336.878	59150.49
337.33	29970.07
337.782	29256.96
338.234	36569.15
338.686	43764.18
339.137	51850.95
339.589	48832.88
340.041	38244.22
340.493	32875.11
340.944	33707.68
341.396	36285.13
341.847	30461.52
342.299	35891.1
342.75	43799.5
343.201	38384.15
343.653	44214.24
344.104	54332.28
344.555	42741.28
345.006	66650.89
345.457	50922.71
345.908	40474.43
346.359	38068.61
346.81	31022.38
347.261	32717.19
347.712	32237.65
348.163	34529.83
348.613	34829.05
349.064	32506.7
349.515	28478.73
349.965	29160.99
350.416	35154.58
350.866	38591.8
351.317	43627.78
351.767	72229.89
352.217	91342.8
352.668	75755.89
353.118	69399.12
353.568	67076.19
354.018	52979.19
354.468	55781.3
354.918	39982.27
355.368	34962.53
355.818	49322.01
356.268	141875.42
356.718	592815.59
357.168	147346.42
357.617	73867.16
358.067	82246.5
358.517	77006.38
358.966	90210.55
359.416	101076.39
359.865	109182.21
360.315	130095.32
360.764	60759.53
361.213	34048.15
361.663	32301.62
362.112	39916.64
362.561	64528.9
363.01	48572.29
363.459	40866.86
363.908	44285.77
364.357	37589.94
364.806	63573.75
365.255	43708.39
365.703	40011.6
366.152	40060.16
366.601	32437.93
367.05	26268.77
367.498	23845.82
367.947	24939.15
368.395	25948.89
368.844	22948.69
369.292	27706.62
369.74	19125.97
370.189	29281.44
370.637	34281.68
371.085	29556.05
371.533	36021.81
371.981	34745.44
372.429	33113.72
372.877	34517.34
373.325	28869.06
373.773	29432.87
374.221	26211.23
374.669	32499.5
375.116	28076.93
375.564	28310.71
376.012	31669.18
376.459	26061.02
376.907	31124.02
377.354	37586.86
377.801	34949.41
378.249	40106.27
378.696	51271.17
379.143	62055.66
379.591	66134.67
380.038	111773.36
380.485	80713.36
380.932	87026.36
381.379	79509.02
381.826	58401.27
382.273	41539.02
382.72	36346.7
383.166	35380.71
383.613	22909.74
384.06	20615.66
384.506	23845.9
384.953	17503.41
385.4	17599.25
385.846	15400.78
386.292	15009.52
386.739	14687.99
387.185	14508.62
387.631	14480.29
388.078	14018.7
388.524	14963.23
388.97	13802.46
389.416	11489.33
389.862	12190.37
390.308	11537.58
390.754	11682.61
391.2	12657.03
391.645	12942.99
392.091	12323.04
392.537	11882.15
392.983	11895.5
393.428	11661.32
393.874	12483.94
394.319	12464.42
394.765	11788.55
395.21	12090.44
395.655	11316.98
396.101	10570.52
396.546	9513.02
396.991	9601.33
397.436	8906.16
397.881	8591.8
398.326	8139.06
398.771	7674.16
399.216	6713.19
399.661	6035.33
400.106	6000.09
400.551	6133.26
400.995	5497.48
401.44	5435.49
401.885	5098.59
402.329	5140.19
402.774	4921.76
403.218	4744.63
403.663	4561.96
404.107	4675.98
404.551	4704.54
404.995	4309.24
405.44	4147.39
405.884	4202.26
406.328	4062.27
406.772	4040.24
407.216	3675.37
407.66	3547.96
408.104	3371.68
408.547	3155.25
408.991	3052.54
409.435	2933.45
409.879	2889.66
410.322	2852.5
410.766	2750.94
411.209	2611.13
411.653	2505.13
412.096	2450.57
412.54	2447.03
412.983	2428.41
413.426	2428.97
413.869	2425.36
414.312	2377.87
414.756	2289.57
415.199	2177.26
415.642	2112.8
416.085	2112.74
416.527	2098.73
416.97	2131.53
417.413	2024.56
417.856	2003.76
418.298	1985.07
418.741	1970.37
419.184	1963.48
419.626	2046.56
420.069	2046.15
420.511	2055.61
420.953	2008.96
421.396	1988.05
421.838	1937.71
422.28	1979.78
422.722	1985.46
423.164	2016.18
423.606	1983.91
424.048	1979.98
424.49	1879.11
424.932	1872.43
425.374	1847.44
425.816	1881.96
426.258	1919.56
426.699	1942.48
427.141	1911.39
427.582	1940.83
428.024	1928.95
428.465	1915.87
428.907	1867.8
429.348	1843.72
429.789	1840.5
430.231	1798.16
430.672	1821.32
431.113	1775.41
431.554	1741.77
431.995	1696.85
432.436	1632.63
432.877	1592.8
433.318	1564.4
433.759	1557.55
434.2	1555.23
434.64	1537.69
435.081	1541.09
435.522	1455.78
435.962	1400.84
436.403	1369.73
436.843	1387.16
437.284	1358.32
437.724	1320.67
438.164	1323.01
438.604	1292.12
439.045	1242.12
439.485	1188.46
439.925	1162.72
440.365	1134.5
440.805	1119.01
441.245	1105.01
441.685	1064.01
442.125	1055.19
442.564	1059.92
443.004	1033.21
443.444	1028.99
443.883	1027.79
444.323	1019.58
444.762	1020.05
445.202	1030.53
445.641	1045.38
446.081	1037.17
446.52	1042.34
446.959	1029.12
447.398	1002.82
447.837	988.06
448.276	969.49
448.716	977.43
449.154	984.15
449.593	957.49
450.032	950.97
450.471	932.24
450.91	930.8
451.349	926.42
451.787	920.91
452.226	931.22
452.664	929.94
453.103	928.24
453.541	924.95
453.98	920.02
454.418	926.32
454.856	910.57
455.295	907.7
455.733	912.77
456.171	916.98
456.609	915.3
457.047	914.93
457.485	925.68
457.923	925.6
458.361	912.16
458.798	914.46
459.236	909.53
459.674	915.57
460.111	917.92
460.549	907.65
460.987	904.05
461.424	901.28
461.862	896.33
462.299	882.84
462.736	881.99
463.173	884.47
463.611	873.67
464.048	872.51
464.485	878.35
464.922	870.13
465.359	865.38
465.796	850.3
466.233	843.5
466.67	834.52
467.106	830.88
467.543	822.9
467.98	810.89
468.416	790.55
468.853	783.62
469.29	759.41
469.726	750.37
470.162	731.31
470.599	723.98
471.035	718.09
471.471	700.62
471.907	697.6
472.344	693.25
472.78	696.04
473.216	704.66
473.652	696.82
474.088	696.58
474.523	694.64
474.959	700.55
475.395	693.42
475.831	688.33
476.266	691.17
476.702	688.85
477.138	679.59
477.573	676.01
478.008	671.52
478.444	672.47
478.879	677.18
479.314	679.72
479.75	678.73
480.185	681.36
480.62	686.17
481.055	689.39
481.49	693.12
481.925	702.35
482.36	713.38
482.795	733.19
483.229	751.55
483.664	765.36
484.099	766.35
484.534	776.88
484.968	783.45
485.403	784.42
485.837	781.72
486.271	778.89
486.706	778.61
487.14	768.64
487.574	754.71
488.009	746.19
488.443	738.53
488.877	744.13
489.311	743.21
489.745	748.4
490.179	751.9
490.613	763.75
491.046	767.09
491.48	769.53
491.914	767.62
492.348	770.15
492.781	772.26
493.215	770.85
493.648	768.53
494.082	771.3
494.515	767.89
494.948	773.83
495.382	774.49
495.815	776.29
496.248	777.83
496.681	787.61
497.114	795.05
497.547	800.61
497.98	809.64
498.413	811.63
498.846	817.35
499.279	822.33
499.711	821.64
500.144	820.29
500.577	824.74
501.009	830.99
501.442	835.21
501.874	832.25
502.306	829.94
502.739	831.75
503.171	841.58
503.603	839.44
504.036	843.88
504.468	843.88
504.9	848.36
505.332	850.75
505.764	850.61
506.196	852.37
506.627	860.57
507.059	867.76
507.491	871.74
507.923	865.21
508.354	874.76
508.786	879.74
509.217	891.79
509.649	901.96
510.08	915.05
510.512	925.52
510.943	935.78
511.374	943.01
511.805	958.69
512.237	973.34
512.668	999
513.099	1020.28
513.53	1042.9
513.961	1060.49
514.391	1087.02
514.822	1115.27
515.253	1146.1
515.684	1167.13
516.114	1192.91
516.545	1211.68
516.975	1234.61
517.406	1251.64
517.836	1255
518.267	1261.87
518.697	1279.02
519.127	1283.83
519.558	1291.72
519.988	1296.01
520.418	1308.11
520.848	1325.95
521.278	1335.63
521.708	1363.43
522.138	1378.12
522.567	1409.05
522.997	1434.82
523.427	1450.65
523.857	1469.2
524.286	1481.46
524.716	1498.07
525.145	1518.2
525.575	1531.35
526.004	1548.12
526.433	1537.09
526.863	1540.84
527.292	1535.64
527.721	1544.13
528.15	1553.99
528.579	1558.25
529.008	1571.18
529.437	1596.53
529.866	1612.06
530.295	1630.7
530.724	1645.59
531.152	1672.88
531.581	1688.99
532.01	1707.62
532.438	1717.87
532.867	1732.93
533.295	1752.57
533.723	1761.61
534.152	1762.22
534.58	1764.57
535.008	1751.3
535.436	1754.09
535.865	1764.15
536.293	1777.96
536.721	1794.22
537.149	1819.26
537.576	1823.9
538.004	1837.31
538.432	1845.14
538.86	1844.22
539.287	1851.98
539.715	1866.96
540.143	1871.17
540.57	1867.21
540.998	1864.51
541.425	1842.98
541.852	1823.12
542.28	1821.87
542.707	1806.31
543.134	1794.88
543.561	1792.59
543.988	1786.18
544.415	1786.47
544.842	1782.4
545.269	1777.52
545.696	1780.76
546.123	1795.47
546.549	1786.64
546.976	1775.93
547.403	1778
547.829	1780.17
548.256	1782.93
548.682	1780.1
549.108	1774.04
549.535	1774.14
549.961	1776.38
550.387	1764.92
550.813	1760.16
551.24	1768.96
551.666	1770.53
552.092	1761.19
552.518	1755.7
552.943	1750.17
553.369	1757.85
553.795	1762.76
554.221	1764.14
554.646	1761.15
555.072	1770.17
555.498	1773.03
555.923	1780.21
556.349	1793.7
556.774	1801.79
557.199	1801.27
557.625	1804.84
558.05	1798.13
558.475	1808.22
558.9	1805.29
559.325	1795.72
559.75	1788.2
560.175	1781.04
560.6	1773.34
561.025	1770.18
561.449	1768.5
561.874	1770.8
562.299	1773.33
562.723	1777.53
563.148	1763.36
563.572	1764.66
563.997	1771.55
564.421	1773.58
564.846	1770.79
565.27	1770.2
565.694	1763.93
566.118	1771.14
566.542	1775.86
566.966	1765.17
567.39	1756.97
567.814	1743.86
568.238	1738.75
568.662	1739.71
569.086	1739.52
569.509	1743.34
569.933	1725.53
570.357	1715.01
570.78	1691.48
571.204	1676.58
571.627	1664.46
572.05	1659.89
572.474	1657.2
572.897	1642.79
573.32	1633.57
573.743	1621.98
574.166	1602.95
574.589	1601.58
575.012	1592.35
575.435	1590.15
575.858	1579.44
576.281	1568.07
576.704	1552.46
577.126	1538.63
577.549	1528.24
577.972	1517.74
578.394	1506.9
578.817	1500.2
579.239	1481.91
579.661	1469.88
580.084	1455.58
580.506	1443.76
580.928	1439.21
581.35	1428.2
581.772	1423.62
582.194	1411.26
582.616	1399.08
583.038	1385.12
583.46	1373.95
583.882	1369.81
584.303	1373.44
584.725	1367.6
585.147	1368.72
585.568	1377.4
585.99	1387.91
586.411	1394.32
586.833	1406.34
587.254	1407.51
587.675	1419.54
588.096	1429.86
588.518	1425.43
588.939	1408.82
589.36	1406.48
589.781	1395.05
590.202	1369.68
590.623	1360.92
591.043	1357.98
591.464	1346.54
591.885	1342.69
592.305	1337.98
592.726	1325.56
593.147	1326.24
593.567	1320.3
593.987	1313.87
594.408	1309.88
594.828	1306.91
595.248	1301.62
595.669	1285.53
596.089	1278.74
596.509	1272.17
596.929	1259.38
597.349	1260.1
597.769	1250.21
598.189	1245.11
598.608	1245.38
599.028	1246.11
599.448	1246.24
599.867	1234.98
600.287	1230.48
600.706	1226.34
601.126	1217.83
601.545	1215.62
601.965	1213.14
602.384	1208.2
602.803	1210.05
603.222	1205.26
603.641	1198.24
604.061	1193.97
604.48	1188.95
604.898	1194.28
605.317	1197.8
605.736	1197.72
606.155	1194.6
606.574	1185.37
606.992	1188.93
607.411	1183.74
607.829	1181.11
608.248	1177.91
608.666	1175.93
609.085	1174.56
609.503	1166.5
609.921	1160.81
610.339	1161.98
610.758	1161.65
611.176	1157.16
611.594	1148.25
612.012	1143.53
612.43	1140.67
612.847	1145.87
613.265	1145.37
613.683	1148.05
614.101	1149.01
614.518	1144.24
614.936	1135.08
615.353	1121.92
615.771	1120.06
616.188	1121.42
616.606	1118.88
617.023	1112.71
617.44	1099.85
617.857	1093.63
618.274	1086.85
618.691	1081.96
619.108	1073.85
619.525	1069.62
619.942	1075.16
620.359	1077.21
620.776	1071.84
621.192	1068.92
621.609	1066.54
622.026	1072.77
622.442	1078.7
622.859	1083.09
623.275	1076.3
623.691	1081.34
624.108	1090.96
624.524	1103.47
624.94	1103.61
625.356	1113.15
625.772	1124.72
626.188	1135.48
626.604	1137.05
627.02	1132.81
627.436	1129.84
627.852	1136.48
628.268	1147.9
628.683	1139.98
629.099	1132.96
629.514	1128.92
629.93	1132.11
630.345	1135.96
630.761	1132.76
631.176	1136.71
631.591	1132.87
632.007	1128.33
632.422	1127.15
632.837	1118.09
633.252	1117.13
633.667	1108.16
634.082	1100.56
634.497	1090.57
634.911	1075.22
635.326	1073.05
635.741	1057.89
636.155	1049.4
636.57	1052.6
636.984	1052.9
637.399	1054.71
637.813	1054.49
638.228	1054.06
638.642	1058.78
639.056	1050.36
639.47	1051.14
639.884	1044.4
640.298	1040.2
640.712	1040.06
641.126	1029.74
641.54	1023.42
641.954	1020.24
642.368	1011.4
642.781	1007.97
643.195	993.89
643.609	995.25
644.022	990.85
644.436	989.05
644.849	979.83
645.262	971.63
645.676	974.77
646.089	972.95
646.502	961.29
646.915	958.88
647.328	944.73
647.741	945.74
648.154	936.53
648.567	936.9
648.98	926.6
649.393	929.94
649.805	929.63
650.218	924.11
650.631	911.37
651.043	907.98
651.456	904.28
651.868	906.35
652.28	922.95
652.693	936.32
653.105	942.79
653.517	952.95
653.929	953.7
654.341	959.47
654.753	949.98
655.165	956.72
655.577	955.53
655.989	952.55
656.401	947.51
656.813	915.82
657.224	899.48
657.636	876.02
658.047	862.85
658.459	847.52
658.87	842.14
659.282	834.48
659.693	819
660.104	809.74
660.515	801.27
660.926	804.12
661.338	806.18
661.749	804.68
662.159	800.8
662.57	800.65
662.981	801.38
663.392	798.31
663.803	806.47
664.213	808.75
664.624	808.44
665.035	815.12
665.445	804.97
665.855	802.19
666.266	797.42
666.676	798.31
667.086	793.05
667.497	795.54
667.907	792.85
668.317	787.53
668.727	787.11
669.137	791.12
669.547	792.6
669.956	797.7
670.366	801.62
670.776	806.68
671.186	812.4
671.595	817.91
672.005	822.09
672.414	822.56
672.824	820.32
673.233	825.84
673.642	828.78
674.052	831.68
674.461	833.83
674.87	838.22
675.279	835.72
675.688	838.53
676.097	839.31
676.506	836.32
676.915	851.56
677.323	855.14
677.732	853.55
678.141	852.02
678.549	839.87
678.958	838.1
679.366	835.92
679.775	839.47
680.183	847.67
680.592	852.01
681	856.05
681.408	846.2
681.816	851.22
682.224	856.62
682.632	862.63
683.04	888.39
683.448	907.56
683.856	933.2
684.264	962.57
684.671	986.95
685.079	1018.06
685.487	1052.71
685.894	1101.2
686.302	1137.12
686.709	1163.1
687.116	1196.03
687.524	1220.64
687.931	1239.57
688.338	1252.75
688.745	1261.09
689.152	1274.96
689.559	1299.43
689.966	1324.44
690.373	1331.32
690.78	1356.69
691.187	1401.81
691.593	1435.24
692	1463.68
692.407	1509.94
692.813	1572.1
693.22	1622.02
693.626	1674.93
694.032	1718.27
694.439	1786.44
694.845	1841.67
695.251	1912.6
695.657	1976.15
