Data from C_3_DEC_OH_4N_Splice17_13-34-07-002.txt Node
Date: Sat Mar 14 13:34:07 EDT 2020
User: sa697716
Spectrometer: FLMS03696
Trigger mode: 0
Integration Time (sec): 3.180400E-1
Scans to average: 20
Electric dark correction enabled: true
Nonlinearity correction enabled: true
Boxcar width: 5
XAxis mode: Wavelengths
Number of Pixels in Spectrum: 2048
>>>>>Begin Spectral Data<<<<<
187.83	-437265.22
188.298	3298.75
188.766	1710.43
189.233	1532.13
189.701	2184.17
190.169	2969.24
190.636	1118.84
191.104	827.96
191.571	98.7
192.039	-133.91
192.506	-117.47
192.974	413.28
193.441	-585.9
193.908	79.39
194.375	32.06
194.842	71.54
195.31	185.5
195.777	229.84
196.244	441.7
196.711	500.5
197.177	588.16
197.644	820.13
198.111	1437.36
198.578	2053.89
199.045	1623.56
199.511	2628.28
199.978	3059.4
200.445	2615.29
200.911	2882.66
201.378	3202.56
201.844	2892.79
202.31	5006.34
202.777	5254.25
203.243	2921.18
203.709	2774.83
204.176	3301.96
204.642	2753.41
205.108	2605.63
205.574	2106.58
206.04	1914.17
206.506	1819.21
206.972	1738.96
207.438	1693.96
207.903	1936.5
208.369	1707.42
208.835	1727.77
209.301	1843.37
209.766	1912.2
210.232	1944.44
210.697	2491.02
211.163	3169.02
211.628	4886.02
212.094	4203.36
212.559	5280.68
213.024	3360.82
213.49	4177.44
213.955	4148.42
214.42	4120.1
214.885	3874.72
215.35	3769.48
215.815	3673.05
216.28	3993
216.745	3369.99
217.21	3792.8
217.675	3685.2
218.14	4412.74
218.604	5292.62
219.069	6458.34
219.534	7141.6
219.998	8778.43
220.463	11104.23
220.927	14313.21
221.392	13912.91
221.856	14420.15
222.32	18665.7
222.785	23421.7
223.249	29925.21
223.713	33770.64
224.177	34062.17
224.642	44150.83
225.106	54728.58
225.57	60285.82
226.034	44940.97
226.497	68685.25
226.961	62243.05
227.425	72612
227.889	80887.57
228.353	81098.47
228.816	167986.98
229.28	160897.06
229.744	136039.09
230.207	82617.13
230.671	81367.36
231.134	135155.48
231.597	155919.59
232.061	156162
232.524	152591.72
232.987	105152.69
233.45	94680.79
233.914	84964.43
234.377	87279.61
234.84	79875.13
235.303	94343.71
235.766	105348.53
236.229	108872.97
236.691	68640.13
237.154	77147.63
237.617	57953.25
238.08	59389.35
238.542	69535.45
239.005	49655.94
239.468	49215.41
239.93	46347.59
240.393	42079.66
240.855	36894.67
241.317	37774.62
241.78	45971.61
242.242	47474.34
242.704	51207.26
243.166	44560.18
243.629	40375.43
244.091	46551.83
244.553	51023.1
245.015	54829.81
245.477	71001.15
245.939	104120.43
246.4	110517.22
246.862	107392.47
247.324	101275.34
247.786	113525.53
248.247	148955.34
248.709	154120.24
249.17	115156.27
249.632	108344.64
250.093	125481.97
250.555	108311.26
251.016	66008.03
251.477	62568.23
251.939	67515.09
252.4	70882.63
252.861	84280.63
253.322	78304.93
253.783	93263.62
254.244	121006.86
254.705	95558.18
255.166	85093.45
255.627	83816.35
256.088	118142.65
256.549	125495.98
257.009	108170.04
257.47	131200.91
257.931	106965.77
258.391	80201.02
258.852	82698.68
259.312	86850.86
259.773	107383.51
260.233	90723.94
260.694	76567.59
261.154	86985.34
261.614	69800.66
262.074	62487.82
262.534	64984.27
262.994	61255.63
263.455	81792.2
263.915	68980.59
264.374	65066.35
264.834	71168.12
265.294	79083.14
265.754	82030.74
266.214	77801.5
266.673	73060.95
267.133	92356.81
267.593	91843.96
268.052	112573.32
268.512	98042.53
268.971	118262.06
269.431	129832.95
269.89	116379.19
270.349	174682.89
270.809	194931.39
271.268	175433.03
271.727	394033.9
272.186	255511.89
272.645	191775.55
273.104	138564.09
273.563	200757.98
274.022	158128.04
274.481	134448.52
274.94	103563.81
275.399	77067.23
275.857	89830.24
276.316	121565.25
276.775	108197.37
277.233	106521.2
277.692	99646.09
278.15	112654.46
278.609	115705.15
279.067	107047.27
279.525	99401.95
279.984	128371.66
280.442	153955.05
280.9	151440.05
281.358	99582.27
281.816	92777.25
282.274	90825.02
282.732	93967.2
283.19	94426.24
283.648	81589.26
284.106	86996.01
284.564	88526.25
285.021	82078.68
285.479	61211.18
285.937	55785.51
286.394	48882.62
286.852	50332.1
287.309	52934.48
287.767	51017.93
288.224	48520.34
288.682	53281.31
289.139	58490.57
289.596	53554.72
290.053	55755.01
290.511	70515.17
290.968	85622.96
291.425	116562.72
291.882	97052.63
292.339	84511.97
292.796	84109.2
293.252	79407.05
293.709	63048.86
294.166	56518.59
294.623	62576.77
295.079	60104.73
295.536	60327.49
295.992	54773.41
296.449	54150.82
296.905	56278.23
297.362	53949.46
297.818	56743.72
298.274	58822.22
298.731	60056.54
299.187	59491.55
299.643	63908.44
300.099	77307.68
300.555	84868.39
301.011	70968.93
301.467	68310.5
301.923	80115.47
302.379	78257.15
302.835	76941.05
303.291	77066.25
303.746	87707.3
304.202	110809.75
304.658	111241.13
305.113	74803.1
305.569	73301.25
306.024	78153.72
306.479	74550.77
306.935	62775.18
307.39	68612.3
307.845	63319.34
308.301	63683.23
308.756	62043.15
309.211	59741.89
309.666	61179.84
310.121	75875.83
310.576	77055.36
311.031	76522.45
311.486	87750.98
311.94	87806.64
312.395	117446.38
312.85	220835.63
313.305	1086559.34
313.759	5612538.3
314.214	406549.13
314.668	322106.73
315.123	270735.97
315.577	96955.88
316.032	86168.86
316.486	107898.73
316.94	84939.76
317.394	59081.37
317.849	45927.44
318.303	43551.2
318.757	41151.01
319.211	45575.99
319.665	39945.31
320.119	40493.06
320.572	58235.82
321.026	54401.66
321.48	45301.81
321.934	49526.78
322.387	49714.7
322.841	53701.22
323.295	48082.83
323.748	55482.81
324.202	56214.62
324.655	67471.79
325.108	94096.23
325.562	66341.48
326.015	78874.2
326.468	59626.64
326.921	66658.68
327.374	62091.37
327.827	64580.83
328.28	73283.61
328.733	49074.72
329.186	43200.02
329.639	41127.43
330.092	34686.22
330.545	33013.94
330.997	33287.45
331.45	36292.9
331.903	42429.31
332.355	73095.74
332.808	71071.57
333.26	58585.09
333.713	63509.51
334.165	63921.21
334.617	85416.95
335.069	69102.8
335.522	125031.8
335.974	138421.18
336.426	126540.78
336.878	87912.34
337.33	44514.07
337.782	43478.87
338.234	54397.8
338.686	65151.67
339.137	77236.89
339.589	72767.82
340.041	57062.11
340.493	49136.01
340.944	50302.66
341.396	54236.25
341.847	45536.67
342.299	53686.03
342.75	65478.14
343.201	57426.93
343.653	66203.85
344.104	81527.22
344.555	64260.03
345.006	100247.7
345.457	76689.84
345.908	61118.97
346.359	57523.01
346.81	46923.38
347.261	49605.11
347.712	48933.31
348.163	52489.33
348.613	52974.94
349.064	49462.93
349.515	43345.54
349.965	44428.86
350.416	53547.9
350.866	58771.69
351.317	66602.78
351.767	110360.98
352.217	139374.49
352.668	115723.86
353.118	106004.99
353.568	102554.13
354.018	80991.44
354.468	85354.79
354.918	61177.85
355.368	53534.28
355.818	75639.58
356.268	217664.88
356.718	909537.07
357.168	226495.81
357.617	113765.64
358.067	126716.69
358.517	118705.29
358.966	139282.37
359.416	156062.1
359.865	168979.91
360.315	201338
360.764	94061.17
361.213	52649.43
361.663	50063.84
362.112	61853.69
362.561	99921.68
363.01	75374.02
363.459	63500.05
363.908	68835.61
364.357	58417.27
364.806	98778.23
365.255	67986.38
365.703	62152.06
366.152	62260.66
366.601	50346.52
367.05	40798.78
367.498	37071.74
367.947	38752.6
368.395	40317.55
368.844	35654.62
369.292	43077.39
369.74	29707.48
370.189	45541.75
370.637	53436.27
371.085	46149.68
371.533	56316.08
371.981	54369.34
372.429	51757.79
372.877	53890.01
373.325	45087.21
373.773	45990.29
374.221	41023.99
374.669	50904.49
375.116	43999.74
375.564	44348.65
376.012	49560.41
376.459	40818.43
376.907	48738.38
377.354	58962.95
377.801	54869.69
378.249	62976.53
378.696	80455.67
379.143	97230.4
379.591	103680.08
380.038	175004.7
380.485	126208.41
380.932	135996.31
381.379	124004.3
381.826	91003.59
382.273	64592.56
382.72	56477.92
383.166	54940.92
383.613	35561.63
384.06	32016.47
384.506	36967.56
384.953	27131.64
385.4	27304.46
385.846	23908.75
386.292	23312.19
386.739	22807.42
387.185	22518.7
387.631	22466.4
388.078	21722.67
388.524	23194.69
388.97	21365.04
389.416	17744.47
389.862	18796.84
390.308	17757.21
390.754	17939.4
391.2	19412.19
391.645	19806.07
392.091	18827.54
392.537	18124.73
392.983	18129.22
393.428	17721.81
393.874	18949.58
394.319	18939.42
394.765	17870.96
395.21	18336.67
395.655	17181.41
396.101	16039.47
396.546	14435.59
396.991	14559.63
397.436	13503.62
397.881	13023.21
398.326	12337.43
398.771	11615.49
399.216	10147.81
399.661	9134.57
400.106	9065.54
400.551	9249.14
400.995	8278.9
401.44	8179.51
401.885	7678.59
402.329	7738.15
402.774	7398.74
403.218	7122.02
403.663	6856.28
404.107	7036.25
404.551	7069.13
404.995	6476.68
405.44	6238.05
405.884	6328.5
406.328	6121.98
406.772	6094.51
407.216	5539.98
407.66	5354.37
408.104	5095.28
408.547	4765.21
408.991	4601.62
409.435	4425.83
409.879	4355.73
410.322	4291.46
410.766	4131.68
411.209	3916.6
411.653	3750.68
412.096	3667.68
412.54	3664.68
412.983	3634.62
413.426	3635.93
413.869	3637.51
414.312	3561.62
414.756	3428.58
415.199	3268.2
415.642	3169.34
416.085	3171.99
416.527	3150.42
416.97	3201.31
417.413	3032.92
417.856	3006.21
418.298	2980.52
418.741	2964.04
419.184	2963.05
419.626	3094.04
420.069	3093.88
420.511	3110.28
420.953	3040.81
421.396	3012.54
421.838	2938.75
422.28	3002.52
422.722	3008.29
423.164	3047.2
423.606	2988.94
424.048	2983.95
424.49	2827.83
424.932	2814.55
425.374	2780.56
425.816	2833.52
426.258	2890.07
426.699	2922.23
427.141	2881.76
427.582	2929.76
428.024	2916.18
428.465	2899.52
428.907	2819.39
429.348	2784.82
429.789	2777.17
430.231	2711.29
430.672	2743.68
431.113	2673.1
431.554	2626.75
431.995	2555.61
432.436	2454.17
432.877	2391.86
433.318	2342.84
433.759	2332.55
434.2	2329.6
434.64	2302.66
435.081	2304.52
435.522	2175.23
435.962	2093.41
436.403	2042.57
436.843	2070.34
437.284	2024.67
437.724	1970.16
438.164	1976.52
438.604	1930.55
439.045	1850.34
439.485	1767.22
439.925	1726.39
440.365	1681.9
440.805	1655.74
441.245	1630.14
441.685	1567.69
442.125	1555.47
442.564	1562.59
443.004	1521.98
443.444	1516.9
443.883	1517.47
444.323	1507.74
444.762	1511.8
445.202	1531.63
445.641	1554.57
446.081	1547.26
446.52	1556.25
446.959	1535.57
447.398	1493.31
447.837	1470.93
448.276	1441.68
448.716	1453.73
449.154	1466.16
449.593	1427.63
450.032	1419.81
450.471	1394.56
450.91	1392.95
451.349	1384.69
451.787	1378.25
452.226	1398.75
452.664	1400.81
453.103	1401.8
453.541	1399.17
453.98	1393.95
454.418	1403.82
454.856	1380.17
455.295	1377.33
455.733	1388.32
456.171	1396.66
456.609	1394.67
457.047	1394.04
457.485	1410.48
457.923	1411.23
458.361	1390.89
458.798	1392.46
459.236	1388.23
459.674	1396.85
460.111	1400.26
460.549	1384.72
460.987	1380.19
461.424	1377.78
461.862	1369.34
462.299	1346.8
462.736	1343.68
463.173	1347.69
463.611	1329.43
464.048	1323.93
464.485	1332.51
464.922	1320.18
465.359	1311.05
465.796	1285.98
466.233	1274.56
466.67	1259
467.106	1254.44
467.543	1240.16
467.98	1223.09
468.416	1194.31
468.853	1184.47
469.29	1149.31
469.726	1135.71
470.162	1107.61
470.599	1098.43
471.035	1090.48
471.471	1067.14
471.907	1064.24
472.344	1058.72
472.78	1061.99
473.216	1077.49
473.652	1065.26
474.088	1065.81
474.523	1063.96
474.959	1074.93
475.395	1067.03
475.831	1061.09
476.266	1068.09
476.702	1067.24
477.138	1058.12
477.573	1056.48
478.008	1052.17
478.444	1058.53
478.879	1067.62
479.314	1073.15
479.75	1072.94
480.185	1079.39
480.62	1091.01
481.055	1097.37
481.49	1104.62
481.925	1121.67
482.36	1140.45
482.795	1174.99
483.229	1208.08
483.664	1234.43
484.099	1239.72
484.534	1259.24
484.968	1271.08
485.403	1274.12
485.837	1273.17
486.271	1270.39
486.706	1270.5
487.14	1256.61
487.574	1234.42
488.009	1221.04
488.443	1208.32
488.877	1217.02
489.311	1217.7
489.745	1227.67
490.179	1235.71
490.613	1253.45
491.046	1259.95
491.48	1264.65
491.914	1260.79
492.348	1264.8
492.781	1267.38
493.215	1264.7
493.648	1263.55
494.082	1269.21
494.515	1264.44
494.948	1272.01
495.382	1275.05
495.815	1276.56
496.248	1279.83
496.681	1297.79
497.114	1311.74
497.547	1322.16
497.98	1337.81
498.413	1339.81
498.846	1347.57
499.279	1354.94
499.711	1354.64
500.144	1350.26
500.577	1359.06
501.009	1368.98
501.442	1373.91
501.874	1365.84
502.306	1359.1
502.739	1359.79
503.171	1373.82
503.603	1367.85
504.036	1372.46
504.468	1370.2
504.9	1377.5
505.332	1377.44
505.764	1372.14
506.196	1370.85
506.627	1380.22
507.059	1388.34
507.491	1390.35
507.923	1375.05
508.354	1384.18
508.786	1385.59
509.217	1398.3
509.649	1405.66
510.08	1418.28
510.512	1428.11
510.943	1436.75
511.374	1439.3
511.805	1453.5
512.237	1465.49
512.668	1494.44
513.099	1517.02
513.53	1539.73
513.961	1551.53
514.391	1577.63
514.822	1605.52
515.253	1636.21
515.684	1653.56
516.114	1677.44
516.545	1689.38
516.975	1707.21
517.406	1715.23
517.836	1706.15
518.267	1701.2
518.697	1711.11
519.127	1704.96
519.558	1701.03
519.988	1694.27
520.418	1693.85
520.848	1701.69
521.278	1700.05
521.708	1717.75
522.138	1723.14
522.567	1746.82
522.997	1765.4
523.427	1772.66
523.857	1781.89
524.286	1784.29
524.716	1792.35
525.145	1805.76
525.575	1810.14
526.004	1818.72
526.433	1795.2
526.863	1788.48
527.292	1772.02
527.721	1772.27
528.15	1772.03
528.579	1766.85
529.008	1774.08
529.437	1792.98
529.866	1802.34
530.295	1815.29
530.724	1824.34
531.152	1847.08
531.581	1856.34
532.01	1871.56
532.438	1876.36
532.867	1888.71
533.295	1904.94
533.723	1907.08
534.152	1901.9
534.58	1897.99
535.008	1878.68
535.436	1878.08
535.865	1882.87
536.293	1894.83
536.721	1907.64
537.149	1930.69
537.576	1930.69
538.004	1941.47
538.432	1947.46
538.86	1942.93
539.287	1947.57
539.715	1960.36
540.143	1961.22
540.57	1955.55
540.998	1949.95
541.425	1925.71
541.852	1902.21
542.28	1898.55
542.707	1879.56
543.134	1863.43
543.561	1858.05
543.988	1850.43
544.415	1848.3
544.842	1840.82
545.269	1833.44
545.696	1836.43
546.123	1848.8
546.549	1839.16
546.976	1826.23
547.403	1826.86
547.829	1829.38
548.256	1831.52
548.682	1828.63
549.108	1821.34
549.535	1821.45
549.961	1824.02
550.387	1810.82
550.813	1806.19
551.24	1812.72
551.666	1815.59
552.092	1806.93
552.518	1801.98
552.943	1797.68
553.369	1805.61
553.795	1812.48
554.221	1815.23
554.646	1812.72
555.072	1825.42
555.498	1830.83
555.923	1842.11
556.349	1858.42
556.774	1867.97
557.199	1871.74
557.625	1879.81
558.05	1876.27
558.475	1888.64
558.9	1890.39
559.325	1884.61
559.75	1881.52
560.175	1878.78
560.6	1874.62
561.025	1875.77
561.449	1880.59
561.874	1888.73
562.299	1897.14
562.723	1906.83
563.148	1901.7
563.572	1909.66
563.997	1924.39
564.421	1932.91
564.846	1936.41
565.27	1945.16
565.694	1946.41
566.118	1963.04
566.542	1976.68
566.966	1972.99
567.39	1974.15
567.814	1967.02
568.238	1970.9
568.662	1981.27
569.086	1989.31
569.509	2003.07
569.933	1990.98
570.357	1988.15
570.78	1970.82
571.204	1960.27
571.627	1954.05
572.05	1957.85
572.474	1962.27
572.897	1954.05
573.32	1952.22
573.743	1946.07
574.166	1930.41
574.589	1936.55
575.012	1933.8
575.435	1937.04
575.858	1933.07
576.281	1926.26
576.704	1912.91
577.126	1904.83
577.549	1897.97
577.972	1890.79
578.394	1883.91
578.817	1882.31
579.239	1864.62
579.661	1854.05
580.084	1842.78
580.506	1832.64
580.928	1833.19
581.35	1825.53
581.772	1825.12
582.194	1813.01
582.616	1802.43
583.038	1789.42
583.46	1779.12
583.882	1779.02
584.303	1788.52
584.725	1786.16
585.147	1791.41
585.568	1807.05
585.99	1824.07
586.411	1834.53
586.833	1855.17
587.254	1860.47
587.675	1881.01
588.096	1900.56
588.518	1897.36
588.939	1879.8
589.36	1879.87
589.781	1869.7
590.202	1838.11
590.623	1829.87
591.043	1828.67
591.464	1815.7
591.885	1813.49
592.305	1808.56
592.726	1793.06
593.147	1796.13
593.567	1791.25
593.987	1783.8
594.408	1779.74
594.828	1779.16
595.248	1773.92
595.669	1754.51
596.089	1747.8
596.509	1741.72
596.929	1727.01
597.349	1730.92
597.769	1721.07
598.189	1714.8
598.608	1717.73
599.028	1722.11
599.448	1724.42
599.867	1710.89
600.287	1706.53
600.706	1703.56
601.126	1693.19
601.545	1692.85
601.965	1691.81
602.384	1687
602.803	1692.53
603.222	1689.49
603.641	1682.39
604.061	1679.76
604.48	1678.07
604.898	1690.12
605.317	1699.36
605.736	1705.28
606.155	1706.36
606.574	1699.81
606.992	1711.29
607.411	1708.81
607.829	1702
608.248	1702.92
608.666	1703.86
609.085	1706.11
609.503	1699.69
609.921	1696.23
610.339	1701.76
610.758	1704.53
611.176	1702.13
611.594	1694.14
612.012	1693.72
612.43	1702.43
612.847	1714.77
613.265	1720.57
613.683	1732.12
614.101	1739.71
614.518	1739.11
614.936	1731.48
615.353	1717.5
615.771	1718.31
616.188	1722.74
616.606	1723.04
617.023	1717.29
617.44	1701.92
617.857	1695.74
618.274	1686.98
618.691	1681.31
619.108	1672.65
619.525	1668.22
619.942	1680.57
620.359	1685.54
620.776	1681.74
621.192	1678.53
621.609	1678.84
622.026	1690.62
622.442	1700.55
622.859	1706.42
623.275	1698.45
623.691	1706.97
624.108	1723.22
624.524	1743.76
624.94	1744.84
625.356	1759.96
625.772	1779.46
626.188	1795.31
626.604	1797.9
627.02	1794.25
627.436	1792.35
627.852	1802.91
628.268	1820.25
628.683	1809.17
629.099	1798.04
629.514	1792.18
629.93	1796.95
630.345	1803.62
630.761	1799.8
631.176	1805.43
631.591	1798.88
632.007	1790.78
632.422	1790.03
632.837	1774.2
633.252	1772.67
633.667	1759.7
634.082	1750.52
634.497	1735.66
634.911	1712.05
635.326	1710.67
635.741	1690.55
636.155	1680.37
636.57	1687.44
636.984	1691.15
637.399	1700.48
637.813	1705.04
638.228	1709.85
638.642	1722.9
639.056	1715.69
639.47	1723.62
639.884	1719.15
640.298	1719.14
640.712	1725.28
641.126	1716.61
641.54	1712.63
641.954	1714.03
642.368	1705.83
642.781	1702.54
643.195	1684.81
643.609	1695.3
644.022	1694.94
644.436	1697.47
644.849	1688.3
645.262	1678.82
645.676	1690.81
646.089	1692.94
646.502	1677.15
646.915	1677.31
647.328	1659.45
647.741	1664.58
648.154	1650
648.567	1651.86
648.98	1637.41
649.393	1644.55
649.805	1646.17
650.218	1638.18
650.631	1616.05
651.043	1611.2
651.456	1605.12
651.868	1609.45
652.28	1640.98
652.693	1667.5
653.105	1682.48
653.517	1701.7
653.929	1704.86
654.341	1716.83
654.753	1700.46
655.165	1716.63
655.577	1717.97
655.989	1715.12
656.401	1710.13
656.813	1654.12
657.224	1626.87
657.636	1586.81
658.047	1563.73
658.459	1539.48
658.87	1534.23
659.282	1523.56
659.693	1495.86
660.104	1478.97
660.515	1465.84
660.926	1470.24
661.338	1475.22
661.749	1473.41
662.159	1463.76
662.57	1463.07
662.981	1462.8
663.392	1455.87
663.803	1470.58
664.213	1472.24
664.624	1471.65
665.035	1484.56
665.445	1466.91
665.855	1459.94
666.266	1451.67
666.676	1453.92
667.086	1444.48
667.497	1447.34
667.907	1440.12
668.317	1426.99
668.727	1424.02
669.137	1428.69
669.547	1424.95
669.956	1432.91
670.366	1437.56
670.776	1440.86
671.186	1448.69
671.595	1454.95
672.005	1461.7
672.414	1457.78
672.824	1452.74
673.233	1461.04
673.642	1463.83
674.052	1467
674.461	1467.26
674.87	1473.94
675.279	1465.33
675.688	1466.63
676.097	1464.64
676.506	1456.32
676.915	1482.9
677.323	1485.13
677.732	1478.91
678.141	1474.29
678.549	1451.41
678.958	1445.97
679.366	1441.25
679.775	1447.82
680.183	1459.86
680.592	1466.42
681	1469.61
681.408	1450.05
681.816	1457.8
682.224	1466.65
682.632	1475.33
683.04	1519.87
683.448	1553.78
683.856	1595.87
684.264	1644.9
684.671	1686.65
685.079	1740.19
685.487	1796.82
685.894	1881.19
686.302	1944.52
686.709	1988.36
687.116	2039.09
687.524	2070.94
