Data from C_3_DEC_OH_4N_Splice17_13-26-21-010.txt Node
Date: Sat Mar 14 13:26:21 EDT 2020
User: sa697716
Spectrometer: FLMS03696
Trigger mode: 0
Integration Time (sec): 3.180400E-1
Scans to average: 20
Electric dark correction enabled: true
Nonlinearity correction enabled: true
Boxcar width: 5
XAxis mode: Wavelengths
Number of Pixels in Spectrum: 2048
>>>>>Begin Spectral Data<<<<<
187.83	-315213.41
188.298	2173.09
188.766	1219.9
189.233	1064.13
189.701	1523.28
190.169	2081.01
190.636	724.96
191.104	555.85
191.571	35.64
192.039	-118.67
192.506	-219.49
192.974	324.68
193.441	-768.18
193.908	-195.95
194.375	-165.52
194.842	-55.63
195.31	-35.47
195.777	92.27
196.244	291.3
196.711	311.76
197.177	404.15
197.644	584.6
198.111	1017.82
198.578	1439.85
199.045	1175.05
199.511	1966.9
199.978	2247.06
200.445	1935.07
200.911	2141.99
201.378	2340.96
201.844	2175.55
202.31	3675.34
202.777	3812.83
203.243	2096.85
203.709	1999.47
204.176	2393.73
204.642	1989.09
205.108	1861.42
205.574	1502.74
206.04	1341.9
206.506	1272.42
206.972	1186.42
207.438	1164.13
207.903	1305.12
208.369	1171.55
208.835	1166.42
209.301	1206.99
209.766	1218.15
210.232	1204.37
210.697	1488.38
211.163	1822.02
211.628	2691.79
212.094	2243.03
212.559	2806.18
213.024	1749.12
213.49	2118.29
213.955	2055.53
214.42	1983.66
214.885	1851.78
215.35	1769.34
215.815	1738.74
216.28	1854.66
216.745	1500.53
217.21	1616.67
217.675	1420.48
218.14	1570.89
218.604	1706.52
219.069	1921.84
219.534	1994.37
219.998	2239.82
220.463	2643.46
220.927	3126.4
221.392	2879.95
221.856	2876.05
222.32	3529.56
222.785	4325.51
223.249	5365.2
223.713	5928.7
224.177	5866.87
224.642	7431.96
225.106	9122.14
225.57	9916.82
226.034	7405.47
226.497	11209.69
226.961	10122.75
227.425	11775.85
227.889	12996.13
228.353	12927.61
228.816	26555.25
229.28	25352.86
229.744	21268.68
230.207	12955.22
230.671	12744.88
231.134	20895.67
231.597	24153.55
232.061	24045.92
232.524	23389.72
232.987	16085.74
233.45	14536.46
233.914	13033.3
234.377	13276.67
234.84	12164.13
235.303	14273.27
235.766	15930.9
236.229	16441.69
236.691	10329.77
237.154	11597.63
237.617	8764.43
238.08	8964.26
238.542	10481.22
239.005	7515.89
239.468	7491.87
239.93	7073.04
240.393	6439.43
240.855	5647.33
241.317	5786.63
241.78	7034.47
242.242	7309.6
242.704	7912.25
243.166	6900.19
243.629	6307.83
244.091	7273.1
244.553	7954.23
245.015	8567.14
245.477	11084.43
245.939	16251.89
246.4	17243.71
246.862	16746.52
247.324	15736.54
247.786	17529.98
248.247	22970.57
248.709	23552.51
249.17	17648.23
249.632	16779.64
250.093	19526.39
250.555	16866.35
251.016	10341.07
251.477	9815.98
251.939	10634.26
252.4	11162.34
252.861	13260.47
253.322	12380.03
253.783	14753.3
254.244	19105.74
254.705	15001.22
255.166	13290.43
255.627	13115.2
256.088	18514.11
256.549	19691.79
257.009	16946.98
257.47	20564.18
257.931	16744.88
258.391	12537.97
258.852	12918.65
259.312	13542.8
259.773	16731.07
260.233	14198.98
260.694	11959.74
261.154	13536.41
261.614	10915.81
262.074	9752.96
262.534	10164.45
262.994	9617.73
263.455	12800.11
263.915	10785.73
264.374	10158.04
264.834	11082.8
265.294	12229.33
265.754	12671.51
266.214	11981.09
266.673	11193.99
267.133	14119.6
267.593	13979.42
268.052	17097.06
268.512	14864.27
268.971	18011.79
269.431	19759.53
269.89	17680.34
270.349	26556.69
270.809	29629.09
271.268	26659.98
271.727	59785.66
272.186	38728.39
272.645	29024.8
273.104	20878.56
273.563	30221.23
274.022	23661.18
274.481	20164.85
274.94	15571.19
275.399	11556.13
275.857	13448.46
276.316	18163.74
276.775	16143.9
277.233	15922.58
277.692	14956.72
278.15	16978.35
278.609	17544.02
279.067	16264.37
279.525	15127.77
279.984	19538.61
280.442	23511.16
280.9	23314.98
281.358	15369.26
281.816	14390.61
282.274	14107.24
282.732	14548.91
283.19	14587.06
283.648	12545.43
284.106	13355.63
284.564	13560.53
285.021	12587.16
285.479	9382.14
285.937	8499.43
286.394	7500.74
286.852	7721.66
287.309	8128.23
287.767	7912.87
288.224	7581.56
288.682	8348.02
289.139	9198.17
289.596	8461.4
290.053	8804.47
290.511	11138.74
290.968	13546.57
291.425	18330.97
291.882	15319.56
292.339	13366.27
292.796	13232.49
293.252	12437.24
293.709	9941.45
294.166	8931.87
294.623	9871.24
295.079	9468.78
295.536	9529.2
295.992	8667.88
296.449	8584.64
296.905	8919.38
297.362	8593.18
297.818	9047.88
298.274	9433.34
298.731	9584.25
299.187	9474.68
299.643	10171.67
300.099	12332.43
300.555	13544.68
301.011	11324.67
301.467	10971.38
301.923	12830.07
302.379	12501.2
302.835	12305.05
303.291	12339.48
303.746	14068.54
304.202	17812.44
304.658	17903.63
305.113	12061.93
305.569	11833.93
306.024	12611.06
306.479	11965.04
306.935	10115.28
307.39	11046.85
307.845	10172.73
308.301	10238.93
308.756	9983.66
309.211	9614.51
309.666	9839.74
310.121	12230.76
310.576	12415.62
311.031	12307.74
311.486	14109.94
311.94	14096.36
312.395	18874.1
312.85	35609.77
313.305	174924
313.759	909237.21
314.214	66134.42
314.668	52712.46
315.123	44441.71
315.577	15939.04
316.032	14248.9
316.486	17877.33
316.94	14138.44
317.394	9883.14
317.849	7687.72
318.303	7267.87
318.757	6877.72
319.211	7621.48
319.665	6660
320.119	6751.41
320.572	9683.9
321.026	9056.65
321.48	7529.66
321.934	8191.83
322.387	8214.31
322.841	8898.96
323.295	8048.97
323.748	9246.07
324.202	9364.44
324.655	11287.32
325.108	15845.11
325.562	11253.35
326.015	13379.62
326.468	10140.45
326.921	11374.4
327.374	10611.89
327.827	11066.22
328.28	12538.62
328.733	8420.17
329.186	7417.92
329.639	7062.49
330.092	5932.77
330.545	5645.57
330.997	5707.83
331.45	6276.25
331.903	7388.61
332.355	12681.59
332.808	12335.5
333.26	10150.76
333.713	11060
334.165	11148.36
334.617	14912.44
335.069	12026.87
335.522	21771.75
335.974	24132.84
336.426	21924.77
336.878	15086.59
337.33	7677.84
337.782	7493.02
338.234	9433.01
338.686	11207.21
339.137	13292.02
339.589	12516.59
340.041	9841.28
340.493	8470.53
340.944	8694.81
341.396	9430.25
341.847	7970.71
342.299	9441.75
342.75	11570.22
343.201	10072.51
343.653	11620.3
344.104	14285.4
344.555	11244.48
345.006	17420.77
345.457	13415.36
345.908	10608.18
346.359	9975.66
346.81	8143.53
347.261	8555.68
347.712	8389.45
348.163	8996.17
348.613	9158.94
349.064	8568.14
349.515	7525.52
349.965	7749.96
350.416	9312.08
350.866	10255.2
351.317	11567.72
351.767	19192.64
352.217	24332.68
352.668	20293.55
353.118	18679.44
353.568	18014.94
354.018	14282.93
354.468	15081.49
354.918	10871.12
355.368	9501.5
355.818	13444.86
356.268	38686.13
356.718	162308.81
357.168	40384.08
357.617	20226.31
358.067	22412.44
358.517	20996.54
358.966	24670.19
359.416	27749.24
359.865	29921.09
360.315	35623.01
360.764	16664.64
361.213	9372.96
361.663	8833.99
362.112	10898.82
362.561	17668.72
363.01	13379.7
363.459	11248.44
363.908	12160.99
364.357	10356.11
364.806	17499.81
365.255	12094.13
365.703	11126.61
366.152	11180.26
366.601	9115.92
367.05	7442.76
367.498	6767.61
367.947	7077.15
368.395	7383.64
368.844	6549.16
369.292	7875.09
369.74	5471.89
370.189	8355.18
370.637	9769.62
371.085	8421.01
371.533	10262.86
371.981	9879.13
372.429	9462.89
372.877	9866.3
373.325	8264.58
373.773	8409.72
374.221	7465.84
374.669	9251.44
375.116	8021.01
375.564	8130.5
376.012	9101.52
376.459	7510.46
376.907	8936.33
377.354	10794.57
377.801	10087.42
378.249	11613.5
378.696	14879.86
379.143	18139.59
379.591	19294.93
380.038	32711.23
380.485	23535.62
380.932	25348.73
381.379	23306.54
381.826	17293.3
382.273	12295.65
382.72	10732.71
383.166	10449.84
383.613	6790.9
384.06	6119.41
384.506	7121.79
384.953	5213.28
385.4	5251.4
385.846	4606.11
386.292	4461.87
386.739	4358.68
387.185	4299.23
387.631	4307.71
388.078	4208.11
388.524	4497.78
388.97	4149.1
389.416	3458.02
389.862	3688.5
390.308	3491.24
390.754	3553.81
391.2	3859.12
391.645	3951.41
392.091	3811.98
392.537	3694.81
392.983	3683.24
393.428	3641.79
393.874	3909.28
394.319	3928.51
394.765	3735.64
395.21	3841.81
395.655	3619.39
396.101	3397.35
396.546	3063.45
396.991	3077.84
397.436	2858.71
397.881	2765.53
398.326	2606.89
398.771	2474.31
399.216	2166.77
399.661	1950.41
400.106	1957.71
400.551	2007.99
400.995	1804.85
401.44	1795.44
401.885	1687.13
402.329	1707.65
402.774	1642.23
403.218	1608.72
403.663	1549.85
404.107	1598.45
404.551	1617.15
404.995	1480.66
405.44	1419
405.884	1437.47
406.328	1388.53
406.772	1388.13
407.216	1268.51
407.66	1229.02
408.104	1161.06
408.547	1091.19
408.991	1054.42
409.435	1014.44
409.879	1004.63
410.322	997.84
410.766	973.57
411.209	931.05
411.653	897.06
412.096	881.23
412.54	881.34
412.983	878.08
413.426	883.6
413.869	885.11
414.312	872.5
414.756	841.36
415.199	803.46
415.642	780
416.085	783.69
416.527	777.08
416.97	790.34
417.413	752.13
417.856	745.56
418.298	738.62
418.741	733.18
419.184	730.23
419.626	758.24
420.069	757.84
420.511	764.41
420.953	748.51
421.396	744.32
421.838	725.38
422.28	741.98
422.722	746.94
423.164	755.04
423.606	745.25
424.048	745.17
424.49	712.68
424.932	709.27
425.374	698.28
425.816	707.93
426.258	721.7
426.699	729.11
427.141	719.21
427.582	725.97
428.024	721.81
428.465	714.45
428.907	695.19
429.348	684.21
429.789	685.65
430.231	672.09
430.672	681.95
431.113	664.54
431.554	654.85
431.995	636.99
432.436	618.01
432.877	607
433.318	599.16
433.759	595.28
434.2	594.92
434.64	587.43
435.081	587.62
435.522	555.22
435.962	534.91
436.403	523.41
436.843	529.49
437.284	515.77
437.724	497.71
438.164	494.27
438.604	482.75
439.045	467.08
439.485	450.51
439.925	438.42
440.365	427.59
440.805	420.79
441.245	416.42
441.685	401.22
442.125	395.94
442.564	399.75
443.004	391.66
443.444	392.78
443.883	390.4
444.323	384.27
444.762	382.34
445.202	386.97
445.641	395.68
446.081	389.74
446.52	393.08
446.959	390.44
447.398	380.53
447.837	375.9
448.276	365.24
448.716	370.28
449.154	371.87
449.593	366.06
450.032	364.86
450.471	354.34
450.91	352.79
451.349	351.5
451.787	348.2
452.226	352.99
452.664	353.27
453.103	354.31
453.541	350.09
453.98	353.14
454.418	354.38
454.856	349.69
455.295	350.06
455.733	354.32
456.171	356.38
456.609	357.23
457.047	356.59
457.485	362.62
457.923	364.75
458.361	359.97
458.798	358.66
459.236	357.41
459.674	357.6
460.111	358.66
460.549	355.41
460.987	352.56
461.424	351.94
461.862	349.32
462.299	342.47
462.736	341.71
463.173	343.78
463.611	343.47
464.048	343.44
464.485	346.54
464.922	342.88
465.359	340.11
465.796	344.05
466.233	342.11
466.67	341.09
467.106	342.33
467.543	337.94
467.98	332.15
468.416	320.12
468.853	316.09
469.29	306.16
469.726	302.89
470.162	294.59
470.599	284.36
471.035	280.9
471.471	273.08
471.907	269.72
472.344	268.17
472.78	270.65
473.216	273.82
473.652	271.25
474.088	270.67
474.523	270.32
474.959	273.29
475.395	270.08
475.831	268.33
476.266	269.91
476.702	268.93
477.138	265.92
477.573	264.63
478.008	264.58
478.444	266.56
478.879	271.05
479.314	272.6
479.75	272.15
480.185	272.92
480.62	274.66
481.055	276.16
481.49	278.7
481.925	282.96
482.36	289.82
482.795	297.5
483.229	304.96
483.664	309.53
484.099	309.97
484.534	315.07
484.968	318.75
485.403	320.21
485.837	318.69
486.271	317.48
486.706	318.48
487.14	312.93
487.574	307.63
488.009	304.03
488.443	301.02
488.877	305.69
489.311	306.57
489.745	310.6
490.179	313.81
490.613	322.17
491.046	324.63
491.48	326.33
491.914	327.71
492.348	330.6
492.781	334.18
493.215	335.77
493.648	336.03
494.082	339.34
494.515	340.41
494.948	345.6
495.382	346.9
495.815	350.71
496.248	355.3
496.681	362.11
497.114	368.27
497.547	374.67
497.98	383.51
498.413	387.92
498.846	394.58
499.279	400.26
499.711	402.66
500.144	405.47
500.577	413.56
501.009	420.58
501.442	428.66
501.874	432.91
502.306	435.55
502.739	443.73
503.171	453.8
503.603	458.16
504.036	464.83
504.468	471.65
504.9	479.7
505.332	485.44
505.764	490.9
506.196	496.57
506.627	506.74
507.059	516.68
507.491	520.9
507.923	522.72
508.354	533.81
508.786	543.59
509.217	556.11
509.649	568.27
510.08	581.11
510.512	593.88
510.943	605.47
511.374	614.6
511.805	629.2
512.237	644.06
512.668	665.67
513.099	683.79
513.53	702.21
513.961	717.45
514.391	739.75
514.822	765.03
515.253	789.79
515.684	807.87
516.114	829.65
516.545	846.26
516.975	864.74
517.406	879.19
517.836	884.67
518.267	892.2
518.697	907.69
519.127	912.29
519.558	917.82
519.988	922.45
520.418	931.64
520.848	944.82
521.278	952.79
521.708	992.58
522.138	1003.88
522.567	1024.6
522.997	1043.19
523.427	1053.81
523.857	1067.96
524.286	1076.48
524.716	1088.46
525.145	1103.6
525.575	1113.2
526.004	1123.69
526.433	1096.61
526.863	1097.89
527.292	1095.65
527.721	1101.21
528.15	1106.35
528.579	1107.54
529.008	1117.41
529.437	1132.53
529.866	1141.81
530.295	1153.18
530.724	1163.15
531.152	1181.35
531.581	1192.13
532.01	1203.09
532.438	1209.73
532.867	1220.72
533.295	1234.27
533.723	1237.74
534.152	1238.03
534.58	1238.36
535.008	1228.69
535.436	1231.16
535.865	1237.25
536.293	1246.9
536.721	1258.83
537.149	1275.65
537.576	1277.5
538.004	1285.9
538.432	1290.02
538.86	1288.7
539.287	1293.47
539.715	1302.83
540.143	1302.84
540.57	1299.75
540.998	1296.99
541.425	1281
541.852	1266.27
542.28	1264.83
542.707	1253.02
543.134	1244.52
543.561	1240.63
543.988	1236.54
544.415	1235.54
544.842	1232.56
545.269	1228.99
545.696	1230.22
546.123	1238.89
546.549	1232.05
546.976	1223.94
547.403	1224.88
547.829	1226.1
548.256	1228.6
548.682	1226.27
549.108	1222.17
549.535	1222.83
549.961	1223.39
550.387	1214.9
550.813	1212.13
551.24	1216.62
551.666	1217.71
552.092	1211.7
552.518	1208.42
552.943	1205.75
553.369	1211.13
553.795	1215.36
554.221	1215.39
554.646	1214
555.072	1221.3
555.498	1223.43
555.923	1229.76
556.349	1240.56
556.774	1246.4
557.199	1246.19
557.625	1249
558.05	1245.07
558.475	1251.6
558.9	1251.11
559.325	1245.85
559.75	1242.07
560.175	1238.25
560.6	1232.94
561.025	1230.3
561.449	1230.59
561.874	1234.6
562.299	1237.21
562.723	1240.59
563.148	1233
563.572	1235.51
563.997	1242.17
564.421	1244.41
564.846	1243.93
565.27	1245.91
565.694	1244.03
566.118	1250.89
566.542	1255.06
566.966	1249.63
567.39	1244.94
567.814	1236.46
568.238	1234.44
568.662	1234.86
569.086	1235.04
569.509	1237.67
569.933	1227.31
570.357	1220.24
570.78	1204.54
571.204	1195.01
571.627	1186.18
572.05	1184.55
572.474	1183.72
572.897	1173.51
573.32	1168.68
573.743	1161.05
574.166	1147.98
574.589	1145.69
575.012	1139.82
575.435	1138.26
575.858	1131.29
576.281	1123.74
576.704	1113.07
577.126	1104.4
577.549	1097.65
577.972	1088.82
578.394	1081.59
578.817	1078.15
579.239	1065.79
579.661	1057.61
580.084	1047.11
580.506	1038.25
580.928	1034.49
581.35	1026.07
581.772	1023.35
582.194	1014.34
582.616	1006.07
583.038	995.54
583.46	987.22
583.882	985.25
584.303	986.54
584.725	982.43
585.147	985.91
585.568	993.29
585.99	1001.54
586.411	1004.42
586.833	1013.52
587.254	1014.05
587.675	1023.49
588.096	1031.83
588.518	1027.56
588.939	1016.09
589.36	1014.83
589.781	1003.71
590.202	985.93
590.623	979.18
591.043	976.66
591.464	967.67
591.885	964.88
592.305	959.87
592.726	949.67
593.147	949.83
593.567	945.87
593.987	940.2
594.408	937.06
594.828	933.66
595.248	929.7
595.669	918.06
596.089	912.93
596.509	908.32
596.929	898.94
597.349	899.62
597.769	892.54
598.189	888.46
598.608	889.13
599.028	889.05
599.448	888.75
599.867	879.75
600.287	876.88
600.706	873.98
601.126	868.11
601.545	868.37
601.965	866.5
602.384	862.99
602.803	863.85
603.222	860.59
603.641	855.74
604.061	852.6
604.48	850.05
604.898	854.23
605.317	856.4
605.736	856.58
606.155	854.36
606.574	848.2
606.992	851.46
607.411	847.97
607.829	840.93
608.248	839.78
608.666	837.74
609.085	836.69
609.503	831.13
609.921	828.29
610.339	829
610.758	826.86
611.176	822.99
611.594	816.57
612.012	814.42
612.43	817.35
612.847	819.25
613.265	819.96
613.683	822.11
614.101	821.12
614.518	816.22
614.936	809.82
615.353	800.93
615.771	798.72
616.188	797.9
616.606	794.88
617.023	789.42
617.44	780.53
617.857	774.68
618.274	768.72
618.691	765.53
619.108	758.92
619.525	754.49
619.942	758.02
620.359	759.22
620.776	755.87
621.192	753.43
621.609	751.43
622.026	754.95
622.442	758.78
622.859	759.43
623.275	754.52
623.691	757.41
624.108	764.35
624.524	771.85
624.94	771.31
625.356	777.12
625.772	783.92
626.188	790.51
626.604	791.69
627.02	789.32
627.436	789.23
627.852	793.99
628.268	801.43
628.683	795.78
629.099	791.25
629.514	788.2
629.93	789.75
630.345	791.84
630.761	789.11
631.176	790.88
631.591	787.04
632.007	782.27
632.422	779.16
632.837	771.86
633.252	768.49
633.667	761.06
634.082	753.91
634.497	745.28
634.911	734.47
635.326	730.99
635.741	719.21
636.155	711.22
636.57	710.58
636.984	709.07
637.399	709.71
637.813	707.1
638.228	704.14
638.642	704.79
639.056	696.58
639.47	693.58
639.884	686.54
640.298	679.41
640.712	676.35
641.126	666.46
641.54	658.3
641.954	650.35
642.368	642.34
642.781	637.87
643.195	625.22
643.609	624.24
644.022	618.1
644.436	613.3
644.849	605.24
645.262	596.15
645.676	594.86
646.089	590.23
646.502	582.67
646.915	577.63
647.328	565.08
647.741	563.95
648.154	554.98
648.567	553.91
648.98	547.35
649.393	546.99
649.805	545.22
650.218	540.08
650.631	532.58
651.043	527.65
651.456	523.42
651.868	523.98
652.28	531.71
652.693	537.14
653.105	538.28
653.517	541.64
653.929	541.44
654.341	543.72
654.753	538.09
655.165	540.44
655.577	538.36
655.989	536.66
656.401	530.45
656.813	512.36
657.224	502.46
657.636	486.08
658.047	477.79
658.459	467.51
658.87	460.36
659.282	453.06
659.693	441.78
660.104	433.86
660.515	425.55
660.926	423.78
661.338	420.74
661.749	415.86
662.159	411.68
662.57	406.79
662.981	403.2
663.392	399.89
663.803	401.36
664.213	398.82
664.624	394.94
665.035	394.93
665.445	388.35
665.855	384.36
666.266	379.99
666.676	378.07
667.086	372.51
667.497	371.53
667.907	368.02
668.317	362.68
668.727	363.61
669.137	363.44
669.547	362.7
669.956	362.66
670.366	363.65
670.776	365.33
671.186	366.28
671.595	369.88
672.005	370.42
672.414	371.32
672.824	371.63
673.233	370.98
673.642	374.14
674.052	377.6
674.461	381
674.87	383.2
675.279	382.69
675.688	384.88
676.097	387.54
676.506	388.25
676.915	396.5
677.323	399.13
677.732	400.07
678.141	401.35
678.549	395.48
678.958	395.31
679.366	397.12
679.775	400.21
680.183	409.28
680.592	412.24
681	417.06
681.408	415.57
681.816	420.91
682.224	426.3
682.632	433.92
683.04	451.89
683.448	465.77
683.856	483.86
684.264	506.36
684.671	523.89
685.079	547.97
685.487	573.86
685.894	608.58
686.302	639.28
686.709	666.68
687.116	697.2
687.524	725.25
687.931	750.39
688.338	771.99
688.745	789.07
689.152	809.93
689.559	838.31
689.966	867.73
690.373	883.83
690.78	912.48
691.187	953.02
691.593	984.52
692	1012.59
692.407	1051.92
692.813	1103.03
693.22	1144.11
693.626	1185.26
694.032	1221.42
694.439	1272.96
694.845	1314.06
695.251	1364.04
695.657	1410.69
696.063	1476.91
696.469	1529.76
696.875	1579.58
697.281	1607.25
697.687	1643.6
698.093	1674.3
698.498	1727.22
698.904	1768.44
699.31	1831.9
699.715	1878.66
700.12	1944.07
700.526	1961.18
700.931	2010.05
701.337	2048.95
701.742	2074.71
702.147	2132.45
702.552	2156.89
702.957	2199.86
703.362	2216.97
703.767	2240.17
704.172	2269.27
704.577	2238.51
704.981	2273.42
705.386	2286.49
705.791	2283.15
706.195	2336.86
