Data from C_3_DEC_NC_4N_Splice17_13-05-46-304.txt Node
Date: Sat Mar 14 13:05:46 EDT 2020
User: sa697716
Spectrometer: FLMS03696
Trigger mode: 0
Integration Time (sec): 3.180400E-1
Scans to average: 20
Electric dark correction enabled: true
Nonlinearity correction enabled: true
Boxcar width: 5
XAxis mode: Wavelengths
Number of Pixels in Spectrum: 2048
>>>>>Begin Spectral Data<<<<<
187.83	-394679.7
188.298	2704.52
188.766	1453.62
189.233	1322.59
189.701	1843.39
190.169	2527.57
190.636	993.04
191.104	822.6
191.571	172.93
192.039	-34.52
192.506	-67.34
192.974	476.66
193.441	-799.93
193.908	-252.72
194.375	-76.75
194.842	0.99
195.31	63.62
195.777	162.16
196.244	357.31
196.711	429.94
197.177	545.64
197.644	770.3
198.111	1374.88
198.578	1938.23
199.045	1555.6
199.511	2527.66
199.978	2924.3
200.445	2489.92
200.911	2744.51
201.378	3084.95
201.844	2815.36
202.31	4807.19
202.777	5029.04
203.243	2761.34
203.709	2632.09
204.176	3160.14
204.642	2597.81
205.108	2432.46
205.574	1986.16
206.04	1818.21
206.506	1693.15
206.972	1580.96
207.438	1524.7
207.903	1727.96
208.369	1517.26
208.835	1508.78
209.301	1567.41
209.766	1616.85
210.232	1599.88
210.697	1976.59
211.163	2421.21
211.628	3635.29
212.094	3055.77
212.559	3783.87
213.024	2361.3
213.49	2883.39
213.955	2793.06
214.42	2731.57
214.885	2536.02
215.35	2434.78
215.815	2367.37
216.28	2523.68
216.745	2067.53
217.21	2247.19
217.675	2043.65
218.14	2293.58
218.604	2566.62
219.069	2935.16
219.534	3077.84
219.998	3571.25
220.463	4306.75
220.927	5252.66
221.392	4919.95
221.856	4973.1
222.32	6236.57
222.785	7707.37
223.249	9697.77
223.713	10791.38
224.177	10772.21
224.642	13789.22
225.106	16927.59
225.57	18490.12
226.034	13766.52
226.497	20952.06
226.961	18920.3
227.425	22035.8
227.889	24380.39
228.353	24356.2
228.816	50267.39
229.28	47997.23
229.744	40378.76
230.207	24577.13
230.671	24154.89
231.134	39867.55
231.597	45965.66
232.061	45868.76
232.524	44658.28
232.987	30789.17
233.45	27705.81
233.914	24842.62
234.377	25462.33
234.84	23347.39
235.303	27512.86
235.766	30704.47
236.229	31719.34
236.691	19953.01
237.154	22433.95
237.617	16906.99
238.08	17310.52
238.542	20245.99
239.005	14462.34
239.468	14356.38
239.93	13509.75
240.393	12269.15
240.855	10769.87
241.317	11025.58
241.78	13418.64
242.242	13866.87
242.704	14970.73
243.166	13035.68
243.629	11836.89
244.091	13646.38
244.553	14943.06
245.015	16063.41
245.477	20754.25
245.939	30410.29
246.4	32258.81
246.862	31357.85
247.324	29534.64
247.786	33031.02
248.247	43278.13
248.709	44661.13
249.17	33417.09
249.632	31530.67
250.093	36611.03
250.555	31655.04
251.016	19319.26
251.477	18342.47
251.939	19802.02
252.4	20789.15
252.861	24711.87
253.322	22996.25
253.783	27384.31
254.244	35500.02
254.705	28000.95
255.166	24912.14
255.627	24547.56
256.088	34649.76
256.549	36860.93
257.009	31782.62
257.47	38609.45
257.931	31454.91
258.391	23587.02
258.852	24297.7
259.312	25492.14
259.773	31478.65
260.233	26611.73
260.694	22434.52
261.154	25437.7
261.614	20404.79
262.074	18233.65
262.534	18947.79
262.994	17862.94
263.455	23804.62
263.915	20078.51
264.374	18905.32
264.834	20635.07
265.294	22862.53
265.754	23680.79
266.214	22388.64
266.673	20999.53
267.133	26493.79
267.593	26273.42
268.052	32178.3
268.512	27959.51
268.971	33714.37
269.431	36956.61
269.89	33086.37
270.349	49605.57
270.809	55333.69
271.268	49832.48
271.727	111594.33
272.186	72269.32
272.645	54212.84
273.104	39011.97
273.563	56503.56
274.022	44403
274.481	37792.4
274.94	29092.28
275.399	21602.77
275.857	25156.06
276.316	33977.74
276.775	30246.55
277.233	29795.65
277.692	27890.99
278.15	31598.41
278.609	32500.52
279.067	30087.93
279.525	27968.85
279.984	36142.52
280.442	43449.64
280.9	42814.61
281.358	28159.45
281.816	26220.07
282.274	25667.4
282.732	26502.81
283.19	26637.49
283.648	22965.93
284.106	24477.4
284.564	24885.26
285.021	23089.95
285.479	17204.26
285.937	15636.1
286.394	13745.91
286.852	14165.93
287.309	14877.54
287.767	14377.88
288.224	13671.2
288.682	15014.06
289.139	16454.05
289.596	15047.27
290.053	15633.19
290.511	19706.36
290.968	23906.16
291.425	32395.19
291.882	26934.97
292.339	23466.27
292.796	23257.18
293.252	21907.42
293.709	17378.73
294.166	15588.29
294.623	17204.32
295.079	16472.38
295.536	16549.11
295.992	15014.7
296.449	14853.82
296.905	15427.83
297.362	14785.88
297.818	15548.92
298.274	16107.26
298.731	16426.1
299.187	16245.74
299.643	17437.12
300.099	21113.35
300.555	23127.75
301.011	19321.98
301.467	18613.94
301.923	21783.38
302.379	21283.35
302.835	20918.66
303.291	20966.09
303.746	23876.59
304.202	30172.64
304.658	30323.52
305.113	20395.14
305.569	20001.21
306.024	21325.52
306.479	20306.74
306.935	17158.78
307.39	18719.09
307.845	17289.08
308.301	17424.42
308.756	16969.17
309.211	16358.22
309.666	16759.74
310.121	20809.41
310.576	21129.56
311.031	20969.92
311.486	24025.81
311.94	23996.31
312.395	32145.61
312.85	60384.72
313.305	296135.3
313.759	1535110.09
314.214	111126.05
314.668	88057.22
315.123	74090.51
315.577	26587.18
316.032	23661.37
316.486	29622.5
316.94	23359.93
317.394	16235.11
317.849	12615.77
318.303	11928.26
318.757	11235.55
319.211	12414.71
319.665	10865.1
320.119	10984.52
320.572	15736.31
321.026	14722.1
321.48	12258.71
321.934	13354.56
322.387	13386.43
322.841	14458.67
323.295	13046.03
323.748	15037.9
324.202	15282.43
324.655	18343.2
325.108	25717.89
325.562	18153.27
326.015	21529.63
326.468	16263.81
326.921	18192.35
327.374	16993.69
327.827	17719.56
328.28	20020.86
328.733	13418.08
329.186	11807.85
329.639	11254.39
330.092	9472.12
330.545	9036.72
330.997	9125.06
331.45	9992.99
331.903	11705.8
332.355	20075.98
332.808	19477.27
333.26	16057.88
333.713	17434.32
334.165	17539.15
334.617	23437.29
335.069	18930.68
335.522	34216.3
335.974	37924.16
336.426	34632.48
336.878	24042.6
337.33	12234.57
337.782	11978.82
338.234	14993.36
338.686	17895.13
339.137	21201.16
339.589	19975.87
340.041	15667.06
340.493	13482.92
340.944	13817.09
341.396	14888.34
341.847	12510.76
342.299	14764.34
342.75	18001.46
343.201	15755.17
343.653	18133.77
344.104	22304.44
344.555	17552.04
345.006	27277.13
345.457	20886.76
345.908	16568.15
346.359	15572.49
346.81	12684.38
347.261	13348.88
347.712	13133.43
348.163	14096.23
348.613	14305.17
349.064	13362.73
349.515	11725.62
349.965	12046.51
350.416	14508.96
350.866	15912.21
351.317	17978.86
351.767	29771.5
352.217	37604.95
352.668	31239.28
353.118	28570.76
353.568	27527.48
354.018	21750.99
354.468	22894.76
354.918	16412.83
355.368	14368.02
355.818	20304.88
356.268	58497.44
356.718	244849.3
357.168	61098.53
357.617	30711.98
358.067	34252.96
358.517	32078.04
358.966	37628.41
359.416	42295.77
359.865	45776.09
360.315	54436.52
360.764	25487.83
361.213	14281.89
361.663	13515.19
362.112	16684.5
362.561	26932.65
363.01	20306.49
363.459	17114.78
363.908	18528.17
364.357	15735.3
364.806	26464.98
365.255	18205.43
365.703	16661.34
366.152	16667.96
366.601	13539.58
367.05	10998.6
367.498	10016.44
367.947	10474.51
368.395	10918.8
368.844	9658.62
369.292	11618.02
369.74	8045.49
370.189	12321.52
370.637	14438.28
371.085	12470.64
371.533	15171.98
371.981	14583.27
372.429	13881.27
372.877	14439.97
373.325	12058.3
373.773	12278.71
374.221	10947.47
374.669	13586.88
375.116	11748.02
375.564	11827.79
376.012	13230.91
376.459	10917.27
376.907	13039.52
377.354	15774.8
377.801	14703.28
378.249	16889.94
378.696	21587.37
379.143	26111.66
379.591	27813.04
380.038	47034.05
380.485	34066.14
380.932	36781.31
381.379	33639.88
381.826	24816.97
382.273	17608.58
382.72	15386.95
383.166	14998.95
383.613	9730.55
384.06	8751.65
384.506	10142.76
384.953	7442.69
385.4	7475.3
385.846	6524.65
386.292	6339.86
386.739	6169.96
387.185	6100.59
387.631	6090.91
388.078	5916.65
388.524	6322.14
388.97	5842.18
389.416	4860.02
389.862	5166.38
390.308	4891.19
390.754	4960.01
391.2	5379.44
391.645	5514.09
392.091	5288.86
392.537	5123.63
392.983	5121.25
393.428	5049.58
393.874	5398.49
394.319	5432.9
394.765	5150.53
395.21	5288.7
395.655	4973.27
396.101	4661.14
396.546	4208.03
396.991	4224.7
397.436	3908.07
397.881	3773.72
398.326	3558.31
398.771	3373.21
399.216	2932.52
399.661	2637.67
400.106	2631.44
400.551	2691.82
400.995	2415.98
401.44	2385.54
401.885	2240.59
402.329	2268.72
402.774	2177.37
403.218	2115.43
403.663	2036.6
404.107	2098.32
404.551	2114.41
404.995	1932.78
405.44	1856.47
405.884	1880.36
406.328	1821.47
406.772	1814.05
407.216	1650.91
407.66	1590.54
408.104	1502.84
408.547	1406.8
408.991	1359.17
409.435	1307.13
409.879	1291.13
410.322	1274.35
410.766	1230.88
411.209	1170.23
411.653	1122.32
412.096	1098.9
412.54	1098.79
412.983	1091.6
413.426	1092.52
413.869	1092.87
414.312	1072.95
414.756	1034.94
415.199	987.07
415.642	960.05
416.085	959.94
416.527	953.38
416.97	968.02
417.413	920.02
417.856	909.04
418.298	901.66
418.741	891.1
419.184	885.42
419.626	916.43
420.069	917.21
420.511	921.34
420.953	902.27
421.396	894.25
421.838	869.94
422.28	891.79
422.722	898.91
423.164	909.91
423.606	898.79
424.048	899.16
424.49	857.24
424.932	852.35
425.374	839.24
425.816	851.64
426.258	869.57
426.699	880.75
427.141	865.18
427.582	876.88
428.024	870.98
428.465	862.02
428.907	841.29
429.348	831.05
429.789	832.45
430.231	816.56
430.672	829.4
431.113	807.57
431.554	792.45
431.995	772.98
432.436	746.32
432.877	731.44
433.318	721.98
433.759	717.29
434.2	718.32
434.64	712.09
435.081	715.88
435.522	678.69
435.962	656.95
436.403	646.79
436.843	656.48
437.284	642.56
437.724	624.36
438.164	623.94
438.604	610.39
439.045	588.39
439.485	564.79
439.925	551.54
440.365	536.18
440.805	526.7
441.245	520.19
441.685	500.32
442.125	496.54
442.564	499.07
443.004	487.28
443.444	486.59
443.883	486.55
444.323	482.08
444.762	481.32
445.202	488.71
445.641	499.63
446.081	496.54
446.52	500.29
446.959	496.31
447.398	486.56
447.837	482.78
448.276	474.44
448.716	478.98
449.154	482.11
449.593	472.99
450.032	472.1
450.471	461.87
450.91	460.09
451.349	460.38
451.787	457.31
452.226	462.27
452.664	462.06
453.103	463.52
453.541	461.89
453.98	461.69
454.418	462.68
454.856	456.23
455.295	455
455.733	459.1
456.171	459.38
456.609	459.52
457.047	459.36
457.485	466.84
457.923	467.48
458.361	460.39
458.798	461.03
459.236	459.47
459.674	461.45
460.111	462.89
460.549	459.01
460.987	457.85
461.424	456.69
461.862	454.8
462.299	447.55
462.736	447.5
463.173	451.05
463.611	447.68
464.048	448.52
464.485	452.58
464.922	450.03
465.359	447.59
465.796	446.63
466.233	444.96
466.67	442.49
467.106	442.72
467.543	437.95
467.98	432.29
468.416	420.2
468.853	416.54
469.29	403.64
469.726	398.3
470.162	388.21
470.599	379
471.035	375.05
471.471	365.83
471.907	362.18
472.344	360.29
472.78	360.83
473.216	365.1
473.652	361.27
474.088	361.11
474.523	360.63
474.959	364.64
475.395	362.09
475.831	360.63
476.266	363.06
476.702	361.72
477.138	357.96
477.573	357.07
478.008	355.95
478.444	358.4
478.879	362.15
479.314	364.18
479.75	363.63
480.185	364.96
480.62	366.93
481.055	368.29
481.49	371.36
481.925	376.66
482.36	384.15
482.795	394.75
483.229	403.96
483.664	411.91
484.099	413.7
484.534	419.65
484.968	422.77
485.403	424.5
485.837	423.63
486.271	423.13
486.706	423.58
487.14	418.15
487.574	411.99
488.009	408.34
488.443	405.09
488.877	409.66
489.311	410.98
489.745	417.42
490.179	422.11
490.613	431.83
491.046	435.48
491.48	439.2
491.914	440.37
492.348	444.44
492.781	448.06
493.215	449.79
493.648	450.9
494.082	455.37
494.515	457.16
494.948	463.57
495.382	466.91
495.815	471.51
496.248	476.3
496.681	486.22
497.114	495.79
497.547	504.29
497.98	515.66
498.413	523.3
498.846	532.43
499.279	540.45
499.711	545.05
500.144	549.37
500.577	559.65
501.009	570.32
501.442	580.57
501.874	584.93
502.306	589.84
502.739	599.35
503.171	612.1
503.603	618.11
504.036	627.88
504.468	635.94
504.9	647.85
505.332	657.02
505.764	664.29
506.196	673.39
506.627	687.88
507.059	702.32
507.491	711.91
507.923	715.57
508.354	731.22
508.786	744.17
509.217	762.44
509.649	778.69
510.08	797.29
510.512	815.45
510.943	831.21
511.374	844.99
511.805	864.94
512.237	885.06
512.668	914.94
513.099	941.96
513.53	968.46
513.961	991
514.391	1021.41
514.822	1054.07
515.253	1088.18
515.684	1115.17
516.114	1144.98
516.545	1168.33
516.975	1195.3
517.406	1215.93
517.836	1222.65
518.267	1234.19
518.697	1254.19
519.127	1261.7
519.558	1271.66
519.988	1279.06
520.418	1291.45
520.848	1310.12
521.278	1322.13
521.708	1351.7
522.138	1366.64
522.567	1397.45
522.997	1422.21
523.427	1438.59
523.857	1457.8
524.286	1470.61
524.716	1487.94
525.145	1507.72
525.575	1520.41
526.004	1536.2
526.433	1523.49
526.863	1525.44
527.292	1518.95
527.721	1526.62
528.15	1533.32
528.579	1535.51
529.008	1547.63
529.437	1569.39
529.866	1584
530.295	1601.06
530.724	1613.47
531.152	1639.83
531.581	1654
532.01	1670.74
532.438	1678.92
532.867	1693.52
533.295	1712.34
533.723	1718.16
534.152	1716.84
534.58	1716.8
535.008	1702.4
535.436	1704.85
535.865	1711.4
536.293	1725.94
536.721	1741.19
537.149	1766.16
537.576	1769.17
538.004	1780.67
538.432	1787.6
538.86	1786.26
539.287	1792.8
539.715	1806.67
540.143	1808.39
540.57	1805.87
540.998	1801.52
541.425	1779.61
541.852	1758.29
542.28	1756.39
542.707	1741.54
543.134	1728.86
543.561	1724.59
543.988	1718.06
544.415	1717.5
544.842	1712.64
545.269	1705.96
545.696	1707.93
546.123	1721.12
546.549	1712.27
546.976	1700.13
547.403	1700.05
547.829	1701.85
548.256	1704.43
548.682	1702.5
549.108	1695
549.535	1695.6
549.961	1697.55
550.387	1686.12
550.813	1680.09
551.24	1686.82
551.666	1688.9
552.092	1679.63
552.518	1675.28
552.943	1669.64
553.369	1675.58
553.795	1681.66
554.221	1682.27
554.646	1679.44
555.072	1690.01
555.498	1696.03
555.923	1704.23
556.349	1716.99
556.774	1724.38
557.199	1724.1
557.625	1729.43
558.05	1724.24
558.475	1733.21
558.9	1731.48
559.325	1723.47
559.75	1715.48
560.175	1707.93
560.6	1701.53
561.025	1699.79
561.449	1699.49
561.874	1704.2
562.299	1707.67
562.723	1711.66
563.148	1700.51
563.572	1702.8
563.997	1710.56
564.421	1714.43
564.846	1712.98
565.27	1714.26
565.694	1710.29
566.118	1720.28
566.542	1725.55
566.966	1716.48
567.39	1711.77
567.814	1700.2
568.238	1697.91
568.662	1700.62
569.086	1699.58
569.509	1704.11
569.933	1688.19
570.357	1678.97
570.78	1657.37
571.204	1642.37
571.627	1630.89
572.05	1626.22
572.474	1624.24
572.897	1610.45
573.32	1600.92
573.743	1591.18
574.166	1573.16
574.589	1570.58
575.012	1562.21
575.435	1558.12
575.858	1548.73
576.281	1536.55
576.704	1520.22
577.126	1507.14
577.549	1495.77
577.972	1485.62
578.394	1474.59
578.817	1467.03
579.239	1450.36
579.661	1436.76
580.084	1422.76
580.506	1409.59
580.928	1405.12
581.35	1394.8
581.772	1391.31
582.194	1380.1
582.616	1368.36
583.038	1355.6
583.46	1345.59
583.882	1340.38
584.303	1343.45
584.725	1338.36
585.147	1340.59
585.568	1349.49
585.99	1359.84
586.411	1363.2
586.833	1373.65
587.254	1372.89
587.675	1383.48
588.096	1391.94
588.518	1386.17
588.939	1369.67
589.36	1367.23
589.781	1355.36
590.202	1329.85
590.623	1321.25
591.043	1318.04
591.464	1306.09
591.885	1302.1
592.305	1296.17
592.726	1283.37
593.147	1283.3
593.567	1278.82
593.987	1271.15
594.408	1266.15
594.828	1263.06
595.248	1256.81
595.669	1241
596.089	1234.14
596.509	1228.27
596.929	1216.72
597.349	1217.43
597.769	1207.98
598.189	1201.83
598.608	1202.15
599.028	1202.65
599.448	1202.73
599.867	1190.4
600.287	1185.29
600.706	1181.53
601.126	1172.86
601.545	1170.78
601.965	1168.49
602.384	1164.1
602.803	1166.09
603.222	1161.82
603.641	1155.09
604.061	1151.28
604.48	1148.24
604.898	1154.3
605.317	1157.1
605.736	1157.27
606.155	1153.37
606.574	1144.93
606.992	1148.13
607.411	1142.06
607.829	1133.28
608.248	1129.62
608.666	1125.82
609.085	1124.06
609.503	1115.66
609.921	1109.58
610.339	1110.72
610.758	1109.94
611.176	1105.06
611.594	1097.01
612.012	1093.99
612.43	1096.97
612.847	1100.92
613.265	1101.1
613.683	1104.19
614.101	1104.42
614.518	1099.26
614.936	1089.32
615.353	1076.05
615.771	1072.68
616.188	1071.84
616.606	1068.11
617.023	1059.88
617.44	1047.22
617.857	1040.2
618.274	1031.28
618.691	1025.46
619.108	1017.78
619.525	1013.21
619.942	1017.82
620.359	1019.55
620.776	1014.23
621.192	1009.99
621.609	1007.94
622.026	1013.86
622.442	1017.55
622.859	1019.51
623.275	1013.26
623.691	1017.18
624.108	1025.47
624.524	1036.14
624.94	1034.97
625.356	1042.43
625.772	1052.58
626.188	1061.95
626.604	1061.9
627.02	1059.06
627.436	1057.15
627.852	1062.35
628.268	1072.57
628.683	1064.61
629.099	1056.89
629.514	1052.88
629.93	1056.03
630.345	1058.82
630.761	1054.15
631.176	1057
631.591	1052.19
632.007	1046.77
632.422	1043.73
632.837	1032.51
633.252	1028.78
633.667	1018.92
634.082	1009.49
634.497	997.07
634.911	980.27
635.326	975.62
635.741	959.05
636.155	947.39
636.57	945.13
636.984	941.64
637.399	940.2
637.813	935.45
638.228	930.72
638.642	929.63
639.056	917.79
639.47	913.47
639.884	902.92
640.298	894.76
640.712	890.32
641.126	877.01
641.54	867.25
641.954	858.14
642.368	846.07
642.781	837.55
643.195	820.98
643.609	817.43
644.022	809.43
644.436	802.62
644.849	789.8
645.262	777.03
645.676	774.37
646.089	767.79
646.502	756.19
646.915	749.81
647.328	735.06
647.741	732.1
648.154	721.49
648.567	717.28
648.98	707.77
649.393	706.69
649.805	704.18
650.218	698.32
650.631	686.56
651.043	680.17
651.456	675.45
651.868	675.37
652.28	686.26
652.693	694.78
653.105	698.69
653.517	703.47
653.929	703.54
654.341	706.06
654.753	697.21
655.165	701.07
655.577	699.64
655.989	696.08
656.401	688.39
656.813	664.88
657.224	649.84
657.636	629.46
658.047	616.83
658.459	603.42
658.87	595.82
659.282	586.79
659.693	572
660.104	561.19
660.515	550.33
660.926	550
661.338	546.3
661.749	540.64
662.159	534.65
662.57	530.23
662.981	524.95
663.392	519.98
663.803	521.68
664.213	518.93
664.624	514.6
665.035	516.56
665.445	506.25
665.855	500.55
666.266	496.7
666.676	494.74
667.086	489.62
667.497	489.79
667.907	484.65
668.317	478.01
668.727	477.08
669.137	477.1
669.547	475.22
669.956	476.41
670.366	477.77
670.776	479.19
671.186	481.48
671.595	483.86
672.005	485.99
672.414	487.5
672.824	488.65
673.233	490.77
673.642	493.87
674.052	498.17
674.461	501.7
674.87	505.76
675.279	504.86
675.688	506.18
676.097	509.13
676.506	508.57
676.915	519.24
677.323	522.79
677.732	524.1
678.141	526.29
678.549	519.76
678.958	520.74
679.366	522.11
679.775	527.13
680.183	538.63
680.592	544.84
681	551.8
681.408	550.15
681.816	557.46
682.224	565.31
682.632	575.53
683.04	600.2
683.448	620.8
683.856	647.01
684.264	675.75
684.671	701.5
685.079	735.02
685.487	770.52
685.894	820.06
686.302	862.42
686.709	900.54
687.116	941.72
687.524	979.31
687.931	1014.61
688.338	1045.69
688.745	1072.92
689.152	1104.86
689.559	1144.43
689.966	1188.88
690.373	1215.1
690.78	1257.47
691.187	1317.36
691.593	1366.99
692	1410.12
692.407	1468.6
692.813	1542.18
693.22	1604.18
693.626	1666.14
694.032	1718.59
694.439	1791.77
694.845	1850.93
695.251	1924.36
695.657	1989.39
696.063	2085.85
696.469	2160.31
696.875	2231.7
697.281	2273.76
697.687	2325.64
698.093	2370.51
698.498	2448.25
698.904	2509.85
699.31	2599.58
699.715	2666.06
700.12	2760.88
