Data from C_3_DEC_OH_4N_Splice17_13-26-06-167.txt Node
Date: Sat Mar 14 13:26:06 EDT 2020
User: sa697716
Spectrometer: FLMS03696
Trigger mode: 0
Integration Time (sec): 3.180400E-1
Scans to average: 20
Electric dark correction enabled: true
Nonlinearity correction enabled: true
Boxcar width: 5
XAxis mode: Wavelengths
Number of Pixels in Spectrum: 2048
>>>>>Begin Spectral Data<<<<<
187.83	-332592.41
188.298	2483.59
188.766	1327.87
189.233	1192.9
189.701	1645.12
190.169	2306.77
190.636	871.22
191.104	781.3
191.571	109.81
192.039	-81.01
192.506	-187.36
192.974	387.44
193.441	-727.21
193.908	-49.26
194.375	-51.62
194.842	-15.22
195.31	106.08
195.777	151.88
196.244	369.26
196.711	332.74
197.177	393.73
197.644	526.98
198.111	948.55
198.578	1342.28
199.045	1053.15
199.511	1740.26
199.978	1983.33
200.445	1718.1
200.911	1900.58
201.378	2097.73
201.844	1937.56
202.31	3314.63
202.777	3427.06
203.243	1894.48
203.709	1824.28
204.176	2192.46
204.642	1803.31
205.108	1700.98
205.574	1363.62
206.04	1220.35
206.506	1138.06
206.972	1059.73
207.438	1040.72
207.903	1188.61
208.369	1034.75
208.835	1032.23
209.301	1070.2
209.766	1093.13
210.232	1092.22
210.697	1335.97
211.163	1646.75
211.628	2447.12
212.094	2038.9
212.559	2517.89
213.024	1577.51
213.49	1939.81
213.955	1869.5
214.42	1783.75
214.885	1654.2
215.35	1573.55
215.815	1573.64
216.28	1674.26
216.745	1360.91
217.21	1476.76
217.675	1312.49
218.14	1455.31
218.604	1586.51
219.069	1771.17
219.534	1872.16
219.998	2133.71
220.463	2540.14
220.927	2986.74
221.392	2776.82
221.856	2783.14
222.32	3427.74
222.785	4202.43
223.249	5247.25
223.713	5801.88
224.177	5795.98
224.642	7337.94
225.106	8962.61
225.57	9726.35
226.034	7273.43
226.497	11000.47
226.961	9964.63
227.425	11627.52
227.889	12858.52
228.353	12819.83
228.816	26383.65
229.28	25181.59
229.744	21139.39
230.207	12889.06
230.671	12708.38
231.134	20848.53
231.597	24064.71
232.061	23847.07
232.524	23108.21
232.987	15909.17
233.45	14302.47
233.914	12826.57
234.377	13085.28
234.84	11983.79
235.303	14094.42
235.766	15688.28
236.229	16207.13
236.691	10202.97
237.154	11515.5
237.617	8727.54
238.08	8935.48
238.542	10476.52
239.005	7517.91
239.468	7488.84
239.93	7062.87
240.393	6421.28
240.855	5652.54
241.317	5801.35
241.78	7041.11
242.242	7296.68
242.704	7913.51
243.166	6903.94
243.629	6300.7
244.091	7273.81
244.553	7964.56
245.015	8574.63
245.477	11074.51
245.939	16192.11
246.4	17210.61
246.862	16761.31
247.324	15801.84
247.786	17596
248.247	23055.24
248.709	23690.79
249.17	17729.95
249.632	16798.3
250.093	19530.6
250.555	16902.35
251.016	10329.98
251.477	9801.25
251.939	10597.75
252.4	11094.61
252.861	13176.97
253.322	12297.17
253.783	14617.2
254.244	18970.09
254.705	14926.61
255.166	13234.92
255.627	13052.85
256.088	18498.31
256.549	19694.2
257.009	16955.78
257.47	20572.79
257.931	16776.64
258.391	12549.91
258.852	12944.67
259.312	13536.69
259.773	16740.21
260.233	14193.14
260.694	11993.66
261.154	13575.26
261.614	10925.45
262.074	9760.69
262.534	10164.99
262.994	9598.64
263.455	12785.74
263.915	10795.44
264.374	10158.32
264.834	11074.68
265.294	12256.47
265.754	12692.14
266.214	12012.59
266.673	11230.42
267.133	14159.95
267.593	14046.62
268.052	17184.51
268.512	14939.16
268.971	18070.87
269.431	19853.59
269.89	17781.6
270.349	26696.29
270.809	29848.12
271.268	26824.11
271.727	60075.77
272.186	38925.45
272.645	29179.26
273.104	21028.19
273.563	30441.79
274.022	23836.42
274.481	20302.29
274.94	15674.47
275.399	11633.09
275.857	13529.44
276.316	18296.52
276.775	16267.29
277.233	16035.67
277.692	15056.26
278.15	17026.1
278.609	17591.12
279.067	16279.44
279.525	15144.11
279.984	19547.91
280.442	23546.92
280.9	23239.92
281.358	15333.81
281.816	14346.18
282.274	14055.49
282.732	14491.13
283.19	14607.46
283.648	12575.09
284.106	13419.32
284.564	13629.51
285.021	12662.8
285.479	9416.17
285.937	8534.07
286.394	7507.65
286.852	7723.22
287.309	8147.87
287.767	7917.86
288.224	7557.25
288.682	8313.08
289.139	9155.75
289.596	8407.06
290.053	8755.21
290.511	11080.83
290.968	13493.86
291.425	18269.19
291.882	15284.94
292.339	13312.94
292.796	13200.58
293.252	12428.69
293.709	9903.84
294.166	8885.42
294.623	9840.45
295.079	9433.78
295.536	9519.19
295.992	8661.06
296.449	8585.95
296.905	8920.26
297.362	8579.87
297.818	9003.81
298.274	9374
298.731	9552.94
299.187	9462
299.643	10150.22
300.099	12324.38
300.555	13503.33
301.011	11289.41
301.467	10951.36
301.923	12787.34
302.379	12504.45
302.835	12346.7
303.291	12348.72
303.746	14069.86
304.202	17782.19
304.658	17880.6
305.113	12019.74
305.569	11806.8
306.024	12575.69
306.479	11917.09
306.935	10101.58
307.39	11006.08
307.845	10190.99
308.301	10282.38
308.756	10004.94
309.211	9670
309.666	9921.16
310.121	12348.7
310.576	12519.12
311.031	12414.1
311.486	14213.92
311.94	14210.11
312.395	19046.31
312.85	35722.66
313.305	175173.6
313.759	914848.13
314.214	66406.74
314.668	52699.93
315.123	44397.7
315.577	15987.69
316.032	14304.27
316.486	17952.96
316.94	14217.26
317.394	9925.44
317.849	7715.51
318.303	7310.26
318.757	6885.95
319.211	7601.15
319.665	6665.26
320.119	6741.56
320.572	9653.3
321.026	9037.98
321.48	7526.78
321.934	8183.46
322.387	8198.78
322.841	8883.7
323.295	8051.73
323.748	9267.57
324.202	9428.86
324.655	11342.01
325.108	15917.99
325.562	11257.37
326.015	13340.93
326.468	10086.58
326.921	11299.16
327.374	10573.14
327.827	11031.23
328.28	12468.51
328.733	8382.34
329.186	7372.51
329.639	7036.42
330.092	5926.15
330.545	5650.16
330.997	5720.45
331.45	6274.84
331.903	7393.58
332.355	12665.23
332.808	12285.41
333.26	10125.3
333.713	10998.3
334.165	11058.8
334.617	14756.36
335.069	11866.45
335.522	21503.03
335.974	23862.04
336.426	21817.98
336.878	15029.55
337.33	7652.4
337.782	7497.76
338.234	9446.77
338.686	11277.86
339.137	13413
339.589	12639.12
340.041	9968.27
340.493	8559.21
340.944	8760.87
341.396	9430.47
341.847	7959.69
342.299	9452.28
342.75	11569.19
343.201	10034.16
343.653	11539.99
344.104	14181.15
344.555	11164.9
345.006	17334.24
345.457	13366.88
345.908	10637.43
346.359	10060.4
346.81	8186.18
347.261	8599.8
347.712	8443.95
348.163	9082.93
348.613	9236.31
349.064	8647.19
349.515	7554.1
349.965	7770.12
350.416	9324.39
350.866	10221.13
351.317	11531.79
351.767	19116.8
352.217	24184.49
352.668	20139.15
353.118	18543.99
353.568	17862.34
354.018	14161.79
354.468	15024.72
354.918	10785.88
355.368	9446.33
355.818	13362.59
356.268	38448.47
356.718	162172.08
357.168	40346.08
357.617	20200.17
358.067	22347.89
358.517	20966.31
358.966	24652.62
359.416	27736.09
359.865	29986.56
360.315	35721.01
360.764	16720.51
361.213	9399.66
361.663	8845.61
362.112	10957.61
362.561	17720.63
363.01	13422.2
363.459	11283.93
363.908	12187.64
364.357	10378.4
364.806	17510.89
365.255	12067.3
365.703	11095.41
366.152	11128.58
366.601	9054.66
367.05	7370.66
367.498	6722.93
367.947	7026.47
368.395	7335.83
368.844	6521.22
369.292	7819.38
369.74	5442.84
370.189	8337.45
370.637	9756.63
371.085	8415.34
371.533	10241.68
371.981	9842.52
372.429	9435.75
372.877	9814.89
373.325	8257.07
373.773	8390.39
374.221	7482.47
374.669	9261.7
375.116	8021.04
375.564	8102.65
376.012	9056.66
376.459	7505.22
376.907	8996.32
377.354	10845.35
377.801	10132.01
378.249	11633.73
378.696	14878.5
379.143	18052.83
379.591	19257.24
380.038	32660.65
380.485	23692.61
380.932	25597.95
381.379	23517.71
381.826	17393.81
382.273	12362.91
382.72	10792.19
383.166	10524.22
383.613	6840.33
384.06	6192.7
384.506	7175.9
384.953	5273.15
385.4	5296.68
385.846	4655.37
386.292	4509.92
386.739	4391.32
387.185	4343.41
387.631	4358.12
388.078	4247.22
388.524	4542.04
388.97	4188.18
389.416	3501.5
389.862	3717.95
390.308	3513.97
390.754	3564.94
391.2	3874.85
391.645	3961.45
392.091	3818.2
392.537	3697.68
392.983	3680.19
393.428	3643.82
393.874	3889.92
394.319	3915.64
394.765	3733.65
395.21	3842.07
395.655	3604.9
396.101	3378.85
396.546	3057.17
396.991	3068.3
397.436	2846.37
397.881	2759.94
398.326	2604.29
398.771	2481.47
399.216	2159.63
399.661	1937.96
400.106	1935.8
400.551	1998.62
400.995	1796.73
401.44	1784.46
401.885	1679.49
402.329	1704
402.774	1637.5
403.218	1598.8
403.663	1540.48
404.107	1594.59
404.551	1617.74
404.995	1487.38
405.44	1426.83
405.884	1447.59
406.328	1402.03
406.772	1400.99
407.216	1279.98
407.66	1238.6
408.104	1170.88
408.547	1098.59
408.991	1066.27
409.435	1025.68
409.879	1015.02
410.322	1005.02
410.766	974.85
411.209	929.15
411.653	892.03
412.096	876.49
412.54	876.16
412.983	874.12
413.426	883.18
413.869	879.2
414.312	866.61
414.756	835.48
415.199	797.04
415.642	777.31
416.085	781.64
416.527	777.24
416.97	789.45
417.413	751.2
417.856	742.37
418.298	733.41
418.741	727.31
419.184	725.11
419.626	751.75
420.069	754.22
420.511	757.86
420.953	742.22
421.396	738.31
421.838	718.33
422.28	738.06
422.722	743.76
423.164	753.67
423.606	744.82
424.048	740.33
424.49	707.42
424.932	702.16
425.374	693.52
425.816	703.68
426.258	715.51
426.699	725.28
427.141	715.13
427.582	725.11
428.024	719.4
428.465	713.4
428.907	697.77
429.348	688.06
429.789	689.7
430.231	674.68
430.672	681.58
431.113	663.93
431.554	651.75
431.995	633.76
432.436	612.85
432.877	597.77
433.318	589.11
433.759	585.25
434.2	585.82
434.64	578.74
435.081	580.42
435.522	550.5
435.962	531
436.403	522.01
436.843	527.88
437.284	514.23
437.724	500.09
438.164	497.07
438.604	484.58
439.045	466.9
439.485	448.53
439.925	436.78
440.365	425.67
440.805	418.66
441.245	412.1
441.685	395.31
442.125	390.55
442.564	392.2
443.004	383.99
443.444	382.54
443.883	382.07
444.323	377.16
444.762	376.01
445.202	379.81
445.641	389.09
446.081	385.76
446.52	388.98
446.959	385.25
447.398	375.83
447.837	373.29
448.276	364.91
448.716	367.39
449.154	367.92
449.593	361.42
450.032	360.67
450.471	351.57
450.91	349.31
451.349	349.4
451.787	347.04
452.226	351.87
452.664	350.15
453.103	351.16
453.541	349.32
453.98	351.51
454.418	352.71
454.856	347.67
455.295	346.74
455.733	351.46
456.171	352.41
456.609	352.67
457.047	353.17
457.485	359.58
457.923	361.86
458.361	356.42
458.798	356.38
459.236	354.79
459.674	355.81
460.111	357.11
460.549	353.22
460.987	351.48
461.424	349.68
461.862	346.04
462.299	338.29
462.736	337.54
463.173	338.59
463.611	337.89
464.048	337.98
464.485	340.79
464.922	336.97
465.359	334.55
465.796	337.49
466.233	337.14
466.67	336.86
467.106	338.45
467.543	334.08
467.98	330.22
468.416	319.24
468.853	315.36
469.29	305.55
469.726	302.14
470.162	294.13
470.599	283.71
471.035	278.97
471.471	271.3
471.907	267.92
472.344	265.78
472.78	267.26
473.216	269.97
473.652	266.83
474.088	265.27
474.523	265.2
474.959	267.61
475.395	266.56
475.831	265.83
476.266	267.3
476.702	266.47
477.138	264.25
477.573	262.68
478.008	261.3
478.444	263.95
478.879	268.49
479.314	270.14
479.75	270.01
480.185	269.67
480.62	271.82
481.055	273.04
481.49	275.73
481.925	279.63
482.36	286.52
482.795	294.73
483.229	301.51
483.664	307.24
484.099	308.12
484.534	313.24
484.968	317.06
485.403	317.53
485.837	316
486.271	314.51
486.706	314.88
487.14	310.47
487.574	305.96
488.009	303.52
488.443	300.54
488.877	304.54
489.311	305.61
489.745	309.74
490.179	313.44
490.613	321.68
491.046	324.81
491.48	327.87
491.914	328.39
492.348	330.77
492.781	333.06
493.215	334.24
493.648	334.73
494.082	337.48
494.515	337.7
494.948	342.88
495.382	344.85
495.815	348.78
496.248	352.34
496.681	359.42
497.114	365.66
497.547	372.57
497.98	381.9
498.413	386.6
498.846	393.2
499.279	399.21
499.711	402.14
500.144	404.85
500.577	412.17
501.009	419.37
501.442	427.51
501.874	431.04
502.306	433.16
502.739	441.29
503.171	451.38
503.603	455.73
504.036	462.66
504.468	468.13
504.9	476.56
505.332	482.43
505.764	487.16
506.196	492.78
506.627	503.15
507.059	513.52
507.491	517.27
507.923	518.64
508.354	529.95
508.786	539.68
509.217	552.86
509.649	564.74
510.08	577.12
510.512	590.01
510.943	601.76
511.374	611.79
511.805	626.72
512.237	641.75
512.668	663.21
513.099	680.89
513.53	698.9
513.961	714.39
514.391	736.48
514.822	760.88
515.253	786.05
515.684	804.34
516.114	824.74
516.545	840.99
516.975	859.69
517.406	873.52
517.836	878.82
518.267	885.92
518.697	900.42
519.127	905.11
519.558	911.76
519.988	916.66
520.418	925.57
520.848	939.15
521.278	946.45
521.708	985.44
522.138	996.81
522.567	1018.92
522.997	1037.65
523.427	1049.07
523.857	1062.29
524.286	1071.75
524.716	1083.1
525.145	1096.88
525.575	1106.35
526.004	1118.01
526.433	1090.45
526.863	1092.31
527.292	1088.18
527.721	1094.46
528.15	1099.66
528.579	1102.39
529.008	1111.02
529.437	1127.01
529.866	1137.33
530.295	1149.66
530.724	1159.34
531.152	1178.93
531.581	1189.29
532.01	1201.25
532.438	1206.5
532.867	1216.83
533.295	1229.24
533.723	1232.96
534.152	1231.78
534.58	1232.92
535.008	1222.55
535.436	1224.16
535.865	1229.83
536.293	1238.84
536.721	1248.63
537.149	1267.02
537.576	1268.78
538.004	1277
538.432	1282.13
538.86	1281.7
539.287	1285.78
539.715	1295.14
540.143	1296.49
540.57	1293.25
540.998	1290.21
541.425	1276.15
541.852	1260.04
542.28	1259.15
542.707	1248.3
543.134	1238.8
543.561	1235.6
543.988	1230.77
544.415	1230.29
544.842	1226.49
545.269	1222.49
545.696	1224.04
546.123	1233.02
546.549	1226.68
546.976	1218.24
547.403	1217.94
547.829	1219.68
548.256	1221.89
548.682	1220.26
549.108	1216.63
549.535	1215.97
549.961	1216.57
550.387	1208.7
550.813	1205.92
551.24	1211.1
551.666	1212.69
552.092	1206.9
552.518	1203.73
552.943	1200.08
553.369	1204.49
553.795	1207.46
554.221	1209.25
554.646	1208.17
555.072	1217.32
555.498	1219.12
555.923	1225.96
556.349	1235.53
556.774	1241.79
557.199	1241.56
557.625	1245.06
558.05	1241.54
558.475	1248.6
558.9	1247.9
559.325	1242.95
559.75	1237.4
560.175	1233.38
560.6	1227.39
561.025	1224.84
561.449	1224.61
561.874	1227.64
562.299	1230.43
562.723	1234.01
563.148	1225.96
563.572	1227.15
563.997	1232.22
564.421	1234.59
564.846	1233.53
565.27	1236.32
565.694	1234.16
566.118	1240.86
566.542	1246.37
566.966	1240.44
567.39	1236.08
567.814	1228.56
568.238	1228.15
568.662	1230.41
569.086	1231.41
569.509	1235.04
569.933	1223.91
570.357	1218.11
570.78	1202.84
571.204	1193.14
571.627	1184.68
572.05	1182.63
572.474	1180.39
572.897	1170.6
573.32	1164.21
573.743	1155.15
574.166	1142.7
574.589	1140.07
575.012	1134.3
575.435	1132.71
575.858	1125.16
576.281	1116.81
576.704	1106.08
577.126	1097.72
577.549	1089.35
577.972	1081.35
578.394	1074.57
578.817	1071.07
579.239	1058.67
579.661	1049.83
580.084	1040.07
580.506	1030.71
580.928	1027.89
581.35	1020.62
581.772	1018.07
582.194	1008.83
582.616	1000.31
583.038	989.81
583.46	980.03
583.882	978.02
584.303	979.29
584.725	974.02
585.147	977.55
585.568	984.58
585.99	991.57
586.411	994.84
586.833	1004.36
587.254	1005.62
587.675	1015.08
588.096	1022.77
588.518	1018.95
588.939	1007.87
589.36	1007.12
589.781	995.1
590.202	977.65
590.623	971.44
591.043	969.28
591.464	961.09
591.885	958.12
592.305	953.75
592.726	944.5
593.147	944.41
593.567	940.63
593.987	935.7
594.408	933.07
594.828	929.16
595.248	925.21
595.669	913.92
596.089	908.24
596.509	903.15
596.929	894.74
597.349	895.21
597.769	888.19
598.189	884.47
598.608	884.74
599.028	885.9
599.448	886.32
599.867	876.98
600.287	872.9
600.706	870.69
601.126	864.99
601.545	864.08
601.965	862.65
602.384	859.33
602.803	860.64
603.222	857.53
603.641	853.01
604.061	850.24
604.48	847.54
604.898	852.13
605.317	854.06
605.736	854.04
606.155	851.59
606.574	845.83
606.992	848.65
607.411	843.99
607.829	837.5
608.248	834.53
608.666	831.54
609.085	831.31
609.503	824.75
609.921	820.57
610.339	822.07
610.758	820.33
611.176	815.84
611.594	809.89
612.012	808.12
612.43	810.67
612.847	813.64
613.265	815.72
613.683	816.43
614.101	816.87
614.518	813.7
614.936	807.21
615.353	798.05
615.771	796.8
616.188	796.07
616.606	792.75
617.023	787.6
617.44	779.45
617.857	773.13
618.274	767.79
618.691	764.33
619.108	757.62
619.525	752.77
619.942	756.65
620.359	757.17
620.776	753.35
621.192	751.76
621.609	749.54
622.026	752.68
622.442	755.61
622.859	756.73
623.275	751.73
623.691	755.56
624.108	762.73
624.524	770.13
624.94	769.63
625.356	775.07
625.772	780.64
626.188	787.57
626.604	787.65
627.02	785.37
627.436	784.85
627.852	789.37
628.268	796.18
628.683	789.63
629.099	784.33
629.514	780.84
629.93	783.59
630.345	786.27
630.761	782.55
631.176	784.75
631.591	782.1
632.007	777.63
632.422	774.05
632.837	765.97
633.252	763.62
633.667	756.69
634.082	750.51
634.497	742.14
634.911	730.92
635.326	727.37
635.741	715.31
636.155	706.44
636.57	705.81
636.984	704.77
637.399	704.93
637.813	703.18
638.228	700.26
638.642	700.11
639.056	691.57
639.47	689.85
639.884	682.68
640.298	677.03
640.712	674.8
641.126	665.62
641.54	657.35
641.954	649.06
642.368	639.86
642.781	635.36
643.195	623.53
643.609	621.01
644.022	613.6
644.436	609.05
644.849	600.59
645.262	590.89
645.676	589.27
646.089	585.91
646.502	579.34
646.915	574.79
647.328	562.65
647.741	560.31
648.154	552.66
648.567	552.59
648.98	545.52
649.393	544.72
649.805	543.08
650.218	538.77
650.631	529.67
651.043	525.58
651.456	522.3
651.868	521.73
652.28	529.74
652.693	535.58
653.105	536.14
653.517	539.3
653.929	538.86
654.341	540.36
654.753	533.11
655.165	535.74
655.577	533.13
655.989	529.72
656.401	523.79
656.813	506.38
657.224	495.2
657.636	479.46
658.047	471.31
658.459	461.3
658.87	454.98
659.282	448.02
659.693	438.04
660.104	429.68
660.515	421.26
660.926	419.82
661.338	416.67
661.749	412.95
662.159	408.95
662.57	404
662.981	400.15
663.392	396.62
663.803	397.61
664.213	393.76
664.624	390.94
665.035	392.43
665.445	385.4
665.855	381.81
666.266	378.04
666.676	375.42
667.086	370.51
667.497	370.56
667.907	366.84
668.317	361.49
668.727	362.51
669.137	361.14
669.547	359.77
669.956	360.52
670.366	361.4
670.776	362.18
671.186	363.78
671.595	366.49
672.005	366.72
672.414	367.57
672.824	369.63
673.233	369.52
673.642	373.33
674.052	375.35
674.461	378.83
674.87	381.57
675.279	381.87
675.688	383.11
676.097	386.11
676.506	386.24
676.915	394.14
677.323	395.55
677.732	396.63
678.141	395.98
678.549	391.85
678.958	391.06
679.366	390.99
679.775	393.47
680.183	401.75
680.592	405.92
681	410.44
681.408	408.35
681.816	414.07
682.224	420.51
682.632	428.88
683.04	446.35
683.448	460.91
683.856	479.75
684.264	501.75
684.671	520.31
685.079	543.09
685.487	568.04
685.894	604.93
686.302	634.81
686.709	660.54
687.116	689.82
687.524	716.69
687.931	741.19
688.338	762.86
688.745	781.03
689.152	802.93
689.559	832.45
689.966	863.16
690.373	878.62
690.78	907.68
691.187	948.28
691.593	981.6
692	1010.37
692.407	1051.95
692.813	1103.37
693.22	1144.6
693.626	1185.23
694.032	1219.58
694.439	1271.27
694.845	1311.7
695.251	1362.27
695.657	1408.38
696.063	1474.49
696.469	1525.43
696.875	1572.25
697.281	1599.24
697.687	1632.52
698.093	1663.33
698.498	1716.16
698.904	1756.54
699.31	1819.53
699.715	1866.23
700.12	1930.94
700.526	1947.46
700.931	1997.41
701.337	2036.63
701.742	2062.5
702.147	2120.86
702.552	2145.05
702.957	2188.07
703.362	2204.83
703.767	2226.76
704.172	2251.77
704.577	2222.4
704.981	2256.59
705.386	2269.82
705.791	2266.83
706.195	2319.52
