Data from C_3_DEC_NC_4N_Splice17_13-05-31-464.txt Node
Date: Sat Mar 14 13:05:31 EDT 2020
User: sa697716
Spectrometer: FLMS03696
Trigger mode: 0
Integration Time (sec): 3.180400E-1
Scans to average: 20
Electric dark correction enabled: true
Nonlinearity correction enabled: true
Boxcar width: 5
XAxis mode: Wavelengths
Number of Pixels in Spectrum: 2048
>>>>>Begin Spectral Data<<<<<
187.83	-338390.16
188.298	2481.95
188.766	1262.92
189.233	1100.09
189.701	1515.24
190.169	2071.84
190.636	722.98
191.104	541.83
191.571	51.71
192.039	-115.59
192.506	-200.68
192.974	354.93
193.441	-654.99
193.908	-147.81
194.375	-84.74
194.842	-91.3
195.31	-36.5
195.777	92.7
196.244	652.15
196.711	1526.69
197.177	2158.31
197.644	3367.92
198.111	5927.47
198.578	8389.93
199.045	6737.15
199.511	11084.49
199.978	13030.82
200.445	10838.76
200.911	12025.05
201.378	13559.21
201.844	11934.75
202.31	20146.55
202.777	20596.62
203.243	11229.53
203.709	10559.19
204.176	12398.63
204.642	10086.83
205.108	9303.53
205.574	7600.64
206.04	6960.32
206.506	6441.11
206.972	6113.38
207.438	5879.02
207.903	6649.66
208.369	5732.59
208.835	5616.71
209.301	5818.64
209.766	5929.28
210.232	5810.25
210.697	7121.02
211.163	8709.55
211.628	13051.79
212.094	10703.01
212.559	12709.55
213.024	7752.82
213.49	9287.88
213.955	8999.85
214.42	8767.41
214.885	8015.1
215.35	7542.06
215.815	6933.11
216.28	7136.88
216.745	5627.76
217.21	5789.4
217.675	5085.01
218.14	5360.94
218.604	5556.44
219.069	5780.68
219.534	5489.37
219.998	5840.96
220.463	6442.39
220.927	7272.68
221.392	6271.94
221.856	5839.32
222.32	6818.93
222.785	7846.34
223.249	9252.15
223.713	9733.51
224.177	9204.62
224.642	11233.74
225.106	13180
225.57	13824
226.034	9876.06
226.497	14483.12
226.961	12651.41
227.425	14211.27
227.889	15219.55
228.353	14704.13
228.816	29326.77
229.28	27267.44
229.744	22332.61
230.207	13270.97
230.671	12713.31
231.134	20391.29
231.597	22997.82
232.061	22370.63
232.524	21293.95
232.987	14358.92
233.45	12714.8
233.914	11197.04
234.377	11221.21
234.84	10074.7
235.303	11685.57
235.766	12860.66
236.229	13138.2
236.691	8163.25
237.154	9072.38
237.617	6789.07
238.08	6897.09
238.542	7955
239.005	5689.45
239.468	5641.04
239.93	5311.9
240.393	4807.48
240.855	4205.56
241.317	4290.69
241.78	5181.21
242.242	5341.81
242.704	5781.4
243.166	5013.76
243.629	4572.05
244.091	5228.51
244.553	5695.78
245.015	6098.08
245.477	7811.68
245.939	11371.76
246.4	11995.61
246.862	11600.37
247.324	10899.64
247.786	12045.26
248.247	15698.07
248.709	15986.04
249.17	11908.53
249.632	11286.09
250.093	13064.67
250.555	11257.31
251.016	6864.47
251.477	6500.28
251.939	7007.62
252.4	7333.28
252.861	8680.76
253.322	8096.42
253.783	9620.43
254.244	12451.86
254.705	9740.55
255.166	8600.58
255.627	8467.93
256.088	11948.86
256.549	12684.81
257.009	10862.38
257.47	13120.09
257.931	10675.91
258.391	7972.88
258.852	8183.5
259.312	8518.36
259.773	10418.77
260.233	8785.11
260.694	7348.92
261.154	8220.99
261.614	6565.78
262.074	5807.92
262.534	5992.12
262.994	5610.78
263.455	7346.71
263.915	6117.29
264.374	5674.05
264.834	6104.91
265.294	6660.3
265.754	6824.06
266.214	6346.81
266.673	5843.43
267.133	7265.25
267.593	7071.83
268.052	8536.52
268.512	7340.42
268.971	8865.15
269.431	9679.11
269.89	8630.12
270.349	12853.11
270.809	14306.79
271.268	12915.45
271.727	28780.6
272.186	18693.63
272.645	14086.95
273.104	10106.94
273.563	14673.11
274.022	11442.55
274.481	9821.63
274.94	7606.74
275.399	5677.95
275.857	6607.89
276.316	8960.02
276.775	8064.2
277.233	8008.78
277.692	7599.42
278.15	8702.95
278.609	9088.93
279.067	8489.95
279.525	7978.91
279.984	10382.98
280.442	12633.17
280.9	12678.94
281.358	8463.72
281.816	7986.25
282.274	7915
282.732	8231.48
283.19	8381.47
283.648	7309.53
284.106	7907.11
284.564	8124.01
285.021	7691.88
285.479	5801.47
285.937	5315.81
286.394	4730.45
286.852	4914.81
287.309	5230.1
287.767	5126.11
288.224	4933.38
288.682	5437.77
289.139	6002.64
289.596	5508.52
290.053	5707.67
290.511	7180.53
290.968	8721.02
291.425	11744.41
291.882	9784.39
292.339	8451.22
292.796	8283.35
293.252	7733.09
293.709	6148.2
294.166	5471.6
294.623	6009.55
295.079	5722.23
295.536	5741.53
295.992	5179.79
296.449	5116.14
296.905	5298.58
297.362	5092.2
297.818	5352.77
298.274	5570.41
298.731	5639.48
299.187	5574.43
299.643	5985.64
300.099	7276.54
300.555	7983.82
301.011	6693.1
301.467	6540.04
301.923	7641.54
302.379	7505.83
302.835	7429.94
303.291	7493.8
303.746	8572
304.202	10938.01
304.658	11072.88
305.113	7518.88
305.569	7461.65
306.024	8020.61
306.479	7653.72
306.935	6565.46
307.39	7222.65
307.845	6750.22
308.301	6849.7
308.756	6752.61
309.211	6579.17
309.666	6819.36
310.121	8583.18
310.576	8770.51
311.031	8807.48
311.486	10162.95
311.94	10210.42
312.395	13802.19
312.85	26118.98
313.305	129364.72
313.759	680952.59
314.214	49809.42
314.668	39735.72
315.123	33785.97
315.577	12260.13
316.032	10965.64
316.486	13805.09
316.94	10996.62
317.394	7702.39
317.849	5986.23
318.303	5651.47
318.757	5311.82
319.211	5858.01
319.665	5127.86
320.119	5140.81
320.572	7317.09
321.026	6817.63
321.48	5652.06
321.934	6107.42
322.387	6092.61
322.841	6583.18
323.295	5961.82
323.748	6824.24
324.202	6941.17
324.655	8388.02
325.108	11851.87
325.562	8417.01
326.015	10051.72
326.468	7652.35
326.921	8612.1
327.374	8089.03
327.827	8494.33
328.28	9670.24
328.733	6561.2
329.186	5803.92
329.639	5554.51
330.092	4688.56
330.545	4505.2
330.997	4590.73
331.45	5075.22
331.903	6010.42
332.355	10401.92
332.808	10172.17
333.26	8450.63
333.713	9272.46
334.165	9425.79
334.617	12667.35
335.069	10278.39
335.522	18722.73
335.974	20901.1
336.426	19171.44
336.878	13344.87
337.33	6827.79
337.782	6734.22
338.234	8531.75
338.686	10235.66
339.137	12169.51
339.589	11474.38
340.041	9032.59
340.493	7780.76
340.944	7961.86
341.396	8631.6
341.847	7286.79
342.299	8592.38
342.75	10464.62
343.201	9084.33
343.653	10375.12
344.104	12675.62
344.555	9944.16
345.006	15375.02
345.457	11783.55
345.908	9315.54
346.359	8761.29
346.81	7084.2
347.261	7421.97
347.712	7279.9
348.163	7785.73
348.613	7959.15
349.064	7459.02
349.515	6549.24
349.965	6765.88
350.416	8134.7
350.866	8938.97
351.317	10067.08
351.767	16831.78
352.217	21434.65
352.668	17934.41
353.118	16491.79
353.568	15901.96
354.018	12673.8
354.468	13463.38
354.918	9735.91
355.368	8559.21
355.818	12181.33
356.268	35192.67
356.718	148238.26
357.168	37153.77
357.617	18697.44
358.067	20898.6
358.517	19692.99
358.966	23242.02
359.416	26333.8
359.865	28522.84
360.315	34176.02
360.764	16017.44
361.213	9061.48
361.663	8582.11
362.112	10633.71
362.561	17287.59
363.01	13105.9
363.459	11083.77
363.908	12008.62
364.357	10253.88
364.806	17329.06
365.255	11988.13
365.703	11074.66
366.152	11140.02
366.601	9115.18
367.05	7460.21
367.498	6837.1
367.947	7157.06
368.395	7465.27
368.844	6667.18
369.292	8050.21
369.74	5607.55
370.189	8614.56
370.637	10149.15
371.085	8778.34
371.533	10715.24
371.981	10294.32
372.429	9830.63
372.877	10334.84
373.325	8719.41
373.773	8907.35
374.221	7940.11
374.669	9886.74
375.116	8560.97
375.564	8616.17
376.012	9645.09
376.459	7967.44
376.907	9574.71
377.354	11611.86
377.801	10905.18
378.249	12588.82
378.696	16188.22
379.143	19773.96
379.591	21146.83
380.038	36076.23
380.485	26448.51
380.932	28920.61
381.379	26897.63
381.826	20118.25
382.273	14495.36
382.72	12824.75
383.166	12697.88
383.613	8360.5
384.06	7668.84
384.506	9074.11
384.953	6808.61
385.4	7018.38
385.846	6331.17
386.292	6366.17
386.739	6487.61
387.185	6700.58
387.631	7031.97
388.078	7189.53
388.524	8101.42
388.97	7839.46
389.416	6781.4
389.862	7437.43
390.308	7276.07
390.754	7698.37
391.2	8827.42
391.645	9645.15
392.091	9912.53
392.537	10255.71
392.983	10911.55
393.428	11302.37
393.874	12929.81
394.319	14225.7
394.765	15165.95
395.21	17790.74
395.655	19086.59
396.101	20348.02
396.546	20817
396.991	23869.61
397.436	25128.05
397.881	27574.88
398.326	29820.85
398.771	31817.17
399.216	31284.33
399.661	31322.99
400.106	34270.74
400.551	38261.33
400.995	37197.2
401.44	39552.79
401.885	39623.74
402.329	42399.86
402.774	42738.12
403.218	43103.89
403.663	43505.6
404.107	46613.29
404.551	48870.11
404.995	46719.97
405.44	46857.81
405.884	49305.02
406.328	49298.74
406.772	50557.46
407.216	47343.38
407.66	47168.56
408.104	46287.73
408.547	44335.72
408.991	43750.76
409.435	42793.15
409.879	42626.47
410.322	42534.22
410.766	41461.23
411.209	39885.62
411.653	38866.2
412.096	38524.09
412.54	39072.77
412.983	39272.33
413.426	39738.03
413.869	40214.76
414.312	39914.23
414.756	39092.36
415.199	37855.01
415.642	37232.68
416.085	37750.76
416.527	37939.81
416.97	39019.3
417.413	37236.35
417.856	37039.48
418.298	36755.91
418.741	36564.19
419.184	36535.31
419.626	38160.69
420.069	38095.05
420.511	38333.09
420.953	37472.72
421.396	37212.81
421.838	36428.55
422.28	37391.28
422.722	37822.42
423.164	38875.9
423.606	38685.77
424.048	39105.74
424.49	37385.82
424.932	37608.46
425.374	37444.72
425.816	38443.78
426.258	39225.49
426.699	39431.85
427.141	38440.52
427.582	38812.28
428.024	38437.73
428.465	38264.18
428.907	37457.75
429.348	37303.13
429.789	37438.15
430.231	36745.38
430.672	37321.86
431.113	36733.61
431.554	36691.7
431.995	36655.64
432.436	35864.06
432.877	35611.67
433.318	35303.98
433.759	35569.31
434.2	35885.11
434.64	35872.93
435.081	36319.13
435.522	34874.27
435.962	34050.63
436.403	33763.1
436.843	34706.52
437.284	34457.95
437.724	33969.81
438.164	34533.34
438.604	34036.74
439.045	32842.22
439.485	31543.04
439.925	31123.95
440.365	30539.66
440.805	30311.17
441.245	29885.99
441.685	28816.98
442.125	28655.45
442.564	28840.86
443.004	28089.92
443.444	28027.91
443.883	28089.94
444.323	28088.33
444.762	28363.65
445.202	28810.57
445.641	29253.32
446.081	29319.12
446.52	29477.2
446.959	29178.02
447.398	28457.17
447.837	28166.14
448.276	27696.02
448.716	27950.93
449.154	28199.75
449.593	27342.83
450.032	27094.24
450.471	26559.56
450.91	26416.68
451.349	26130.98
451.787	25876.69
452.226	26051.7
452.664	25845.76
453.103	25666.03
453.541	25413.48
453.98	24945.06
454.418	24829.92
454.856	24097.21
455.295	23813.18
455.733	23660.41
456.171	23568.98
456.609	23309.18
457.047	22999.36
457.485	23043.67
457.923	22850.94
458.361	22413.26
458.798	22440.45
459.236	22316.07
459.674	22530
460.111	22575.84
460.549	22393.31
460.987	22403.24
461.424	22380.42
461.862	22367.92
462.299	22093.32
462.736	22070.06
463.173	22225.24
463.611	21927.75
464.048	21930.33
464.485	22155.65
464.922	22067.94
465.359	22087.45
465.796	21513.37
466.233	21474.08
466.67	21311.05
467.106	21331.59
467.543	21307.83
467.98	21158.22
468.416	20839.73
468.853	20826.23
469.29	20311.73
469.726	20174.74
470.162	19698.11
470.599	19781.32
471.035	19663.58
471.471	19252.84
471.907	19235.84
472.344	19121.21
472.78	19087.94
473.216	19277.25
473.652	18939.69
474.088	18817.37
474.523	18591.27
474.959	18641.51
475.395	18334.87
475.831	18039.31
476.266	17984.67
476.702	17773.17
477.138	17382.27
477.573	17154.53
478.008	16879.13
478.444	16713.15
478.879	16596.25
479.314	16465.13
479.75	16233.05
480.185	16117.34
480.62	16056.66
481.055	15929
481.49	15792.01
481.925	15777.03
482.36	15719.84
482.795	15898.98
483.229	16085.58
483.664	16156.7
484.099	15966.08
484.534	15944.4
484.968	15858.13
485.403	15694.36
485.837	15501.16
486.271	15298.14
486.706	15154.12
487.14	14919.15
487.574	14567.29
488.009	14333.79
488.443	14113.94
488.877	14112.27
489.311	14055.57
489.745	14090.79
490.179	14090.65
490.613	14172.03
491.046	14183.46
491.48	14180.36
491.914	14076.05
492.348	14074.27
492.781	14053.46
493.215	14006.78
493.648	13985.96
494.082	14013.97
494.515	13936.43
494.948	13981.83
495.382	14015.62
495.815	13993.92
496.248	13983.08
496.681	14124.31
497.114	14237.56
497.547	14291.58
497.98	14369.6
498.413	14301.7
498.846	14317.71
499.279	14335.74
499.711	14291.1
500.144	14194.45
500.577	14212.35
501.009	14263.9
501.442	14260.21
501.874	14112.6
502.306	14031.18
502.739	13979.85
503.171	14125.84
503.603	14042.74
504.036	14048.97
504.468	13978.98
504.9	13998.66
505.332	13954.95
505.764	13856.9
506.196	13811.57
506.627	13863.2
507.059	13876.12
507.491	13876.35
507.923	13633.61
508.354	13656.84
508.786	13620.7
509.217	13676.19
509.649	13686.68
510.08	13750.66
510.512	13754.7
510.943	13746.88
511.374	13691.65
511.805	13741.82
512.237	13784.16
512.668	13994.53
513.099	14114.31
513.53	14197.78
513.961	14183.46
514.391	14295.22
514.822	14389.89
515.253	14541.52
515.684	14572.7
516.114	14651.04
516.545	14628.95
516.975	14659.82
517.406	14606.24
517.836	14419.04
518.267	14290.42
518.697	14283.8
519.127	14152.59
519.558	14058.56
519.988	13925.1
520.418	13860.63
520.848	13864.87
521.278	13791.37
521.708	13430.69
522.138	13400
522.567	13524.98
522.997	13583.05
523.427	13553.88
523.857	13526.98
524.286	13466.37
524.716	13452.25
525.145	13471.17
525.575	13434.84
526.004	13443.69
526.433	13599
526.863	13497.83
527.292	13315.39
527.721	13284.89
528.15	13284.16
528.579	13241.58
529.008	13274.44
529.437	13394.8
529.866	13432.48
530.295	13491.01
530.724	13497.33
531.152	13626.34
531.581	13657.21
532.01	13733.73
532.438	13741.56
532.867	13795.82
533.295	13878.48
533.723	13872.4
534.152	13811.81
534.58	13771.2
535.008	13622.46
535.436	13603.18
535.865	13634.04
536.293	13715.74
536.721	13793.73
537.149	13932.83
537.576	13905.2
538.004	13972.8
538.432	14018.09
538.86	13993.42
539.287	14043.4
539.715	14136.89
540.143	14172.11
540.57	14156.67
540.998	14152.08
541.425	13994.56
541.852	13883.37
542.28	13916.23
542.707	13841.63
543.134	13774.18
543.561	13776.2
543.988	13753.13
544.415	13788.79
544.842	13781.52
545.269	13754.52
545.696	13792.03
546.123	13939.35
546.549	13894.52
546.976	13824.39
547.403	13845.66
547.829	13893.71
548.256	13949.59
548.682	13951.97
549.108	13921.93
549.535	13952.05
549.961	13999.71
550.387	13925.93
550.813	13899.68
551.24	13975.61
551.666	14013.57
552.092	13966.58
552.518	13944.85
552.943	13910.52
553.369	13996.38
553.795	14061.91
554.221	14079.93
554.646	14070.8
555.072	14147.2
555.498	14200.36
555.923	14271.08
556.349	14381.43
556.774	14447.25
557.199	14456.06
557.625	14525.58
558.05	14480.17
558.475	14570.73
558.9	14570.77
559.325	14510.72
559.75	14483.81
560.175	14449.99
560.6	14423.49
561.025	14428.27
561.449	14451.21
561.874	14503.09
562.299	14521.92
562.723	14582.28
563.148	14495.4
563.572	14524.1
563.997	14606.71
564.421	14653.81
564.846	14653.02
565.27	14661.01
565.694	14629.37
566.118	14702.93
566.542	14741.27
566.966	14679.37
567.39	14621.33
567.814	14520.59
568.238	14510.33
568.662	14549.69
569.086	14571.93
569.509	14655.01
569.933	14558.62
570.357	14551.51
570.78	14437.16
571.204	14382.58
571.627	14372.49
572.05	14441.46
572.474	14523.94
572.897	14524.05
573.32	14553.81
573.743	14588.54
574.166	14526.58
574.589	14641.68
575.012	14677.95
575.435	14782.66
575.858	14823.75
576.281	14847.2
576.704	14837.5
577.126	14865.33
577.549	14890.05
577.972	14937.22
578.394	14956.02
578.817	14990.93
579.239	14945.82
579.661	14940.37
580.084	14892.28
580.506	14890.96
580.928	14974.25
581.35	14982.5
581.772	15042.27
582.194	15007.9
582.616	14969.85
583.038	14929.31
583.46	14934.21
583.882	14976.2
584.303	15103.41
584.725	15153.4
585.147	15166.9
585.568	15298.06
585.99	15422.27
586.411	15493.3
586.833	15652.1
587.254	15687.4
587.675	15857.17
588.096	16015.85
588.518	15992.15
588.939	15842.78
589.36	15842.94
589.781	15845.38
590.202	15564.79
590.623	15541.04
591.043	15578.11
591.464	15488.08
591.885	15471.24
592.305	15432.16
592.726	15295.01
593.147	15300.15
593.567	15238.99
593.987	15146.49
594.408	15070.8
594.828	15063.62
595.248	14949.97
595.669	14700.34
596.089	14582.88
596.509	14480.36
596.929	14277.87
597.349	14223.22
597.769	14060.46
598.189	13924.08
598.608	13869.13
599.028	13815.54
599.448	13753.72
599.867	13580.07
600.287	13504.61
600.706	13408.6
601.126	13260.31
601.545	13207.6
601.965	13168.92
602.384	13096.85
602.803	13111.59
603.222	13047.05
603.641	12983.7
604.061	12939.68
604.48	12912.9
604.898	13000.04
605.317	13070.53
605.736	13115.16
606.155	13107.71
606.574	13045.37
606.992	13129.72
607.411	13114.48
607.829	13092.21
608.248	13111.41
608.666	13146.67
609.085	13186.64
609.503	13149.98
609.921	13137.97
610.339	13212.16
610.758	13272.6
611.176	13287.13
611.594	13255.5
612.012	13287.59
612.43	13366.11
612.847	13487.61
613.265	13535.17
613.683	13640.93
614.101	13715.86
614.518	13751.1
614.936	13716.64
615.353	13626.58
615.771	13656.33
616.188	13723.01
616.606	13749.97
617.023	13746.19
617.44	13659.2
617.857	13670.46
618.274	13645
618.691	13629.7
619.108	13582.76
619.525	13565.99
619.942	13672.96
620.359	13737.52
620.776	13716.89
621.192	13689.63
621.609	13686.16
622.026	13769.33
622.442	13847.42
622.859	13902.8
623.275	13848.99
623.691	13924.55
624.108	14065.11
624.524	14244.47
624.94	14257.22
625.356	14379.39
625.772	14551.13
626.188	14703.84
626.604	14739.84
627.02	14709.23
627.436	14693.03
627.852	14768.3
628.268	14905.22
628.683	14824.85
629.099	14751.36
629.514	14734.32
629.93	14807.13
630.345	14888.75
630.761	14882.83
631.176	14963.61
631.591	14916.14
632.007	14895.76
632.422	14950.06
632.837	14889.16
633.252	14908.67
633.667	14859.62
634.082	14818.74
634.497	14742.05
634.911	14575.78
635.326	14619.76
635.741	14508
636.155	14506.09
636.57	14610.76
636.984	14709.65
637.399	14821.57
637.813	14949.47
638.228	15054.61
638.642	15245.72
639.056	15255.5
639.47	15416.55
639.884	15452.12
640.298	15522.83
640.712	15653.06
641.126	15652.31
641.54	15707.96
641.954	15837.57
642.368	15829.22
642.781	15846.27
643.195	15764.95
643.609	15929.95
644.022	16009.94
644.436	16113.7
644.849	16110.69
645.262	16101.71
645.676	16293.06
646.089	16357
646.502	16241.1
646.915	16303.3
647.328	16220.64
647.741	16312.74
648.154	16235.72
648.567	16253.97
648.98	16141.82
649.393	16250.34
649.805	16296.39
650.218	16276.69
650.631	16098.21
651.043	16098.35
651.456	16074.06
651.868	16160.35
652.28	16509.24
652.693	16777.32
653.105	16930.32
653.517	17102.45
653.929	17106.88
654.341	17222.25
654.753	17047.12
655.165	17233.35
655.577	17276.77
655.989	17314.23
656.401	17315.91
656.813	16805.04
657.224	16624.99
657.636	16355.86
658.047	16233.8
658.459	16100.76
658.87	16162.22
659.282	16159.37
659.693	15938.81
660.104	15828.14
660.515	15739.29
660.926	15864.28
661.338	15993.38
661.749	16042.93
662.159	15992.76
662.57	16090.75
662.981	16155.92
663.392	16142.42
663.803	16354.33
664.213	16467.47
664.624	16533.69
665.035	16737.5
665.445	16588.11
665.855	16535.59
666.266	16451.24
666.676	16516.38
667.086	16419.58
667.497	16467.86
667.907	16415.49
668.317	16288.69
668.727	16188.06
669.137	16263.81
669.547	16246.12
669.956	16343.2
670.366	16417
670.776	16475.39
671.186	16585.33
671.595	16653.41
672.005	16755.62
672.414	16715.94
672.824	16653.56
673.233	16825.54
673.642	16849.71
674.052	16874.37
674.461	16864.86
674.87	16951.52
675.279	16843.44
675.688	16872.55
676.097	16841.86
676.506	16726.25
676.915	17016.81
677.323	17043.18
677.732	16963.93
678.141	16920.25
678.549	16671.55
678.958	16629.43
679.366	16570.33
