Data from C_3_HIR_IL_4N_Splice17_13-39-12-709.txt Node
Date: Sat Mar 14 13:39:12 EDT 2020
User: sa697716
Spectrometer: FLMS03696
Trigger mode: 0
Integration Time (sec): 3.180400E-1
Scans to average: 20
Electric dark correction enabled: true
Nonlinearity correction enabled: true
Boxcar width: 5
XAxis mode: Wavelengths
Number of Pixels in Spectrum: 2048
>>>>>Begin Spectral Data<<<<<
187.83	-483523.89
188.298	3434.4
188.766	1815.67
189.233	1590.18
189.701	2201.13
190.169	3145.85
190.636	1238.94
191.104	1005.37
191.571	188.86
192.039	-78.5
192.506	-126.7
192.974	573.07
193.441	-960.96
193.908	-214.63
194.375	-117.16
194.842	-32.91
195.31	112.93
195.777	199.9
196.244	502
196.711	587.29
197.177	740.57
197.644	1047.54
198.111	1834.1
198.578	2566.36
199.045	2049.4
199.511	3321.4
199.978	3845.89
200.445	3251.41
200.911	3578.93
201.378	3953.71
201.844	3563.27
202.31	6040.74
202.777	6246.24
203.243	3450.98
203.709	3272.68
204.176	3857.5
204.642	3198.54
205.108	2993.46
205.574	2425.15
206.04	2208.61
206.506	2068.23
206.972	1948.65
207.438	1869.37
207.903	2123.41
208.369	1832.13
208.835	1807.2
209.301	1895.56
209.766	1903.37
210.232	1855.17
210.697	2277.76
211.163	2785.4
211.628	4147.32
212.094	3451.48
212.559	4228.84
213.024	2620.64
213.49	3241.8
213.955	3151.81
214.42	3039.37
214.885	2845.9
215.35	2732.71
215.815	2639.74
216.28	2788.1
216.745	2239.93
217.21	2374.48
217.675	2114.19
218.14	2325.68
218.604	2486.73
219.069	2750.8
219.534	2819.31
219.998	3158.02
220.463	3714.59
220.927	4411.79
221.392	4056.96
221.856	4033.94
222.32	4999.09
222.785	6092.77
223.249	7551.38
223.713	8373.27
224.177	8328.15
224.642	10575.02
225.106	12955.42
225.57	14069.68
226.034	10483.48
226.497	15881.44
226.961	14347.97
227.425	16631.4
227.889	18368.23
228.353	18308.47
228.816	37597.29
229.28	35914.74
229.744	30231.33
230.207	18386.77
230.671	18040.75
231.134	29596.17
231.597	34196.3
232.061	34053.35
232.524	33230.64
232.987	22871.9
233.45	20603.22
233.914	18509.89
234.377	18912.5
234.84	17326.55
235.303	20410.61
235.766	22821.89
236.229	23608.15
236.691	14862.9
237.154	16732.53
237.617	12598.08
238.08	12931.87
238.542	15134.97
239.005	10836.99
239.468	10774.74
239.93	10161.78
240.393	9240.7
240.855	8123.84
241.317	8334.89
241.78	10120.62
242.242	10472.49
242.704	11360.53
243.166	9910.62
243.629	9049.91
244.091	10435.51
244.553	11444.41
245.015	12332.69
245.477	15956.64
245.939	23405.44
246.4	24880.73
246.862	24237.42
247.324	22856.69
247.786	25547.34
248.247	33482.87
248.709	34403.68
249.17	25810.58
249.632	24451.26
250.093	28400.49
250.555	24584.93
251.016	15014.1
251.477	14256.2
251.939	15423.77
252.4	16219.92
252.861	19270.65
253.322	17980.11
253.783	21436.18
254.244	27780.29
254.705	21885.66
255.166	19448.21
255.627	19139.66
256.088	27059.3
256.549	28773.49
257.009	24774.8
257.47	30009.3
257.931	24452.98
258.391	18311.34
258.852	18880.03
259.312	19760.97
259.773	24353.23
260.233	20611.13
260.694	17416.83
261.154	19724.6
261.614	15854.22
262.074	14158.79
262.534	14731.44
262.994	13892.8
263.455	18485.81
263.915	15583.59
264.374	14659.29
264.834	15998.72
265.294	17698.57
265.754	18311.75
266.214	17305.27
266.673	16203.08
267.133	20433.9
267.593	20252.17
268.052	24781.05
268.512	21518.47
268.971	25976.03
269.431	28524.72
269.89	25548.53
270.349	38302.9
270.809	42728.14
271.268	38437.27
271.727	85882.58
272.186	55654.22
272.645	41718.77
273.104	30006.4
273.563	43496.45
274.022	34070.12
274.481	28997.13
274.94	22323.25
275.399	16573.98
275.857	19247.25
276.316	26014.92
276.775	23191.44
277.233	22835.45
277.692	21420.59
278.15	24318.95
278.609	25102.04
279.067	23279.27
279.525	21678.29
279.984	28026.27
280.442	33700.02
280.9	33377.31
281.358	21997.78
281.816	20509.79
282.274	20067.12
282.732	20704.62
283.19	20769.29
283.648	17892.03
284.106	19072.21
284.564	19358.24
285.021	17980.95
285.479	13369.33
285.937	12135.65
286.394	10648.78
286.852	10962.97
287.309	11560.36
287.767	11201.06
288.224	10667.67
288.682	11711.11
289.139	12858.95
289.596	11777.15
290.053	12220.87
290.511	15440.19
290.968	18724.83
291.425	25392.92
291.882	21195.43
292.339	18456.98
292.796	18284.08
293.252	17218.59
293.709	13682.21
294.166	12276.94
294.623	13567.09
295.079	13023.87
295.536	13131.07
295.992	11923.52
296.449	11815.13
296.905	12282.46
297.362	11793.38
297.818	12411.87
298.274	12906.7
298.731	13139.38
299.187	12993.09
299.643	13965.08
300.099	16911.25
300.555	18506.89
301.011	15484.06
301.467	14963.67
301.923	17484.01
302.379	17087.34
302.835	16786.39
303.291	16834.98
303.746	19161.65
304.202	24229.61
304.658	24324.03
305.113	16366.83
305.569	16077.28
306.024	17145.48
306.479	16268.04
306.935	13745.37
307.39	14964.47
307.845	13835.12
308.301	13915.9
308.756	13574.21
309.211	13083.98
309.666	13408.27
310.121	16661.84
310.576	16912.36
311.031	16758.77
311.486	19206.01
311.94	19167.91
312.395	25672.87
312.85	48287.37
313.305	237050.78
313.759	1231874.55
314.214	89320.97
314.668	71007.13
315.123	59985.18
315.577	21571.72
316.032	19274.49
316.486	24168.91
316.94	19172.39
317.394	13394.76
317.849	10418.51
318.303	9848.04
318.757	9291.24
319.211	10292.61
319.665	8992.17
320.119	9071.8
320.572	12986.04
321.026	12130.29
321.48	10111.2
321.934	10982.05
322.387	10959.95
322.841	11820.79
323.295	10720.22
323.748	12315.2
324.202	12512.56
324.655	15053.43
325.108	21118.1
325.562	14914.31
326.015	17719.76
326.468	13387.71
326.921	15011.73
327.374	14037.48
327.827	14673.1
328.28	16540.6
328.733	11119.21
329.186	9767.86
329.639	9309.84
330.092	7833.41
330.545	7487.63
330.997	7568.24
331.45	8299.59
331.903	9754.51
332.355	16794.18
332.808	16327.99
333.26	13481.93
333.713	14670.93
334.165	14779.46
334.617	19730.03
335.069	15931.58
335.522	28709.53
335.974	31799.56
336.426	29047.25
336.878	20040.23
337.33	10178.33
337.782	9916.12
338.234	12448.74
338.686	14870.2
339.137	17625.53
339.589	16587
340.041	12997.45
340.493	11210.91
340.944	11478.87
341.396	12391.9
341.847	10455.58
342.299	12368.03
342.75	15154.86
343.201	13196.33
343.653	15190.75
344.104	18697.46
344.555	14732.01
345.006	22938.12
345.457	17655.28
345.908	14016.76
346.359	13187.95
346.81	10727.35
347.261	11280.55
347.712	11092.49
348.163	11913.74
348.613	12096.49
349.064	11297.98
349.515	9923.26
349.965	10201.79
350.416	12240.74
350.866	13422.55
351.317	15137.87
351.767	25135.89
352.217	31791.15
352.668	26357.86
353.118	24156.91
353.568	23228.42
354.018	18365.04
354.468	19359.87
354.918	13839.06
355.368	12104.19
355.818	17109.66
356.268	49205.84
356.718	206289.5
357.168	51425.24
357.617	25804.92
358.067	28622.97
358.517	26804.22
358.966	31529.61
359.416	35401.24
359.865	38349.36
360.315	45644.99
360.764	21322.01
361.213	11976.02
361.663	11293.31
362.112	13912.08
362.561	22503.3
363.01	17002.2
363.459	14361.14
363.908	15501.61
364.357	13188.52
364.806	22260.89
365.255	15305.79
365.703	14056.74
366.152	14092.04
366.601	11439.04
367.05	9298.21
367.498	8462.56
367.947	8818.98
368.395	9147.2
368.844	8119.69
369.292	9734.46
369.74	6745.99
370.189	10321.65
370.637	12110.43
371.085	10417.37
371.533	12675.57
371.981	12207.82
372.429	11676.37
372.877	12199.74
373.325	10240.75
373.773	10392.67
374.221	9244.5
374.669	11439.48
375.116	9868.53
375.564	9930.15
376.012	11112.92
376.459	9179.7
376.907	10961.2
377.354	13204.18
377.801	12345.91
378.249	14161.22
378.696	18113.05
379.143	21987.14
379.591	23412.92
380.038	39719.58
380.485	28843.52
380.932	31167.67
381.379	28682.66
381.826	21227.39
382.273	15148.64
382.72	13239.81
383.166	12963.64
383.613	8470.25
384.06	7683.05
384.506	8988.98
384.953	6672.99
385.4	6763.29
385.846	6025.79
386.292	5941.86
386.739	5924.82
387.185	5968.64
387.631	6148.17
388.078	6159.59
388.524	6801.35
388.97	6464.37
389.416	5509.97
389.862	5972.87
390.308	5754.67
390.754	5957.51
391.2	6656.62
391.645	7059.23
392.091	7064.28
392.537	7084.16
392.983	7305.56
393.428	7359.14
393.874	8095.61
394.319	8461.77
394.765	8488.26
395.21	9347.34
395.655	9399.71
396.101	9413.9
396.546	9057.9
396.991	9732.57
397.436	9645.07
397.881	9989.11
398.326	10209.95
398.771	10372.24
399.216	9718.59
399.661	9300.64
400.106	9765.63
400.551	10501.73
400.995	9844.72
401.44	10128.1
401.885	9845.69
402.329	10264.2
402.774	10118.77
403.218	10025.87
403.663	9944.52
404.107	10515.8
404.551	10923.24
404.995	10365.95
405.44	10356.81
405.884	10903.59
406.328	10919.6
406.772	11231.09
407.216	10539.12
407.66	10553.88
408.104	10459.71
408.547	10172.71
408.991	10182.14
409.435	10109.98
409.879	10211.62
410.322	10310.65
410.766	10187.92
411.209	9930.86
411.653	9815.05
412.096	9881.75
412.54	10153.7
412.983	10308.94
413.426	10530.04
413.869	10757.7
414.312	10738.27
414.756	10573.95
415.199	10292.23
415.642	10172.34
416.085	10354.4
416.527	10441.46
416.97	10768.27
417.413	10319.77
417.856	10335.86
418.298	10324.23
418.741	10311.69
419.184	10356.2
419.626	10857.62
420.069	10908.09
420.511	11020.23
420.953	10853.45
421.396	10845.16
421.838	10677.75
422.28	11024.62
422.722	11166.29
423.164	11496.81
423.606	11461.63
424.048	11632.13
424.49	11172.77
424.932	11266.69
425.374	11255.94
425.816	11539.69
426.258	11728.38
426.699	11730.69
427.141	11326.3
427.582	11323.02
428.024	11143.42
428.465	11114.64
428.907	10950.21
429.348	11009.02
429.789	11157.12
430.231	11027.01
430.672	11301.86
431.113	11235.22
431.554	11384.83
431.995	11566.76
432.436	11547.51
432.877	11642.85
433.318	11660.33
433.759	11807.04
434.2	11946.03
434.64	11958.36
435.081	12139.97
435.522	11673.53
435.962	11446.79
436.403	11357.54
436.843	11691.92
437.284	11610.25
437.724	11442.16
438.164	11627.16
438.604	11464.28
439.045	11091.24
439.485	10703.74
439.925	10606.75
440.365	10461.51
440.805	10420.21
441.245	10336.17
441.685	9997.44
442.125	9970.08
442.564	10055.28
443.004	9816.68
443.444	9809.09
443.883	9846.31
444.323	9855.74
444.762	9963.7
445.202	10141.29
445.641	10318.22
446.081	10340.93
446.52	10435.47
446.959	10358.71
447.398	10137.43
447.837	10075.24
448.276	9951.31
448.716	10071.4
449.154	10173.44
449.593	9873.26
450.032	9791.37
450.471	9609.08
450.91	9576.55
451.349	9485.55
451.787	9402.58
452.226	9479.72
452.664	9411.77
453.103	9354.77
453.541	9271.42
453.98	9122.78
454.418	9107.3
454.856	8862.59
455.295	8779.01
455.733	8738.19
456.171	8713.81
456.609	8625.67
457.047	8519.79
457.485	8539.44
457.923	8471.53
458.361	8311.53
458.798	8320.78
459.236	8274.9
459.674	8351.27
460.111	8368.92
460.549	8300.83
460.987	8300.7
461.424	8293.94
461.862	8286.06
462.299	8184.57
462.736	8174.42
463.173	8229.43
463.611	8118.3
464.048	8118.09
464.485	8199.93
464.922	8164.6
465.359	8169.15
465.796	7966.39
466.233	7951.21
466.67	7891.47
467.106	7898.67
467.543	7886.88
467.98	7828.33
468.416	7706.43
468.853	7697.71
469.29	7507.3
469.726	7455.73
470.162	7277.63
470.599	7301.13
471.035	7254.08
471.471	7101.82
471.907	7093.84
472.344	7051.57
472.78	7041.26
473.216	7110.87
473.652	6987.44
474.088	6940.86
474.523	6858.91
474.959	6878.55
475.395	6765.07
475.831	6658.09
476.266	6636.46
476.702	6558.72
477.138	6415.31
477.573	6329.1
478.008	6229.26
478.444	6167.19
478.879	6125.31
479.314	6073.76
479.75	5987.75
480.185	5942.59
480.62	5917.63
481.055	5870.6
481.49	5819.36
481.925	5813.64
482.36	5799.38
482.795	5868.51
483.229	5942.37
483.664	5971.8
484.099	5904.35
484.534	5898.02
484.968	5866.59
485.403	5806.76
485.837	5734.7
486.271	5656.59
486.706	5597.99
487.14	5502.43
487.574	5365.38
488.009	5273.36
488.443	5187.31
488.877	5185.31
489.311	5160.72
489.745	5171.67
490.179	5169.84
490.613	5198.34
491.046	5199.35
491.48	5197.53
491.914	5158.53
492.348	5157.51
492.781	5147.78
493.215	5127.28
493.648	5115
494.082	5122.5
494.515	5092.74
494.948	5108.29
495.382	5118.43
495.815	5111.39
496.248	5107.9
496.681	5158.63
497.114	5199.91
497.547	5220.3
497.98	5251.81
498.413	5230.48
498.846	5238.44
499.279	5246.22
499.711	5228.98
500.144	5193.64
500.577	5202.25
501.009	5221.66
501.442	5222.31
501.874	5166.67
502.306	5134
502.739	5114.76
503.171	5164.15
503.603	5131.82
504.036	5131.08
504.468	5105.77
504.9	5112.39
505.332	5094.37
505.764	5056.76
506.196	5037.19
506.627	5056.48
507.059	5062.62
507.491	5060.02
507.923	4972.74
508.354	4981.69
508.786	4969.67
509.217	4990.53
509.649	4996.51
510.08	5021.85
510.512	5028.39
510.943	5030.68
511.374	5015.41
511.805	5036.94
512.237	5055.98
512.668	5137.7
513.099	5189.75
513.53	5230.88
513.961	5236.41
514.391	5286.85
514.822	5332.86
515.253	5397.2
515.684	5416.24
516.114	5450.44
516.545	5448.39
516.975	5466.32
517.406	5450.38
517.836	5381.31
518.267	5331.93
518.697	5327.6
519.127	5276.44
519.558	5239.31
519.988	5189.1
520.418	5164.42
520.848	5164.94
521.278	5137.96
521.708	5037.45
522.138	5027.8
522.567	5077.14
522.997	5105.59
523.427	5102.58
523.857	5101.89
524.286	5085.06
524.716	5085.97
525.145	5097.21
525.575	5089.81
526.004	5096.61
526.433	5127.31
526.863	5092.97
527.292	5027.84
527.721	5015.09
528.15	5010.52
528.579	4992.19
529.008	5004.45
529.437	5050.2
529.866	5068.59
530.295	5093.63
530.724	5102.24
531.152	5155.48
531.581	5170.26
532.01	5200.89
532.438	5206.03
532.867	5230.17
533.295	5264.33
533.723	5264.42
534.152	5242.34
534.58	5226.9
535.008	5170.88
535.436	5164.05
535.865	5176.05
536.293	5208.56
536.721	5241.23
537.149	5298.51
537.576	5292.72
538.004	5320.51
538.432	5337.14
538.86	5326.96
539.287	5345.09
539.715	5380.07
540.143	5391.6
540.57	5383.47
540.998	5378.79
541.425	5316.15
541.852	5269.1
542.28	5276.29
542.707	5242.36
543.134	5213.63
543.561	5211.28
543.988	5199.85
544.415	5211.22
544.842	5205.47
545.269	5192.5
545.696	5204.83
546.123	5257.86
546.549	5237.59
546.976	5207.41
547.403	5213.97
547.829	5229.78
548.256	5248.07
548.682	5246.68
549.108	5231.64
549.535	5241.15
549.961	5257.26
550.387	5228.16
550.813	5215.89
551.24	5242.95
551.666	5254.76
552.092	5234.67
552.518	5225.47
552.943	5212.34
553.369	5243.3
553.795	5268.3
554.221	5274.65
554.646	5270.53
555.072	5300.47
555.498	5321.15
555.923	5349.41
556.349	5393.6
556.774	5419.51
557.199	5422.03
557.625	5446.76
558.05	5429.39
558.475	5461.91
558.9	5460.68
559.325	5438.25
559.75	5426.09
560.175	5411.07
560.6	5397.64
561.025	5395.15
561.449	5402.26
561.874	5420.65
562.299	5429.23
562.723	5450.37
563.148	5416.59
563.572	5424.95
563.997	5452.9
564.421	5466.56
564.846	5464.19
565.27	5466.8
565.694	5455.91
566.118	5480.11
566.542	5492.21
566.966	5465.73
567.39	5442.38
567.814	5402.72
568.238	5397.6
568.662	5409.12
569.086	5413.72
569.509	5439.6
569.933	5399.6
570.357	5390.08
570.78	5342.25
571.204	5318.42
571.627	5308.42
572.05	5329.64
572.474	5356.12
572.897	5350.81
573.32	5359.19
573.743	5368.54
574.166	5344.43
574.589	5383.01
575.012	5394.67
575.435	5432
575.858	5444.03
576.281	5450.76
576.704	5441.87
577.126	5447.98
577.549	5453.34
577.972	5465.82
578.394	5469.18
578.817	5480.25
579.239	5458.67
579.661	5452.71
580.084	5433.52
580.506	5429.3
580.928	5455.59
581.35	5457.29
581.772	5476.1
582.194	5463.94
582.616	5450.35
583.038	5435.82
583.46	5435.43
583.882	5453.54
584.303	5500.46
584.725	5519.81
585.147	5535.03
585.568	5591.36
585.99	5646.45
586.411	5683.73
586.833	5749.17
587.254	5768.81
587.675	5837.05
588.096	5901.12
588.518	5896.11
588.939	5846.29
589.36	5849.55
589.781	5844.43
590.202	5741.29
590.623	5726.78
591.043	5734.72
591.464	5698.34
591.885	5691.03
592.305	5675.85
592.726	5624.89
593.147	5626.99
593.567	5602.71
593.987	5567.04
594.408	5538.39
594.828	5531.6
595.248	5491.43
595.669	5400.02
596.089	5355.44
596.509	5313.99
596.929	5238.67
597.349	5218.14
597.769	5158.26
598.189	5108.55
598.608	5089.14
599.028	5070.64
599.448	5048.17
599.867	4983.2
600.287	4953.43
600.706	4918.25
601.126	4865.29
601.545	4845.45
601.965	4830.02
602.384	4803.44
602.803	4808.97
603.222	4785.97
603.641	4762.18
604.061	4747.94
604.48	4738.36
604.898	4772.26
605.317	4799.35
605.736	4816.35
606.155	4817.44
606.574	4797.28
606.992	4830.06
607.411	4827.31
607.829	4819.05
608.248	4828.31
608.666	4841.06
609.085	4859.08
609.503	4847.02
609.921	4844.5
610.339	4874.46
610.758	4896.06
611.176	4903.54
611.594	4892.31
612.012	4904.27
612.43	4935.69
612.847	4981.43
613.265	5001.25
613.683	5039.91
614.101	5068.68
614.518	5080.56
614.936	5066.73
615.353	5033.29
615.771	5042.52
616.188	5066.72
616.606	5075.4
617.023	5072.75
617.44	5039.62
617.857	5040.94
618.274	5029.67
618.691	5022.74
619.108	5004.18
619.525	4997.32
619.942	5036.94
620.359	5059.48
620.776	5050.53
621.192	5040.31
621.609	5038.13
622.026	5067.58
622.442	5096.44
622.859	5115.48
623.275	5093.6
623.691	5121.08
624.108	5171.25
624.524	5235.78
624.94	5239.94
625.356	5284.16
625.772	5346.57
626.188	5401.36
626.604	5413.48
627.02	5400.75
627.436	5394.19
627.852	5423.96
628.268	5474.77
628.683	5443.9
629.099	5415.83
629.514	5407.5
629.93	5433.01
630.345	5460.96
630.761	5456.12
631.176	5484.29
631.591	5467.2
632.007	5458.65
632.422	5473.76
632.837	5447.89
633.252	5454.29
633.667	5433.28
634.082	5415.71
634.497	5384.75
634.911	5323.37
635.326	5336.58
635.741	5291.6
636.155	5285.8
636.57	5320.6
636.984	5353.56
637.399	5392.15
637.813	5433.21
638.228	5467.13
638.642	5531.47
639.056	5531.24
639.47	5582.98
639.884	5590.82
640.298	5611.46
640.712	5654.25
641.126	5647.55
641.54	5661.69
641.954	5701.22
642.368	5694.74
642.781	5699.77
643.195	5667.31
643.609	5722.79
644.022	5748.13
644.436	5782.05
644.849	5777.27
645.262	5769.95
645.676	5835.74
646.089	5856.4
646.502	5813.24
646.915	5832.71
647.328	5796.28
647.741	5825.68
648.154	5795.81
648.567	5802.67
648.98	5759.75
649.393	5796.13
649.805	5810.32
650.218	5802.21
650.631	5736.86
651.043	5734.91
651.456	5724.41
651.868	5754.25
652.28	5878.82
652.693	5973.47
653.105	6026.78
653.517	6087.06
653.929	6088.61
654.341	6129.85
654.753	6066.18
655.165	6130.63
655.577	6145.22
655.989	6157.01
656.401	6155.26
656.813	5971.28
657.224	5905.04
657.636	5805.15
658.047	5761.8
658.459	5714.26
658.87	5734.78
659.282	5732.3
659.693	5656.38
660.104	5618.13
660.515	5587.75
660.926	5632.75
661.338	5678.69
661.749	5695.54
662.159	5679.99
662.57	5715.46
662.981	5738.71
663.392	5735.94
663.803	5813.59
664.213	5853.27
664.624	5876.8
665.035	5948.58
665.445	5896.54
665.855	5881.21
666.266	5853.86
666.676	5876.8
667.086	5843.23
667.497	5862.6
667.907	5844.36
668.317	5800
668.727	5768.92
669.137	5796.86
669.547	5792.6
669.956	5828.27
670.366	5856.12
670.776	5878.33
671.186	5917.9
671.595	5945.11
672.005	5981.79
672.414	5968
672.824	5947.23
673.233	6005.54
673.642	6013.89
674.052	6025.17
674.461	6022.99
674.87	6053.02
675.279	6015.46
675.688	6024.6
676.097	6012.24
676.506	5971.8
676.915	6076.07
677.323	6084.71
677.732	6055.72
678.141	6039.68
678.549	5947.96
678.958	5931.53
679.366	5909.48
679.775	5936.75
680.183	5963.84
680.592	5983.54
681	5991.44
681.408	5896.04
681.816	5908.42
682.224	5925.93
682.632	5924.67
683.04	6064.81
683.448	6141.99
683.856	6221.43
684.264	6302.05
684.671	6364.5
685.079	6452.41
685.487	6548.34
685.894	6738.37
686.302	6837.95
686.709	6853.97
687.116	6903.95
687.524	6882.76
687.931	6839.76
688.338	6788.53
688.745	6734.59
689.152	6688.91
