Data from C_3_DEC_NC_4N_Splice17_13-05-57-222.txt Node
Date: Sat Mar 14 13:05:57 EDT 2020
User: sa697716
Spectrometer: FLMS03696
Trigger mode: 0
Integration Time (sec): 3.180400E-1
Scans to average: 20
Electric dark correction enabled: true
Nonlinearity correction enabled: true
Boxcar width: 5
XAxis mode: Wavelengths
Number of Pixels in Spectrum: 2048
>>>>>Begin Spectral Data<<<<<
187.83	-321453.84
188.298	2290.32
188.766	1224.53
189.233	1139.07
189.701	1616.93
190.169	2347.55
190.636	865.02
191.104	714.29
191.571	89.4
192.039	-93.73
192.506	-19.97
192.974	443.44
193.441	-732.35
193.908	-174.22
194.375	9.33
194.842	87.73
195.31	288.31
195.777	218.89
196.244	461.43
196.711	498.28
197.177	591.05
197.644	832.93
198.111	1448.49
198.578	2016.83
199.045	1631.85
199.511	2645.26
199.978	3071.24
200.445	2596.13
200.911	2878.92
201.378	3194.35
201.844	2901.52
202.31	4976.3
202.777	5179.27
203.243	2849.38
203.709	2706.86
204.176	3198.36
204.642	2609.21
205.108	2456.15
205.574	1994.05
206.04	1830.8
206.506	1719.66
206.972	1621.66
207.438	1571.51
207.903	1801.43
208.369	1600.87
208.835	1605.35
209.301	1680.65
209.766	1727.78
210.232	1705.4
210.697	2108.63
211.163	2577.43
211.628	3898.58
212.094	3288.97
212.559	4016.61
213.024	2494.79
213.49	3044.76
213.955	2966.85
214.42	2890.23
214.885	2712.4
215.35	2597.37
215.815	2514.14
216.28	2664.18
216.745	2153.74
217.21	2307.9
217.675	2099.91
218.14	2340.7
218.604	2591.2
219.069	2937.24
219.534	3078.94
219.998	3562.69
220.463	4293.97
220.927	5247.71
221.392	4929.93
221.856	4994.51
222.32	6285.67
222.785	7756.85
223.249	9758.15
223.713	10889.65
224.177	10902.87
224.642	13965.61
225.106	17150.54
225.57	18719.09
226.034	13927.86
226.497	21166.18
226.961	19088.43
227.425	22218.34
227.889	24666.56
228.353	24669.88
228.816	50846.87
229.28	48477.26
229.744	40813.32
230.207	24837.85
230.671	24447.49
231.134	40409.33
231.597	46623.43
232.061	46603.14
232.524	45403.49
232.987	31276.78
233.45	28129.44
233.914	25197.13
234.377	25871.89
234.84	23659.71
235.303	27860.9
235.766	31060.01
236.229	32081.6
236.691	20185.02
237.154	22707.68
237.617	17103.15
238.08	17483.5
238.542	20437.31
239.005	14621.31
239.468	14501.42
239.93	13669.05
240.393	12421.08
240.855	10908.03
241.317	11167.79
241.78	13567.22
242.242	14003.77
242.704	15109.11
243.166	13150.22
243.629	11950.29
244.091	13767.71
244.553	15065.46
245.015	16210.56
245.477	20949.79
245.939	30704.06
246.4	32582.74
246.862	31677.87
247.324	29861.51
247.786	33410.18
248.247	43855.56
248.709	45273.43
249.17	33856.73
249.632	31961.52
250.093	37005.56
250.555	31951.35
251.016	19501.48
251.477	18509.44
251.939	19988.59
252.4	20971.63
252.861	24904.02
253.322	23162.78
253.783	27582.29
254.244	35802.6
254.705	28220.88
255.166	25145.02
255.627	24814.22
256.088	35029.56
256.549	37235.57
257.009	32081.88
257.47	38964.04
257.931	31802.33
258.391	23862.89
258.852	24616.44
259.312	25789.3
259.773	31874.58
260.233	26931.42
260.694	22708.64
261.154	25729.39
261.614	20644.05
262.074	18482.6
262.534	19205.35
262.994	18110.29
263.455	24127.22
263.915	20308.5
264.374	19131.33
264.834	20880.46
265.294	23115.23
265.754	23924.71
266.214	22670.67
266.673	21247.69
267.133	26812.49
267.593	26579.55
268.052	32476.83
268.512	28236.12
268.971	34065.96
269.431	37400.67
269.89	33456.66
270.349	50221.58
270.809	56076.34
271.268	50382.49
271.727	112873.95
272.186	73172.1
272.645	54913.22
273.104	39664.87
273.563	57383.05
274.022	45104.24
274.481	38354.13
274.94	29567.19
275.399	21984.18
275.857	25584.19
276.316	34609.53
276.775	30818.06
277.233	30322.4
277.692	28396.83
278.15	32106.34
278.609	33044.87
279.067	30611.45
279.525	28452.76
279.984	36773.32
280.442	44181.77
280.9	43593.26
281.358	28654.06
281.816	26714.49
282.274	26130.45
282.732	26950.56
283.19	27085.19
283.648	23387.92
284.106	24874.66
284.564	25267.62
285.021	23436.63
285.479	17454.28
285.937	15856.46
286.394	13921.04
286.852	14327.8
287.309	15080.11
287.767	14611.68
288.224	13907.56
288.682	15243.64
289.139	16753.64
289.596	15346.08
290.053	15935.76
290.511	20095.24
290.968	24356.38
291.425	33083.68
291.882	27521.44
292.339	23926.4
292.796	23687.86
293.252	22278.15
293.709	17713.37
294.166	15850.64
294.623	17504.55
295.079	16791.4
295.536	16881.36
295.992	15318.53
296.449	15128.87
296.905	15720.96
297.362	15087.01
297.818	15859.04
298.274	16460.08
298.731	16753.12
299.187	16568.26
299.643	17773.44
300.099	21489.25
300.555	23539.76
301.011	19677.82
301.467	18991.15
301.923	22231.56
302.379	21688.28
302.835	21325.57
303.291	21351.98
303.746	24324.72
304.202	30775.24
304.658	30903.62
305.113	20788.16
305.569	20368.46
306.024	21707.8
306.479	20627.67
306.935	17388.05
307.39	18999.07
307.845	17530.91
308.301	17665.06
308.756	17208.66
309.211	16571.39
309.666	16980.05
310.121	21060.89
310.576	21375.09
311.031	21197.14
311.486	24298.54
311.94	24279.28
312.395	32457.41
312.85	60987.81
313.305	298504
313.759	1544660.54
314.214	111997.6
314.668	88927.38
315.123	74893.11
315.577	26896.46
316.032	23928
316.486	29985.94
316.94	23643.29
317.394	16457.2
317.849	12773.54
318.303	12119.88
318.757	11427.65
319.211	12640.86
319.665	11048.78
320.119	11181.72
320.572	16021.38
321.026	14985.29
321.48	12479.43
321.934	13603.79
322.387	13641.05
322.841	14761.35
323.295	13279.96
323.748	15299.45
324.202	15534.39
324.655	18653.25
325.108	26078.46
325.562	18446.54
326.015	21902.46
326.468	16533.41
326.921	18513.07
327.374	17261.73
327.827	18005.52
328.28	20353.72
328.733	13655.4
329.186	11988.35
329.639	11422.43
330.092	9638.98
330.545	9178.46
330.997	9266.96
331.45	10140.3
331.903	11899.73
332.355	20446.67
332.808	19843.44
333.26	16380.6
333.713	17774.91
334.165	17903.61
334.617	23915.67
335.069	19266.57
335.522	34812.26
335.974	38554.9
336.426	35201.76
336.878	24300.52
337.33	12365.01
337.782	12051.07
338.234	15127.78
338.686	18103.32
339.137	21474.53
339.589	20234.18
340.041	15897.23
340.493	13675.96
340.944	14009.36
341.396	15094.77
341.847	12722.61
342.299	14995.48
342.75	18337.91
343.201	15989.83
343.653	18377.05
344.104	22607.06
344.555	17800.48
345.006	27694.81
345.457	21220.9
345.908	16839.85
346.359	15845.61
346.81	12891.32
347.261	13583.07
347.712	13385.09
348.163	14334.97
348.613	14536.98
349.064	13564.53
349.515	11857.86
349.965	12166.38
350.416	14645.07
350.866	16072.52
351.317	18180.67
351.767	30161.17
352.217	38049.44
352.668	31593.98
353.118	28999.78
353.568	27939.75
354.018	22117.94
354.468	23380.86
354.918	16765.34
355.368	14671.8
355.818	20778.6
356.268	59848.94
356.718	250576.6
357.168	62540.22
357.617	31359.53
358.067	34926.3
358.517	32758.62
358.966	38342.45
359.416	42940.1
359.865	46378.23
360.315	55265.61
360.764	25841.28
361.213	14490.27
361.663	13719.68
362.112	16922.47
362.561	27412.57
363.01	20695.93
363.459	17395.71
363.908	18833.14
364.357	16033.17
364.806	27131.92
365.255	18655.73
365.703	17076.41
366.152	17075.11
366.601	13823.81
367.05	11248.59
367.498	10220.56
367.947	10664.5
368.395	11095.1
368.844	9842.08
369.292	11837.02
369.74	8179.15
370.189	12504.29
370.637	14624.13
371.085	12613.57
371.533	15391.69
371.981	14801.72
372.429	14091.01
372.877	14671.29
373.325	12292.61
373.773	12510.31
374.221	11131.28
374.669	13789.27
375.116	11924.52
375.564	12035.05
376.012	13466.76
376.459	11077.19
376.907	13246.01
377.354	16028.69
377.801	14963.22
378.249	17206.56
378.696	22001.04
379.143	26663.31
379.591	28377.48
380.038	47958.47
380.485	34653.7
380.932	37426.19
381.379	34277.9
381.826	25249.07
382.273	17883.82
382.72	15586.56
383.166	15152.78
383.613	9820.43
384.06	8853.7
384.506	10261.29
384.953	7541.12
385.4	7570.22
385.846	6604.57
386.292	6424.23
386.739	6265.06
387.185	6200.66
387.631	6200.89
388.078	6017.56
388.524	6418.58
388.97	5921.96
389.416	4940.43
389.862	5243.19
390.308	4971.56
390.754	5049.51
391.2	5478.24
391.645	5599.25
392.091	5369.03
392.537	5179.77
392.983	5181.83
393.428	5107.42
393.874	5454.75
394.319	5468.31
394.765	5181.01
395.21	5318.74
395.655	4985.47
396.101	4663.37
396.546	4206.26
396.991	4231.65
397.436	3939.67
397.881	3801.39
398.326	3592.16
398.771	3403.71
399.216	2970.67
399.661	2675.07
400.106	2665.61
400.551	2735.63
400.995	2455.04
401.44	2428.64
401.885	2275.13
402.329	2289.87
402.774	2192.83
403.218	2126.34
403.663	2046.33
404.107	2102.49
404.551	2120.71
404.995	1943.78
405.44	1865.79
405.884	1895.7
406.328	1834.16
406.772	1828.08
407.216	1668.42
407.66	1615.57
408.104	1531.49
408.547	1433.32
408.991	1388.55
409.435	1332.97
409.879	1314.43
410.322	1298.25
410.766	1253.38
411.209	1193.45
411.653	1147.58
412.096	1126.58
412.54	1124.83
412.983	1114.49
413.426	1120.53
413.869	1118.93
414.312	1100.81
414.756	1058.15
415.199	1010.27
415.642	980.55
416.085	981.52
416.527	973.33
416.97	986.01
417.413	938.24
417.856	931.76
418.298	919.69
418.741	911.16
419.184	905.09
419.626	940.17
420.069	938.87
420.511	943.2
420.953	922.51
421.396	913.2
421.838	887.73
422.28	906.02
422.722	908.92
423.164	921.7
423.606	906.65
424.048	905.25
424.49	862.7
424.932	857.49
425.374	845.88
425.816	858.92
426.258	875.84
426.699	887.33
427.141	875.86
427.582	889.04
428.024	881.9
428.465	874
428.907	854.02
429.348	843.08
429.789	846.48
430.231	830.31
430.672	843.62
431.113	823.39
431.554	812.35
431.995	792.24
432.436	766.52
432.877	753.38
433.318	744.83
433.759	740.47
434.2	742.11
434.64	732.45
435.081	735.52
435.522	696.99
435.962	673.31
436.403	660
436.843	668.17
437.284	651.67
437.724	632.12
438.164	631.32
438.604	619.78
439.045	597.26
439.485	574.98
439.925	559.47
440.365	546.7
440.805	539.11
441.245	533.44
441.685	515.13
442.125	511.13
442.564	515
443.004	504.03
443.444	502.89
443.883	504.6
444.323	498.26
444.762	498.78
445.202	504.51
445.641	514.89
446.081	508.91
446.52	513.67
446.959	509.31
447.398	498.35
447.837	491.39
448.276	481.03
448.716	483.96
449.154	487.5
449.593	479.08
450.032	476.18
450.471	465.45
450.91	465.08
451.349	463.35
451.787	461.52
452.226	467.13
452.664	468.95
453.103	470.72
453.541	470.14
453.98	471.19
454.418	472.87
454.856	467.57
455.295	466.58
455.733	470.66
456.171	472.02
456.609	471.63
457.047	472.07
457.485	478.42
457.923	478.35
458.361	470.93
458.798	471.47
459.236	469.75
459.674	470.82
460.111	473.42
460.549	468.76
460.987	467.15
461.424	466.89
461.862	464.4
462.299	456.99
462.736	457.49
463.173	459.45
463.611	455.75
464.048	455.35
464.485	460.34
464.922	455.26
465.359	453.02
465.796	452.63
466.233	449.96
466.67	446.41
467.106	447.45
467.543	443.1
467.98	437.13
468.416	425.82
468.853	422.79
469.29	409.78
469.726	406.24
470.162	396.24
470.599	387.17
471.035	383.34
471.471	374.02
471.907	369.86
472.344	367.59
472.78	369.58
473.216	373.55
473.652	369.55
474.088	368.75
474.523	367.97
474.959	372.01
475.395	368.6
475.831	366.4
476.266	368.25
476.702	367.04
477.138	362.73
477.573	361.19
478.008	359.95
478.444	361.79
478.879	366.2
479.314	367.94
479.75	367.56
480.185	369.53
480.62	372.44
481.055	374.4
481.49	377.7
481.925	383.89
482.36	392.14
482.795	403.09
483.229	412.52
483.664	420.67
484.099	421.64
484.534	427.67
484.968	432.36
485.403	433.21
485.837	432.48
486.271	431.96
486.706	431.88
487.14	425.96
487.574	419.3
488.009	416.19
488.443	411.87
488.877	417.05
489.311	418.53
489.745	422.71
490.179	427.5
490.613	436.75
491.046	440.61
491.48	444.85
491.914	446.42
492.348	450.66
492.781	454.9
493.215	457.95
493.648	459.42
494.082	464.6
494.515	466.92
494.948	473.61
495.382	477.88
495.815	482.65
496.248	488.19
496.681	498.25
497.114	507.6
497.547	516.07
497.98	527.18
498.413	534.84
498.846	543.56
499.279	551.13
499.711	556.07
500.144	559.83
500.577	570.41
501.009	580.4
501.442	590.85
501.874	594.71
502.306	598.8
502.739	608.52
503.171	622.04
503.603	627.69
504.036	638.3
504.468	646.55
504.9	659.07
505.332	667.03
505.764	674.09
506.196	682.6
506.627	697.99
507.059	712.43
507.491	721.64
507.923	723.95
508.354	739.98
508.786	752.85
509.217	771.03
509.649	786.44
510.08	806.83
510.512	825.56
510.943	842.77
511.374	856.48
511.805	876.94
512.237	897.24
512.668	927.49
513.099	954.42
513.53	981.72
513.961	1004.27
514.391	1036.34
514.822	1068.4
515.253	1102.72
515.684	1128.79
516.114	1158.66
516.545	1182.33
516.975	1209.95
517.406	1230.22
517.836	1237.05
518.267	1247.07
518.697	1266.49
519.127	1273.63
519.558	1284.1
519.988	1291.29
520.418	1303.68
520.848	1322.79
521.278	1332.85
521.708	1362.98
522.138	1378.26
522.567	1409.71
522.997	1434.57
523.427	1451.81
523.857	1470.38
524.286	1482.12
524.716	1498.92
525.145	1518.71
525.575	1531.44
526.004	1547.92
526.433	1534.56
526.863	1537.48
527.292	1530.01
527.721	1537.81
528.15	1544.85
528.579	1547.32
529.008	1559.83
529.437	1581.19
529.866	1595.51
530.295	1612.13
530.724	1624.95
531.152	1652
531.581	1665.71
532.01	1683.33
532.438	1692.68
532.867	1707.27
533.295	1725.67
533.723	1731.32
534.152	1730.47
534.58	1730.55
535.008	1715.53
535.436	1718.05
535.865	1723.6
536.293	1737.24
536.721	1752.71
537.149	1776.25
537.576	1778.88
538.004	1790.55
538.432	1798.73
538.86	1797.17
539.287	1804.63
539.715	1818.77
540.143	1820.26
540.57	1817.02
540.998	1812.8
541.425	1791
541.852	1770.79
542.28	1768.69
542.707	1752.64
543.134	1739.19
543.561	1735.96
543.988	1728.71
544.415	1727.85
544.842	1724.09
545.269	1717.34
545.696	1719.21
546.123	1731.24
546.549	1721.07
546.976	1709.5
547.403	1710.47
547.829	1712.42
548.256	1714.51
548.682	1711.92
549.108	1705.72
549.535	1705.45
549.961	1707.42
550.387	1695.97
550.813	1691.37
551.24	1699.14
551.666	1700.64
552.092	1691.73
552.518	1686.18
552.943	1680.2
553.369	1686.94
553.795	1692.99
554.221	1692.95
554.646	1690.13
555.072	1700.49
555.498	1704.6
555.923	1713.21
556.349	1726.37
556.774	1734.43
557.199	1734.91
557.625	1741.13
558.05	1734.81
558.475	1743.61
558.9	1742.65
559.325	1734.97
559.75	1728.68
560.175	1722.51
560.6	1715.58
561.025	1713.37
561.449	1712.12
561.874	1716.06
562.299	1718.08
562.723	1723.61
563.148	1712.4
563.572	1715.16
563.997	1722.81
564.421	1726.1
564.846	1723.38
565.27	1724.61
565.694	1720.4
566.118	1729.53
566.542	1734.86
566.966	1727.86
567.39	1720.74
567.814	1708.31
568.238	1705.83
568.662	1708.2
569.086	1707.9
569.509	1712.97
569.933	1696.35
570.357	1687.89
570.78	1666.95
571.204	1653.02
571.627	1640.31
572.05	1637.37
572.474	1636.46
572.897	1622.97
573.32	1614.89
573.743	1604.28
574.166	1586
574.589	1583.52
575.012	1574.45
575.435	1572.35
575.858	1562.49
576.281	1550.99
576.704	1535.54
577.126	1523.65
577.549	1512.31
577.972	1501.1
578.394	1490.12
578.817	1482.49
579.239	1465.29
579.661	1452.5
580.084	1436.75
580.506	1423.55
580.928	1419.22
581.35	1407.83
581.772	1401.19
582.194	1388.11
582.616	1374.89
583.038	1361.6
583.46	1350.99
583.882	1347.12
584.303	1349.08
584.725	1344.34
585.147	1346.73
585.568	1354.71
585.99	1364.63
586.411	1369.23
586.833	1381.12
587.254	1382.91
587.675	1394.51
588.096	1405.88
588.518	1400.29
588.939	1385.1
589.36	1381.58
589.781	1368.53
590.202	1342.63
590.623	1334.13
591.043	1331.02
591.464	1319.03
591.885	1315.18
592.305	1309.22
592.726	1295.22
593.147	1295.62
593.567	1289.97
593.987	1283.28
594.408	1278.16
594.828	1275.68
595.248	1269.64
595.669	1252.53
596.089	1245.63
596.509	1238.38
596.929	1224.75
597.349	1224.29
597.769	1214.56
598.189	1208.08
598.608	1208.7
599.028	1210.31
599.448	1210.36
599.867	1199.05
600.287	1194.9
600.706	1190.19
601.126	1181.88
601.545	1180.6
601.965	1179.1
602.384	1174.02
602.803	1175.94
603.222	1170.35
603.641	1163.26
604.061	1158.59
604.48	1154.24
604.898	1160.39
605.317	1163.69
605.736	1164.31
606.155	1161.62
606.574	1152.98
606.992	1157.65
607.411	1153.09
607.829	1145.44
608.248	1142
608.666	1138.64
609.085	1137.21
609.503	1129.03
609.921	1124.02
610.339	1124.94
610.758	1123.11
611.176	1117.66
611.594	1108.18
612.012	1104.14
612.43	1107.06
612.847	1112
613.265	1113.17
613.683	1115.67
614.101	1116.27
614.518	1111.38
614.936	1102.03
615.353	1088.76
615.771	1086.28
616.188	1086.63
616.606	1082.59
617.023	1074.04
617.44	1060.46
617.857	1052.35
618.274	1044.42
618.691	1037.39
619.108	1028.72
619.525	1022.13
619.942	1027.44
620.359	1028.65
620.776	1023.45
621.192	1019.37
621.609	1017.69
622.026	1022.65
622.442	1027.36
622.859	1029.23
623.275	1023.03
623.691	1027.01
624.108	1035.73
624.524	1046.27
624.94	1046.9
625.356	1053.97
625.772	1064.25
626.188	1073.9
626.604	1074.8
627.02	1071
627.436	1069.46
627.852	1075.44
628.268	1085.2
628.683	1077.61
629.099	1069.66
629.514	1064.13
629.93	1066.12
630.345	1068.65
630.761	1063.22
631.176	1065.96
631.591	1061.19
632.007	1056.26
632.422	1053.01
632.837	1042.13
633.252	1038.81
633.667	1028.39
634.082	1018.85
634.497	1006.72
634.911	989.47
635.326	984.76
635.741	968.74
636.155	956.9
636.57	953.9
636.984	950.41
637.399	949.58
637.813	945.44
638.228	941.6
638.642	942.05
639.056	930.19
639.47	926.74
639.884	916.77
640.298	906.72
640.712	902.48
641.126	888.07
641.54	877.24
641.954	867.91
642.368	855.37
642.781	846.82
643.195	828.83
643.609	825.5
644.022	817.21
644.436	809.5
644.849	797.43
645.262	784.68
645.676	782.32
646.089	775.51
646.502	762.68
646.915	756.52
647.328	741.11
647.741	737.2
648.154	725.9
648.567	723.42
648.98	713.28
649.393	713.67
649.805	711.83
650.218	705.97
650.631	695.67
651.043	690.43
651.456	686.66
651.868	687.04
652.28	698.84
652.693	707.97
653.105	710.49
653.517	716.94
653.929	715.27
654.341	717.5
654.753	708.99
655.165	712.51
655.577	710.54
655.989	706.31
656.401	699.53
656.813	674.66
657.224	659.88
657.636	639.79
658.047	628.13
658.459	614.04
658.87	606.36
659.282	596.8
659.693	581.93
660.104	570.96
660.515	559.76
660.926	556.7
661.338	552.55
661.749	547.18
662.159	540.75
662.57	534.6
662.981	530.6
663.392	524.63
663.803	526.59
664.213	523.62
664.624	519.2
665.035	520.83
665.445	512.1
665.855	508.35
666.266	503.02
666.676	500.16
667.086	494.18
667.497	494.67
667.907	491.12
668.317	484.84
668.727	484.93
669.137	485.81
669.547	483.75
669.956	485.14
670.366	486.36
670.776	488.09
671.186	491.02
671.595	494.61
672.005	496.08
672.414	496.52
672.824	497.2
673.233	498.51
673.642	501.38
674.052	505.99
674.461	509.07
674.87	512.65
675.279	512.99
675.688	514.26
676.097	517.76
676.506	517.47
676.915	528.79
677.323	531.19
677.732	532.14
678.141	533.03
678.549	527.45
678.958	529.18
679.366	530.63
679.775	534.1
680.183	545.46
680.592	551.51
681	558.19
681.408	555.24
681.816	563.99
682.224	572.82
682.632	583.15
683.04	606.81
683.448	627.17
683.856	652.09
684.264	682.57
684.671	707.75
685.079	739.8
685.487	777.09
685.894	829.15
686.302	872.5
686.709	910.6
687.116	953.94
687.524	990.47
687.931	1025.24
688.338	1057.52
688.745	1085.7
689.152	1119.55
689.559	1161.22
689.966	1201.45
690.373	1225.36
690.78	1266.28
691.187	1324.66
691.593	1372.13
692	1415.27
692.407	1475.16
692.813	1547.72
693.22	1606.49
693.626	1666.14
694.032	1717.76
694.439	1793.74
694.845	1852.89
695.251	1927.66
695.657	1997.07
696.063	2095.08
696.469	2171.53
696.875	2242.32
697.281	2285.62
697.687	2338.19
698.093	2384.41
698.498	2460.94
698.904	2521.82
699.31	2613.71
699.715	2679.16
