Data from C_3_DIV_IL_4N_Splice17_13-19-13-603.txt Node
Date: Sat Mar 14 13:19:13 EDT 2020
User: sa697716
Spectrometer: FLMS03696
Trigger mode: 0
Integration Time (sec): 3.180400E-1
Scans to average: 20
Electric dark correction enabled: true
Nonlinearity correction enabled: true
Boxcar width: 5
XAxis mode: Wavelengths
Number of Pixels in Spectrum: 2048
>>>>>Begin Spectral Data<<<<<
187.83	-387141.27
188.298	2873.28
188.766	1513.29
189.233	1355.28
189.701	1863.52
190.169	2580.31
190.636	1022.83
191.104	717.48
191.571	86.62
192.039	-76.88
192.506	-91.66
192.974	464.02
193.441	-690.44
193.908	-154.26
194.375	-41.48
194.842	13.25
195.31	159.94
195.777	217.68
196.244	396.75
196.711	421.22
197.177	511.48
197.644	712.65
198.111	1226.8
198.578	1703.81
199.045	1355.58
199.511	2191.53
199.978	2524.4
200.445	2142.78
200.911	2367.78
201.378	2624.29
201.844	2398.7
202.31	4061.44
202.777	4192.65
203.243	2321.77
203.709	2231.54
204.176	2652.51
204.642	2188.32
205.108	2076.17
205.574	1680.11
206.04	1521.21
206.506	1422.24
206.972	1333.5
207.438	1281.78
207.903	1452.52
208.369	1274.47
208.835	1270.4
209.301	1325.02
209.766	1338.64
210.232	1313.36
210.697	1614.05
211.163	1972.61
211.628	2921.85
212.094	2450.08
212.559	3094.36
213.024	1936.47
213.49	2376.91
213.955	2286.11
214.42	2211.43
214.885	2072.5
215.35	1977.6
215.815	1940.53
216.28	2059.03
216.745	1669.56
217.21	1789.31
217.675	1582.42
218.14	1726.59
218.604	1860.22
219.069	2075.64
219.534	2160.25
219.998	2428.73
220.463	2873.21
220.927	3401.22
221.392	3122.15
221.856	3116.08
222.32	3835.02
222.785	4680.85
223.249	5842.08
223.713	6475.35
224.177	6435.97
224.642	8135.76
225.106	9976.44
225.57	10840.77
226.034	8086.97
226.497	12301.68
226.961	11060.65
227.425	12892.47
227.889	14207.13
228.353	14158.69
228.816	29058.85
229.28	27735.71
229.744	23266.83
230.207	14142.07
230.671	13873.53
231.134	22730.71
231.597	26206.95
232.061	26112.42
232.524	25346.51
232.987	17448.54
233.45	15729.71
233.914	14114.69
234.377	14368.5
234.84	13163.71
235.303	15467.21
235.766	17191.02
236.229	17723.26
236.691	11110.1
237.154	12450.52
237.617	9362.64
238.08	9586.63
238.542	11155.37
239.005	7987.39
239.468	7946.62
239.93	7483.04
240.393	6805.37
240.855	5981.48
241.317	6127.54
241.78	7445.43
242.242	7724.42
242.704	8365.71
243.166	7283.03
243.629	6649.16
244.091	7646.34
244.553	8380.67
245.015	9005.68
245.477	11631.62
245.939	17016.87
246.4	18062.23
246.862	17534.75
247.324	16531.78
247.786	18424.56
248.247	24144.41
248.709	24794.72
249.17	18528.89
249.632	17487.58
250.093	20335.04
250.555	17554.71
251.016	10755.02
251.477	10208.15
251.939	11043.35
252.4	11564.76
252.861	13732.73
253.322	12793.26
253.783	15229.15
254.244	19738.93
254.705	15533.03
255.166	13752.77
255.627	13518.49
256.088	19033.25
256.549	20218.51
257.009	17349.91
257.47	21004.57
257.931	17102.46
258.391	12791.45
258.852	13178.2
259.312	13793.35
259.773	17012.29
260.233	14410.17
260.694	12188.36
261.154	13801.59
261.614	11101.23
262.074	9939.29
262.534	10341.4
262.994	9737.91
263.455	12956.35
263.915	10895.76
264.374	10253.64
264.834	11192.6
265.294	12370.53
265.754	12813.54
266.214	12110.51
266.673	11323.21
267.133	14258.34
267.593	14111.94
268.052	17284.34
268.512	14996.47
268.971	18147.35
269.431	19898.05
269.89	17776.5
270.349	26662.78
270.809	29704.01
271.268	26718.74
271.727	59762.63
272.186	38747.99
272.645	29058.19
273.104	20910.97
273.563	30298.49
274.022	23720.16
274.481	20205.1
274.94	15570.51
275.399	11547.44
275.857	13407.3
276.316	18099.63
276.775	16115.59
277.233	15855.88
277.692	14875.06
278.15	16839.88
278.609	17361.18
279.067	16085.06
279.525	14960.69
279.984	19321.11
280.442	23264.51
280.9	23000.03
281.358	15155.33
281.816	14121.99
282.274	13839.58
282.732	14292.81
283.19	14366.35
283.648	12364.3
284.106	13155.23
284.564	13363.17
285.021	12424.29
285.479	9237.55
285.937	8369.42
286.394	7363.18
286.852	7583.96
287.309	7971.49
287.767	7727.03
288.224	7372.73
288.682	8094.69
289.139	8937.27
289.596	8181.68
290.053	8485.56
290.511	10694.2
290.968	13010.97
291.425	17619.32
291.882	14687.19
292.339	12797.57
292.796	12637.31
293.252	11861.04
293.709	9453.91
294.166	8448.4
294.623	9317.3
295.079	8935.21
295.536	9019.38
295.992	8179.79
296.449	8079.22
296.905	8386.87
297.362	8045.79
297.818	8464.15
298.274	8815.46
298.731	8951.61
299.187	8840.8
299.643	9485.11
300.099	11488.35
300.555	12549.51
301.011	10484.37
301.467	10152.05
301.923	11843.27
302.379	11561.1
302.835	11332.78
303.291	11349.03
303.746	12908.84
304.202	16293.93
304.658	16343.34
305.113	10969.05
305.569	10780.96
306.024	11481.09
306.479	10865.93
306.935	9190.81
307.39	10022.69
307.845	9285.84
308.301	9337.51
308.756	9112.01
309.211	8790.62
309.666	9018.4
310.121	11243.53
310.576	11386.24
311.031	11293.37
311.486	12949.76
311.94	12926.69
312.395	17291.78
312.85	32433.99
313.305	158474.9
313.759	825239.87
314.214	59867.28
314.668	47557.97
315.123	40066.91
315.577	14435.96
316.032	12913.85
316.486	16188.27
316.94	12796.82
317.394	8932.66
317.849	6973.39
318.303	6624.56
318.757	6223.64
319.211	6895.08
319.665	6040.79
320.119	6111.75
320.572	8726.31
321.026	8111.36
321.48	6755.49
321.934	7330.53
322.387	7324.46
322.841	7908.43
323.295	7154.31
323.748	8214.55
324.202	8321.97
324.655	9999.21
325.108	14033.17
325.562	9937.29
326.015	11846.65
326.468	8955.95
326.921	10045.07
327.374	9392.8
327.827	9792.59
328.28	11054.56
328.733	7447.72
329.186	6562.83
329.639	6261.74
330.092	5258.89
330.545	5007.75
330.997	5055.29
331.45	5547.29
331.903	6532.99
332.355	11197.62
332.808	10870.81
333.26	8969.95
333.713	9753.91
334.165	9820.3
334.617	13066.64
335.069	10508.76
335.522	18974.98
335.974	21024.6
336.426	19139.66
336.878	13167.02
337.33	6732.43
337.782	6564.21
338.234	8258.94
338.686	9881.27
339.137	11738.64
339.589	11084.5
340.041	8739.96
340.493	7531.78
340.944	7717.96
341.396	8342.63
341.847	7064.59
342.299	8317.3
342.75	10224.44
343.201	8895.14
343.653	10208.43
344.104	12493.19
344.555	9831.65
345.006	15233.23
345.457	11754.1
345.908	9325.21
346.359	8788.85
346.81	7152.47
347.261	7532.65
347.712	7399.8
348.163	7904.99
348.613	8052.09
349.064	7517.8
349.515	6573.6
349.965	6751.09
350.416	8094.88
350.866	8871.87
351.317	9962.18
351.767	16512.02
352.217	20876.85
352.668	17285.18
353.118	15899.66
353.568	15258.36
354.018	12095.23
354.468	12825.81
354.918	9229.76
355.368	8084.85
355.818	11433.25
356.268	32992.72
356.718	138954.88
357.168	34583.96
357.617	17366.77
358.067	19234.98
358.517	18012.84
358.966	21293.79
359.416	23914.11
359.865	25780.03
360.315	30631.42
360.764	14359.28
361.213	8056.5
361.663	7576.4
362.112	9338.19
362.561	15100.56
363.01	11475.7
363.459	9619.39
363.908	10356.56
364.357	8822.82
364.806	14860.15
365.255	10188.08
365.703	9355.74
366.152	9367.27
366.601	7602.36
367.05	6197.4
367.498	5641.59
367.947	5862.78
368.395	6125.1
368.844	5411.59
369.292	6457.12
369.74	4474.73
370.189	6841.08
370.637	7982.3
371.085	6882.83
371.533	8364.87
371.981	7992.29
372.429	7620.8
372.877	7939.6
373.325	6642.32
373.773	6763.98
374.221	6026.38
374.669	7459.61
375.116	6469.41
375.564	6522.78
376.012	7298.74
376.459	6037.85
376.907	7239.82
377.354	8702.66
377.801	8156.53
378.249	9405.15
378.696	11978.35
379.143	14519.5
379.591	15496.9
380.038	26255.86
380.485	19026.11
380.932	20507.46
381.379	18794.71
381.826	13914.14
382.273	9917.87
382.72	8596.25
383.166	8379.62
383.613	5457.52
384.06	4912.89
384.506	5690.48
384.953	4170.06
385.4	4177.52
385.846	3653.8
386.292	3531.04
386.739	3437.41
387.185	3382.65
387.631	3393.44
388.078	3301.55
388.524	3539.22
388.97	3286.23
389.416	2750.22
389.862	2934.31
390.308	2785.44
390.754	2839.08
391.2	3086.95
391.645	3159.13
392.091	3067.66
392.537	2972.71
392.983	2965.85
393.428	2937.78
393.874	3133.04
394.319	3170.24
394.765	3027.55
395.21	3118.21
395.655	2934.18
396.101	2768.7
396.546	2504.11
396.991	2512.72
397.436	2345.71
397.881	2270
398.326	2144.63
398.771	2047.43
399.216	1773.74
399.661	1597.05
400.106	1607.2
400.551	1654.43
400.995	1490
401.44	1481.01
401.885	1395.44
402.329	1410
402.774	1360.76
403.218	1330.06
403.663	1283.69
404.107	1331.76
404.551	1346.86
404.995	1231.34
405.44	1183.96
405.884	1202.97
406.328	1165.97
406.772	1163.73
407.216	1065.06
407.66	1030.26
408.104	972.47
408.547	912.48
408.991	887.46
409.435	853.66
409.879	847.2
410.322	839.54
410.766	812.89
411.209	777.48
411.653	750.34
412.096	740.25
412.54	740.77
412.983	739.17
413.426	745.71
413.869	742.19
414.312	734.47
414.756	707.46
415.199	675.15
415.642	658.03
416.085	661.42
416.527	656.97
416.97	666.62
417.413	636.64
417.856	629.97
418.298	623.06
418.741	621
419.184	617.08
419.626	641.33
420.069	643.74
420.511	649.54
420.953	635.22
421.396	630.73
421.838	613.42
422.28	628.01
422.722	634.1
423.164	642.79
423.606	633.86
424.048	633.25
424.49	605.78
424.932	603.6
425.374	595.17
425.816	603.57
426.258	617.56
426.699	626.54
427.141	617.03
427.582	623.65
428.024	621.15
428.465	616.16
428.907	602.62
429.348	595.49
429.789	595.56
430.231	585.44
430.672	596.67
431.113	581.04
431.554	573.33
431.995	558.81
432.436	543.38
432.877	533.56
433.318	528.33
433.759	526.65
434.2	527.16
434.64	521.51
435.081	523.47
435.522	499.17
435.962	484.35
436.403	477.56
436.843	485.81
437.284	475.84
437.724	462.09
438.164	461.39
438.604	453.27
439.045	439.33
439.485	426.97
439.925	418.76
440.365	407.41
440.805	401.31
441.245	398.14
441.685	385.49
442.125	383.13
442.564	385.38
443.004	379.09
443.444	377.12
443.883	378.62
444.323	374.12
444.762	373.18
445.202	379.07
445.641	387.99
446.081	383.23
446.52	388.08
446.959	387.28
447.398	382.78
447.837	380.13
448.276	375.88
448.716	379.28
449.154	384.18
449.593	377.24
450.032	378.03
450.471	371.06
450.91	371.76
451.349	370.69
451.787	369.5
452.226	374.22
452.664	374.03
453.103	374.96
453.541	373.9
453.98	374.93
454.418	377.88
454.856	372.76
455.295	372.25
455.733	375.3
456.171	377.13
456.609	376.66
457.047	376.79
457.485	382.62
457.923	384.14
458.361	380.03
458.798	379.79
459.236	378.47
459.674	380.83
460.111	382.39
460.549	380.78
460.987	379.63
461.424	378.34
461.862	375.91
462.299	370.39
462.736	370.44
463.173	371.16
463.611	369.96
464.048	370.51
464.485	373.51
464.922	370.58
465.359	367.76
465.796	370.71
466.233	369.78
466.67	368.45
467.106	369.53
467.543	364.65
467.98	359.91
468.416	348.8
468.853	345.88
469.29	335.26
469.726	332.19
470.162	322.91
470.599	312.89
471.035	309.03
471.471	301.1
471.907	296.48
472.344	295.68
472.78	297.58
473.216	301.68
473.652	297.98
474.088	297.35
474.523	297.65
474.959	301.37
475.395	299.28
475.831	299.12
476.266	301.42
476.702	302.35
477.138	299.19
477.573	298.95
478.008	298.54
478.444	301.43
478.879	306.03
479.314	307.27
479.75	307.11
480.185	308.2
480.62	310.02
481.055	310.66
481.49	313.03
481.925	317.87
482.36	324.34
482.795	331.95
483.229	338.73
483.664	344.07
484.099	343.94
484.534	349.31
484.968	353.01
485.403	353.51
485.837	353.69
486.271	353.04
486.706	352.51
487.14	346.52
487.574	341.99
488.009	339.34
488.443	336.54
488.877	341.27
489.311	342.47
489.745	347.27
490.179	351.36
490.613	359.78
491.046	362.24
491.48	365.83
491.914	368.43
492.348	372.12
492.781	376.62
493.215	378.96
493.648	380.68
494.082	385.8
494.515	387.59
494.948	394.04
495.382	397.21
495.815	402.26
496.248	407.96
496.681	416.97
497.114	425
497.547	433.05
497.98	443.95
498.413	450.77
498.846	458.36
499.279	465.29
499.711	470.52
500.144	475.29
500.577	485.46
501.009	494.48
501.442	504.13
501.874	509.23
502.306	513.89
502.739	524.22
503.171	537.08
503.603	543.24
504.036	553.61
504.468	561.15
504.9	572.47
505.332	580.88
505.764	588.75
506.196	597.36
506.627	611.62
507.059	624.7
507.491	633.06
507.923	636.94
508.354	651.81
508.786	664.57
509.217	681.75
509.649	696.62
510.08	714.41
510.512	731.04
510.943	746.68
511.374	759.46
511.805	778.73
512.237	797.54
512.668	825.08
513.099	849.28
513.53	873.99
513.961	893.63
514.391	921.49
514.822	950.92
515.253	981.99
515.684	1005.78
516.114	1032.26
516.545	1052.46
516.975	1077.01
517.406	1095.73
517.836	1103.17
518.267	1112.59
518.697	1132.36
519.127	1140.81
519.558	1150.32
519.988	1157.08
520.418	1169.75
520.848	1187.71
521.278	1199.28
521.708	1234.36
522.138	1248.8
522.567	1276.49
522.997	1300.01
523.427	1315.42
523.857	1332.09
524.286	1343.33
524.716	1359.56
525.145	1377.79
525.575	1391.06
526.004	1406.41
526.433	1388.37
526.863	1390.79
527.292	1387.48
527.721	1395.3
528.15	1402.31
528.579	1405.86
529.008	1418.04
529.437	1439.07
529.866	1452.39
530.295	1467.99
530.724	1480.59
531.152	1504.57
531.581	1518.05
532.01	1533.49
532.438	1541.48
532.867	1555.3
533.295	1572.09
533.723	1578.22
534.152	1577.29
534.58	1578.02
535.008	1565.41
535.436	1567.47
535.865	1573.79
536.293	1585.94
536.721	1599.63
537.149	1621.66
537.576	1623.29
538.004	1634.62
538.432	1641.41
538.86	1639.87
539.287	1645.52
539.715	1657.48
540.143	1659.98
540.57	1657.43
540.998	1654.99
541.425	1635.64
541.852	1618.35
542.28	1619.14
542.707	1605.04
543.134	1594.21
543.561	1591.21
543.988	1586.75
544.415	1586.7
544.842	1582.15
545.269	1577.4
545.696	1579.29
546.123	1591.02
546.549	1582.81
546.976	1570.9
547.403	1572.13
547.829	1574.18
548.256	1577.41
548.682	1574.95
549.108	1569.1
549.535	1569.97
549.961	1572.17
550.387	1561.72
550.813	1558.63
551.24	1565.28
551.666	1567.24
552.092	1559.48
552.518	1554.97
552.943	1550.1
553.369	1556.12
553.795	1561.95
554.221	1562.99
554.646	1560.87
555.072	1571.07
555.498	1573.69
555.923	1581.36
556.349	1595.12
556.774	1602.25
557.199	1601.53
557.625	1606.49
558.05	1601.69
558.475	1609.88
558.9	1607.86
559.325	1600.18
559.75	1594.89
560.175	1590.4
560.6	1584.92
561.025	1583.06
561.449	1583.49
561.874	1589
562.299	1592.64
562.723	1598.57
563.148	1589.45
563.572	1592.71
563.997	1600
564.421	1602.91
564.846	1600.59
565.27	1602.22
565.694	1597.66
566.118	1605.98
566.542	1611.25
566.966	1603.91
567.39	1598.23
567.814	1586.35
568.238	1584.78
568.662	1587.37
569.086	1588.13
569.509	1593.71
569.933	1579
570.357	1571.64
570.78	1551.97
571.204	1539.53
571.627	1528.44
572.05	1525
572.474	1524.48
572.897	1512.83
573.32	1505.34
573.743	1496.16
574.166	1479.25
574.589	1478
575.012	1470.12
575.435	1468.38
575.858	1459.47
576.281	1449.72
576.704	1436.37
577.126	1425.21
577.549	1415.1
577.972	1405.97
578.394	1396.72
578.817	1390.8
579.239	1374.01
579.661	1363.52
580.084	1349.68
580.506	1338.03
580.928	1334.29
581.35	1324.13
581.772	1319.25
582.194	1307.31
582.616	1296.85
583.038	1282.49
583.46	1272.75
583.882	1268.76
584.303	1270.3
584.725	1266.17
585.147	1268.61
585.568	1276.92
585.99	1286.5
586.411	1291.23
586.833	1300.93
587.254	1299.15
587.675	1311.08
588.096	1319.99
588.518	1315.53
588.939	1300.34
589.36	1296.9
589.781	1284.8
590.202	1261.16
590.623	1252.95
591.043	1250.35
591.464	1239.84
591.885	1238.19
592.305	1231.66
592.726	1219.71
593.147	1221.09
593.567	1217.1
593.987	1210.74
594.408	1205.62
594.828	1203.72
595.248	1198.46
595.669	1184.12
596.089	1178.82
596.509	1173.03
596.929	1162.37
597.349	1163.47
597.769	1153.94
598.189	1147.99
598.608	1149.07
599.028	1150.44
599.448	1148.71
599.867	1137.47
600.287	1132.7
600.706	1128.74
601.126	1120.06
601.545	1118.13
601.965	1115.92
602.384	1111.2
602.803	1112.52
603.222	1107.91
603.641	1102.93
604.061	1099.41
604.48	1095.4
604.898	1101.53
605.317	1104.16
605.736	1104.76
606.155	1103.11
606.574	1094.71
606.992	1097.05
607.411	1091.75
607.829	1083.59
608.248	1079.43
608.666	1075.82
609.085	1073.55
609.503	1064.89
609.921	1058.5
610.339	1058.71
610.758	1054.7
611.176	1049.95
611.594	1042.47
612.012	1038.56
612.43	1039.85
612.847	1042.15
613.265	1042.12
613.683	1044.56
614.101	1043.57
614.518	1039.01
614.936	1029.01
615.353	1016.8
615.771	1013.01
616.188	1010.81
616.606	1007.08
617.023	1000.76
617.44	989.06
617.857	981.79
618.274	973.37
618.691	968.24
619.108	959.44
619.525	954.4
619.942	958.93
620.359	958.9
620.776	953.09
621.192	948.78
621.609	945.43
622.026	950.37
622.442	954.18
622.859	956.2
623.275	949.49
623.691	953.22
624.108	960.91
624.524	970.37
624.94	969.41
625.356	976.97
625.772	987.02
626.188	994.37
626.604	993.86
627.02	990.4
627.436	988.46
627.852	993.3
628.268	1002.31
628.683	994.88
629.099	988.02
629.514	984.39
629.93	985.77
630.345	987.54
630.761	984.42
631.176	986.54
631.591	981.77
632.007	976.51
632.422	973.71
632.837	963.08
633.252	960.78
633.667	951.31
634.082	943.46
634.497	934.01
634.911	920.08
635.326	915.91
635.741	900.93
636.155	891.37
636.57	890.81
636.984	888.7
637.399	889.23
637.813	886.04
638.228	883.72
638.642	883.72
639.056	873.95
639.47	869.72
639.884	861.3
640.298	856.11
640.712	853.05
641.126	841.39
641.54	832.09
641.954	824.66
642.368	812.61
642.781	804.99
643.195	790.32
643.609	788.2
644.022	781.14
644.436	775.4
644.849	763.18
645.262	751.16
645.676	747.83
646.089	741.28
646.502	728.85
646.915	723.39
647.328	708.41
647.741	704.58
648.154	693.06
648.567	691.58
648.98	681.06
649.393	679.74
649.805	676.48
650.218	670.66
650.631	659.58
651.043	653.47
651.456	648.09
651.868	647.31
652.28	655.74
652.693	662.13
653.105	661.75
653.517	666.23
653.929	664
654.341	665.12
654.753	655.83
655.165	657.82
655.577	655.58
655.989	650.38
656.401	642.65
656.813	618.68
657.224	603.84
657.636	583.63
658.047	569.98
658.459	555.11
658.87	546.58
659.282	535.51
659.693	520.17
660.104	507.28
660.515	495.35
660.926	489.53
661.338	484.1
661.749	477.67
662.159	469.72
662.57	463.59
662.981	457.63
663.392	449.21
663.803	448.34
664.213	443.2
664.624	437.7
665.035	436.06
665.445	426.21
665.855	420.31
666.266	413.97
666.676	409.55
667.086	400.99
667.497	398.84
667.907	393.83
668.317	387.46
668.727	386.75
669.137	384.85
669.547	382.54
669.956	382.85
670.366	382.95
670.776	382.05
671.186	382.16
671.595	384.59
672.005	384.09
672.414	383.65
672.824	382.98
673.233	381.64
673.642	382.77
674.052	385.24
674.461	386.89
674.87	388.21
675.279	387.96
675.688	388.24
676.097	389.96
676.506	390.34
676.915	398.34
677.323	400.54
677.732	400.88
678.141	401.54
678.549	395.64
678.958	396.14
679.366	396.95
679.775	399.76
680.183	410.23
680.592	414.64
681	419.51
681.408	418.54
681.816	424.73
682.224	432.95
682.632	443.24
683.04	463.93
683.448	481.96
683.856	504.11
684.264	529.14
684.671	551
685.079	578.26
685.487	610.35
685.894	654.4
686.302	692.5
686.709	725.2
687.116	764.96
687.524	801.01
687.931	833.32
688.338	863.84
688.745	890.67
689.152	922.09
689.559	962.66
689.966	1001.03
690.373	1024.48
690.78	1062.71
691.187	1115.22
691.593	1157.38
692	1194.79
692.407	1247.31
692.813	1309.69
693.22	1362.24
693.626	1413.25
694.032	1456.1
694.439	1519.28
694.845	1568.96
695.251	1628.86
695.657	1685.87
696.063	1764.73
696.469	1824.91
696.875	1880.87
697.281	1915.31
697.687	1955.54
698.093	1990.91
698.498	2052.92
698.904	2101.79
699.31	2175.49
699.715	2231.48
700.12	2306.33
700.526	2324.39
700.931	2384.03
701.337	2430.98
701.742	2461.26
702.147	2533.16
702.552	2562.02
702.957	2613.99
703.362	2633.29
703.767	2658.84
704.172	2691.94
704.577	2656.88
