Data from C_3_DIV_PA_2N_Splice17_13-15-42-877.txt Node
Date: Sat Mar 14 13:15:42 EDT 2020
User: sa697716
Spectrometer: FLMS03696
Trigger mode: 0
Integration Time (sec): 3.180400E-1
Scans to average: 20
Electric dark correction enabled: true
Nonlinearity correction enabled: true
Boxcar width: 5
XAxis mode: Wavelengths
Number of Pixels in Spectrum: 2048
>>>>>Begin Spectral Data<<<<<
187.83	-326191.27
188.298	2389.23
188.766	1273.35
189.233	1132.1
189.701	1557.32
190.169	2071.35
190.636	808.88
191.104	666.67
191.571	101.65
192.039	-65.05
192.506	-82.83
192.974	279.94
193.441	-590.55
193.908	-119.74
194.375	-20.84
194.842	21.12
195.31	93.85
195.777	196.2
196.244	361.94
196.711	240.59
197.177	255.08
197.644	271.05
198.111	445.63
198.578	629.51
199.045	482.81
199.511	728.5
199.978	786.91
200.445	674.41
200.911	682.82
201.378	697.55
201.844	711.05
202.31	1137.64
202.777	1174.18
203.243	622.33
203.709	571.76
204.176	684.27
204.642	586.65
205.108	547.08
205.574	425.96
206.04	363.95
206.506	334.96
206.972	268.75
207.438	252.04
207.903	284.25
208.369	268.77
208.835	289.42
209.301	303.33
209.766	282.88
210.232	291.14
210.697	347.82
211.163	403.74
211.628	611.62
212.094	566.51
212.559	836.75
213.024	540.36
213.49	687.85
213.955	647.69
214.42	592.77
214.885	567.06
215.35	551.67
215.815	638.34
216.28	714.88
216.745	576.7
217.21	637.38
217.675	542.35
218.14	626.86
218.604	696.5
219.069	832
219.534	934.75
219.998	1076.61
220.463	1324.9
220.927	1549.62
221.392	1449.43
221.856	1490.91
222.32	1851.06
222.785	2345.25
223.249	2958.11
223.713	3328.09
224.177	3332.08
224.642	4191.69
225.106	5190.17
225.57	5657.1
226.034	4313.35
226.497	6649.29
226.961	6082.58
227.425	7238.21
227.889	8002.02
228.353	8033.39
228.816	16558.3
229.28	15990
229.744	13657.72
230.207	8428.77
230.671	8354.64
231.134	13714.94
231.597	16004.11
232.061	16047.29
232.524	15614.48
232.987	10869.96
233.45	9901.82
233.914	8949.28
234.377	9169.2
234.84	8429.87
235.303	9944.09
235.766	11164.7
236.229	11604.22
236.691	7313.12
237.154	8247.99
237.617	6269.69
238.08	6441.18
238.542	7553.53
239.005	5446.37
239.468	5439.38
239.93	5154.41
240.393	4703.9
240.855	4132.09
241.317	4240.91
241.78	5161.85
242.242	5372.91
242.704	5836.29
243.166	5106.79
243.629	4699.02
244.091	5426.73
244.553	5977.76
245.015	6449.15
245.477	8390.39
245.939	12370.01
246.4	13177.9
246.862	12860.38
247.324	12149.07
247.786	13604.31
248.247	17876.15
248.709	18371.25
249.17	13802.62
249.632	13125.06
250.093	15351.68
250.555	13293.87
251.016	8182.24
251.477	7820.71
251.939	8497.95
252.4	8962.95
252.861	10685.93
253.322	10021.96
253.783	11955.65
254.244	15550.8
254.705	12271.55
255.166	10926.1
255.627	10815.65
256.088	15311.93
256.549	16280.24
257.009	14061.21
257.47	17089
257.931	13966.46
258.391	10472.33
258.852	10855.26
259.312	11431.65
259.773	14146.63
260.233	12072
260.694	10252.02
261.154	11676.14
261.614	9484.16
262.074	8526.66
262.534	8937.08
262.994	8485.73
263.455	11370.31
263.915	9639.94
264.374	9135.8
264.834	10047.27
265.294	11169.1
265.754	11630.18
266.214	11061.17
266.673	10403.76
267.133	13192.8
267.593	13138.28
268.052	16174.28
268.512	14138.07
268.971	17211.52
269.431	18945.83
269.89	17031.63
270.349	25669.21
270.809	28785.45
271.268	26020.27
271.727	58385.52
272.186	38027.81
272.645	28613.78
273.104	20675.28
273.563	30004.75
274.022	23575.48
274.481	20189.73
274.94	15657.82
275.399	11647.64
275.857	13567.54
276.316	18387.01
276.775	16464.79
277.233	16261.26
277.692	15296.94
278.15	17390.13
278.609	18023.3
279.067	16751.63
279.525	15646.56
279.984	20224.44
280.442	24447.88
280.9	24261.47
281.358	16030.33
281.816	15006.8
282.274	14732.25
282.732	15237.15
283.19	15339.08
283.648	13236.68
284.106	14117.07
284.564	14351.24
285.021	13367.97
285.479	9968.02
285.937	9045.5
286.394	7969.9
286.852	8197.75
287.309	8630.61
287.767	8396.4
288.224	8029.32
288.682	8861.01
289.139	9798.13
289.596	9016.48
290.053	9403.23
290.511	11927.38
290.968	14611.2
291.425	19904.82
291.882	16759.96
292.339	14711.33
292.796	14666.72
293.252	13889.73
293.709	11108.72
294.166	9996.17
294.623	11086.53
295.079	10668.29
295.536	10768.7
295.992	9802.63
296.449	9731.8
296.905	10088.74
297.362	9713.04
297.818	10239.65
298.274	10662.57
298.731	10859.22
299.187	10757.23
299.643	11574.49
300.099	14044.68
300.555	15420.15
301.011	12927.08
301.467	12530.64
301.923	14718.39
302.379	14394.48
302.835	14173.79
303.291	14228.37
303.746	16248.52
304.202	20554.55
304.658	20630.95
305.113	13908.14
305.569	13661.05
306.024	14547.27
306.479	13832.38
306.935	11689.91
307.39	12758.61
307.845	11790.86
308.301	11884.62
308.756	11592.63
309.211	11181.29
309.666	11495.71
310.121	14273.89
310.576	14483.44
311.031	14380.22
311.486	16433.65
311.94	16433.04
312.395	21990.16
312.85	41292.59
313.305	202169.32
313.759	1051742.89
314.214	76429.78
314.668	60717.1
315.123	51295.02
315.577	18455.62
316.032	16487.86
316.486	20715.6
316.94	16449.45
317.394	11500.25
317.849	8989.48
318.303	8546.77
318.757	8084.74
319.211	8982.13
319.665	7888.45
320.119	8024.08
320.572	11558.83
321.026	10849.99
321.48	9075.91
321.934	9893.26
322.387	9951.69
322.841	10784.54
323.295	9766.2
323.748	11230.98
324.202	11416.27
324.655	13745.91
325.108	19261.8
325.562	13650.82
326.015	16256.68
326.468	12301.83
326.921	13805.53
327.374	12923.98
327.827	13488.06
328.28	15281.19
328.733	10287.59
329.186	9050.8
329.639	8636.41
330.092	7280.62
330.545	6935.6
330.997	7003.41
331.45	7692.52
331.903	9019.28
332.355	15484.9
332.808	15046.79
333.26	12391.27
333.713	13477.19
334.165	13591.71
334.617	18137.84
335.069	14617.88
335.522	26371.86
335.974	29156.94
336.426	26579.24
336.878	18373.09
337.33	9327.56
337.782	9122.14
338.234	11480.19
338.686	13722.26
339.137	16300.7
339.589	15394.51
340.041	12084.42
340.493	10438.3
340.944	10746.88
341.396	11622.28
341.847	9855.61
342.299	11702.5
342.75	14356.93
343.201	12566.67
343.653	14513.36
344.104	17890.06
344.555	14156.14
345.006	22100.58
345.457	17029.96
345.908	13552.01
346.359	12798.24
346.81	10440.02
347.261	11007.79
347.712	10845.63
348.163	11636.12
348.613	11852.5
349.064	11129.03
349.515	9767.1
349.965	10049.02
350.416	12092.33
350.866	13293.58
351.317	15040.45
351.767	24945.52
352.217	31635.87
352.668	26320.34
353.118	24162.02
353.568	23175.72
354.018	18324.1
354.468	19340.04
354.918	13882.37
355.368	12163.86
355.818	17230.59
356.268	49618.81
356.718	208052.72
357.168	51826.07
357.617	26021.28
358.067	28949.9
358.517	27229.37
358.966	31919.2
359.416	35863.8
359.865	38878.69
360.315	46373.86
360.764	21700.24
361.213	12187.92
361.663	11539
362.112	14265.82
362.561	23079.67
363.01	17456.44
363.459	14756.82
363.908	16052.49
364.357	13689.39
364.806	23234.46
365.255	15990.82
365.703	14713.63
366.152	14735.5
366.601	11991.41
367.05	9767.21
367.498	8913.54
367.947	9325.41
368.395	9683.82
368.844	8577.99
369.292	10350.57
369.74	7159.74
370.189	10986.05
370.637	12859.86
371.085	11140.49
371.533	13581.89
371.981	13127.45
372.429	12569.03
372.877	13141.35
373.325	11046.42
373.773	11275.31
374.221	10029.44
374.669	12436.28
375.116	10795.72
375.564	10938.21
376.012	12260.25
376.459	10171.35
376.907	12150.21
377.354	14686.29
377.801	13712.19
378.249	15792.6
378.696	20236.76
379.143	24578.16
379.591	26295.68
380.038	44664.22
380.485	32319.99
380.932	34953.33
381.379	32054.62
381.826	23651.54
382.273	16834.86
382.72	14717.3
383.166	14374.13
383.613	9315.78
384.06	8417.4
384.506	9761.65
384.953	7177.57
385.4	7232.64
385.846	6337.15
386.292	6158.56
386.739	6039.67
387.185	5977.69
387.631	6005.15
388.078	5835.68
388.524	6254.11
388.97	5774.81
389.416	4822.42
389.862	5125.01
390.308	4855.69
390.754	4928.91
391.2	5340.81
391.645	5442.58
392.091	5211.18
392.537	5021.58
392.983	5000.67
393.428	4922.47
393.874	5260.73
394.319	5276.95
394.765	4998.34
395.21	5120.38
395.655	4798.83
396.101	4485.35
396.546	4049.38
396.991	4064.3
397.436	3767.12
397.881	3645.73
398.326	3437.97
398.771	3248.41
399.216	2819.8
399.661	2529.49
400.106	2511.68
400.551	2564.6
400.995	2299.17
401.44	2275.53
401.885	2136.33
402.329	2158.1
402.774	2067.88
403.218	1999.7
403.663	1922.09
404.107	1975.67
404.551	1985.4
404.995	1817.52
405.44	1745.24
405.884	1765.88
406.328	1701.12
406.772	1690.07
407.216	1535.55
407.66	1477.46
408.104	1396.31
408.547	1306.73
408.991	1262.47
409.435	1213.56
409.879	1196.8
410.322	1181.89
410.766	1139.21
411.209	1078.48
411.653	1033.49
412.096	1008.55
412.54	1005.06
412.983	997.88
413.426	998.69
413.869	993.24
414.312	972.1
414.756	932.22
415.199	886.12
415.642	860.37
416.085	862.59
416.527	855.11
416.97	869.17
417.413	826.42
417.856	817.1
418.298	808.87
418.741	806.59
419.184	805.11
419.626	838.35
420.069	839.49
420.511	844.61
420.953	827.62
421.396	820.52
421.838	799.62
422.28	819.93
422.722	825.32
423.164	835.31
423.606	820.86
424.048	817.33
424.49	779.64
424.932	775.97
425.374	765.22
425.816	777.71
426.258	793.59
426.699	802.82
427.141	794.16
427.582	806.98
428.024	803.86
428.465	796.21
428.907	775.61
429.348	762.9
429.789	761.94
430.231	747.42
430.672	757.17
431.113	738.27
431.554	724.38
431.995	699.72
432.436	673.35
432.877	656.82
433.318	646.07
433.759	641.22
434.2	640.97
434.64	629.81
435.081	628.58
435.522	592.1
435.962	567.87
436.403	555.4
436.843	560.68
437.284	545.69
437.724	525.57
438.164	522.33
438.604	510.85
439.045	492
439.485	473.77
439.925	463.12
440.365	451.08
440.805	444.16
441.245	438.07
441.685	422.84
442.125	417.75
442.564	422.11
443.004	413.06
443.444	409.28
443.883	408.45
444.323	400.12
444.762	395.64
445.202	398.15
445.641	403.76
446.081	398.03
446.52	396.99
446.959	394
447.398	382.05
447.837	376.02
448.276	368.07
448.716	369.35
449.154	372.82
449.593	364.33
450.032	363.21
450.471	354.55
450.91	354.76
451.349	354.31
451.787	349.72
452.226	354.3
452.664	353.94
453.103	354.95
453.541	353.99
453.98	354.51
454.418	357.43
454.856	354.13
455.295	353.06
455.733	355.59
456.171	358.16
456.609	358.69
457.047	359.45
457.485	366.29
457.923	367.83
458.361	362.22
458.798	362.94
459.236	361.73
459.674	361.62
460.111	364.79
460.549	360.68
460.987	356.91
461.424	355.44
461.862	353.02
462.299	347.13
462.736	347.12
463.173	348.57
463.611	347.88
464.048	347.73
464.485	350.82
464.922	346.16
465.359	343.74
465.796	347.49
466.233	347.02
466.67	345.25
467.106	344.57
467.543	339.36
467.98	334.93
468.416	322.9
468.853	319.3
469.29	309.68
469.726	306.74
470.162	299.99
470.599	290.2
471.035	285.41
471.471	278.84
471.907	276.32
472.344	275.39
472.78	276.76
473.216	280.58
473.652	277.63
474.088	276.39
474.523	276.84
474.959	279.56
475.395	278.44
475.831	279.1
476.266	280.47
476.702	279.89
477.138	277.13
477.573	275.42
478.008	274.78
478.444	277.68
478.879	282.95
479.314	284.67
479.75	285.2
480.185	286.71
480.62	289.08
481.055	291.17
481.49	294.17
481.925	299.48
482.36	307.84
482.795	317.25
483.229	324.66
483.664	329.77
484.099	330.69
484.534	335.53
484.968	339.27
485.403	339.84
485.837	338.66
486.271	337.5
486.706	337.86
487.14	331.62
487.574	325.65
488.009	322.19
488.443	319.13
488.877	322.1
489.311	321.72
489.745	324.82
490.179	327.77
490.613	334.31
491.046	335.69
491.48	337.3
491.914	336.87
492.348	337.92
492.781	339.29
493.215	338.87
493.648	337.47
494.082	339.25
494.515	338.04
494.948	340.54
495.382	339.56
495.815	339.96
496.248	339.6
496.681	343.43
497.114	346.11
497.547	348.26
497.98	351.98
498.413	353.23
498.846	354.27
499.279	354.36
499.711	352.28
500.144	350.17
500.577	352.05
501.009	353.11
501.442	354.08
501.874	351.6
502.306	347.88
502.739	349.8
503.171	351.13
503.603	348.69
504.036	347.77
504.468	345.09
504.9	345.04
505.332	341.96
505.764	339.13
506.196	336.77
506.627	336.92
507.059	337.38
507.491	331.52
507.923	325.85
508.354	326.95
508.786	325.58
509.217	327.02
509.649	327.27
510.08	327.7
510.512	328.86
510.943	328.54
511.374	327.17
511.805	327.67
512.237	328.09
512.668	331.21
513.099	331.77
513.53	333.3
513.961	332.71
514.391	334.95
514.822	340.72
515.253	344.35
515.684	344.49
516.114	346.27
516.545	346.26
516.975	347.89
517.406	347.04
517.836	342.7
518.267	340.05
518.697	340.65
519.127	336.74
519.558	332.15
519.988	327.29
520.418	325.55
520.848	323.95
521.278	321.77
521.708	357.3
522.138	357.54
522.567	360.02
522.997	361.63
523.427	359.85
523.857	360.43
524.286	359.43
524.716	360.29
525.145	361.97
525.575	363.24
526.004	363.21
526.433	324.27
526.863	320.94
527.292	318.47
527.721	318.8
528.15	319.11
528.579	318.08
529.008	319.1
529.437	320.99
529.866	321.43
530.295	322.26
530.724	324.28
531.152	328.31
531.581	331.23
532.01	333.25
532.438	332.87
532.867	334.13
533.295	337
533.723	337.71
534.152	337.93
534.58	337.96
535.008	334.79
535.436	336.03
535.865	336.7
536.293	337.84
536.721	339.86
537.149	344.71
537.576	346.28
538.004	348.61
538.432	348.91
538.86	348.96
539.287	349.88
539.715	352.85
540.143	351.81
540.57	351.65
540.998	351.13
541.425	349.44
541.852	345.95
542.28	345.58
542.707	342.23
543.134	341.07
543.561	340.21
543.988	340.03
544.415	340.55
544.842	339.69
545.269	339.01
545.696	341.5
546.123	344.23
546.549	342.85
546.976	341.77
547.403	343.12
547.829	343.46
548.256	344.62
548.682	344.32
549.108	343.94
549.535	345.22
549.961	345.9
550.387	343.39
550.813	343.54
551.24	345.34
551.666	345.49
552.092	343.89
552.518	343.44
552.943	343.69
553.369	345.61
553.795	347.45
554.221	348.54
554.646	348.63
555.072	353.07
555.498	353.08
555.923	355.64
556.349	360.14
556.774	363.26
557.199	364.31
557.625	365.52
558.05	366.45
558.475	369.45
558.9	370.67
559.325	372.18
559.75	372.49
560.175	373.13
560.6	373.59
561.025	374.26
561.449	376.05
561.874	379.07
562.299	382.72
562.723	385.11
563.148	385.02
563.572	387.64
563.997	390.76
564.421	391.97
564.846	393.56
565.27	396.4
565.694	397.69
566.118	402.42
566.542	407.74
566.966	408.37
567.39	410.04
567.814	410.34
568.238	413.29
568.662	415.5
569.086	419.45
569.509	422.74
569.933	423.24
570.357	425.03
570.78	422.91
571.204	423.25
571.627	423.03
572.05	425.02
572.474	427.91
572.897	427.04
573.32	429.6
573.743	428.69
574.166	429.32
574.589	431.02
575.012	430.87
575.435	432.27
575.858	431.87
576.281	431.32
576.704	430.03
577.126	428.34
577.549	428.08
577.972	426.66
578.394	426.71
578.817	428.37
579.239	424.39
579.661	423.73
580.084	423.4
580.506	421.61
580.928	423.05
581.35	421.99
581.772	423.11
582.194	421.2
582.616	419.51
583.038	416.51
583.46	412.99
583.882	414.71
584.303	416.43
584.725	415.05
585.147	421.66
585.568	425.58
585.99	430.56
586.411	433.66
586.833	438.89
587.254	440.47
587.675	446.05
588.096	450.52
588.518	450.08
588.939	446.64
589.36	448.35
589.781	440.44
590.202	436.36
590.623	433.65
591.043	432.47
591.464	429.67
591.885	429.72
592.305	428.56
592.726	425.64
593.147	426.81
593.567	425.6
593.987	423.03
594.408	421.98
594.828	418.02
595.248	418.73
595.669	415.5
596.089	414.06
596.509	411.33
596.929	407.58
597.349	408.32
597.769	404.96
598.189	403.86
598.608	404.89
599.028	406.03
599.448	406.41
599.867	402.05
600.287	400.27
600.706	399.91
601.126	399.27
601.545	400.71
601.965	400.52
602.384	400.06
602.803	401.14
603.222	400.23
603.641	398.68
604.061	400.04
604.48	399.09
604.898	402.5
605.317	404.29
605.736	405.35
606.155	405.76
606.574	403.87
606.992	406.57
607.411	406.99
607.829	405.38
608.248	405.87
608.666	405.45
609.085	407.63
609.503	406.93
609.921	406.98
610.339	409.15
610.758	409.04
611.176	409.51
611.594	408.38
612.012	407.93
612.43	411.26
612.847	414.13
613.265	416.35
613.683	419.07
614.101	420.9
614.518	420.61
614.936	418.92
615.353	417.63
615.771	418.37
616.188	420.02
616.606	420.96
617.023	420.82
617.44	418.68
617.857	417.56
618.274	416.11
618.691	416.28
619.108	414.07
619.525	413.39
619.942	416.17
620.359	418.76
620.776	418.1
621.192	418.76
621.609	419.13
622.026	422.23
622.442	425.52
622.859	426.88
623.275	423.98
623.691	427.45
624.108	431.62
624.524	437.2
624.94	437.04
625.356	440.43
625.772	444.99
626.188	448.53
626.604	449.73
627.02	448.9
627.436	448.68
627.852	453.45
628.268	458.26
628.683	455.59
629.099	452.7
629.514	451.54
629.93	453.85
630.345	455.12
630.761	454.33
631.176	456.24
631.591	456.19
632.007	455.56
632.422	454.68
632.837	450.96
633.252	453.12
633.667	451.19
634.082	449.67
634.497	447.72
634.911	445.65
635.326	446.24
635.741	442.81
636.155	441.06
636.57	446.48
636.984	449.47
637.399	455.29
637.813	457.45
638.228	461.38
638.642	467.18
639.056	467.32
639.47	470.27
639.884	473.23
640.298	475.15
640.712	480.99
641.126	479.99
641.54	481.95
641.954	483.26
642.368	484.85
642.781	489.72
643.195	488.18
643.609	494.51
644.022	497.11
644.436	498.99
644.849	499.25
645.262	498.02
645.676	503.34
646.089	506.72
646.502	506.06
646.915	507.09
647.328	502.23
647.741	505.47
648.154	503.61
648.567	508.07
648.98	507.17
649.393	510.54
649.805	512.28
650.218	511.8
650.631	506.36
651.043	505.06
651.456	504.78
651.868	505.91
652.28	516.51
652.693	524.72
653.105	529.06
653.517	534.68
653.929	536.76
654.341	541.52
654.753	537.74
655.165	543.83
655.577	545.31
655.989	547.53
656.401	546.23
656.813	530.38
657.224	522.71
657.636	509.54
658.047	505.56
658.459	499.35
658.87	497.06
659.282	494.49
659.693	487.14
660.104	483.36
660.515	478.08
660.926	480.4
661.338	482.57
661.749	482.3
662.159	481.6
662.57	479.8
662.981	480.62
663.392	479.6
663.803	484.16
664.213	484.83
664.624	485.2
665.035	490.22
665.445	485.31
665.855	483.41
666.266	481.87
666.676	482.05
667.086	479.37
667.497	480.87
667.907	479.15
668.317	474.13
668.727	475.11
669.137	474.99
669.547	473.13
669.956	474.12
670.366	475.64
670.776	475.86
671.186	477.32
671.595	479.26
672.005	479.86
672.414	478.95
672.824	478.75
673.233	478.47
673.642	479.25
674.052	480.72
674.461	481.59
674.87	482.47
675.279	480.98
675.688	480.12
676.097	479.55
676.506	476.1
676.915	482.33
677.323	481.64
677.732	477.6
678.141	475.6
678.549	465.9
678.958	462.09
679.366	459.2
679.775	458.31
680.183	463.41
680.592	463.79
681	464.06
681.408	457.88
681.816	459.12
682.224	460.45
682.632	463.12
683.04	476.51
683.448	485.33
683.856	496.53
684.264	509.17
684.671	517.41
685.079	529.91
685.487	544.27
685.894	566.16
686.302	580.05
686.709	590.35
687.116	600.08
687.524	606.18
687.931	608.75
688.338	608.21
688.745	603.63
689.152	600.4
689.559	601.13
689.966	600.66
690.373	591.25
690.78	589.02
691.187	593.43
691.593	592.64
692	586.41
692.407	589.45
692.813	597.84
693.22	599.28
693.626	601
694.032	599.11
694.439	605.38
694.845	604.79
695.251	609.16
695.657	612.73
696.063	622.71
696.469	628.23
696.875	630.31
697.281	623.47
697.687	622.19
698.093	619.43
698.498	626.73
698.904	625.93
699.31	634.44
699.715	639.74
700.12	648.48
700.526	643.22
700.931	648.38
701.337	651.58
701.742	650.9
702.147	660.02
702.552	659.32
702.957	661.5
703.362	659.44
703.767	658.47
704.172	657.42
704.577	641.6
704.981	643.09
705.386	641.13
705.791	633.6
706.195	640.46
706.6	636.4
707.004	644.11
707.408	632.7
707.813	634.43
708.217	627.7
708.621	623.26
709.025	635.92
709.43	633.98
709.834	639.22
710.237	646.34
710.641	640.25
711.045	641.03
711.449	638.68
