Data from C_3_DIV_OH_2N_Splice17_12-47-39-981.txt Node
Date: Sat Mar 14 12:47:39 EDT 2020
User: sa697716
Spectrometer: FLMS03696
Trigger mode: 0
Integration Time (sec): 3.180400E-1
Scans to average: 20
Electric dark correction enabled: true
Nonlinearity correction enabled: true
Boxcar width: 5
XAxis mode: Wavelengths
Number of Pixels in Spectrum: 2048
>>>>>Begin Spectral Data<<<<<
187.83	-420716.49
188.298	3003.49
188.766	1547.71
189.233	1444.54
189.701	2010.58
190.169	2714.73
190.636	1107.21
191.104	877.68
191.571	150.77
192.039	-58.68
192.506	-134.5
192.974	389.09
193.441	-643.74
193.908	-263.42
194.375	-45.81
194.842	14.02
195.31	101.1
195.777	209.85
196.244	389.84
196.711	332.61
197.177	361.9
197.644	442.33
198.111	777.02
198.578	1106.7
199.045	897.05
199.511	1422.97
199.978	1595.76
200.445	1343.1
200.911	1463.46
201.378	1573.41
201.844	1442.67
202.31	2462.39
202.777	2608.21
203.243	1446.01
203.709	1342.5
204.176	1594.1
204.642	1328.32
205.108	1261.65
205.574	1024.09
206.04	898.01
206.506	841.67
206.972	776.52
207.438	748.1
207.903	825.41
208.369	740.02
208.835	757.91
209.301	801.22
209.766	806.14
210.232	795.34
210.697	975.35
211.163	1196.39
211.628	1775.24
212.094	1553.51
212.559	1961.76
213.024	1230.33
213.49	1513.16
213.955	1457.52
214.42	1379.19
214.885	1285.01
215.35	1239.94
215.815	1269.66
216.28	1364.49
216.745	1113.56
217.21	1200.71
217.675	1072.15
218.14	1200.71
218.604	1278.85
219.069	1451.03
219.534	1537.13
219.998	1734.84
220.463	2071.49
220.927	2429.29
221.392	2285.29
221.856	2303.59
222.32	2830.26
222.785	3473.51
223.249	4340.2
223.713	4845.55
224.177	4837.22
224.642	6116.2
225.106	7535.33
225.57	8194.1
226.034	6168.15
226.497	9361.1
226.961	8500.74
227.425	9952.51
227.889	11025.88
228.353	11023.45
228.816	22699.16
229.28	21768.89
229.744	18374.94
230.207	11257.76
230.671	11116
231.134	18254.4
231.597	21139.56
232.061	21057.13
232.524	20489.28
232.987	14150.4
233.45	12829.27
233.914	11560.53
234.377	11801.86
234.84	10836.05
235.303	12729.27
235.766	14177.78
236.229	14661.63
236.691	9200.73
237.154	10337.38
237.617	7785.2
238.08	7963.96
238.542	9281.82
239.005	6641.95
239.468	6611.56
239.93	6237.04
240.393	5682.36
240.855	5002.65
241.317	5119.29
241.78	6226.49
242.242	6454.25
242.704	7029.28
243.166	6146.1
243.629	5622.84
244.091	6488.08
244.553	7104.44
245.015	7656.06
245.477	9899.72
245.939	14511.84
246.4	15429
246.862	14977.67
247.324	14125.42
247.786	15759.94
248.247	20627.13
248.709	21162.26
249.17	15856.24
249.632	15085.53
250.093	17602.41
250.555	15248.34
251.016	9333.7
251.477	8887.5
251.939	9637.6
252.4	10124.73
252.861	12032.84
253.322	11252.25
253.783	13418.25
254.244	17412.36
254.705	13678.66
255.166	12108.18
255.627	11939.86
256.088	16899.2
256.549	17967.72
257.009	15444.84
257.47	18727.61
257.931	15220.04
258.391	11388.85
258.852	11740.47
259.312	12302.73
259.773	15200.89
260.233	12903.41
260.694	10911.02
261.154	12350.91
261.614	9938.07
262.074	8911.17
262.534	9306.6
262.994	8805.86
263.455	11731.48
263.915	9906.01
264.374	9339.92
264.834	10209.69
265.294	11297.25
265.754	11707.2
266.214	11091.59
266.673	10405.13
267.133	13119.15
267.593	13005.86
268.052	15945.89
268.512	13880.42
268.971	16816.83
269.431	18469.82
269.89	16532.98
270.349	24795.69
270.809	27707.67
271.268	24942.7
271.727	55914.67
272.186	36257.54
272.645	27235.99
273.104	19628
273.563	28449.49
274.022	22291.05
274.481	19014.81
274.94	14693.53
275.399	10922.48
275.857	12691.45
276.316	17187.1
276.775	15310.65
277.233	15131.57
277.692	14198.81
278.15	16118.92
278.609	16640.19
279.067	15443.09
279.525	14392.41
279.984	18576.9
280.442	22341.62
280.9	22120.9
281.358	14546.95
281.816	13584.5
282.274	13291.8
282.732	13685.45
283.19	13729.03
283.648	11828.57
284.106	12593.2
284.564	12760.88
285.021	11857.21
285.479	8850.24
285.937	8027.9
286.394	7073.56
286.852	7260.71
287.309	7645.82
287.767	7448.59
288.224	7120.59
288.682	7831.76
289.139	8638.01
289.596	7939.05
290.053	8258.01
290.511	10420.61
290.968	12692.69
291.425	17199.52
291.882	14395.48
292.339	12558.28
292.796	12408.19
293.252	11673.33
293.709	9316.64
294.166	8342.85
294.623	9212.14
295.079	8842.64
295.536	8920.99
295.992	8105.88
296.449	8036.56
296.905	8362.9
297.362	8024.84
297.818	8462.42
298.274	8818.11
298.731	8965.96
299.187	8881.24
299.643	9537.45
300.099	11530.67
300.555	12631.89
301.011	10571.93
301.467	10242.3
301.923	11971.92
302.379	11687.36
302.835	11477.08
303.291	11492.14
303.746	13054.81
304.202	16503.49
304.658	16570.37
305.113	11162.37
305.569	10954.19
306.024	11645.67
306.479	11022.54
306.935	9310.7
307.39	10153.92
307.845	9381.4
308.301	9447
308.756	9208.75
309.211	8858.46
309.666	9077.3
310.121	11293.18
310.576	11446.34
311.031	11363.47
311.486	13003.51
311.94	12931.49
312.395	17316.35
312.85	32433.75
313.305	158205.05
313.759	824563.22
314.214	59778.1
314.668	47466.24
315.123	39995.34
315.577	14423.65
316.032	12860.92
316.486	16109.14
316.94	12753.93
317.394	8934.99
317.849	6967.45
318.303	6606.66
318.757	6221.1
319.211	6896.46
319.665	6045.89
320.119	6115.21
320.572	8715.38
321.026	8159.74
321.48	6808.84
321.934	7404.98
322.387	7394.03
322.841	7999.96
323.295	7241.05
323.748	8316.27
324.202	8439.55
324.655	10163.47
325.108	14255.57
325.562	10097.37
326.015	11966.74
326.468	9052.72
326.921	10159.24
327.374	9502.15
327.827	9918.06
328.28	11220.11
328.733	7556.46
329.186	6641.41
329.639	6315.13
330.092	5305.51
330.545	5057.49
330.997	5116.78
331.45	5616.05
331.903	6606.23
332.355	11308.05
332.808	10947.18
333.26	8990.34
333.713	9759.87
334.165	9786.83
334.617	13018.91
335.069	10479.25
335.522	18954.29
335.974	20890.94
336.426	18933.45
336.878	12997.84
337.33	6607.49
337.782	6473.97
338.234	8170.96
338.686	9739.81
339.137	11571.68
339.589	10940.4
340.041	8614.07
340.493	7392.12
340.944	7605.06
341.396	8235.09
341.847	6983.45
342.299	8279.49
342.75	10149.22
343.201	8793.58
343.653	10074.49
344.104	12409.03
344.555	9761.2
345.006	15123.86
345.457	11691.66
345.908	9249.34
346.359	8727.97
346.81	7113.37
347.261	7472.77
347.712	7342.12
348.163	7900.93
348.613	8083.94
349.064	7581.33
349.515	6635.59
349.965	6841.07
350.416	8189.59
350.866	8999.57
351.317	10118.09
351.767	16745.08
352.217	21205.99
352.668	17625.86
353.118	16185.04
353.568	15497.23
354.018	12234.18
354.468	12951
354.918	9311.72
355.368	8151.67
355.818	11537.6
356.268	33230.19
356.718	139670.16
357.168	34826.6
357.617	17452.95
358.067	19341.95
358.517	18174.76
358.966	21400.1
359.416	24060.71
359.865	25939.02
360.315	30841.46
360.764	14442.53
361.213	8105.7
361.663	7638.71
362.112	9390.37
362.561	15157.15
363.01	11485.19
363.459	9667.78
363.908	10427.04
364.357	8880.63
364.806	14966.05
365.255	10305.14
365.703	9459.52
366.152	9509.55
366.601	7740.94
367.05	6332.72
367.498	5769.24
367.947	6017.75
368.395	6255.03
368.844	5553.6
369.292	6652.22
369.74	4619.68
370.189	7072.87
370.637	8273.79
371.085	7123.26
371.533	8653.61
371.981	8295.51
372.429	7950.72
372.877	8284.55
373.325	6953.15
373.773	7083.94
374.221	6306.56
374.669	7799.95
375.116	6743.59
375.564	6803.82
376.012	7606.95
376.459	6289.12
376.907	7532.92
377.354	9073.8
377.801	8479.74
378.249	9775.08
378.696	12510.7
379.143	15187.9
379.591	16279.65
380.038	27629.75
380.485	20024.95
380.932	21710.03
381.379	20010.04
381.826	14757.17
382.273	10482.61
382.72	9162.36
383.166	8953.7
383.613	5809.71
384.06	5251.83
384.506	6069.74
384.953	4463.55
385.4	4487.08
385.846	3930.7
386.292	3811.38
386.739	3737.43
387.185	3696.96
387.631	3703.24
388.078	3609.05
388.524	3868.61
388.97	3591.51
389.416	3014.65
389.862	3223.31
390.308	3067.6
390.754	3127.68
391.2	3400.18
391.645	3486.94
392.091	3393.02
392.537	3310.39
392.983	3311.29
393.428	3297.91
393.874	3525.99
394.319	3568.03
394.765	3429.59
395.21	3566.14
395.655	3392.88
396.101	3223.46
396.546	2948.8
396.991	3000.56
397.436	2826.56
397.881	2775.77
398.326	2659.17
398.771	2579.04
399.216	2292.58
399.661	2087.43
400.106	2114.8
400.551	2199.53
400.995	2001.49
401.44	2010.58
401.885	1907.39
402.329	1945.01
402.774	1890.85
403.218	1854.33
403.663	1798.92
404.107	1863.8
404.551	1900.51
404.995	1757.19
405.44	1707.76
405.884	1749.51
406.328	1704.46
406.772	1717.07
407.216	1578.98
407.66	1543.79
408.104	1483.03
408.547	1406.57
408.991	1377.84
409.435	1338.41
409.879	1334.31
410.322	1329.76
410.766	1296.9
411.209	1247.35
411.653	1211.05
412.096	1203.1
412.54	1209.35
412.983	1211.53
413.426	1227.22
413.869	1233.71
414.312	1222.1
414.756	1184.81
415.199	1136.24
415.642	1114.17
416.085	1121.12
416.527	1118.75
416.97	1141.91
417.413	1090.4
417.856	1078.69
418.298	1066.23
418.741	1059.42
419.184	1053.76
419.626	1097.41
420.069	1096.93
420.511	1102.17
420.953	1083.64
421.396	1077.54
421.838	1050.69
422.28	1078.39
422.722	1090.8
423.164	1115.01
423.606	1106.29
424.048	1112.07
424.49	1065
424.932	1066
425.374	1055.44
425.816	1073.48
426.258	1087.94
426.699	1090.91
427.141	1063.46
427.582	1065.97
428.024	1049.43
428.465	1037.88
428.907	1015.97
429.348	1011.72
429.789	1023.95
430.231	1010.02
430.672	1031.54
431.113	1015.04
431.554	1016.18
431.995	1013.98
432.436	1004.81
432.877	1004.49
433.318	1004.85
433.759	1012.84
434.2	1020.12
434.64	1014.2
435.081	1024.52
435.522	977.94
435.962	952.29
436.403	942.6
436.843	962.49
437.284	946.43
437.724	925.56
438.164	931.42
438.604	913.78
439.045	884.11
439.485	854.76
439.925	843.2
440.365	831.57
440.805	827.48
441.245	823.64
441.685	796.65
442.125	793.69
442.564	800.71
443.004	785.11
443.444	786.38
443.883	790.58
444.323	788.23
444.762	793.23
445.202	806.27
445.641	825.28
446.081	822.38
446.52	834.69
446.959	832.12
447.398	819.18
447.837	817.97
448.276	811.94
448.716	823.72
449.154	832.53
449.593	814.94
450.032	813.43
450.471	798.47
450.91	798.77
451.349	796.62
451.787	792.71
452.226	802.35
452.664	798.94
453.103	797.68
453.541	795.73
453.98	795.82
454.418	801.23
454.856	788.07
455.295	787.1
455.733	793.71
456.171	795.91
456.609	793.33
457.047	792.53
457.485	802.4
457.923	802.38
458.361	791.71
458.798	792.36
459.236	790.24
459.674	797.62
460.111	802.45
460.549	795.97
460.987	794.76
461.424	796.02
461.862	793.06
462.299	783.39
462.736	785.23
463.173	789.01
463.611	783.09
464.048	782.83
464.485	790.94
464.922	786.97
465.359	786.86
465.796	782.03
466.233	781.57
466.67	780.44
467.106	782.56
467.543	778.32
467.98	774.88
468.416	760.97
468.853	761.63
469.29	745.36
469.726	742.49
470.162	727.92
470.599	723.21
471.035	719.72
471.471	707.66
471.907	709.1
472.344	709.32
472.78	712.11
473.216	723.05
473.652	715.73
474.088	715.47
474.523	714.74
474.959	722.4
475.395	717.83
475.831	716.09
476.266	719.97
476.702	717.3
477.138	709.28
477.573	708.1
478.008	706.08
478.444	710.25
478.879	716.4
479.314	718.71
479.75	716.94
480.185	718.08
480.62	721.57
481.055	721.51
481.49	724.36
481.925	729.99
482.36	735.1
482.795	743.65
483.229	750.32
483.664	753.27
484.099	745.83
484.534	748.91
484.968	748.49
485.403	744.19
485.837	738.12
486.271	732.35
486.706	731.58
487.14	723.94
487.574	716.15
488.009	713.82
488.443	709.84
488.877	717.07
489.311	718.75
489.745	726.53
490.179	731.92
490.613	745.12
491.046	750.15
491.48	753.69
491.914	752.69
492.348	757.79
492.781	761.43
493.215	763.46
493.648	766.24
494.082	772.57
494.515	772.83
494.948	780.21
495.382	783.13
495.815	785.75
496.248	790.25
496.681	802.55
497.114	811.03
497.547	818.03
497.98	828.1
498.413	829.75
498.846	835.17
499.279	840.01
499.711	843.05
500.144	843.71
500.577	852.29
501.009	859.82
501.442	866.8
501.874	866.47
502.306	869.75
502.739	880.44
503.171	898.41
503.603	903.62
504.036	914.14
504.468	918.02
504.9	928.32
505.332	934.72
505.764	939.89
506.196	947.2
506.627	962.02
507.059	973.21
507.491	978.36
507.923	974.29
508.354	988.05
508.786	998.44
509.217	1016.26
509.649	1029.96
510.08	1047.07
510.512	1060.24
510.943	1071.81
511.374	1078.52
511.805	1094.61
512.237	1110.84
512.668	1137.58
513.099	1157.6
513.53	1172.68
513.961	1181.83
514.391	1201.83
514.822	1223.71
515.253	1249.72
515.684	1266.27
516.114	1289.71
516.545	1306.49
516.975	1326.89
517.406	1341.7
517.836	1343.92
518.267	1355.62
518.697	1379.31
519.127	1389.92
519.558	1400.91
519.988	1407.73
520.418	1422.43
520.848	1443.34
521.278	1456.25
521.708	1468.43
522.138	1483.22
522.567	1515.12
522.997	1537.29
523.427	1545.93
523.857	1555.54
524.286	1559.91
524.716	1572.12
525.145	1587.72
525.575	1597.2
526.004	1608.63
526.433	1609.01
526.863	1607.9
527.292	1598.63
527.721	1608.31
528.15	1621.34
528.579	1630.08
529.008	1646.72
529.437	1670.08
529.866	1681.9
530.295	1695.09
530.724	1703.7
531.152	1725.77
531.581	1738.36
532.01	1752.81
532.438	1758.41
532.867	1768.62
533.295	1784.01
533.723	1787.67
534.152	1784.98
534.58	1786.08
535.008	1771.96
535.436	1774.34
535.865	1782.05
536.293	1793.72
536.721	1806.02
537.149	1824.91
537.576	1822.52
538.004	1828.79
538.432	1834.74
538.86	1832.45
539.287	1837.03
539.715	1849.5
540.143	1853.28
540.57	1851.16
540.998	1848.92
541.425	1830.42
541.852	1815.25
542.28	1820.69
542.707	1811.44
543.134	1802.62
543.561	1803.98
543.988	1801.54
544.415	1804.41
544.842	1801.09
545.269	1795.87
545.696	1802.32
546.123	1819.62
546.549	1812.71
546.976	1802.65
547.403	1806.13
547.829	1811.28
548.256	1816.06
548.682	1817.09
549.108	1813.77
549.535	1817.12
549.961	1823.02
550.387	1812.57
550.813	1809.69
551.24	1819.48
551.666	1823.42
552.092	1815.69
552.518	1811.47
552.943	1806.76
553.369	1813.85
553.795	1818.87
554.221	1818.98
554.646	1814.45
555.072	1822.66
555.498	1823.73
555.923	1829.09
556.349	1838.44
556.774	1841.69
557.199	1839.29
557.625	1842.58
558.05	1834.5
558.475	1843.28
558.9	1841.02
559.325	1832.26
559.75	1825.22
560.175	1818.41
560.6	1811.83
561.025	1810.05
561.449	1811.26
561.874	1815.07
562.299	1816.6
562.723	1819.73
563.148	1806.15
563.572	1806.23
563.997	1811.7
564.421	1814.13
564.846	1810.32
565.27	1809.19
565.694	1802.41
566.118	1809.35
566.542	1812.66
566.966	1801.02
567.39	1792.97
567.814	1777.84
568.238	1772.44
568.662	1774.27
569.086	1773.42
569.509	1779.93
569.933	1766.35
570.357	1760.84
570.78	1742.64
571.204	1731.68
571.627	1723.84
572.05	1724.82
572.474	1727.52
572.897	1718.69
573.32	1714.14
573.743	1707.26
574.166	1690.64
574.589	1690.23
575.012	1683.04
575.435	1681.3
575.858	1671.88
576.281	1662.52
576.704	1648.37
577.126	1639.7
577.549	1631.92
577.972	1623.95
578.394	1616.14
578.817	1612.29
579.239	1597.69
579.661	1587.86
580.084	1577.16
580.506	1568.01
580.928	1567.37
581.35	1559.9
581.772	1556.67
582.194	1543.88
582.616	1530.95
583.038	1514.92
583.46	1502.66
583.882	1497.7
584.303	1499.27
584.725	1491.48
585.147	1489.19
585.568	1491.34
585.99	1491.22
586.411	1484.41
586.833	1487.29
587.254	1480.1
587.675	1485.03
588.096	1489.84
588.518	1477.34
588.939	1455.44
589.36	1447.23
589.781	1433.14
590.202	1408.59
590.623	1403.88
591.043	1405.35
591.464	1397.05
591.885	1394.9
592.305	1389.64
592.726	1377.08
593.147	1378.8
593.567	1374.35
593.987	1368.25
594.408	1362.53
594.828	1357.28
595.248	1350
595.669	1333.16
596.089	1326.24
596.509	1319.1
596.929	1306.71
597.349	1305.94
597.769	1294.61
598.189	1286.61
598.608	1284.2
599.028	1282.76
599.448	1280.49
599.867	1266.68
600.287	1261.06
600.706	1256.32
601.126	1247.48
601.545	1246.22
601.965	1243.8
602.384	1237.87
602.803	1239.37
603.222	1234.07
603.641	1228.21
604.061	1224.88
604.48	1219.51
604.898	1225.19
605.317	1226.49
605.736	1225.45
606.155	1219.49
606.574	1207.66
606.992	1209.05
607.411	1201.18
607.829	1190.64
608.248	1184.64
608.666	1178.67
609.085	1175.55
609.503	1164.6
609.921	1157.01
610.339	1155.44
610.758	1150.37
611.176	1144.2
611.594	1134.28
612.012	1129.11
612.43	1130.15
612.847	1132.42
613.265	1131.01
613.683	1131.64
614.101	1130.04
614.518	1123.75
614.936	1113.55
615.353	1101.58
615.771	1098.29
616.188	1097.79
616.606	1094.61
617.023	1087.92
617.44	1076.04
617.857	1070.19
618.274	1063.85
618.691	1058.84
619.108	1050.46
619.525	1044.66
619.942	1048.91
620.359	1048.82
620.776	1042.16
621.192	1035.69
621.609	1030.98
622.026	1032.76
622.442	1034.01
622.859	1033.51
623.275	1024.9
623.691	1026.89
624.108	1033.45
624.524	1041.05
624.94	1037.18
625.356	1042.19
625.772	1050.26
626.188	1057.49
626.604	1057.95
627.02	1052.46
627.436	1049.17
627.852	1053.32
628.268	1061.34
628.683	1051.77
629.099	1044.69
629.514	1039.9
629.93	1042.65
630.345	1045.02
630.761	1041.64
631.176	1043.96
631.591	1040.17
632.007	1036.08
632.422	1033.64
632.837	1024.27
633.252	1023.6
633.667	1015.71
634.082	1010.01
634.497	1001.17
634.911	989.16
635.326	986.82
635.741	974.47
636.155	967.72
636.57	969.24
636.984	971.12
637.399	974.16
637.813	974.48
638.228	974.11
638.642	979.1
639.056	970.93
639.47	971.16
639.884	966.01
640.298	962.54
640.712	963.04
641.126	954.91
641.54	949.02
641.954	946.07
642.368	938.58
642.781	935.48
643.195	922.32
643.609	923.37
644.022	918.59
644.436	914.1
644.849	902.67
645.262	891.86
645.676	891.39
646.089	885.54
646.502	872.82
646.915	866.88
647.328	852.92
647.741	851.71
648.154	842.88
648.567	842.24
648.98	833.45
649.393	835.43
649.805	834.39
650.218	830.3
650.631	819.75
651.043	816.52
651.456	813.66
651.868	813.43
652.28	825.33
652.693	831.53
653.105	829.81
653.517	830.13
653.929	824.5
654.341	823.65
654.753	809.98
655.165	812.15
655.577	808.1
655.989	802.46
656.401	794.77
656.813	770.34
657.224	759.91
657.636	742.28
658.047	735.17
658.459	725.6
658.87	723.08
659.282	717.52
659.693	704.14
660.104	692.89
660.515	682.35
660.926	682.42
661.338	678.01
661.749	671.13
662.159	664.78
662.57	660.53
662.981	655.66
663.392	648.05
663.803	650.92
664.213	646.58
664.624	642.57
665.035	644.31
665.445	631.71
665.855	626.11
666.266	618.85
666.676	615.46
667.086	607.27
667.497	605.84
667.907	600.08
668.317	590.02
668.727	587.3
669.137	585.43
669.547	580.76
669.956	579.83
670.366	578.38
670.776	578.81
671.186	578.96
671.595	579.54
672.005	578.92
672.414	576.91
672.824	574.59
673.233	573.5
673.642	574.75
674.052	577.2
674.461	579.5
674.87	582.28
675.279	579.01
675.688	578.11
676.097	578.75
676.506	576.13
676.915	584.71
677.323	585.85
677.732	584.01
678.141	581.74
678.549	571.98
678.958	569.99
679.366	568.06
679.775	569.43
680.183	577.85
680.592	581.45
681	583.98
681.408	578.63
681.816	581.47
682.224	586.82
682.632	593.92
683.04	613.37
683.448	627.05
683.856	642.81
684.264	660.41
684.671	673.76
685.079	690.8
685.487	713
685.894	746.45
686.302	772.8
686.709	793.36
687.116	816.44
687.524	836.91
687.931	855.73
688.338	873.42
688.745	889.64
689.152	908.52
689.559	935.11
689.966	960.3
690.373	970.79
690.78	992.07
691.187	1026.33
691.593	1052.54
692	1072.12
692.407	1104.21
692.813	1148.14
693.22	1180.68
693.626	1215.76
694.032	1244.53
694.439	1290.8
694.845	1325.74
695.251	1372.36
695.657	1412.09
696.063	1470.65
696.469	1514.79
696.875	1555.77
697.281	1575.04
697.687	1601.56
698.093	1620.89
698.498	1663
698.904	1692.36
699.31	1740.94
699.715	1777.02
700.12	1830.96
700.526	1842.6
700.931	1886.24
701.337	1920.08
701.742	1943.35
702.147	1997.81
702.552	2019.96
