Data from C_3_DEC_OH_4N_Splice17_13-25-42-421.txt Node
Date: Sat Mar 14 13:25:42 EDT 2020
User: sa697716
Spectrometer: FLMS03696
Trigger mode: 0
Integration Time (sec): 3.180400E-1
Scans to average: 20
Electric dark correction enabled: true
Nonlinearity correction enabled: true
Boxcar width: 5
XAxis mode: Wavelengths
Number of Pixels in Spectrum: 2048
>>>>>Begin Spectral Data<<<<<
187.83	-310500.72
188.298	2288.34
188.766	1259.31
189.233	1091.52
189.701	1580.98
190.169	2176.46
190.636	777.14
191.104	645.51
191.571	63.55
192.039	-100.96
192.506	-137.37
192.974	449.71
193.441	-757.15
193.908	-191.79
194.375	-86.42
194.842	-34.56
195.31	73.55
195.777	143.26
196.244	577.36
196.711	1028.66
197.177	1392.57
197.644	2106.96
198.111	3671.46
198.578	5152.63
199.045	4137.26
199.511	6765.23
199.978	7941.86
200.445	6631.29
200.911	7347.24
201.378	8190.26
201.844	7226.03
202.31	12195.62
202.777	12492.01
203.243	6808.55
203.709	6421.29
204.176	7573.94
204.642	6177.14
205.108	5709.29
205.574	4641.91
206.04	4246.46
206.506	3957.37
206.972	3739.35
207.438	3601.5
207.903	4088.34
208.369	3539.86
208.835	3481.16
209.301	3604.13
209.766	3662.01
210.232	3594.83
210.697	4410.12
211.163	5351.49
211.628	8016.57
212.094	6615.04
212.559	7934.68
213.024	4853.24
213.49	5864.3
213.955	5666.43
214.42	5515.21
214.885	5073.52
215.35	4779.81
215.815	4470.41
216.28	4654.51
216.745	3681.23
217.21	3807.38
217.675	3345.9
218.14	3562.85
218.604	3696.8
219.069	3914.67
219.534	3786.65
219.998	4071.45
220.463	4563.64
220.927	5184.1
221.392	4552.96
221.856	4331.85
222.32	5144.06
222.785	6037.13
223.249	7202.61
223.713	7702.34
224.177	7433.77
224.642	9190.19
225.106	11015.95
225.57	11743.93
226.034	8589.63
226.497	12792.3
226.961	11359.27
227.425	13029.77
227.889	14139.3
228.353	13893.94
228.816	28218.12
229.28	26526.17
229.744	21981.17
230.207	13217.86
230.671	12797.58
231.134	20619.92
231.597	23531.21
232.061	23160.58
232.524	22269.4
232.987	15213.97
233.45	13584.73
233.914	12087.97
234.377	12222.92
234.84	11118.45
235.303	12981.15
235.766	14423.66
236.229	14825.75
236.691	9273.2
237.154	10361.62
237.617	7780.67
238.08	7920.48
238.542	9258.37
239.005	6621.07
239.468	6601.56
239.93	6226.65
240.393	5643.88
240.855	4946
241.317	5061.82
241.78	6125.8
242.242	6329.78
242.704	6859
243.166	5984.75
243.629	5451.76
244.091	6274.27
244.553	6842.26
245.015	7340.44
245.477	9469
245.939	13837.57
246.4	14669.69
246.862	14233.61
247.324	13413.65
247.786	14908.69
248.247	19448.41
248.709	19885.68
249.17	14842.44
249.632	14091.83
250.093	16448.76
250.555	14225.59
251.016	8696.9
251.477	8274.92
251.939	8972.2
252.4	9413.53
252.861	11174.08
253.322	10430.72
253.783	12426.71
254.244	16126.49
254.705	12658.7
255.166	11187.09
255.627	11012.76
256.088	15561.81
256.549	16539.47
257.009	14193.73
257.47	17187.19
257.931	13988
258.391	10462.74
258.852	10753.23
259.312	11234.72
259.773	13798.55
260.233	11684.72
260.694	9856.76
261.154	11107.89
261.614	8918.55
262.074	7947
262.534	8254.18
262.994	7767.95
263.455	10295.57
263.915	8649.62
264.374	8116.2
264.834	8829.75
265.294	9693.94
265.754	9986.65
266.214	9419.4
266.673	8784.35
267.133	11025.46
267.593	10851.5
268.052	13242.08
268.512	11478.31
268.971	13871.06
269.431	15150.92
269.89	13542.89
270.349	20272.09
270.809	22620.22
271.268	20350.26
271.727	45415.58
272.186	29405.32
272.645	22063.58
273.104	15861.65
273.563	22981.51
274.022	18015.73
274.481	15408.78
274.94	11910.43
275.399	8866.18
275.857	10301.12
276.316	13933.97
276.775	12443.39
277.233	12343.34
277.692	11668.67
278.15	13270.15
278.609	13754.99
279.067	12772.21
279.525	11930.81
279.984	15439.86
280.442	18661.06
280.9	18589.81
281.358	12300.61
281.816	11531.89
282.274	11319.74
282.732	11690.99
283.19	11792.72
283.648	10221.05
284.106	10961.74
284.564	11205.22
285.021	10482.16
285.479	7856.28
285.937	7145.09
286.394	6328.86
286.852	6546.09
287.309	6915.45
287.767	6736.22
288.224	6460.53
288.682	7094.98
289.139	7827.27
289.596	7169.25
290.053	7458.39
290.511	9405.74
290.968	11439.58
291.425	15458.68
291.882	12906.2
292.339	11226.96
292.796	11105.3
293.252	10418.62
293.709	8290.82
294.166	7407.67
294.623	8170.34
295.079	7817.14
295.536	7874.62
295.992	7132.23
296.449	7061.65
296.905	7360.2
297.362	7079.09
297.818	7427.98
298.274	7735.48
298.731	7878.63
299.187	7798.88
299.643	8382.7
300.099	10177.83
300.555	11140.7
301.011	9340.74
301.467	9058.58
301.923	10531.55
302.379	10288.85
302.835	10142.97
303.291	10167.31
303.746	11570.68
304.202	14686.43
304.658	14778.28
305.113	9953.8
305.569	9827.13
306.024	10509.86
306.479	10004.11
306.935	8509.21
307.39	9301.35
307.845	8646.92
308.301	8749.36
308.756	8575.66
309.211	8304
309.666	8566.03
310.121	10707.5
310.576	10877.76
311.031	10844.26
311.486	12444.76
311.94	12491.54
312.395	16863.5
312.85	31775.53
313.305	156526.65
313.759	819127.27
314.214	59636.81
314.668	47537.09
315.123	40260.69
315.577	14572.96
316.032	13011.71
316.486	16356.17
316.94	12964.45
317.394	9054.53
317.849	7045.57
318.303	6655.76
318.757	6271.15
319.211	6927.02
319.665	6047.94
320.119	6088.58
320.572	8684.89
321.026	8094.43
321.48	6721.33
321.934	7286.42
322.387	7283
322.841	7889.9
323.295	7154.32
323.748	8217.66
324.202	8345.56
324.655	10061.54
325.108	14182.23
325.562	10051.61
326.015	11974.87
326.468	9122.56
326.921	10248.77
327.374	9611.58
327.827	10051.42
328.28	11412.51
328.733	7690.34
329.186	6800.64
329.639	6503.85
330.092	5484.23
330.545	5247.88
330.997	5332.35
331.45	5851.24
331.903	6908.38
332.355	11871.67
332.808	11563.29
333.26	9550.96
333.713	10416
334.165	10500.57
334.617	14048.58
335.069	11340.07
335.522	20546.98
335.974	22811.5
336.426	20887.87
336.878	14428.95
337.33	7348.16
337.782	7206.89
338.234	9100.29
338.686	10900.51
339.137	12940.38
339.589	12186.23
340.041	9607.4
340.493	8263.15
340.944	8497
341.396	9159.54
341.847	7743.36
342.299	9198.27
342.75	11262.28
343.201	9750.24
343.653	11181.77
344.104	13755.43
344.555	10835.4
345.006	16768.19
345.457	12893.67
345.908	10196.62
346.359	9609.77
346.81	7816.87
347.261	8187.46
347.712	8029.21
348.163	8635.26
348.613	8806.99
349.064	8227.69
349.515	7208.22
349.965	7417.66
350.416	8925.49
350.866	9810.63
351.317	11072.02
351.767	18366.05
352.217	23230.63
352.668	19291.97
353.118	17665.07
353.568	16943.32
354.018	13427.28
354.468	14227.58
354.918	10269.49
355.368	8993.98
355.818	12724.3
356.268	36752.83
356.718	154860.98
357.168	38808.32
357.617	19558.09
358.067	21827.18
358.517	20557.39
358.966	24269.97
359.416	27325.45
359.865	29557.86
360.315	35316.28
360.764	16606.75
361.213	9333.92
361.663	8825.2
362.112	10887.01
362.561	17637.05
363.01	13368.99
363.459	11261.48
363.908	12196.5
364.357	10424.42
364.806	17652.53
365.255	12164.04
365.703	11168.47
366.152	11208.33
366.601	9130.03
367.05	7461.3
367.498	6797.63
367.947	7112.09
368.395	7408.15
368.844	6568.99
369.292	7898.57
369.74	5477.09
370.189	8388.1
370.637	9850.96
371.085	8515.85
371.533	10360.12
371.981	9959.47
372.429	9543.34
372.877	9971.26
373.325	8384.72
373.773	8565.02
374.221	7638.08
374.669	9471.61
375.116	8197.78
375.564	8258.77
376.012	9265.15
376.459	7672.24
376.907	9194.24
377.354	11134.96
377.801	10449.72
378.249	12103.91
378.696	15496.34
379.143	18779
379.591	20122.96
380.038	34383.57
380.485	25104.33
380.932	27219.27
381.379	25151.52
381.826	18712.02
382.273	13346.8
382.72	11693.78
383.166	11466.93
383.613	7501.43
384.06	6841.85
384.506	7985.04
384.953	5892.9
385.4	5972.79
385.846	5304.86
386.292	5225.3
386.739	5199.98
387.185	5254.74
387.631	5408.63
388.078	5395.05
388.524	5927
388.97	5613.01
389.416	4790.33
389.862	5194.48
390.308	5009.88
390.754	5218.42
391.2	5874.16
391.645	6270.79
392.091	6322.3
392.537	6401.5
392.983	6689.13
393.428	6864.18
393.874	7729.91
394.319	8312.86
394.765	8641.39
395.21	9884.96
395.655	10376.35
396.101	10866.86
396.546	10967.31
396.991	12398.05
397.436	12923.23
397.881	14054.44
398.326	15077.39
398.771	16006.33
399.216	15703.98
399.661	15706.87
400.106	17201.22
400.551	19234.88
400.995	18742.39
401.44	19984.95
401.885	20096.33
402.329	21606.08
402.774	21906.48
403.218	22243.04
403.663	22610.98
404.107	24397.75
404.551	25816.82
404.995	24919.51
405.44	25248.31
405.884	26844.82
406.328	27110
406.772	28060.85
407.216	26510.45
407.66	26662.69
408.104	26470.51
408.547	25680.47
408.991	25650.27
409.435	25368.9
409.879	25524.33
410.322	25711.61
410.766	25293.36
411.209	24552.07
411.653	24140.8
412.096	24137.18
412.54	24662.06
412.983	24920.62
413.426	25321.79
413.869	25730.21
414.312	25615.57
414.756	25155.87
415.199	24417.59
415.642	24074.75
416.085	24460.53
416.527	24632.67
416.97	25383.03
417.413	24280.47
417.856	24224.29
418.298	24110.14
418.741	24039.89
419.184	24075.48
419.626	25192.38
420.069	25215.43
420.511	25426.05
420.953	24925.62
421.396	24812.99
421.838	24343.16
422.28	25041.43
422.722	25351.72
423.164	26087.62
423.606	25977.5
424.048	26302.53
424.49	25195.79
424.932	25374.8
425.374	25297.16
425.816	25967.91
426.258	26468.83
426.699	26570.16
427.141	25824.94
427.582	25995.7
428.024	25699.18
428.465	25603.02
428.907	25103.41
429.348	25064.88
429.789	25221.19
430.231	24801.61
430.672	25256.33
431.113	24935.05
431.554	25019.24
431.995	25132
432.436	24742.02
432.877	24674.13
433.318	24532.45
433.759	24752.38
434.2	24991.98
434.64	24994.67
435.081	25325.65
435.522	24331.31
435.962	23785.13
436.403	23586.9
436.843	24255.66
437.284	24088.64
437.724	23751.91
438.164	24143.19
438.604	23802.44
439.045	22982.35
439.485	22099.1
439.925	21824.88
440.365	21441.93
440.805	21299.39
441.245	21032.44
441.685	20297.11
442.125	20196.12
442.564	20335.86
443.004	19815.34
443.444	19775.89
443.883	19823.37
444.323	19823.25
444.762	20023.72
445.202	20351.83
445.641	20673.07
446.081	20720.39
446.52	20846.46
446.959	20643.11
447.398	20144.53
447.837	19952.83
448.276	19637.46
448.716	19828.77
449.154	20012.36
449.593	19408.5
450.032	19232.71
450.471	18858.77
450.91	18763.4
451.349	18561.2
451.787	18385.46
452.226	18513.82
452.664	18368.89
453.103	18238.56
453.541	18059.76
453.98	17729.18
454.418	17654.59
454.856	17134.23
455.295	16934.25
455.733	16823.13
456.171	16756.02
456.609	16567.37
457.047	16342.63
457.485	16371.56
457.923	16235.25
458.361	15922.92
458.798	15939.56
459.236	15844.58
459.674	15996.15
460.111	16026.66
460.549	15895.3
460.987	15898.54
461.424	15882.28
461.862	15875.59
462.299	15679.14
462.736	15659.65
463.173	15766.66
463.611	15553.41
464.048	15556.35
464.485	15712.64
464.922	15650.04
465.359	15662.68
465.796	15259.4
466.233	15230.28
466.67	15109.9
467.106	15124.07
467.543	15104.15
467.98	14994.25
468.416	14765.92
468.853	14750.71
469.29	14385.38
469.726	14282.99
470.162	13942
470.599	13990.82
471.035	13898.88
471.471	13600.79
471.907	13579.52
472.344	13490.97
472.78	13460.19
473.216	13581.72
473.652	13335.13
474.088	13232.93
474.523	13058.19
474.959	13075.05
475.395	12841.98
475.831	12620.71
476.266	12565.44
476.702	12399.71
477.138	12106.63
477.573	11928.57
478.008	11717.77
478.444	11580.37
478.879	11482.86
479.314	11374.25
479.75	11199.35
480.185	11106.32
480.62	11047.24
481.055	10947.59
481.49	10844.28
481.925	10826.97
482.36	10787.67
482.795	10918.5
483.229	11058.31
483.664	11113.15
484.099	10986.6
484.534	10969.66
484.968	10909.01
485.403	10792.78
485.837	10656.26
486.271	10506.58
486.706	10390.28
487.14	10207.68
487.574	9940.87
488.009	9756.96
488.443	9588.01
488.877	9574.72
489.311	9525.74
489.745	9539.77
490.179	9532.36
490.613	9575.47
491.046	9574.12
491.48	9568.32
491.914	9491.72
492.348	9485.7
492.781	9464.97
493.215	9426.02
493.648	9401.08
494.082	9409.7
494.515	9351.93
494.948	9378.97
495.382	9401.81
495.815	9386.03
496.248	9380.28
496.681	9478.5
497.114	9558.12
497.547	9600.7
497.98	9661.15
498.413	9623.37
498.846	9644.68
499.279	9660.19
499.711	9630.06
500.144	9564.23
500.577	9581.8
501.009	9618.65
501.442	9618.18
501.874	9514.25
502.306	9453.22
502.739	9409.67
503.171	9498.58
503.603	9432.95
504.036	9431.27
504.468	9383.59
504.9	9396.27
505.332	9362.71
505.764	9291.32
506.196	9255.12
506.627	9290.09
507.059	9298.36
507.491	9298.28
507.923	9134.42
508.354	9149.12
508.786	9123.82
509.217	9158.22
509.649	9165.21
510.08	9208.09
510.512	9218.25
510.943	9221.19
511.374	9190.75
511.805	9230.07
512.237	9264.56
512.668	9414.84
513.099	9510.08
513.53	9586.41
513.961	9599.67
514.391	9695.48
514.822	9778.55
515.253	9894.64
515.684	9924.97
516.114	9984.34
516.545	9973.29
516.975	9996.64
517.406	9957.48
517.836	9822.08
518.267	9718.74
518.697	9693.9
519.127	9584.27
519.558	9504.34
519.988	9399.17
520.418	9341.9
520.848	9326.98
521.278	9264.7
521.708	9020.59
522.138	8994.69
522.567	9072.9
522.997	9113.06
523.427	9100.44
523.857	9089.55
524.286	9053.02
524.716	9046.35
525.145	9057.52
525.575	9038.61
526.004	9044.77
526.433	9141.58
526.863	9074.45
527.292	8949.29
527.721	8920.83
528.15	8906.03
528.579	8865.71
529.008	8879.98
529.437	8956.89
529.866	8984.91
530.295	9025.56
530.724	9034.8
531.152	9124.23
531.581	9146.31
532.01	9199.43
532.438	9207.02
532.867	9246.19
533.295	9305.58
533.723	9303.8
534.152	9262.36
534.58	9233.33
535.008	9133.07
535.436	9121.21
535.865	9142.2
536.293	9199.02
536.721	9257.77
537.149	9358.86
537.576	9352.02
538.004	9404.3
538.432	9436.02
538.86	9421.56
539.287	9456.47
539.715	9520.98
540.143	9544.21
540.57	9534.33
540.998	9530.12
541.425	9418.83
541.852	9340
542.28	9353.28
542.707	9297
543.134	9247.75
543.561	9244.9
543.988	9226.84
544.415	9250.2
544.842	9242.99
545.269	9224.55
545.696	9248.66
546.123	9348.14
546.549	9313.01
546.976	9263.64
547.403	9275.27
547.829	9307.72
548.256	9343.47
548.682	9343.55
549.108	9319.24
549.535	9339.02
549.961	9368.25
550.387	9317.8
550.813	9298.34
551.24	9349.73
551.666	9373.6
552.092	9338.67
552.518	9323.17
552.943	9300.06
553.369	9359.38
553.795	9406.48
554.221	9419.85
554.646	9416.33
555.072	9470.31
555.498	9509.04
555.923	9562.83
556.349	9644.62
556.774	9696.85
557.199	9706.41
557.625	9757.68
558.05	9726.91
558.475	9787.46
558.9	9787.89
559.325	9746.71
559.75	9726.85
560.175	9702.75
560.6	9682.32
561.025	9678.11
561.449	9692.17
561.874	9724.05
562.299	9736.94
562.723	9778.76
563.148	9719.62
563.572	9738.29
563.997	9791.8
564.421	9819.71
564.846	9816.38
565.27	9819.39
565.694	9800.08
566.118	9841.86
566.542	9864.66
566.966	9817.75
567.39	9773.4
567.814	9702.4
568.238	9691.07
568.662	9712.22
569.086	9722.73
569.509	9771.56
569.933	9699.07
570.357	9685.08
570.78	9603.23
571.204	9561.14
571.627	9547.73
572.05	9589.3
572.474	9640.75
572.897	9638.48
573.32	9659.97
573.743	9683.91
574.166	9645.78
574.589	9728.27
575.012	9759.59
575.435	9838.29
575.858	9872.01
576.281	9895.72
576.704	9894.55
577.126	9916.51
577.549	9934.83
577.972	9969.54
578.394	9987.92
578.817	10015.91
579.239	9986.16
579.661	9982.1
580.084	9949.73
580.506	9950.6
580.928	10006.62
581.35	10015.43
581.772	10059.75
582.194	10045.28
582.616	10025.64
583.038	10006.27
583.46	10017.85
583.882	10056.65
584.303	10152.34
584.725	10199.2
585.147	10227.38
585.568	10338.67
585.99	10449.59
586.411	10525.66
586.833	10656.26
587.254	10700.24
587.675	10832.59
588.096	10955.86
588.518	10953.52
588.939	10866.33
589.36	10878.57
589.781	10882.58
590.202	10689.13
590.623	10664.11
591.043	10681.27
591.464	10613.95
591.885	10601.26
592.305	10572.11
592.726	10477.84
593.147	10478.98
593.567	10435.1
593.987	10366.99
594.408	10312.18
594.828	10303.12
595.248	10223.95
595.669	10047.08
596.089	9958.82
596.509	9879.88
596.929	9735.34
597.349	9690.45
597.769	9574.21
598.189	9472.93
598.608	9432
599.028	9390.19
599.448	9342.53
599.867	9218.02
600.287	9161.05
600.706	9089.92
601.126	8983.58
601.545	8941.09
601.965	8909.39
602.384	8856.53
602.803	8865.27
603.222	8818.46
603.641	8772.76
604.061	8743.42
604.48	8725.63
604.898	8788.04
605.317	8840.49
605.736	8877.26
606.155	8880.61
606.574	8847.77
606.992	8914.15
607.411	8911.72
607.829	8905.07
608.248	8928.24
608.666	8960.47
609.085	8997.7
609.503	8979.97
609.921	8981.43
610.339	9040.63
610.758	9090
611.176	9108.78
611.594	9093.37
612.012	9122.4
612.43	9182.45
612.847	9273.84
613.265	9314.42
613.683	9393.97
614.101	9454.92
614.518	9483.75
614.936	9464.12
615.353	9404.67
615.771	9426.93
616.188	9475.87
616.606	9497.64
617.023	9497.8
617.44	9438.39
617.857	9446.44
618.274	9430.14
618.691	9419.78
619.108	9391.25
619.525	9383.63
619.942	9462.88
620.359	9511.66
620.776	9501.85
621.192	9488.8
621.609	9492.91
622.026	9557.12
622.442	9618.39
622.859	9662.59
623.275	9629.75
623.691	9685.65
624.108	9787.69
624.524	9917.89
624.94	9933.54
625.356	10025.04
625.772	10149.31
626.188	10258.83
626.604	10286.71
627.02	10268.41
627.436	10259.46
627.852	10318.94
628.268	10418.77
628.683	10367.44
629.099	10318.67
629.514	10307.11
629.93	10357.77
630.345	10416.45
630.761	10413.88
631.176	10472.17
631.591	10440.89
632.007	10427.44
632.422	10463.03
632.837	10420.77
633.252	10434.12
633.667	10398.89
634.082	10369.96
634.497	10316.63
634.911	10198.5
635.326	10227.89
635.741	10148.75
636.155	10146.56
636.57	10219.81
636.984	10289.64
637.399	10368.81
637.813	10458.33
638.228	10530.19
638.642	10664.2
639.056	10669.42
639.47	10781.69
639.884	10806.61
640.298	10854.4
640.712	10943.72
641.126	10940.1
641.54	10975.31
641.954	11060.75
642.368	11049.07
642.781	11060.66
643.195	11000.13
643.609	11113.2
644.022	11167.13
644.436	11235.24
644.849	11231.14
645.262	11221.46
645.676	11354.32
646.089	11398.62
646.502	11318.47
646.915	11363.59
647.328	11302.37
647.741	11364.24
648.154	11311.05
648.567	11323.29
648.98	11246.09
649.393	11319.57
649.805	11349.96
650.218	11334.53
650.631	11208.6
651.043	11207.53
651.456	11188.32
651.868	11249.4
652.28	11494.25
652.693	11682.39
653.105	11792.24
653.517	11915.74
653.929	11924.67
654.341	12009.97
654.753	11890.52
655.165	12022.4
655.577	12055.2
655.989	12081.91
656.401	12083.23
656.813	11726.3
657.224	11596.07
657.636	11404.99
658.047	11316.3
658.459	11218.82
658.87	11257.44
659.282	11251.67
659.693	11096.76
660.104	11017.54
660.515	10955.98
660.926	11040.18
661.338	11129.65
661.749	11164.5
662.159	11130.33
662.57	11198.77
662.981	11244.01
663.392	11238.39
663.803	11387.6
664.213	11467.24
664.624	11514.12
665.035	11654.66
665.445	11551.87
665.855	11515.14
666.266	11459.01
666.676	11503.5
667.086	11435.72
667.497	11471.57
667.907	11433.42
668.317	11346.52
668.727	11277.85
669.137	11332.13
669.547	11323.13
669.956	11391.26
670.366	11443.54
670.776	11485.38
671.186	11562.26
671.595	11609.66
672.005	11681.42
672.414	11654.91
672.824	11612.79
673.233	11731.79
673.642	11748.58
674.052	11766.35
674.461	11761.36
674.87	11821.84
675.279	11747.7
675.688	11768.15
676.097	11747.5
676.506	11666.54
676.915	11868.05
677.323	11885.57
677.732	11830.03
678.141	11797.11
678.549	11620
678.958	11589.64
679.366	11548.88
679.775	11603.92
680.183	11650.83
680.592	11687.38
681	11702.32
681.408	11519.52
681.816	11547.81
682.224	11584.74
682.632	11582.22
683.04	11859.8
683.448	12027.81
683.856	12207.71
684.264	12402.3
684.671	12574.05
685.079	12794.14
685.487	13029.06
