Data from C_3_DIV_OH_2N_Splice17_12-47-45-917.txt Node
Date: Sat Mar 14 12:47:45 EDT 2020
User: sa697716
Spectrometer: FLMS03696
Trigger mode: 0
Integration Time (sec): 3.180400E-1
Scans to average: 20
Electric dark correction enabled: true
Nonlinearity correction enabled: true
Boxcar width: 5
XAxis mode: Wavelengths
Number of Pixels in Spectrum: 2048
>>>>>Begin Spectral Data<<<<<
187.83	-374872.4
188.298	2752.27
188.766	1527.04
189.233	1362.6
189.701	1860.08
190.169	2466.81
190.636	944.75
191.104	746.41
191.571	132.38
192.039	-74.14
192.506	-93.16
192.974	434.06
193.441	-611.66
193.908	-49.24
194.375	-34.28
194.842	34.54
195.31	80.61
195.777	195.93
196.244	332.63
196.711	226.6
197.177	210.14
197.644	225.38
198.111	348.68
198.578	446.88
199.045	350.66
199.511	529.01
199.978	512.18
200.445	448.7
200.911	424.73
201.378	371.38
201.844	358.99
202.31	592.45
202.777	604.12
203.243	325.95
203.709	308.17
204.176	379.94
204.642	330.47
205.108	299.99
205.574	232.59
206.04	178.9
206.506	178.85
206.972	141.19
207.438	131.25
207.903	138.64
208.369	135.41
208.835	153.79
209.301	155.73
209.766	122.03
210.232	148.89
210.697	171.26
211.163	205.09
211.628	303.61
212.094	319.53
212.559	497.17
213.024	347
213.49	478.44
213.955	449.32
214.42	402.82
214.885	406.23
215.35	411.78
215.815	527.48
216.28	596.37
216.745	479.26
217.21	540.18
217.675	455.64
218.14	526.56
218.604	571.44
219.069	681.99
219.534	771.02
219.998	899.83
220.463	1102.07
220.927	1259.79
221.392	1199.42
221.856	1279.76
222.32	1599.19
222.785	2032.14
223.249	2583.31
223.713	2939.75
224.177	2990.43
224.642	3826.74
225.106	4742.98
225.57	5205.42
226.034	3986
226.497	6168.7
226.961	5658.84
227.425	6693.21
227.889	7512.15
228.353	7539.46
228.816	15669.6
229.28	15120.04
229.744	12858.39
230.207	7978.28
230.671	7926.9
231.134	13004.12
231.597	15181.26
232.061	15121.66
232.524	14716.52
232.987	10143.51
233.45	9250.94
233.914	8315.72
234.377	8507.84
234.84	7832.54
235.303	9210.43
235.766	10309.93
236.229	10717.54
236.691	6727.27
237.154	7583.29
237.617	5759.25
238.08	5925.48
238.542	6919.88
239.005	4982.2
239.468	4959.18
239.93	4687.81
240.393	4281.6
240.855	3783.38
241.317	3875.22
241.78	4715.71
242.242	4920.53
242.704	5375.52
243.166	4704.99
243.629	4342.92
244.091	5025.1
244.553	5550.67
245.015	6004.11
245.477	7796.39
245.939	11422.91
246.4	12227.39
246.862	11944.74
247.324	11315.76
247.786	12697.3
248.247	16694.36
248.709	17117.91
249.17	12915.4
249.632	12305.52
250.093	14433.19
250.555	12534.1
251.016	7707.68
251.477	7339.83
251.939	7987.04
252.4	8405.38
252.861	9983.98
253.322	9337.9
253.783	11126
254.244	14396.64
254.705	11367.83
255.166	10067.81
255.627	9921.81
256.088	14073.65
256.549	15021.12
257.009	12930.66
257.47	15667.4
257.931	12757.16
258.391	9594.21
258.852	9917.74
259.312	10439.73
259.773	12871.47
260.233	10965.46
260.694	9301.2
261.154	10529.1
261.614	8524.99
262.074	7625.78
262.534	7979.72
262.994	7563.55
263.455	10091.65
263.915	8570.64
264.374	8093.06
264.834	8866.11
265.294	9831.48
265.754	10215.8
266.214	9702.59
266.673	9078.66
267.133	11511.2
267.593	11428.16
268.052	14040.55
268.512	12209.68
268.971	14818.24
269.431	16283.96
269.89	14585.92
270.349	21935.12
270.809	24520.95
271.268	22066.33
271.727	49489.77
272.186	32047.09
272.645	24039.02
273.104	17289.55
273.563	25166.32
274.022	19708
274.481	16838.51
274.94	13040.21
275.399	9677
275.857	11263.54
276.316	15286.56
276.775	13644.45
277.233	13498.17
277.692	12721.06
278.15	14483.96
278.609	14979.28
279.067	13906.78
279.525	12949.31
279.984	16739
280.442	20183.79
280.9	20039.07
281.358	13217.13
281.816	12357.81
282.274	12093.66
282.732	12464.88
283.19	12535.03
283.648	10782.19
284.106	11475.27
284.564	11676.29
285.021	10863.77
285.479	8096.68
285.937	7327.99
286.394	6457.18
286.852	6649.41
287.309	7025.33
287.767	6845.85
288.224	6541.14
288.682	7204.48
289.139	7975.01
289.596	7360.05
290.053	7681.63
290.511	9733.08
290.968	11913.8
291.425	16175.83
291.882	13597.05
292.339	11912.28
292.796	11835.24
293.252	11203.66
293.709	8981.13
294.166	8073.06
294.623	8943.6
295.079	8608.44
295.536	8700.64
295.992	7931.25
296.449	7888.72
296.905	8217.83
297.362	7924.73
297.818	8372.86
298.274	8706.22
298.731	8866.26
299.187	8781.63
299.643	9439.7
300.099	11453.31
300.555	12598.15
301.011	10536.66
301.467	10226.36
301.923	11934.72
302.379	11639.29
302.835	11415.14
303.291	11457.02
303.746	13044.43
304.202	16518.08
304.658	16545.97
305.113	11112.34
305.569	10889.5
306.024	11580.08
306.479	10979.64
306.935	9277.98
307.39	10099.43
307.845	9323.77
308.301	9398.16
308.756	9161.88
309.211	8832.05
309.666	9054.27
310.121	11247.75
310.576	11378.38
311.031	11254.92
311.486	12830.95
311.94	12774.78
312.395	17093.74
312.85	32133.05
313.305	156948.15
313.759	817132.78
314.214	59188.25
314.668	46958.23
315.123	39614.53
315.577	14257.09
316.032	12743.81
316.486	15987.26
316.94	12691.01
317.394	8864.09
317.849	6916.09
318.303	6549.13
318.757	6182.57
319.211	6825.51
319.665	5982.31
320.119	6053.43
320.572	8678.19
321.026	8127.65
321.48	6779.35
321.934	7362.94
322.387	7366.82
322.841	7964.12
323.295	7235.17
323.748	8297.24
324.202	8440.59
324.655	10155.67
325.108	14238.56
325.562	10056.31
326.015	11926.8
326.468	9035.52
326.921	10122.39
327.374	9454.78
327.827	9864.7
328.28	11109.41
328.733	7477.52
329.186	6580.48
329.639	6286.63
330.092	5302.03
330.545	5072.62
330.997	5140.64
331.45	5636.27
331.903	6636.22
332.355	11398.42
332.808	11051.29
333.26	9142.21
333.713	9905.01
334.165	9960.81
334.617	13259.55
335.069	10637.22
335.522	19134.18
335.974	21186.05
336.426	19268.25
336.878	13285.01
337.33	6773.01
337.782	6604.39
338.234	8295.46
338.686	9908.7
339.137	11800.15
339.589	11109.12
340.041	8741.22
340.493	7542.85
340.944	7749.62
341.396	8390.49
341.847	7090.8
342.299	8418.86
342.75	10376.72
343.201	9040.24
343.653	10441.73
344.104	12797.52
344.555	10118.95
345.006	15767.73
345.457	12193.87
345.908	9683.52
346.359	9148.45
346.81	7476.34
347.261	7875.14
347.712	7735.67
348.163	8280.1
348.613	8445.33
349.064	7934.14
349.515	6959.55
349.965	7165.2
350.416	8621.22
350.866	9465.21
351.317	10669.64
351.767	17728.01
352.217	22418.33
352.668	18632.69
353.118	17174.28
353.568	16511.83
354.018	13112.42
354.468	13874.32
354.918	9986.6
355.368	8717.05
355.818	12303.84
356.268	35519.01
356.718	148863.57
357.168	37080.81
357.617	18619.81
358.067	20678.53
358.517	19350.45
358.966	22649.99
359.416	25475.83
359.865	27455.19
360.315	32567.92
360.764	15269.98
361.213	8571.51
361.663	8078.42
362.112	9946.9
362.561	16110.69
363.01	12162.08
363.459	10268.24
363.908	11111.99
364.357	9423.25
364.806	15903.08
365.255	10990.08
365.703	10101.04
366.152	10122.88
366.601	8225.62
367.05	6712.34
367.498	6109.7
367.947	6398.91
368.395	6645.46
368.844	5906.26
369.292	7083.35
369.74	4901.72
370.189	7502.8
370.637	8792.01
371.085	7553.99
371.533	9199.74
371.981	8861.64
372.429	8466.79
372.877	8794.01
373.325	7372.33
373.773	7472.3
374.221	6675.49
374.669	8293.68
375.116	7177.69
375.564	7217.86
376.012	8068.05
376.459	6655.29
376.907	7951.1
377.354	9534.11
377.801	8912.52
378.249	10229.15
378.696	13055.84
379.143	15779.58
379.591	16777.48
380.038	28466.91
380.485	20628.53
380.932	22305.31
381.379	20510.17
381.826	15094.59
382.273	10760.85
382.72	9340.94
383.166	9115.35
383.613	5913.29
384.06	5336.67
384.506	6169.39
384.953	4512.28
385.4	4524.5
385.846	3947.14
386.292	3813.51
386.739	3705.55
387.185	3647.42
387.631	3651.22
388.078	3541.01
388.524	3775.22
388.97	3477.22
389.416	2900.69
389.862	3073.63
390.308	2901.92
390.754	2949
391.2	3183.07
391.645	3242.52
392.091	3124.7
392.537	3026.8
392.983	3001.49
393.428	2971.48
393.874	3164.21
394.319	3175.38
394.765	3004.97
395.21	3064.88
395.655	2856.57
396.101	2675.61
396.546	2409.53
396.991	2395.53
397.436	2210.39
397.881	2125.23
398.326	1986.78
398.771	1879.57
399.216	1626.3
399.661	1459.05
400.106	1455.13
400.551	1489.56
400.995	1325.79
401.44	1312.13
401.885	1230.26
402.329	1239.68
402.774	1189.3
403.218	1162.52
403.663	1115.26
404.107	1143.71
404.551	1149.47
404.995	1049.39
405.44	1002.33
405.884	1013.31
406.328	970.57
406.772	968.47
407.216	879.34
407.66	844.3
408.104	785.52
408.547	730.27
408.991	706.46
409.435	674.47
409.879	664.11
410.322	656.22
410.766	636.01
411.209	606.84
411.653	578.11
412.096	568.2
412.54	564.76
412.983	561.2
413.426	567.87
413.869	565
414.312	555.8
414.756	530.66
415.199	503.46
415.642	488.44
416.085	488.18
416.527	481.61
416.97	482.73
417.413	458.78
417.856	450.88
418.298	442.11
418.741	433.98
419.184	428.42
419.626	444.81
420.069	444.85
420.511	446.35
420.953	436.79
421.396	432.29
421.838	419.74
422.28	429.52
422.722	434.3
423.164	437.08
423.606	432.55
424.048	430.06
424.49	409.81
424.932	403.6
425.374	393.36
425.816	397.87
426.258	407.25
426.699	412.47
427.141	409.82
427.582	413.54
428.024	410.6
428.465	404.76
428.907	396.91
429.348	390.08
429.789	394.42
430.231	389.77
430.672	395.64
431.113	382.85
431.554	375.81
431.995	361.97
432.436	353.81
432.877	347.81
433.318	345.88
433.759	340.89
434.2	342.21
434.64	334.82
435.081	334.68
435.522	315.68
435.962	304.43
436.403	299.46
436.843	302.28
437.284	289.55
437.724	278.01
438.164	272.76
438.604	266.5
439.045	255.61
439.485	247.73
439.925	239.23
440.365	233.42
440.805	229.05
441.245	225.88
441.685	217.35
442.125	214.98
442.564	215.35
443.004	211.74
443.444	211.07
443.883	211.37
444.323	206.49
444.762	204.1
445.202	203.75
445.641	208.28
446.081	203.96
446.52	203.74
446.959	203.48
447.398	199.21
447.837	195.93
448.276	190.49
448.716	191.15
449.154	189.98
449.593	187.54
450.032	187.16
450.471	179.65
450.91	177.52
451.349	179.79
451.787	176.6
452.226	176.9
452.664	176.14
453.103	175.26
453.541	173.89
453.98	177.18
454.418	177.17
454.856	175.72
455.295	175.77
455.733	179.5
456.171	177.84
456.609	177.25
457.047	177.74
457.485	181.68
457.923	183.74
458.361	179.93
458.798	178.75
459.236	178.03
459.674	176.38
460.111	177.81
460.549	175.97
460.987	173.65
461.424	172.9
461.862	173.14
462.299	169.95
462.736	170.88
463.173	171.87
463.611	174.58
464.048	175.74
464.485	178.71
464.922	177.23
465.359	174.61
465.796	184.93
466.233	185.53
466.67	185.86
467.106	187
467.543	182.74
467.98	180.66
468.416	171.95
468.853	167.96
469.29	162.33
469.726	160.66
470.162	157.09
470.599	145.12
471.035	141.2
471.471	136.33
471.907	132.25
472.344	131.59
472.78	131.84
473.216	131.85
473.652	130.86
474.088	129.43
474.523	129.16
474.959	129.53
475.395	128.97
475.831	129.72
476.266	129.34
476.702	128.15
477.138	126.77
477.573	126.35
478.008	126.54
478.444	128.36
478.879	131.74
479.314	132.5
479.75	132.49
480.185	132.36
480.62	132.4
481.055	133.25
481.49	135.81
481.925	138.19
482.36	142.74
482.795	146.2
483.229	148.93
483.664	150.64
484.099	150.32
484.534	153.49
484.968	155.54
485.403	155.58
485.837	153.32
486.271	152.31
486.706	151.65
487.14	147.68
487.574	145.16
488.009	143.42
488.443	141.16
488.877	144.1
489.311	142.88
489.745	143.84
490.179	145.51
490.613	150.85
491.046	151.24
491.48	151.79
491.914	151.51
492.348	152.11
492.781	152.25
493.215	151.95
493.648	149.41
494.082	149.96
494.515	149.47
494.948	150.94
495.382	149.21
495.815	149.31
496.248	149.64
496.681	150.8
497.114	151.31
497.547	152.63
497.98	155.4
498.413	157.35
498.846	158.4
499.279	158.1
499.711	156.01
500.144	154.24
500.577	155.85
501.009	156.16
501.442	157.47
501.874	155.83
502.306	153.65
502.739	156.49
503.171	156.65
503.603	155.65
504.036	155.62
504.468	155.19
504.9	155.64
505.332	153.39
505.764	152.65
506.196	150.85
506.627	151.88
507.059	152.08
507.491	146.48
507.923	143.84
508.354	144.29
508.786	143.3
509.217	144.13
509.649	144.22
510.08	144.69
510.512	145.03
510.943	145.13
511.374	144.64
511.805	145.12
512.237	146.04
512.668	146.99
513.099	146.48
513.53	147.15
513.961	147.62
514.391	149.38
514.822	153.9
515.253	156.04
515.684	156.94
516.114	158.09
516.545	159.14
516.975	159.38
517.406	158.9
517.836	157.29
518.267	157.31
518.697	158.41
519.127	156.81
519.558	152.87
519.988	150.23
520.418	148.52
520.848	147.26
521.278	145.52
521.708	175.62
522.138	176.26
522.567	176.81
522.997	176.78
523.427	175.26
523.857	175.72
524.286	175.68
524.716	176.55
525.145	177.98
525.575	179.13
526.004	178.79
526.433	147.64
526.863	145.53
527.292	145.78
527.721	146.06
528.15	145.65
528.579	144.75
529.008	145.14
529.437	145.53
529.866	145.08
530.295	144.81
530.724	147.04
531.152	148.77
531.581	151.16
532.01	151.7
532.438	151
532.867	151.25
533.295	152.56
533.723	152.25
534.152	151.99
534.58	152.65
535.008	151.58
535.436	151.73
535.865	151.9
536.293	151.55
536.721	151.86
537.149	154.27
537.576	155.53
538.004	156.33
538.432	156.12
538.86	156.72
539.287	155.8
539.715	156.94
540.143	155.29
540.57	154.63
540.998	153.86
541.425	154.22
541.852	152.38
542.28	151.29
542.707	149
543.134	148.86
543.561	147.8
543.988	147.91
544.415	147.2
544.842	146.83
545.269	146.83
545.696	148.32
546.123	148.26
546.549	147.08
546.976	146.71
547.403	146.9
547.829	145.72
548.256	145.05
548.682	145.14
549.108	146.13
549.535	145.72
549.961	145.1
550.387	142.71
550.813	143.57
551.24	144.15
551.666	143.12
552.092	142.64
552.518	142.54
552.943	143.16
553.369	143.02
553.795	142.06
554.221	142.56
554.646	142.21
555.072	144.93
555.498	142.86
555.923	143.44
556.349	145.02
556.774	145.38
557.199	145.47
557.625	144.68
558.05	144.82
558.475	146.22
558.9	147.26
559.325	148.22
559.75	147.55
560.175	148.11
560.6	147.48
561.025	147.21
561.449	148.11
561.874	148.82
562.299	151.04
562.723	151.06
563.148	150.4
563.572	149.83
563.997	150.84
564.421	149.84
564.846	149.28
565.27	150.74
565.694	151.37
566.118	152.7
566.542	155.35
566.966	155.3
567.39	156.05
567.814	155.98
568.238	157.15
568.662	156.25
569.086	158.82
569.509	159.84
569.933	160.54
570.357	160.27
570.78	159.09
571.204	159.25
571.627	158.85
572.05	159.7
572.474	161.68
572.897	161.18
573.32	163.26
573.743	161.62
574.166	162.01
574.589	161.22
575.012	161.16
575.435	161.02
575.858	160.17
576.281	158.86
576.704	157.2
577.126	155.88
577.549	155.15
577.972	153.19
578.394	153.78
578.817	156.33
579.239	154.83
579.661	155.16
580.084	156.43
580.506	155.9
580.928	156.59
581.35	156.73
581.772	156.23
582.194	155.42
582.616	154.69
583.038	152.46
583.46	148.48
583.882	148.4
584.303	147.65
584.725	145.61
585.147	151.77
585.568	153.35
585.99	155.9
586.411	157.47
586.833	160.01
587.254	161.55
587.675	163.13
588.096	165.16
588.518	166.14
588.939	165.57
589.36	166.69
589.781	158.64
590.202	159.39
590.623	157.77
591.043	156.53
591.464	155.44
591.885	155.62
592.305	155.7
592.726	154.21
593.147	154.02
593.567	153.73
593.987	152.36
594.408	151.8
594.828	147.63
595.248	148.09
595.669	147.44
596.089	145.97
596.509	144.5
596.929	143.68
597.349	144.93
597.769	143.95
598.189	143.11
598.608	143.85
599.028	144.86
599.448	144.69
599.867	142.58
600.287	141.69
600.706	142.44
601.126	142.89
601.545	143.48
601.965	142.97
602.384	142.6
602.803	142.57
603.222	142.65
603.641	141.38
604.061	142.72
604.48	142.91
604.898	144.11
605.317	144.83
605.736	144.29
606.155	145.72
606.574	144.69
606.992	145.96
607.411	146.73
607.829	144.98
608.248	145.67
608.666	145.09
609.085	145.72
609.503	145.5
609.921	146.47
610.339	147.75
610.758	146.51
611.176	147.13
611.594	146.75
612.012	146.78
612.43	149.39
612.847	150.49
613.265	152.54
613.683	153.4
614.101	153.72
614.518	152.27
614.936	151.24
615.353	150.69
615.771	151.27
616.188	151.67
616.606	151.98
617.023	151.45
617.44	150.22
617.857	148.18
618.274	146.97
618.691	147.98
619.108	147.04
619.525	146.46
619.942	148
620.359	148.4
620.776	148.26
621.192	148.57
621.609	149.42
622.026	150.71
622.442	152.04
622.859	152.32
623.275	150.55
623.691	151.23
624.108	153.4
624.524	154.22
624.94	153.77
625.356	154.74
625.772	155.56
626.188	155.65
626.604	156.05
627.02	156.26
627.436	157
627.852	160.06
628.268	162.6
628.683	160.86
629.099	159.93
629.514	159.09
629.93	159.56
630.345	160.94
630.761	160.56
631.176	161.39
631.591	162.16
632.007	162.51
632.422	159.73
632.837	157.59
633.252	159.17
633.667	158.45
634.082	158.05
634.497	158.31
634.911	158.33
635.326	158.6
635.741	157.63
636.155	155.47
636.57	157.15
636.984	159.56
637.399	163.63
637.813	163.19
638.228	164.14
638.642	165.93
639.056	164.88
639.47	164.83
639.884	165.36
640.298	164.74
640.712	167.09
641.126	165.91
641.54	164.45
641.954	160.62
642.368	160.5
642.781	164.97
643.195	163.94
643.609	165.88
644.022	165.49
644.436	165.34
644.849	164.38
645.262	162.52
645.676	162.79
646.089	163.69
646.502	165.65
646.915	165.97
647.328	161.24
647.741	162.15
648.154	160.63
648.567	164.65
648.98	164.35
649.393	164.76
649.805	165.69
650.218	165.27
650.631	163.74
651.043	162.67
651.456	162.05
651.868	162.1
652.28	164.78
652.693	166.88
653.105	165.13
653.517	166.72
653.929	168.33
654.341	170.29
654.753	169.87
655.165	170.58
655.577	171.47
655.989	172.28
656.401	170.74
656.813	167.24
657.224	165.76
657.636	161.05
658.047	160.19
658.459	158.35
658.87	156.13
659.282	154.43
659.693	154.86
660.104	154.29
660.515	152.17
660.926	154.64
661.338	154.83
661.749	153.12
662.159	154.5
662.57	153.79
662.981	154.19
663.392	154.12
663.803	156.84
664.213	156.21
664.624	155.6
665.035	157.6
665.445	154.36
665.855	154.78
666.266	156.35
666.676	157.11
667.086	155.52
667.497	156.7
667.907	156.77
668.317	155.34
668.727	159.02
669.137	158.6
669.547	157.97
669.956	157.99
670.366	157.89
670.776	158.73
671.186	158.19
671.595	160.03
672.005	159.16
672.414	159.52
672.824	160.16
673.233	157.26
673.642	158.54
674.052	161.41
674.461	163.93
674.87	164.51
675.279	164.61
675.688	163.67
676.097	165.35
676.506	165.23
676.915	167.39
677.323	166.98
677.732	165.34
678.141	163.41
678.549	159.57
678.958	157.35
679.366	155.52
679.775	153.04
680.183	157.57
680.592	155.69
681	155.47
681.408	153.24
681.816	153.82
682.224	154.38
682.632	156.92
683.04	160.26
683.448	162.58
683.856	167.21
684.264	172.85
684.671	173.36
685.079	177.32
685.487	180.63
685.894	187.06
686.302	189.19
686.709	192.08
687.116	194.42
687.524	197.2
687.931	198.96
688.338	199.02
688.745	195.59
689.152	193.62
689.559	193.58
689.966	195.65
690.373	192.76
690.78	194.22
691.187	195.83
691.593	195.67
692	193.21
692.407	194.45
692.813	199.6
693.22	201.19
693.626	200.96
694.032	201.13
694.439	203.22
694.845	203.08
695.251	202.61
695.657	203.36
696.063	205.35
696.469	207.27
696.875	208.44
697.281	204.13
697.687	204.12
698.093	204.53
698.498	208.29
698.904	207.95
699.31	211.55
699.715	218.3
700.12	222.39
700.526	222.93
700.931	224.81
701.337	226.66
701.742	227.47
702.147	229.67
702.552	229.17
702.957	228.34
703.362	227.39
703.767	227.55
704.172	223.32
704.577	217.13
704.981	215.99
705.386	215.75
705.791	212.85
706.195	214.32
706.6	214.84
707.004	217.35
707.408	213.15
707.813	215.57
708.217	213.67
708.621	213.72
709.025	218.8
709.43	220.71
709.834	224.15
710.237	227.3
710.641	225.5
711.045	226.31
711.449	227.81
711.853	235.89
712.256	234.91
712.66	236.14
713.064	240.08
713.467	243.93
713.87	248.64
714.274	250.22
