Data from C_3_HIR_WI_4N_Splice17_13-10-46-079.txt Node
Date: Sat Mar 14 13:10:46 EDT 2020
User: sa697716
Spectrometer: FLMS03696
Trigger mode: 0
Integration Time (sec): 3.180400E-1
Scans to average: 20
Electric dark correction enabled: true
Nonlinearity correction enabled: true
Boxcar width: 5
XAxis mode: Wavelengths
Number of Pixels in Spectrum: 2048
>>>>>Begin Spectral Data<<<<<
187.83	-308229.35
188.298	2355.75
188.766	1319.63
189.233	1221.07
189.701	1772.66
190.169	2421.17
190.636	957.9
191.104	863.71
191.571	217.77
192.039	58.52
192.506	118.08
192.974	743.41
193.441	-1041.72
193.908	-199.99
194.375	16.17
194.842	123.36
195.31	191.38
195.777	209.35
196.244	443.82
196.711	518.49
197.177	628.46
197.644	878.16
198.111	1462.31
198.578	2057.81
199.045	1655.98
199.511	2656.99
199.978	3117.23
200.445	2643.11
200.911	2910.88
201.378	3236.78
201.844	2908.82
202.31	4969.09
202.777	5155.25
203.243	2865.14
203.709	2729.41
204.176	3212.79
204.642	2662.96
205.108	2458.06
205.574	2017.75
206.04	1856.05
206.506	1752.84
206.972	1672.63
207.438	1606.04
207.903	1826
208.369	1608.85
208.835	1586.09
209.301	1672.24
209.766	1715.52
210.232	1698.47
210.697	2090.26
211.163	2559.03
211.628	3856.22
212.094	3228.28
212.559	3985.86
213.024	2496.47
213.49	3039.65
213.955	2995.49
214.42	2931.19
214.885	2721.84
215.35	2633.72
215.815	2551.96
216.28	2703.93
216.745	2203.89
217.21	2388.16
217.675	2204.39
218.14	2481.07
218.604	2780.85
219.069	3174.49
219.534	3338.03
219.998	3901.15
220.463	4735.09
220.927	5815.63
221.392	5477.19
221.856	5576.65
222.32	7031.74
222.785	8712.67
223.249	10971.42
223.713	12281.01
224.177	12275.14
224.642	15753.11
225.106	19370.59
225.57	21149.2
226.034	15766.92
226.497	24030.97
226.961	21691.94
227.425	25228.6
227.889	27950.71
228.353	27932.65
228.816	57547.78
229.28	55104.11
229.744	46342.03
230.207	28187.21
230.671	27712.23
231.134	45782.67
231.597	52781.22
232.061	52677.91
232.524	51414.51
232.987	35399.32
233.45	31867.26
233.914	28557.53
234.377	29228.94
234.84	26787.26
235.303	31535.58
235.766	35190.87
236.229	36338.44
236.691	22876.91
237.154	25685.11
237.617	19309.99
238.08	19761.73
238.542	23111.31
239.005	16530.49
239.468	16376.33
239.93	15410.1
240.393	13989.6
240.855	12277.64
241.317	12563
241.78	15269.61
242.242	15793.8
242.704	17046.9
243.166	14839.77
243.629	13464.59
244.091	15505.17
244.553	16991.83
245.015	18263.87
245.477	23612.1
245.939	34608.12
246.4	36711.14
246.862	35694.47
247.324	33609.33
247.786	37574.24
248.247	49192.54
248.709	50771.09
249.17	37936.04
249.632	35772.76
250.093	41478.36
250.555	35824.91
251.016	21829.9
251.477	20697.33
251.939	22336.78
252.4	23417.48
252.861	27817.16
253.322	25864.77
253.783	30762.85
254.244	39895.58
254.705	31466.81
255.166	27964.45
255.627	27516.22
256.088	38790.98
256.549	41201.16
257.009	35419.59
257.47	42969.49
257.931	35018.41
258.391	26223.95
258.852	27014.97
259.312	28294.94
259.773	34867.06
260.233	29457.38
260.694	24832.34
261.154	28176.48
261.614	22618.06
262.074	20245.44
262.534	21020.93
262.994	19818.46
263.455	26413.38
263.915	22288.75
264.374	20995.94
264.834	22958.41
265.294	25418.38
265.754	26373.51
266.214	24948.81
266.673	23353.29
267.133	29443.08
267.593	29210.58
268.052	35741.06
268.512	31080.89
268.971	37423.82
269.431	41025.33
269.89	36699.25
270.349	55011.98
270.809	61236.94
271.268	55065.29
271.727	123467.61
272.186	79914
272.645	59983.26
273.104	43189.71
273.563	62498.4
274.022	49161.2
274.481	41841.02
274.94	32208.14
275.399	23958.68
275.857	27858.35
276.316	37673.17
276.775	33535.57
277.233	33023.74
277.692	30900.51
278.15	34983.36
278.609	36011.64
279.067	33307.04
279.525	30905.86
279.984	39914.23
280.442	47918.04
280.9	47326.39
281.358	31096.67
281.816	28978.44
282.274	28380.79
282.732	29239.38
283.19	29381.02
283.648	25321.66
284.106	26939.12
284.564	27403.29
285.021	25402.27
285.479	18916.62
285.937	17180.44
286.394	15068.65
286.852	15503.05
287.309	16278.36
287.767	15747.66
288.224	14957.83
288.682	16409.59
289.139	18020.59
289.596	16470.46
290.053	17109.55
290.511	21583.09
290.968	26184.36
291.425	35548.59
291.882	29574.92
292.339	25716.87
292.796	25498.86
293.252	24033.49
293.709	19083.33
294.166	17088.8
294.623	18865.09
295.079	18088.65
295.536	18177.21
295.992	16466.93
296.449	16252.38
296.905	16885.31
297.362	16177.3
297.818	17006.36
298.274	17610.44
298.731	17934.61
299.187	17737.65
299.643	19055.47
300.099	23019.07
300.555	25210.77
301.011	21055.55
301.467	20300.76
301.923	23723.95
302.379	23177.33
302.835	22741.54
303.291	22771.57
303.746	25874.98
304.202	32687.4
304.658	32796.37
305.113	22065.26
305.569	21625.78
306.024	23079.39
306.479	21957.3
306.935	18492.11
307.39	20182.37
307.845	18633.01
308.301	18739.16
308.756	18293.41
309.211	17611.21
309.666	18026.73
310.121	22386.59
310.576	22692.5
311.031	22496.6
311.486	25758.77
311.94	25717.91
312.395	34382.04
312.85	64579.88
313.305	317182.52
313.759	1639817.14
314.214	118970.91
314.668	94180.18
315.123	79182.69
315.577	28416.23
316.032	25275.58
316.486	31675.1
316.94	25057.36
317.394	17456.17
317.849	13590.91
318.303	12842.74
318.757	12122.32
319.211	13371.63
319.665	11708.45
320.119	11844.54
320.572	16967.57
321.026	15862.3
321.48	13185.05
321.934	14364.77
322.387	14376.8
322.841	15524.88
323.295	13983.53
323.748	16068.45
324.202	16310.73
324.655	19582.86
325.108	27341.38
325.562	19289.92
326.015	22882.38
326.468	17296.68
326.921	19346.56
327.374	18040.88
327.827	18768.33
328.28	21224.62
328.733	14221.43
329.186	12514.53
329.639	11938.2
330.092	10061.13
330.545	9592.82
330.997	9684.63
331.45	10603.57
331.903	12407.88
332.355	21341.65
332.808	20734.56
333.26	17108.25
333.713	18598.49
334.165	18722.96
334.617	24975.07
335.069	20178.55
335.522	36489.23
335.974	40386.39
336.426	36820.13
336.878	25508.91
337.33	12944.07
337.782	12644.49
338.234	15845.31
338.686	18945.99
339.137	22405.37
339.589	21105.01
340.041	16565.5
340.493	14231.02
340.944	14558.92
341.396	15678.68
341.847	13199.09
342.299	15592.37
342.75	19056.75
343.201	16635.79
343.653	19156.42
344.104	23527.05
344.555	18507.66
345.006	28719
345.457	21987.93
345.908	17440.21
346.359	16430.66
346.81	13370.44
347.261	14062.08
347.712	13790.04
348.163	14786.64
348.613	14960.54
349.064	13996.54
349.515	12248.85
349.965	12594.79
350.416	15171.87
350.866	16676.06
351.317	18833.78
351.767	31156.36
352.217	39318.12
352.668	32733.89
353.118	29983.91
353.568	28849.66
354.018	22785.54
354.468	24035.15
354.918	17214.74
355.368	15030.98
355.818	21178.71
356.268	60810.37
356.718	254790.18
357.168	63478.8
357.617	31799.71
358.067	35310.49
358.517	33104.29
358.966	38788.25
359.416	43568.69
359.865	47072.84
360.315	56081.7
360.764	26233.38
361.213	14716.9
361.663	13912.79
362.112	17178.31
362.561	27714.98
363.01	20934.43
363.459	17634.39
363.908	19070.82
364.357	16182.31
364.806	27309.46
365.255	18783.83
365.703	17219.55
366.152	17240.19
366.601	14003.04
367.05	11359.5
367.498	10334.89
367.947	10792.31
368.395	11193.27
368.844	9913.86
369.292	11886.93
369.74	8219.01
370.189	12570.26
370.637	14713.04
371.085	12665.32
371.533	15360.31
371.981	14800.34
372.429	14123.03
372.877	14660.61
373.325	12268.43
373.773	12510.08
374.221	11171.45
374.669	13848.08
375.116	11962.2
375.564	12043.42
376.012	13468.21
376.459	11103.76
376.907	13232.48
377.354	15948.26
377.801	14931.07
378.249	17198.55
378.696	21890.46
379.143	26468.79
379.591	28227.6
380.038	47733.91
380.485	34520.7
380.932	37276.26
381.379	34125.4
381.826	25122.34
382.273	17887.24
382.72	15567.73
383.166	15162.79
383.613	9853.09
384.06	8892.98
384.506	10264.28
384.953	7528.16
385.4	7564.64
385.846	6610.97
386.292	6423.62
386.739	6280.74
387.185	6178.01
387.631	6184.77
388.078	5993.73
388.524	6403.84
388.97	5899.6
389.416	4914.74
389.862	5235.55
390.308	4958.27
390.754	5032.93
391.2	5462.4
391.645	5587.26
392.091	5370.19
392.537	5185.91
392.983	5185.49
393.428	5108.2
393.874	5473.6
394.319	5505.75
394.765	5216.02
395.21	5347.81
395.655	5011.27
396.101	4695.62
396.546	4238.71
396.991	4254.73
397.436	3954.78
397.881	3816.77
398.326	3605.89
398.771	3408.19
399.216	2968.88
399.661	2673.57
400.106	2672.65
400.551	2736.57
400.995	2454.96
401.44	2426.83
401.885	2285.39
402.329	2306.7
402.774	2204.8
403.218	2140.38
403.663	2062.6
404.107	2126.09
404.551	2142.87
404.995	1962.14
405.44	1891.34
405.884	1917.09
406.328	1858.06
406.772	1850.45
407.216	1688.67
407.66	1639.2
408.104	1550.34
408.547	1454.49
408.991	1403.91
409.435	1351.89
409.879	1335.67
410.322	1318.98
410.766	1276.23
411.209	1211.6
411.653	1163.71
412.096	1140.42
412.54	1140.02
412.983	1135.25
413.426	1139.84
413.869	1140.55
414.312	1116.94
414.756	1074.65
415.199	1023.85
415.642	997.75
416.085	1003.35
416.527	997.11
416.97	1011.56
417.413	961.55
417.856	952.52
418.298	940.66
418.741	932.72
419.184	930.3
419.626	967.83
420.069	970.81
420.511	974.71
420.953	952.95
421.396	945.78
421.838	924.31
422.28	943.97
422.722	950.79
423.164	964.55
423.606	951.38
424.048	949.63
424.49	904.24
424.932	899.54
425.374	886.46
425.816	900.55
426.258	917.03
426.699	925.75
427.141	915.67
427.582	924.55
428.024	920.24
428.465	910.64
428.907	889.49
429.348	879.27
429.789	879.16
430.231	862.13
430.672	874.29
431.113	853.05
431.554	842.03
431.995	817.8
432.436	793.2
432.877	776.12
433.318	765.9
433.759	761.52
434.2	762.41
434.64	753.58
435.081	754.01
435.522	715.14
435.962	689.18
436.403	673.59
436.843	682.9
437.284	666.9
437.724	646.77
438.164	645.09
438.604	632.26
439.045	608.06
439.485	585.89
439.925	572.46
440.365	558.14
440.805	550.49
441.245	541.76
441.685	523.83
442.125	519.05
442.564	521.61
443.004	512.03
443.444	511.42
443.883	512.67
444.323	506.41
444.762	508.59
445.202	514.64
445.641	526.16
446.081	522.41
446.52	524.88
446.959	520.37
447.398	509.46
447.837	504.83
448.276	495.39
448.716	499.3
449.154	503.99
449.593	492.6
450.032	491.52
450.471	480.53
450.91	482.17
451.349	481.92
451.787	479.71
452.226	486.8
452.664	485.81
453.103	487.03
453.541	485.69
453.98	486.54
454.418	490.2
454.856	484.3
455.295	483.31
455.733	487.31
456.171	490.53
456.609	490.06
457.047	490.29
457.485	497.95
457.923	498.4
458.361	491.57
458.798	491
459.236	488.33
459.674	488.77
460.111	490.29
460.549	484.65
460.987	480.96
461.424	480.28
461.862	477.23
462.299	468.49
462.736	469.1
463.173	471.19
463.611	467.52
464.048	465.98
464.485	469.92
464.922	465.35
465.359	462.24
465.796	461.32
466.233	457.79
466.67	454.9
467.106	455.03
467.543	448.95
467.98	441.93
468.416	429.05
468.853	424.88
469.29	411.81
469.726	407.77
470.162	396.76
470.599	386.95
471.035	382.13
471.471	371.82
471.907	369.24
472.344	366.21
472.78	367.97
473.216	372.67
473.652	369.73
474.088	368.9
474.523	367.81
474.959	371.32
475.395	367.86
475.831	366.96
476.266	368.89
476.702	366.99
477.138	363.96
477.573	362.43
478.008	361.98
478.444	363.78
478.879	367.44
479.314	368.98
479.75	369.41
480.185	371.72
480.62	374.32
481.055	376.04
481.49	378.78
481.925	383.99
482.36	392.11
482.795	401.18
483.229	410.68
483.664	419.44
484.099	421.11
484.534	427.7
484.968	431.98
485.403	432.05
485.837	430.11
486.271	429.41
486.706	429
487.14	422.61
487.574	417.04
488.009	414.03
488.443	409.93
488.877	415.37
489.311	416.5
489.745	421.72
490.179	426.6
490.613	436.91
491.046	440.42
491.48	444.38
491.914	445.86
492.348	449.64
492.781	452.69
493.215	454.4
493.648	454.95
494.082	459.86
494.515	460.15
494.948	466.16
495.382	468.2
495.815	472.54
496.248	477.67
496.681	487.67
497.114	495.82
497.547	504.42
497.98	516.1
498.413	522.67
498.846	530.49
499.279	538.26
499.711	543.48
500.144	548.1
500.577	558.23
501.009	568.23
501.442	577.45
501.874	581.54
502.306	585.03
502.739	593.31
503.171	606.11
503.603	611.22
504.036	620.79
504.468	627.6
504.9	639.68
505.332	646.98
505.764	653.33
506.196	661.1
506.627	674.69
507.059	688.56
507.491	697.91
507.923	700.19
508.354	715.69
508.786	728.19
509.217	746.4
509.649	761.17
510.08	780.76
510.512	798.35
510.943	814.46
511.374	828.05
511.805	847.89
512.237	867.15
512.668	896.43
513.099	922.16
513.53	947.65
513.961	968.52
514.391	998.92
514.822	1030.33
515.253	1063.63
515.684	1089.9
516.114	1119.21
516.545	1141.22
516.975	1167.67
517.406	1187.83
517.836	1194.5
518.267	1206
518.697	1225.64
519.127	1233.92
519.558	1244.17
519.988	1251.36
520.418	1264.59
520.848	1283.71
521.278	1295.43
521.708	1322.28
522.138	1337.67
522.567	1368.37
522.997	1393.51
523.427	1410.41
523.857	1428.72
524.286	1441.36
524.716	1458.11
525.145	1477.5
525.575	1490.94
526.004	1507.29
526.433	1497.57
526.863	1500.53
527.292	1494.61
527.721	1502.23
528.15	1510.5
528.579	1513.44
529.008	1525.82
529.437	1549.29
529.866	1563.91
530.295	1580.73
530.724	1593.28
531.152	1619.61
531.581	1634.57
532.01	1651.72
532.438	1660.71
532.867	1675.38
533.295	1693.84
533.723	1699.71
534.152	1697.95
534.58	1698.45
535.008	1685.04
535.436	1688.32
535.865	1696.47
536.293	1709.41
536.721	1723.9
537.149	1747.81
537.576	1750.57
538.004	1762.52
538.432	1771.36
538.86	1770.26
539.287	1778.15
539.715	1792.01
540.143	1794.74
540.57	1792.02
540.998	1789.38
541.425	1769.06
541.852	1750.55
542.28	1750.01
542.707	1735.22
543.134	1721.1
543.561	1717.94
543.988	1710.26
544.415	1708.98
544.842	1703.72
545.269	1697.46
545.696	1700.01
546.123	1714.05
546.549	1704.28
546.976	1691.86
547.403	1692.38
547.829	1695.92
548.256	1698.81
548.682	1697.65
549.108	1692.08
549.535	1694.01
549.961	1695.69
550.387	1683.87
550.813	1679.22
551.24	1685.95
551.666	1688.2
552.092	1679.76
552.518	1673.54
552.943	1667.35
553.369	1673.15
553.795	1679.19
554.221	1679.83
554.646	1677.31
555.072	1687.53
555.498	1691.67
555.923	1699.6
556.349	1713.92
556.774	1722.12
557.199	1723.01
557.625	1729.48
558.05	1723.85
558.475	1732.04
558.9	1730.1
559.325	1722.58
559.75	1715.47
560.175	1708.96
560.6	1703.51
561.025	1701.05
561.449	1700.57
561.874	1705.23
562.299	1708.8
562.723	1714.99
563.148	1705
563.572	1706.91
563.997	1715.1
564.421	1718.88
564.846	1717.66
565.27	1718.7
565.694	1713.84
566.118	1723.46
566.542	1728.82
566.966	1719.81
567.39	1713.31
567.814	1701.28
568.238	1699.68
568.662	1701.99
569.086	1702.33
569.509	1705.99
569.933	1690.22
570.357	1681.91
570.78	1659.87
571.204	1646.54
571.627	1634.55
572.05	1629.91
572.474	1627.57
572.897	1613.23
573.32	1603.99
573.743	1592.49
574.166	1574.45
574.589	1572.09
575.012	1563.94
575.435	1561.11
575.858	1549.36
576.281	1537.97
576.704	1523.23
577.126	1509.6
577.549	1499.19
577.972	1489.22
578.394	1478.78
578.817	1471.6
579.239	1453.7
579.661	1439.57
580.084	1423.34
580.506	1411.63
580.928	1407.22
581.35	1396.37
581.772	1392.32
582.194	1379.71
582.616	1367.05
583.038	1353.85
583.46	1343.57
583.882	1339.57
584.303	1342.12
584.725	1338.94
585.147	1341
585.568	1348.49
585.99	1357.73
586.411	1363.23
586.833	1375.28
587.254	1375.83
587.675	1387.25
588.096	1397.38
588.518	1391.72
588.939	1376.41
589.36	1374.56
589.781	1361.93
590.202	1337.38
590.623	1329.14
591.043	1324.84
591.464	1312.5
591.885	1308.47
592.305	1302.9
592.726	1290
593.147	1290.59
593.567	1286.3
593.987	1278.34
594.408	1274.3
594.828	1271.39
595.248	1265.98
595.669	1250.38
596.089	1244.57
596.509	1238.98
596.929	1226.48
597.349	1226.87
597.769	1218.77
598.189	1212.61
598.608	1213.21
599.028	1214.71
599.448	1214.02
599.867	1202.42
600.287	1198.49
600.706	1193.7
601.126	1184.91
601.545	1183.31
601.965	1181.36
602.384	1175.59
602.803	1177.24
603.222	1172.59
603.641	1165.67
604.061	1161.68
604.48	1157.25
604.898	1162.65
605.317	1166.08
605.736	1166.08
606.155	1163.64
606.574	1154.92
606.992	1159.72
607.411	1154.08
607.829	1144.87
608.248	1141.1
608.666	1138.43
609.085	1137.84
609.503	1129.57
609.921	1122.58
610.339	1123.5
610.758	1120.61
611.176	1115.5
611.594	1105.02
612.012	1100.65
612.43	1103.43
612.847	1106.44
613.265	1105.69
613.683	1107.58
614.101	1106.52
614.518	1101.68
614.936	1091.54
615.353	1079.32
615.771	1075.47
616.188	1074.27
616.606	1069.6
617.023	1062.38
617.44	1050.08
617.857	1043.28
618.274	1034.43
618.691	1029.61
619.108	1021.49
619.525	1014.72
619.942	1017.71
620.359	1017.52
620.776	1013.34
621.192	1009.98
621.609	1007.6
622.026	1011.6
622.442	1015.42
622.859	1016.87
623.275	1009.06
623.691	1013.22
624.108	1022.97
624.524	1033.92
624.94	1034.12
625.356	1040.86
625.772	1051.74
626.188	1059.61
626.604	1061.12
627.02	1056.9
627.436	1055.18
627.852	1061.43
628.268	1070.19
628.683	1061.9
629.099	1053.91
629.514	1049.04
629.93	1051.08
630.345	1052.71
630.761	1049.48
631.176	1051.12
631.591	1046.83
632.007	1041.42
632.422	1038.88
632.837	1028.36
633.252	1026.63
633.667	1017.88
634.082	1009.89
634.497	998.4
634.911	982.14
635.326	977.06
635.741	962.79
636.155	952.63
636.57	951.71
636.984	949.26
637.399	949.87
637.813	945.97
638.228	942.31
638.642	943.44
639.056	933.93
639.47	931.64
639.884	922.81
640.298	915.55
640.712	912.74
641.126	901.73
641.54	892.15
641.954	884.86
642.368	874.06
642.781	868.67
643.195	853.95
643.609	853.38
644.022	847.44
644.436	842.91
644.849	831.53
645.262	819.88
645.676	817.93
646.089	812.72
646.502	800.31
646.915	794.52
647.328	778.69
647.741	775.37
648.154	763.1
648.567	760.12
648.98	748.62
649.393	747.61
649.805	744.65
650.218	737.21
650.631	723.69
651.043	717.23
651.456	712.41
651.868	712.08
652.28	722.59
652.693	731.2
653.105	732.77
653.517	738.14
653.929	736.77
654.341	739.06
654.753	729.92
655.165	733.42
655.577	729.75
655.989	724.46
656.401	715.46
656.813	688.99
657.224	672.4
657.636	650.45
658.047	636.26
658.459	620.06
658.87	610.96
659.282	600.67
659.693	585.88
660.104	574.75
660.515	563.73
660.926	560.67
661.338	556.28
661.749	549.67
662.159	542.79
662.57	538.5
662.981	535.16
663.392	529.21
663.803	530.32
664.213	526.66
664.624	523.18
665.035	523.36
665.445	513.81
665.855	508.51
666.266	503.31
666.676	500.43
667.086	492.92
667.497	491
667.907	486.78
668.317	480.08
668.727	478.93
669.137	477.53
669.547	474.92
669.956	476.08
670.366	476.72
670.776	477.1
671.186	478.96
671.595	482.48
672.005	484.42
672.414	484.13
672.824	484.69
673.233	486.54
673.642	488.68
674.052	492.82
674.461	497.08
674.87	501.61
675.279	501.85
675.688	503.32
676.097	504.87
676.506	504.62
676.915	514.56
677.323	516.78
677.732	516.38
678.141	516.54
678.549	509.87
678.958	508.63
679.366	507.74
679.775	511.36
680.183	520.74
680.592	525.9
681	530.58
681.408	528.41
681.816	534.86
682.224	541.52
682.632	551.62
683.04	573.68
683.448	591.83
683.856	615.8
684.264	642.5
684.671	665.94
685.079	695.31
685.487	729.22
685.894	775.14
686.302	815.89
686.709	850.03
687.116	889.6
687.524	923.66
687.931	955.5
688.338	984.01
688.745	1008.09
689.152	1036.35
689.559	1074.38
689.966	1112.21
690.373	1133.25
690.78	1169.83
691.187	1224.46
691.593	1268.11
692	1307.24
692.407	1362.59
692.813	1428.83
693.22	1484.84
693.626	1544.89
694.032	1593.18
694.439	1664.34
694.845	1722.76
695.251	1791.77
695.657	1857.62
696.063	1949.06
696.469	2021.52
696.875	2090.32
697.281	2133.42
697.687	2185.98
698.093	2228.08
698.498	2303.68
698.904	2364.51
699.31	2452.8
699.715	2519.63
