Data from C_3_HIR_IL_4N_Splice17_13-39-46-234.txt Node
Date: Sat Mar 14 13:39:46 EDT 2020
User: sa697716
Spectrometer: FLMS03696
Trigger mode: 0
Integration Time (sec): 3.180400E-1
Scans to average: 20
Electric dark correction enabled: true
Nonlinearity correction enabled: true
Boxcar width: 5
XAxis mode: Wavelengths
Number of Pixels in Spectrum: 2048
>>>>>Begin Spectral Data<<<<<
187.83	-462386.98
188.298	3456.32
188.766	1867.2
189.233	1683.33
189.701	2356.91
190.169	3241.64
190.636	1214.18
191.104	988.23
191.571	179.58
192.039	-96
192.506	-116.34
192.974	479.64
193.441	-570.87
193.908	45.54
194.375	21.72
194.842	80.47
195.31	160
195.777	198.83
196.244	345.82
196.711	240.97
197.177	224.7
197.644	229.57
198.111	395.2
198.578	538.07
199.045	397.33
199.511	627.1
199.978	656.42
200.445	628
200.911	646.42
201.378	655.02
201.844	651.36
202.31	1078.45
202.777	1113.46
203.243	594.43
203.709	547.11
204.176	676.57
204.642	548.82
205.108	525.3
205.574	377.26
206.04	298.04
206.506	287.68
206.972	207.15
207.438	204.04
207.903	218.07
208.369	216.8
208.835	234.87
209.301	259.28
209.766	247.93
210.232	244.82
210.697	292.97
211.163	355.91
211.628	500.87
212.094	499.44
212.559	758.14
213.024	521.82
213.49	675.14
213.955	648.24
214.42	585.97
214.885	563.64
215.35	581.02
215.815	699.58
216.28	786.06
216.745	642.04
217.21	728.5
217.675	628.94
218.14	728.35
218.604	798.23
219.069	949.31
219.534	1097.19
219.998	1290.19
220.463	1590.39
220.927	1886.9
221.392	1810.89
221.856	1910.05
222.32	2403.2
222.785	3036.59
223.249	3870.99
223.713	4398.11
224.177	4464.21
224.642	5646.46
225.106	6981.24
225.57	7693.44
226.034	5857.02
226.497	9009.08
226.961	8209.5
227.425	9709.2
227.889	10794.81
228.353	10824.36
228.816	22473.66
229.28	21689.09
229.744	18404.42
230.207	11341.21
230.671	11235.16
231.134	18491.45
231.597	21479.66
232.061	21442.47
232.524	20888.44
232.987	14441.42
233.45	13108.37
233.914	11790.82
234.377	12053.85
234.84	11051.34
235.303	13017.15
235.766	14543.71
236.229	15027.73
236.691	9445.38
237.154	10609.57
237.617	8013.33
238.08	8206.23
238.542	9583.19
239.005	6873.86
239.468	6833.93
239.93	6463.98
240.393	5882.09
240.855	5173.54
241.317	5304.28
241.78	6443.48
242.242	6712.73
242.704	7312.39
243.166	6397.76
243.629	5866.74
244.091	6767.28
244.553	7447.56
245.015	8038.62
245.477	10428.49
245.939	15298.94
246.4	16333.47
246.862	15916.9
247.324	15040.9
247.786	16789.44
248.247	22042.73
248.709	22646.88
249.17	17002.04
249.632	16139.78
250.093	18873.63
250.555	16377.14
251.016	10052.39
251.477	9579.38
251.939	10399.58
252.4	10924.05
252.861	12991.51
253.322	12139.72
253.783	14496.18
254.244	18864.09
254.705	14880.19
255.166	13179.97
255.627	12984.48
256.088	18380.51
256.549	19519.38
257.009	16807.71
257.47	20405.34
257.931	16655.94
258.391	12518.5
258.852	12939.91
259.312	13560.08
259.773	16771.05
260.233	14282.94
260.694	12123.39
261.154	13758.84
261.614	11139.34
262.074	9998.57
262.534	10448.16
262.994	9900.5
263.455	13192.67
263.915	11151.25
264.374	10540.35
264.834	11530.14
265.294	12772.69
265.754	13246.04
266.214	12553.2
266.673	11769.76
267.133	14888.92
267.593	14772.37
268.052	18141.64
268.512	15820.91
268.971	19199.99
269.431	21106
269.89	18975.09
270.349	28545.92
270.809	31940.6
271.268	28804.33
271.727	64554.23
272.186	41812.07
272.645	31442.37
273.104	22637.9
273.563	32857.08
274.022	25797.94
274.481	22058.21
274.94	17034.92
275.399	12683.62
275.857	14778.38
276.316	20025.35
276.775	17877.51
277.233	17681.74
277.692	16639.4
278.15	18897.14
278.609	19545.39
279.067	18135.11
279.525	16886.41
279.984	21824.61
280.442	26248.79
280.9	26020.21
281.358	17153.54
281.816	16044.64
282.274	15717.08
282.732	16202.83
283.19	16309.27
283.648	14059.51
284.106	14953.6
284.564	15199.53
285.021	14120.62
285.479	10540.24
285.937	9554.23
286.394	8401.71
286.852	8646.21
287.309	9119.95
287.767	8874.26
288.224	8470.68
288.682	9327.95
289.139	10315.49
289.596	9475.59
290.053	9886.33
290.511	12514.15
290.968	15262.75
291.425	20776.49
291.882	17426.64
292.339	15214.65
292.796	15108.35
293.252	14277.41
293.709	11429.78
294.166	10263.89
294.623	11372.96
295.079	10937.29
295.536	11028.39
295.992	10038.44
296.449	9970.72
296.905	10373.84
297.362	10004.9
297.818	10540.45
298.274	10964.15
298.731	11143.42
299.187	11042.89
299.643	11862.42
300.099	14350.39
300.555	15761.61
301.011	13160.88
301.467	12734.11
301.923	14863
302.379	14492.46
302.835	14254.39
303.291	14284.62
303.746	16254.14
304.202	20582.12
304.658	20651.12
305.113	13908.75
305.569	13637.07
306.024	14543.52
306.479	13788.3
306.935	11644.66
307.39	12689.85
307.845	11716.15
308.301	11781.02
308.756	11455.5
309.211	11019.71
309.666	11295.93
310.121	14042.92
310.576	14202.88
311.031	14073.81
311.486	16081.72
311.94	16004.33
312.395	21402.04
312.85	40194.49
313.305	196845.22
313.759	1024776.2
314.214	74052.79
314.668	58762.1
315.123	49438.28
315.577	17763.04
316.032	15806.18
316.486	19839.25
316.94	15741.56
317.394	11015.2
317.849	8553.2
318.303	8097.85
318.757	7655.63
319.211	8492
319.665	7430.63
320.119	7522.1
320.572	10786.82
321.026	10106.68
321.48	8417.91
321.934	9151.92
322.387	9159.02
322.841	9920.65
323.295	8986.63
323.748	10294.72
324.202	10439.35
324.655	12573.12
325.108	17624.95
325.562	12464.93
326.015	14821.61
326.468	11198.25
326.921	12536.05
327.374	11705.02
327.827	12227.49
328.28	13807.19
328.733	9274.61
329.186	8174.47
329.639	7762.22
330.092	6526.4
330.545	6217.49
330.997	6274.98
331.45	6869.79
331.903	8073.51
332.355	13829.32
332.808	13371.91
333.26	11002.21
333.713	11954.02
334.165	12022.59
334.617	16040.19
335.069	12883.4
335.522	23194.69
335.974	25656.18
336.426	23422.97
336.878	16086.02
337.33	8164.69
337.782	7988.24
338.234	10057.97
338.686	11977.14
339.137	14154.18
339.589	13367.11
340.041	10513.42
340.493	9051.55
340.944	9262.42
341.396	9981.71
341.847	8478.84
342.299	10079.17
342.75	12343.18
343.201	10767.3
343.653	12407.62
344.104	15273.4
344.555	12045.67
345.006	18792.1
345.457	14558.65
345.908	11570.23
346.359	10937.46
346.81	8904.55
347.261	9362.95
347.712	9199.28
348.163	9849.78
348.613	10044.21
349.064	9399.12
349.515	8235.14
349.965	8452.12
350.416	10136.88
350.866	11142.45
351.317	12567.7
351.767	20777.94
352.217	26252.17
352.668	21854.65
353.118	20055.85
353.568	19259.46
354.018	15262.34
354.468	16091.17
354.918	11560.58
355.368	10094.91
355.818	14289.06
356.268	41080.98
356.718	173173.62
357.168	43248.99
357.617	21650.52
358.067	24027.03
358.517	22491.4
358.966	26415.47
359.416	29737.59
359.865	32034.25
360.315	38194.31
360.764	17874.81
361.213	10052.57
361.663	9479.9
362.112	11677.61
362.561	18905.91
363.01	14285.67
363.459	12045.57
363.908	13020.13
364.357	11107.1
364.806	18784.34
365.255	12876.96
365.703	11826.96
366.152	11830.12
366.601	9612.61
367.05	7828.37
367.498	7130.22
367.947	7443.35
368.395	7737.92
368.844	6864.62
369.292	8205.74
369.74	5689.94
370.189	8733.57
370.637	10176.97
371.085	8765.18
371.533	10660.42
371.981	10235.15
372.429	9783.35
372.877	10212.38
373.325	8557.09
373.773	8698.04
374.221	7709.85
374.669	9512.58
375.116	8205.04
375.564	8283.43
376.012	9259.11
376.459	7626.09
376.907	9101.95
377.354	10940.97
377.801	10224.93
378.249	11745.47
378.696	14957.83
379.143	18171.92
379.591	19350.53
380.038	32752.21
380.485	23638.13
380.932	25507.72
381.379	23400.91
381.826	17263.92
382.273	12240.9
382.72	10630.31
383.166	10347.89
383.613	6715.86
384.06	6042.68
384.506	6992
384.953	5110.05
385.4	5124.79
385.846	4468.55
386.292	4325.92
386.739	4201.99
387.185	4133.44
387.631	4118.68
388.078	3998.64
388.524	4254.48
388.97	3911.14
389.416	3265.74
389.862	3474.99
390.308	3277.43
390.754	3315.39
391.2	3566.79
391.645	3640.18
392.091	3501.34
392.537	3376.34
392.983	3347.97
393.428	3311.7
393.874	3531.96
394.319	3538.17
394.765	3352.02
395.21	3430.97
395.655	3209.29
396.101	3004.18
396.546	2698.83
396.991	2686.18
397.436	2490.85
397.881	2396.95
398.326	2229.95
398.771	2116.4
399.216	1829.8
399.661	1631.93
400.106	1625.93
400.551	1664.47
400.995	1483.38
401.44	1457.73
401.885	1368.1
402.329	1369.94
402.774	1309.79
403.218	1287.11
403.663	1230.49
404.107	1264.9
404.551	1274.34
404.995	1158.35
405.44	1108.92
405.884	1119.88
406.328	1080.61
406.772	1073.36
407.216	977.48
407.66	938.45
408.104	872.7
408.547	813.04
408.991	780.66
409.435	746.51
409.879	736.91
410.322	722.36
410.766	701.16
411.209	669.22
411.653	639.39
412.096	629.56
412.54	626.5
412.983	623.69
413.426	628.55
413.869	624.07
414.312	612.68
414.756	587.94
415.199	558.74
415.642	541.2
416.085	537.46
416.527	530.62
416.97	532.28
417.413	506.11
417.856	498.46
418.298	489.66
418.741	484.88
419.184	479.32
419.626	492.91
420.069	493.1
420.511	495.8
420.953	486.56
421.396	485.71
421.838	471.05
422.28	481.23
422.722	485.57
423.164	488.29
423.606	479.81
424.048	475.73
424.49	454.47
424.932	448.82
425.374	437.55
425.816	441.97
426.258	447.42
426.699	453
427.141	449.76
427.582	452
428.024	449.03
428.465	441.8
428.907	433.28
429.348	427.84
429.789	430.02
430.231	425.37
430.672	432.59
431.113	421.49
431.554	415.02
431.995	399.37
432.436	389.79
432.877	382.54
433.318	382.54
433.759	376.46
434.2	374.81
434.64	369.58
435.081	368.06
435.522	347.38
435.962	331.95
436.403	325.99
436.843	328.9
437.284	315.15
437.724	301.51
438.164	293.8
438.604	287.02
439.045	277.18
439.485	267.67
439.925	260.25
440.365	249.73
440.805	246.1
441.245	243.84
441.685	235.04
442.125	232.09
442.564	234.13
443.004	230.71
443.444	230.6
443.883	230.5
444.323	222.22
444.762	215.53
445.202	218.49
445.641	223.83
446.081	216.22
446.52	217.05
446.959	215.52
447.398	209.61
447.837	205.35
448.276	199.29
448.716	199.21
449.154	200.41
449.593	200.35
450.032	199.57
450.471	191.65
450.91	190.84
451.349	191.43
451.787	188.44
452.226	190.79
452.664	190.82
453.103	191.12
453.541	189.19
453.98	192.46
454.418	192.67
454.856	191.85
455.295	192.04
455.733	195.74
456.171	195
456.609	196.75
457.047	195.87
457.485	201.05
457.923	203.39
458.361	201.34
458.798	200.75
459.236	200.2
459.674	198.57
460.111	199.41
460.549	196.61
460.987	194.73
461.424	192.96
461.862	192.6
462.299	189.24
462.736	189.09
463.173	188.46
463.611	191.3
464.048	191.57
464.485	193.99
464.922	191.81
465.359	190.29
465.796	200.13
466.233	200.33
466.67	201.33
467.106	201
467.543	197.57
467.98	194.43
468.416	184.77
468.853	180.99
469.29	173.4
469.726	171.02
470.162	165.33
470.599	152.61
471.035	148.56
471.471	143.68
471.907	140.95
472.344	138.81
472.78	140.13
473.216	139.37
473.652	138.33
474.088	138.35
474.523	139.24
474.959	140.88
475.395	139.58
475.831	140.04
476.266	140.41
476.702	139.42
477.138	138.35
477.573	137.97
478.008	139.19
478.444	142
478.879	145.31
479.314	146.48
479.75	147.24
480.185	147.26
480.62	147.4
481.055	147.69
481.49	149.69
481.925	152.6
482.36	158.01
482.795	161.19
483.229	162.99
483.664	165.51
484.099	164.66
484.534	167.15
484.968	169.75
485.403	170.56
485.837	168.79
486.271	167.52
486.706	166.54
487.14	160.96
487.574	158.54
488.009	156.47
488.443	153.6
488.877	156.7
489.311	155.47
489.745	156.57
490.179	157.51
490.613	163.18
491.046	163.3
491.48	163.94
491.914	164.14
492.348	164.3
492.781	164.83
493.215	164.43
493.648	161.32
494.082	161.12
494.515	160.14
494.948	161.46
495.382	158.31
495.815	157.97
496.248	157.36
496.681	157.93
497.114	157.79
497.547	158.31
497.98	161.37
498.413	162.93
498.846	163.78
499.279	162.56
499.711	160.01
500.144	158.34
500.577	160.02
501.009	160.05
501.442	161.13
501.874	160.37
502.306	158.15
502.739	159.96
503.171	159.27
503.603	157.74
504.036	157.34
504.468	156.37
504.9	155.89
505.332	153.12
505.764	151.9
506.196	150.05
506.627	149.07
507.059	148.94
507.491	142.27
507.923	139.43
508.354	139.45
508.786	138.02
509.217	138.25
509.649	138.71
510.08	138.43
510.512	139.38
510.943	138.38
511.374	137.18
511.805	136.58
512.237	136.68
512.668	137.37
513.099	136.61
513.53	137.12
513.961	137.23
514.391	136.92
514.822	140.54
515.253	141.35
515.684	141.06
516.114	142.16
516.545	142.98
516.975	143.25
517.406	142.08
517.836	139.54
518.267	138.56
518.697	139.47
519.127	137.92
519.558	134.1
519.988	130.78
520.418	129.18
520.848	127.79
521.278	125.06
521.708	177.33
522.138	178.37
522.567	179.17
522.997	179.23
523.427	176.23
523.857	176.44
524.286	175.25
524.716	175.85
525.145	177.04
525.575	177.3
526.004	176.73
526.433	122.79
526.863	119.27
527.292	119.37
527.721	119.42
528.15	118.71
528.579	117.74
529.008	118.38
529.437	117.36
529.866	116.79
530.295	116.16
530.724	118.75
531.152	120.2
531.581	121.97
532.01	122.05
532.438	120.51
532.867	120.81
533.295	121.65
533.723	121.44
534.152	121.82
534.58	122.13
535.008	121.45
535.436	121.47
535.865	121.13
536.293	120.43
536.721	119.36
537.149	121.49
537.576	122.76
538.004	123.71
538.432	122.58
538.86	122.64
539.287	121.47
539.715	122.31
540.143	119.83
540.57	119.19
540.998	119.07
541.425	120.88
541.852	119.02
542.28	117.99
542.707	116.06
543.134	115.64
543.561	115.23
543.988	115.12
544.415	114.44
544.842	113.65
545.269	113.45
545.696	114.74
546.123	114.52
546.549	113.53
546.976	112.52
547.403	112.33
547.829	111.87
548.256	111
548.682	110.94
549.108	111.83
549.535	112.28
549.961	111.45
550.387	109.54
550.813	110.14
551.24	111.46
551.666	111.34
552.092	110.74
552.518	110.43
552.943	111.44
553.369	111.18
553.795	110.72
554.221	111.16
554.646	111.32
555.072	113.99
555.498	112.62
555.923	112.39
556.349	113.66
556.774	114.19
557.199	114.34
557.625	112.95
558.05	114.04
558.475	115.42
558.9	116.15
559.325	116.95
559.75	116.1
560.175	115.5
560.6	115.25
561.025	114.27
561.449	114.98
561.874	115.94
562.299	118.66
562.723	118.66
563.148	117.75
563.572	117.3
563.997	118.73
564.421	118.03
564.846	118.2
565.27	119.88
565.694	121.13
566.118	121.86
566.542	124.36
566.966	123.95
567.39	125.49
567.814	125.88
568.238	127.89
568.662	128.24
569.086	130.31
569.509	131.4
569.933	132.5
570.357	132.33
570.78	131.74
571.204	132.49
571.627	132.34
572.05	132.45
572.474	134.72
572.897	133.81
573.32	135.16
573.743	134.34
574.166	134.79
574.589	133.4
575.012	134.03
575.435	134.89
575.858	134.09
576.281	134.23
576.704	132.99
577.126	130.21
577.549	129.27
577.972	127.83
578.394	127.97
578.817	131.2
579.239	130.49
579.661	130.86
580.084	132.12
580.506	132.07
580.928	131.7
581.35	131.54
581.772	132.71
582.194	132.8
582.616	131.67
583.038	130.01
583.46	125.93
583.882	126.94
584.303	125.69
584.725	123.83
585.147	130.57
585.568	132.85
585.99	135.26
586.411	136.89
586.833	139.51
587.254	140.7
587.675	142.65
588.096	145.12
588.518	144.9
588.939	145.48
589.36	146.36
589.781	137.25
590.202	139.14
590.623	138.91
591.043	138.05
591.464	136.65
591.885	137.44
592.305	137.19
592.726	136.04
593.147	136.72
593.567	136.45
593.987	135.54
594.408	135.22
594.828	130.69
595.248	130.99
595.669	130.65
596.089	129.76
596.509	128.34
596.929	126.99
597.349	128.28
597.769	126.94
598.189	125.95
598.608	126.5
599.028	128.06
599.448	127.44
599.867	124.93
600.287	123.57
600.706	125.04
601.126	125.44
601.545	127.12
601.965	126.44
602.384	126.52
602.803	126.97
603.222	127.96
603.641	126.9
604.061	128.93
604.48	129.49
604.898	131.2
605.317	131.25
605.736	131.47
606.155	132.37
606.574	131.24
606.992	132.21
607.411	133.01
607.829	130.46
608.248	130.51
608.666	128.83
609.085	129.66
609.503	129.49
609.921	130.82
610.339	131.7
610.758	130.95
611.176	132.12
611.594	132.76
612.012	132.91
612.43	136.63
612.847	138.03
613.265	141.55
613.683	142.7
614.101	143.58
614.518	141.97
614.936	141.52
615.353	141.71
615.771	142.53
616.188	143.21
616.606	143.9
617.023	142.8
617.44	142.21
617.857	139.72
618.274	138.48
618.691	139.45
619.108	138.95
619.525	138.53
619.942	140.07
620.359	140.36
620.776	139.59
621.192	140.71
621.609	141.09
622.026	143.21
622.442	145.34
622.859	145.84
623.275	143.72
623.691	144.65
624.108	146.55
624.524	147.03
624.94	147.25
625.356	148.21
625.772	147.8
626.188	148.75
626.604	148.65
627.02	147.92
627.436	148.4
627.852	151.12
628.268	153.02
628.683	151.39
629.099	150.78
629.514	149.62
629.93	150.68
630.345	151.88
630.761	150.36
631.176	150.61
631.591	152.57
632.007	153.08
632.422	150.95
632.837	149.49
633.252	151.33
633.667	150.03
634.082	149.84
634.497	149.77
634.911	150.87
635.326	151.33
635.741	150.26
636.155	147.33
636.57	149.04
636.984	151.2
637.399	154.67
637.813	154.36
638.228	155.71
638.642	156.79
639.056	155.54
639.47	154.99
639.884	156.31
640.298	156.7
640.712	159.07
641.126	158.68
641.54	157.97
641.954	155.23
642.368	155.92
642.781	160.8
643.195	159.8
643.609	162.54
644.022	162.92
644.436	163.13
644.849	161.79
645.262	160.56
645.676	160.36
646.089	161.55
646.502	164.31
646.915	164.53
647.328	160.86
647.741	163.45
648.154	162.83
648.567	167.47
648.98	167.97
649.393	169.12
649.805	170.67
650.218	171.8
650.631	170.88
651.043	170.06
651.456	170.75
651.868	170.81
652.28	172.76
652.693	174.72
653.105	173.67
653.517	174.86
653.929	177.2
654.341	179.35
654.753	178.24
655.165	179.53
655.577	180.3
655.989	179.43
656.401	178.13
656.813	175.94
657.224	174.18
657.636	169.01
658.047	169.02
658.459	167.4
658.87	165.32
659.282	163.94
659.693	163.19
660.104	162.54
660.515	161.27
660.926	161.55
661.338	160.95
661.749	160.23
662.159	161.78
662.57	160.62
662.981	161.05
663.392	161.29
663.803	164.46
664.213	165.04
664.624	164.45
665.035	166.94
665.445	166.57
665.855	167.59
666.266	168.97
666.676	169.49
667.086	167.98
667.497	169.74
667.907	169.68
668.317	167.61
668.727	172.16
669.137	171.57
669.547	171.66
669.956	171.54
670.366	172.2
670.776	173.11
671.186	173.06
671.595	174.78
672.005	173.71
672.414	174.7
672.824	175.66
673.233	170.93
673.642	172.39
674.052	174.59
674.461	177.21
674.87	177.12
675.279	177.12
675.688	175.78
676.097	177.78
676.506	177.26
676.915	179.34
677.323	178.52
677.732	177.72
678.141	176.79
678.549	171.08
678.958	167.44
679.366	165.1
679.775	162.39
680.183	167.52
680.592	165.62
681	165.19
681.408	162.4
681.816	162.1
682.224	161.51
682.632	163.46
683.04	168.13
683.448	171.53
683.856	177.06
684.264	182.46
684.671	181.74
685.079	184.5
685.487	188.59
685.894	194.37
686.302	196.94
686.709	199.63
687.116	200.86
687.524	203.42
687.931	205.25
688.338	202.5
688.745	197.89
689.152	194.51
689.559	194.36
689.966	194.7
690.373	191.02
690.78	190.62
691.187	189.55
691.593	187.79
692	182.43
692.407	180.32
692.813	185.04
693.22	185.51
693.626	184.19
694.032	183.31
694.439	183.4
694.845	182.1
695.251	181.34
695.657	181.28
696.063	181.23
696.469	181.54
696.875	180.6
697.281	173.91
697.687	170.83
698.093	170.49
698.498	171.23
698.904	168.15
699.31	169.42
699.715	173.19
700.12	175.34
700.526	174.24
700.931	174.68
701.337	175.67
701.742	176.36
702.147	178.26
702.552	176.43
702.957	174.74
703.362	173.25
703.767	169.95
704.172	165.28
704.577	159.39
704.981	158.2
705.386	157.17
705.791	154.78
706.195	154.4
706.6	153.99
707.004	153.55
707.408	149.65
707.813	152.3
708.217	152.34
708.621	151.34
709.025	155.22
709.43	156.49
709.834	158.21
710.237	159.08
710.641	157.51
711.045	157.19
711.449	158.5
711.853	165.96
