Data from C_3_DIV_IL_4N_Splice17_13-19-10-635.txt Node
Date: Sat Mar 14 13:19:10 EDT 2020
User: sa697716
Spectrometer: FLMS03696
Trigger mode: 0
Integration Time (sec): 3.180400E-1
Scans to average: 20
Electric dark correction enabled: true
Nonlinearity correction enabled: true
Boxcar width: 5
XAxis mode: Wavelengths
Number of Pixels in Spectrum: 2048
>>>>>Begin Spectral Data<<<<<
187.83	-283772.85
188.298	2019.52
188.766	1177.41
189.233	1077.79
189.701	1496.69
190.169	2011.25
190.636	812.07
191.104	694.85
191.571	89.24
192.039	-104.69
192.506	-198.3
192.974	476.15
193.441	-778.39
193.908	-148.3
194.375	-61.23
194.842	-19.61
195.31	103.44
195.777	245.96
196.244	461.75
196.711	455.46
197.177	535.7
197.644	700.55
198.111	1230.26
198.578	1658.81
199.045	1345.23
199.511	2203.85
199.978	2505.34
200.445	2071.31
200.911	2229.04
201.378	2446.06
201.844	2182.99
202.31	3657.19
202.777	3753.13
203.243	2050.34
203.709	1958.26
204.176	2285.6
204.642	1859.1
205.108	1732.87
205.574	1402.1
206.04	1241.41
206.506	1161.63
206.972	1084.49
207.438	1050.27
207.903	1205.47
208.369	1059.5
208.835	1033.28
209.301	1083.92
209.766	1093.96
210.232	1085.11
210.697	1310.3
211.163	1598.81
211.628	2348.48
212.094	1978.13
212.559	2419.67
213.024	1474.67
213.49	1785.39
213.955	1737.34
214.42	1632.54
214.885	1499.84
215.35	1404.95
215.815	1402.19
216.28	1477.45
216.745	1169.6
217.21	1221.73
217.675	1030.3
218.14	1097.51
218.604	1125.87
219.069	1194.91
219.534	1200.09
219.998	1276.38
220.463	1421.5
220.927	1505.96
221.392	1288.91
221.856	1242.79
222.32	1403.89
222.785	1652.8
223.249	1927.54
223.713	2042.11
224.177	1946.79
224.642	2304.43
225.106	2701.11
225.57	2800.62
226.034	2110.19
226.497	3149.43
226.961	2770.5
227.425	3208.78
227.889	3446.04
228.353	3355.38
228.816	6637.35
229.28	6214.62
229.744	5130.87
230.207	3152.82
230.671	3098.42
231.134	4807.94
231.597	5561.13
232.061	5384.63
232.524	5070.32
232.987	3439.83
233.45	3126.68
233.914	2798.69
234.377	2774.03
234.84	2534.65
235.303	2870.27
235.766	3169.46
236.229	3274.68
236.691	1994.43
237.154	2224.03
237.617	1707.11
238.08	1726.36
238.542	1977.29
239.005	1415.77
239.468	1416.62
239.93	1324.44
240.393	1216.02
240.855	1064.18
241.317	1077.2
241.78	1282.9
242.242	1335.25
242.704	1476.29
243.166	1316.56
243.629	1244.31
244.091	1439.1
244.553	1573.81
245.015	1702.02
245.477	2173.38
245.939	3161.56
246.4	3321.36
246.862	3237.99
247.324	3048.54
247.786	3325.41
248.247	4236.58
248.709	4141.08
249.17	3094.19
249.632	3039.97
250.093	3585.77
250.555	3087.32
251.016	1910.81
251.477	1835.95
251.939	2011.32
252.4	2082.58
252.861	2445.8
253.322	2337.89
253.783	2795.82
254.244	3602.83
254.705	2757.37
255.166	2410.02
255.627	2405.22
256.088	3417.4
256.549	3648.63
257.009	3091.32
257.47	3746.47
257.931	3014.35
258.391	2239.45
258.852	2320.54
259.312	2426.53
259.773	2989
260.233	2594.22
260.694	2201.49
261.154	2450.05
261.614	2014.64
262.074	1795.82
262.534	1880.11
262.994	1790.88
263.455	2339.28
263.915	1966.51
264.374	1832.11
264.834	1971.04
265.294	2105.15
265.754	2173.45
266.214	2032.52
266.673	1868.39
267.133	2314.64
267.593	2248.22
268.052	2747.99
268.512	2376.95
268.971	2927.96
269.431	3208.14
269.89	2882.79
270.349	4346.92
270.809	4853.17
271.268	4375.85
271.727	9629.5
272.186	6339.02
272.645	4806.47
273.104	3402.74
273.563	4927.79
274.022	3733.24
274.481	3235.67
274.94	2517.08
275.399	1847.48
275.857	2115.2
276.316	2864.92
276.775	2593.53
277.233	2560.04
277.692	2447.62
278.15	2828.5
278.609	3008.94
279.067	2826.22
279.525	2662.26
279.984	3404.47
280.442	4155.87
280.9	4227.68
281.358	2813.08
281.816	2650.78
282.274	2604.84
282.732	2637.85
283.19	2640.68
283.648	2258.35
284.106	2402.58
284.564	2414.7
285.021	2280.95
285.479	1693.95
285.937	1502.73
286.394	1357.58
286.852	1384.02
287.309	1473.88
287.767	1485.02
288.224	1448.19
288.682	1600.7
289.139	1803.95
289.596	1680.67
290.053	1743.23
290.511	2194.09
290.968	2692.81
291.425	3562.58
291.882	3037.03
292.339	2631.63
292.796	2538.49
293.252	2332.94
293.709	1885.49
294.166	1669.21
294.623	1817.86
295.079	1722.07
295.536	1759.98
295.992	1608.91
296.449	1599.02
296.905	1652.83
297.362	1607.32
297.818	1686.92
298.274	1793.4
298.731	1785.83
299.187	1756.04
299.643	1872.48
300.099	2288.05
300.555	2499.82
301.011	2074.15
301.467	2069.74
301.923	2381.76
302.379	2340.13
302.835	2309.27
303.291	2330.61
303.746	2667.08
304.202	3412.34
304.658	3431.87
305.113	2315.75
305.569	2287
306.024	2439.02
306.479	2242.66
306.935	1939.89
307.39	2075.93
307.845	1927.24
308.301	1925.03
308.756	1862.78
309.211	1809.22
309.666	1869.28
310.121	2365.48
310.576	2381.05
311.031	2361.98
311.486	2690.86
311.94	2603.77
312.395	3494.06
312.85	6561.49
313.305	31881.39
313.759	173602.21
314.214	12602.37
314.668	10158.85
315.123	8641.27
315.577	3170.32
316.032	2852.34
316.486	3589.31
316.94	2931.75
317.394	2071.81
317.849	1628.91
318.303	1543.42
318.757	1452.45
319.211	1598.41
319.665	1392.7
320.119	1405.07
320.572	1969.2
321.026	1848.68
321.48	1550.73
321.934	1654.17
322.387	1642.41
322.841	1778.63
323.295	1673.09
323.748	1871.26
324.202	1911.05
324.655	2335.37
325.108	3374.28
325.562	2427.32
326.015	2860.35
326.468	2180.8
326.921	2462.34
327.374	2340.98
327.827	2466.06
328.28	2754.42
328.733	1877.07
329.186	1658.11
329.639	1575.39
330.092	1300.67
330.545	1240.64
330.997	1286.43
331.45	1445.41
331.903	1722.43
332.355	2935.2
332.808	2865.34
333.26	2356.67
333.713	2592.09
334.165	2579.95
334.617	3391.59
335.069	2685.2
335.522	4799.07
335.974	5275.17
336.426	4710.41
336.878	3188.72
337.33	1633.3
337.782	1572.01
338.234	2021.51
338.686	2398.87
339.137	2905.86
339.589	2747.65
340.041	2186.87
340.493	1902.47
340.944	1944.17
341.396	2109.46
341.847	1831.43
342.299	2251.71
342.75	2850.33
343.201	2418.76
343.653	2741.18
344.104	3319.43
344.555	2640.04
345.006	3987.45
345.457	3152.01
345.908	2475.75
346.359	2354.38
346.81	1899.04
347.261	1926.54
347.712	1831.84
348.163	1940.28
348.613	2043.87
349.064	1916.38
349.515	1660.65
349.965	1753.84
350.416	2062.93
350.866	2270.18
351.317	2547.35
351.767	4231.58
352.217	5371.56
352.668	4515.29
353.118	4208.07
353.568	3911.95
354.018	3147.06
354.468	3367.56
354.918	2436.91
355.368	2142.94
355.818	3018.84
356.268	8526.61
356.718	36701.54
357.168	9301.25
357.617	4681.3
358.067	5185.23
358.517	4897.33
358.966	5834.16
359.416	6704.46
359.865	7158.07
360.315	8486.06
360.764	3990.09
361.213	2235.52
361.663	2044.68
362.112	2476.28
362.561	3960.28
363.01	3012.82
363.459	2535.77
363.908	2707.24
364.357	2328.53
364.806	3949.35
365.255	2709.16
365.703	2545.85
366.152	2611.12
366.601	2173.86
367.05	1796.3
367.498	1668.1
367.947	1729
368.395	1800.99
368.844	1604.55
369.292	1875.15
369.74	1317.12
370.189	2015.73
370.637	2354.53
371.085	2013.49
371.533	2425.46
371.981	2322.95
372.429	2231.4
372.877	2333.45
373.325	1980.11
373.773	2010.46
374.221	1789.69
374.669	2205.12
375.116	1898.49
375.564	1914.39
376.012	2164.44
376.459	1806.83
376.907	2123.71
377.354	2535.2
377.801	2416.92
378.249	2813.88
378.696	3588.36
379.143	4410.39
379.591	4682.17
380.038	8091.87
380.485	5953.01
380.932	6491.24
381.379	6095.89
381.826	4702.28
382.273	3402.31
382.72	2966.46
383.166	2956.1
383.613	1996.71
384.06	1833.6
384.506	2188.64
384.953	1640.19
385.4	1684
385.846	1517.44
386.292	1505.76
386.739	1528.87
387.185	1580.14
387.631	1687.43
388.078	1753.39
388.524	1957.32
388.97	1909.99
389.416	1677.3
389.862	1846.7
390.308	1808.29
390.754	1911.36
391.2	2175.54
391.645	2356.42
392.091	2448.39
392.537	2507.73
392.983	2617.36
393.428	2711.18
393.874	3033.94
394.319	3252.23
394.765	3396.41
395.21	3862.82
395.655	4018.64
396.101	4169.13
396.546	4134.58
396.991	4551.96
397.436	4648.25
397.881	4951.58
398.326	5192.4
398.771	5420.85
399.216	5209.24
399.661	5108.65
400.106	5495.72
400.551	6045.93
400.995	5780.81
401.44	6074.17
401.885	6022.15
402.329	6398.23
402.774	6423.72
403.218	6478.96
403.663	6531.28
404.107	7016.1
404.551	7403.52
404.995	7135.52
405.44	7238.15
405.884	7724.47
406.328	7829.58
406.772	8139.26
407.216	7727.85
407.66	7822.67
408.104	7837.94
408.547	7698.31
408.991	7771.21
409.435	7774.44
409.879	7908.5
410.322	8040.51
410.766	8004.2
411.209	7851.69
411.653	7806.06
412.096	7897.4
412.54	8152.09
412.983	8312.95
413.426	8519.73
413.869	8731.26
414.312	8745.35
414.756	8637.64
415.199	8433.96
415.642	8353.54
416.085	8520.81
416.527	8614.84
416.97	8901.47
417.413	8553.78
417.856	8581.94
418.298	8594.56
418.741	8598.08
419.184	8642.08
419.626	9069.01
420.069	9113.95
420.511	9223.05
420.953	9097.63
421.396	9091.08
421.838	8956.27
422.28	9246.21
422.722	9373.74
423.164	9653.61
423.606	9632.89
424.048	9791
424.49	9414.06
424.932	9509.68
425.374	9504.24
425.816	9741.56
426.258	9904.73
426.699	9898.31
427.141	9555.48
427.582	9548.55
428.024	9401.98
428.465	9379.42
428.907	9253.87
429.348	9323.35
429.789	9461.01
430.231	9363.53
430.672	9613.3
431.113	9574.12
431.554	9737.27
431.995	9922.1
432.436	9942.93
432.877	10063.53
433.318	10119.73
433.759	10272.83
434.2	10408.94
434.64	10434.67
435.081	10606.89
435.522	10210.05
435.962	10035.58
436.403	9965.7
436.843	10272.74
437.284	10214.91
437.724	10067.91
438.164	10241.91
438.604	10106.97
439.045	9804.23
439.485	9483.45
439.925	9429.69
440.365	9336.16
440.805	9318.59
441.245	9281.25
441.685	8990.31
442.125	8977.32
442.564	9066.76
443.004	8862.37
443.444	8870.31
443.883	8918.69
444.323	8951.82
444.762	9064.94
445.202	9245.82
445.641	9428.46
446.081	9460.87
446.52	9584.15
446.959	9545.5
447.398	9377.03
447.837	9358.79
448.276	9280.55
448.716	9420.55
449.154	9527.15
449.593	9256.45
450.032	9193.2
450.471	9039.92
450.91	9028.41
451.349	8959.66
451.787	8898.87
452.226	8991.48
452.664	8943.73
453.103	8905.95
453.541	8876.55
453.98	8788.78
454.418	8836.46
454.856	8648.07
455.295	8597.54
455.733	8602.35
456.171	8616.39
456.609	8560.02
457.047	8512.01
457.485	8566.94
457.923	8534.51
458.361	8391.5
458.798	8420.73
459.236	8397.31
459.674	8491.03
460.111	8543.01
460.549	8482.53
460.987	8495.15
461.424	8511.4
461.862	8498.75
462.299	8406.14
462.736	8414.58
463.173	8471.53
463.611	8358.57
464.048	8348.23
464.485	8438.14
464.922	8409.3
465.359	8433.52
465.796	8251.82
466.233	8241.48
466.67	8197.08
467.106	8218.9
467.543	8215.8
467.98	8182.38
468.416	8089.57
468.853	8128.01
469.29	7971.06
469.726	7951.43
470.162	7794.01
470.599	7855.2
471.035	7853.89
471.471	7736.47
471.907	7776.62
472.344	7776.52
472.78	7806.5
473.216	7920.89
473.652	7815.96
474.088	7799.82
474.523	7756.91
474.959	7828.63
475.395	7746.18
475.831	7667.78
476.266	7686.67
476.702	7639.76
477.138	7523.08
477.573	7473.34
478.008	7409.54
478.444	7394.82
478.879	7396.92
479.314	7380.69
479.75	7319.38
480.185	7304.41
480.62	7312.74
481.055	7286.77
481.49	7256.96
481.925	7269.97
482.36	7251.54
482.795	7320.56
483.229	7376.61
483.664	7389.33
484.099	7294.68
484.534	7289.59
484.968	7256.04
485.403	7193.95
485.837	7117.25
486.271	7040.76
486.706	7004.74
487.14	6931.16
487.574	6819.75
488.009	6767.37
488.443	6706.97
488.877	6737.2
489.311	6728.33
489.745	6763.35
490.179	6777.98
490.613	6835.88
491.046	6854.26
491.48	6863.21
491.914	6826.2
492.348	6834.98
492.781	6834.52
493.215	6823.78
493.648	6829.38
494.082	6860.57
494.515	6831.23
494.948	6861.83
495.382	6880.31
495.815	6873.38
496.248	6868.49
496.681	6936.24
497.114	6987.8
497.547	7010.34
497.98	7043.32
498.413	7001.52
498.846	7001.71
499.279	7012.34
499.711	6994.49
500.144	6952.34
500.577	6962.75
501.009	6986.83
501.442	6989.25
501.874	6928.91
502.306	6900.86
502.739	6899.07
503.171	6989.34
503.603	6967.5
504.036	6984.17
504.468	6958.07
504.9	6976.26
505.332	6968.98
505.764	6935.03
506.196	6927.45
506.627	6963.07
507.059	6979.88
507.491	6983.69
507.923	6875.32
508.354	6897.81
508.786	6894.15
509.217	6939.75
509.649	6958.16
510.08	6999.48
510.512	7009.94
510.943	7008.22
511.374	6982.6
511.805	7013.65
512.237	7038.02
512.668	7143.93
513.099	7197.38
513.53	7223.03
513.961	7193.89
514.391	7234.85
514.822	7269.37
515.253	7334.98
515.684	7347.59
516.114	7388.8
516.545	7384.92
516.975	7414.91
517.406	7406.01
517.836	7337.19
518.267	7306.77
518.697	7346.29
519.127	7318.16
519.558	7308.49
519.988	7273.61
520.418	7272.56
520.848	7307.53
521.278	7295.99
521.708	7155.49
522.138	7157.5
522.567	7240.51
522.997	7280.98
523.427	7266.07
523.857	7251.32
524.286	7218.5
524.716	7215.18
525.145	7232.77
525.575	7219.5
526.004	7229.25
526.433	7288.4
526.863	7237.76
527.292	7147.86
527.721	7146.47
528.15	7163.7
528.579	7161.02
529.008	7191.35
529.437	7263.6
529.866	7284.2
530.295	7312.53
530.724	7312.2
531.152	7378.17
531.581	7393.43
532.01	7431.08
532.438	7432.25
532.867	7458.64
533.295	7498.74
533.723	7494.4
534.152	7460.69
534.58	7440.97
535.008	7361.03
535.436	7351.86
535.865	7367.99
536.293	7405.33
536.721	7437.17
537.149	7496.48
537.576	7465.98
538.004	7487.49
538.432	7502.01
538.86	7482.75
539.287	7500.62
539.715	7543.06
540.143	7552.17
540.57	7537.24
540.998	7530.85
541.425	7450.9
541.852	7394.56
542.28	7418.85
542.707	7383.34
543.134	7347.97
543.561	7351.13
543.988	7339.42
544.415	7357.44
544.842	7350.3
545.269	7334.55
545.696	7355.47
546.123	7427.53
546.549	7402.39
546.976	7361.8
547.403	7370.99
547.829	7393.96
548.256	7421.23
548.682	7424.06
549.108	7407.8
549.535	7423.23
549.961	7446.42
550.387	7404.7
550.813	7388.44
551.24	7427.48
551.666	7447.16
552.092	7423.38
552.518	7410.37
552.943	7389.89
553.369	7424.96
553.795	7450.86
554.221	7455.41
554.646	7443.87
555.072	7479.95
555.498	7498.15
555.923	7521.76
556.349	7566.23
556.774	7584.01
557.199	7577.74
557.625	7601.52
558.05	7577.1
558.475	7621.82
558.9	7616.83
559.325	7583.21
559.75	7564.04
560.175	7548.06
560.6	7534.68
561.025	7538.88
561.449	7554.63
561.874	7582.19
562.299	7592.48
562.723	7614.15
563.148	7562.96
563.572	7577.9
563.997	7617.86
564.421	7641.34
564.846	7636.33
565.27	7639.74
565.694	7618.17
566.118	7654.51
566.542	7672.98
566.966	7639.61
567.39	7613.65
567.814	7560.86
568.238	7554.04
568.662	7575.65
569.086	7588.71
569.509	7638.19
569.933	7592.69
570.357	7593.78
570.78	7537.68
571.204	7512.68
571.627	7506.71
572.05	7539.69
572.474	7579.62
572.897	7572.49
573.32	7580.23
573.743	7585.53
574.166	7539.36
574.589	7581.93
575.012	7583.02
575.435	7617.27
575.858	7618.8
576.281	7611.74
576.704	7590.02
577.126	7592.61
577.549	7593.93
577.972	7602.84
578.394	7601.65
578.817	7611.02
579.239	7578.29
579.661	7566.74
580.084	7536.51
580.506	7525.62
580.928	7560.56
581.35	7555.14
581.772	7573.52
582.194	7540.24
582.616	7506.22
583.038	7465.7
583.46	7447.29
583.882	7449.16
584.303	7491.69
584.725	7490
585.147	7476
585.568	7504.62
585.99	7523.35
586.411	7509.38
586.833	7541.58
587.254	7519.7
587.675	7568.18
588.096	7610.72
588.518	7570.79
588.939	7473.18
589.36	7451.88
589.781	7431.95
590.202	7300.42
590.623	7292.83
591.043	7321.91
591.464	7288.65
591.885	7284.39
592.305	7265.76
592.726	7204.83
593.147	7212.8
593.567	7190.18
593.987	7152.9
594.408	7124.13
594.828	7123.99
595.248	7080.82
595.669	6974.03
596.089	6931.66
596.509	6898.53
596.929	6821.02
597.349	6807.26
597.769	6740.23
598.189	6685.42
598.608	6668.05
599.028	6650.31
599.448	6628.45
599.867	6554.15
600.287	6526.13
600.706	6491.92
601.126	6432.29
601.545	6414.81
601.965	6404.12
602.384	6374.11
602.803	6386.16
603.222	6360.88
603.641	6334.06
604.061	6314.23
604.48	6297.24
604.898	6333.77
605.317	6358.16
605.736	6366.99
606.155	6350.8
606.574	6307.69
606.992	6333.48
607.411	6312.23
607.829	6282.09
608.248	6273.52
608.666	6273.33
609.085	6275.82
609.503	6242.63
609.921	6219.64
610.339	6236.87
610.758	6244.8
611.176	6231.93
611.594	6199.39
612.012	6195.31
612.43	6215.76
612.847	6252.04
613.265	6254.77
613.683	6279.62
614.101	6292.74
614.518	6290.82
614.936	6259.35
615.353	6206.82
615.771	6209.93
616.188	6227.57
616.606	6228.9
617.023	6218.86
617.44	6173.65
617.857	6172.58
618.274	6158.47
618.691	6146.02
619.108	6115.66
619.525	6095.49
619.942	6129.5
620.359	6142.51
620.776	6119.24
621.192	6092.28
621.609	6070.5
622.026	6086.59
622.442	6097.86
622.859	6102.64
623.275	6061.02
623.691	6078.39
624.108	6121.34
624.524	6180.52
624.94	6166.15
625.356	6198.7
625.772	6253.83
626.188	6302.55
626.604	6301.67
627.02	6274.84
627.436	6253.39
627.852	6269.86
628.268	6311.05
628.683	6261.95
629.099	6217.37
629.514	6200.36
629.93	6223.17
630.345	6246.94
630.761	6234.46
631.176	6260.11
631.591	6235.26
632.007	6217.93
632.422	6231.41
632.837	6197.15
633.252	6198.46
633.667	6170.92
634.082	6148.01
634.497	6107.37
634.911	6030.76
635.326	6042.99
635.741	5989.76
636.155	5977.86
636.57	6008.29
636.984	6032.59
637.399	6065.72
637.813	6103.15
638.228	6132.18
638.642	6189.36
639.056	6175.47
639.47	6220.11
639.884	6213.2
640.298	6222.54
640.712	6256.55
641.126	6240.75
641.54	6248.7
641.954	6283.27
642.368	6264.09
642.781	6254.59
643.195	6202.21
643.609	6244.68
644.022	6251.93
644.436	6266.4
644.849	6232.26
645.262	6199.24
645.676	6241.26
646.089	6232.97
646.502	6157.02
646.915	6153.61
647.328	6098.56
647.741	6115.79
648.154	6072.58
648.567	6071.25
648.98	6018.2
649.393	6050.41
649.805	6060.59
650.218	6046.7
650.631	5983.59
651.043	5982.85
651.456	5969.21
651.868	5989.22
652.28	6099.8
652.693	6163.72
653.105	6173.38
653.517	6186.85
653.929	6145.38
654.341	6149.3
654.753	6058.73
655.165	6099.8
655.577	6094.46
655.989	6089.92
656.401	6080.33
656.813	5901.65
657.224	5854.94
657.636	5781.74
658.047	5768.71
658.459	5749.3
658.87	5789.1
659.282	5799.71
659.693	5722.36
660.104	5682.13
660.515	5644.13
660.926	5675.51
661.338	5710.34
661.749	5715.74
662.159	5688.79
662.57	5712.21
662.981	5715.31
663.392	5693.07
663.803	5750.09
664.213	5771.44
664.624	5774.62
665.035	5829.79
665.445	5763.81
665.855	5729.7
666.266	5684.83
666.676	5690.53
667.086	5639.08
667.497	5642.23
667.907	5605.25
668.317	5542.08
668.727	5491.75
669.137	5501.29
669.547	5476.05
669.956	5491.97
670.366	5500.38
670.776	5500.57
671.186	5518.82
671.595	5524.97
672.005	5540.76
672.414	5514.41
672.824	5482.05
673.233	5523.18
673.642	5516.49
674.052	5512.58
674.461	5498.02
674.87	5510.9
675.279	5465.76
675.688	5461.47
676.097	5437.75
676.506	5388.91
676.915	5468.39
677.323	5461.6
677.732	5420.43
678.141	5392.22
678.549	5297.8
678.958	5268.85
679.366	5236.21
679.775	5247.34
680.183	5259.44
680.592	5265.44
681	5259.2
681.408	5165.96
681.816	5168.7
682.224	5174.21
682.632	5164.44
683.04	5275.35
683.448	5321.46
683.856	5362.37
684.264	5392.9
684.671	5405.97
685.079	5446.65
685.487	5499.56
685.894	5628.38
686.302	5683.05
686.709	5672.7
687.116	5695.1
687.524	5669.54
687.931	5638.84
688.338	5618.07
688.745	5602.6
689.152	5599.03
689.559	5616.98
689.966	5611.42
690.373	5516.46
690.78	5481.55
691.187	5518.66
691.593	5488.97
692	5436.54
692.407	5444.13
692.813	5481.49
693.22	5480.8
693.626	5493.71
694.032	5475.59
694.439	5534.6
694.845	5553.76
695.251	5614.35
695.657	5648.05
696.063	5762.86
696.469	5807.21
696.875	5831.83
697.281	5785.97
697.687	5751.84
698.093	5693.36
698.498	5712.72
698.904	5695.07
