Data from C_3_DIV_IL_4N_Splice17_13-19-37-348.txt Node
Date: Sat Mar 14 13:19:37 EDT 2020
User: sa697716
Spectrometer: FLMS03696
Trigger mode: 0
Integration Time (sec): 3.180400E-1
Scans to average: 20
Electric dark correction enabled: true
Nonlinearity correction enabled: true
Boxcar width: 5
XAxis mode: Wavelengths
Number of Pixels in Spectrum: 2048
>>>>>Begin Spectral Data<<<<<
187.83	-289249.92
188.298	2107.51
188.766	1149.25
189.233	1006.02
189.701	1438.55
190.169	2081.92
190.636	792.68
191.104	588.9
191.571	55.76
192.039	-77.78
192.506	-65.73
192.974	432.66
193.441	-800.04
193.908	-219.96
194.375	-66.09
194.842	30.47
195.31	196.81
195.777	222.08
196.244	412.83
196.711	448.18
197.177	566.2
197.644	776.66
198.111	1359.16
198.578	1893.1
199.045	1491.42
199.511	2427.67
199.978	2788.13
200.445	2323.79
200.911	2561.74
201.378	2826.22
201.844	2552.45
202.31	4353.22
202.777	4562.36
203.243	2507.48
203.709	2382.68
204.176	2848.57
204.642	2335.37
205.108	2203.03
205.574	1803.55
206.04	1613.95
206.506	1515.64
206.972	1452.57
207.438	1393.49
207.903	1579.83
208.369	1394.29
208.835	1386.31
209.301	1448.82
209.766	1472.4
210.232	1441.37
210.697	1777.12
211.163	2196.22
211.628	3299.85
212.094	2729.52
212.559	3396.77
213.024	2117.17
213.49	2580.83
213.955	2506.42
214.42	2426.38
214.885	2246.41
215.35	2155.07
215.815	2090.04
216.28	2207.92
216.745	1766.54
217.21	1865.73
217.675	1650.34
218.14	1792.86
218.604	1914.43
219.069	2115.92
219.534	2166.66
219.998	2437.09
220.463	2854.62
220.927	3364.79
221.392	3070.37
221.856	3055.83
222.32	3768.59
222.785	4590.66
223.249	5679.89
223.713	6282.93
224.177	6218.32
224.642	7854.06
225.106	9568.97
225.57	10362.86
226.034	7716.04
226.497	11700.41
226.961	10522.74
227.425	12194.35
227.889	13407.66
228.353	13341.45
228.816	27445.43
229.28	26211.15
229.744	21983.68
230.207	13405.47
230.671	13156.8
231.134	21543.08
231.597	24826.2
232.061	24636.9
232.524	23895.61
232.987	16437.56
233.45	14800.72
233.914	13197.07
234.377	13421.88
234.84	12262.96
235.303	14336.37
235.766	15938.43
236.229	16444.78
236.691	10306.02
237.154	11559.15
237.617	8699.21
238.08	8882.21
238.542	10345.72
239.005	7410.48
239.468	7367.96
239.93	6949.42
240.393	6321.77
240.855	5556.03
241.317	5657.02
241.78	6867.13
242.242	7103.79
242.704	7694.33
243.166	6705.97
243.629	6116.86
244.091	7024.09
244.553	7680.2
245.015	8243.81
245.477	10613.62
245.939	15486.66
246.4	16469.83
246.862	15941.61
247.324	14994.9
247.786	16717.12
248.247	21820
248.709	22346.38
249.17	16713.84
249.632	15790.97
250.093	18359.12
250.555	15861.7
251.016	9675.66
251.477	9182.65
251.939	9917.2
252.4	10369.07
252.861	12258.64
253.322	11437.55
253.783	13594.88
254.244	17548.05
254.705	13776.86
255.166	12174.29
255.627	11984.29
256.088	16932.92
256.549	17949
257.009	15445.61
257.47	18741.8
257.931	15240.33
258.391	11406.27
258.852	11773.07
259.312	12339.4
259.773	15192.4
260.233	12863.76
260.694	10853.27
261.154	12258.8
261.614	9851.79
262.074	8802.86
262.534	9163.43
262.994	8633.33
263.455	11450.49
263.915	9635.88
264.374	9061.28
264.834	9880.72
265.294	10896.04
265.754	11288.25
266.214	10673.44
266.673	9975.71
267.133	12534.34
267.593	12382.3
268.052	15139.13
268.512	13137.64
268.971	15839.22
269.431	17335.2
269.89	15490.09
270.349	23197.05
270.809	25784.65
271.268	23152.25
271.727	51733.79
272.186	33510.23
272.645	25088.37
273.104	18060.5
273.563	26148.66
274.022	20466
274.481	17449.67
274.94	13450.53
275.399	9988.81
275.857	11593.55
276.316	15665.47
276.775	13942.48
277.233	13736.7
277.692	12903.79
278.15	14620.62
278.609	15054.24
279.067	13966.62
279.525	12983.25
279.984	16765.39
280.442	20179.42
280.9	20015.96
281.358	13179.8
281.816	12302.33
282.274	12034.23
282.732	12411.55
283.19	12445.44
283.648	10742.43
284.106	11436
284.564	11601.51
285.021	10781.67
285.479	8026.42
285.937	7254.61
286.394	6392.47
286.852	6569.73
287.309	6915.22
287.767	6706.44
288.224	6414.53
288.682	7051.02
289.139	7749.02
289.596	7127.78
290.053	7391.61
290.511	9320.95
290.968	11324.53
291.425	15288.69
291.882	12780.29
292.339	11123.16
292.796	10992.34
293.252	10322.68
293.709	8196.89
294.166	7347.09
294.623	8070.2
295.079	7706.69
295.536	7754.27
295.992	7034.64
296.449	6959.38
296.905	7227.9
297.362	6922.67
297.818	7283.64
298.274	7573.46
298.731	7702.23
299.187	7601.36
299.643	8156.81
300.099	9888.19
300.555	10810.91
301.011	9032.59
301.467	8763.01
301.923	10188.6
302.379	9976.56
302.835	9789.92
303.291	9777.35
303.746	11120.53
304.202	14030.7
304.658	14116.34
305.113	9521.95
305.569	9352.86
306.024	9962.27
306.479	9427.62
306.935	7985.13
307.39	8701.41
307.845	8054.07
308.301	8123.54
308.756	7911.29
309.211	7633.96
309.666	7818.88
310.121	9715.27
310.576	9862.31
311.031	9811.88
311.486	11215.52
311.94	11186.29
312.395	14979.77
312.85	28151.47
313.305	137485.87
313.759	717642.89
314.214	52166.16
314.668	41501.05
315.123	35003.87
315.577	12625.3
316.032	11234.53
316.486	14067.88
316.94	11157.49
317.394	7791.8
317.849	6051.84
318.303	5727.36
318.757	5399.41
319.211	5968.81
319.665	5221.04
320.119	5294.03
320.572	7539.2
321.026	7057.05
321.48	5897.25
321.934	6384.67
322.387	6386.58
322.841	6903.47
323.295	6274.24
323.748	7194.27
324.202	7312.93
324.655	8776.9
325.108	12325.15
325.562	8735.14
326.015	10382.94
326.468	7826.87
326.921	8787.83
327.374	8208.82
327.827	8571.22
328.28	9689.36
328.733	6521.77
329.186	5730.76
329.639	5464.8
330.092	4587.35
330.545	4380.99
330.997	4426.48
331.45	4873.88
331.903	5728.77
332.355	9813.13
332.808	9508.58
333.26	7843.06
333.713	8509.74
334.165	8559.21
334.617	11447.32
335.069	9173.83
335.522	16508.84
335.974	18303.95
336.426	16695.81
336.878	11513.11
337.33	5883.49
337.782	5761.21
338.234	7256.76
338.686	8668.16
339.137	10272.09
339.589	9663.71
340.041	7635.3
340.493	6596.79
340.944	6746.44
341.396	7279.53
341.847	6172.24
342.299	7320.93
342.75	8988.3
343.201	7802.58
343.653	8951.42
344.104	10972.72
344.555	8638.13
345.006	13360.06
345.457	10281.36
345.908	8124.34
346.359	7653.26
346.81	6217.33
347.261	6513.77
347.712	6377.75
348.163	6828.11
348.613	6975.47
349.064	6532.26
349.515	5721.66
349.965	5893.18
350.416	7051.37
350.866	7751.22
351.317	8702.09
351.767	14376.05
352.217	18147.89
352.668	15080.81
353.118	13866.91
353.568	13257.78
354.018	10522.54
354.468	11146
354.918	7988.58
355.368	7034.65
355.818	9939.1
356.268	28587.23
356.718	120773.92
357.168	30226.44
357.617	15208.18
358.067	16823.44
358.517	15846.87
358.966	18637.54
359.416	20952.5
359.865	22666.5
360.315	26942.93
360.764	12634.82
361.213	7108.43
361.663	6680.09
362.112	8190.27
362.561	13157.57
363.01	9967.72
363.459	8360.07
363.908	9019.26
364.357	7688.9
364.806	12996.38
365.255	8875.56
365.703	8187.83
366.152	8185.56
366.601	6667.32
367.05	5458.74
367.498	4988.8
367.947	5199.02
368.395	5409.22
368.844	4793.38
369.292	5725.11
369.74	3966.56
370.189	6093.55
370.637	7068.26
371.085	6093.9
371.533	7378.47
371.981	7068.63
372.429	6774.71
372.877	7059.76
373.325	5926.05
373.773	6040.95
374.221	5358.54
374.669	6624.18
375.116	5723.98
375.564	5769.95
376.012	6455.45
376.459	5338.93
376.907	6370
377.354	7621.84
377.801	7160.69
378.249	8223.73
378.696	10447.65
379.143	12699.96
379.591	13520.15
380.038	22963.58
380.485	16683.17
380.932	18021.95
381.379	16608.9
381.826	12304.31
382.273	8780.87
382.72	7599.73
383.166	7421.23
383.613	4843.82
384.06	4360.29
384.506	5075.01
384.953	3712.97
385.4	3714.55
385.846	3242.92
386.292	3126.85
386.739	3041.84
387.185	2998.91
387.631	3004.66
388.078	2928.43
388.524	3120.74
388.97	2874.59
389.416	2395.06
389.862	2554.22
390.308	2432.74
390.754	2478.45
391.2	2692.32
391.645	2755.5
392.091	2673.32
392.537	2598.41
392.983	2586.78
393.428	2581.09
393.874	2780.06
394.319	2811.64
394.765	2679.13
395.21	2751.8
395.655	2591.93
396.101	2433.21
396.546	2200.21
396.991	2203.29
397.436	2042.03
397.881	1976.82
398.326	1852.44
398.771	1770.09
399.216	1539.25
399.661	1386.7
400.106	1393.36
400.551	1439.03
400.995	1301.37
401.44	1293.78
401.885	1217.43
402.329	1237.58
402.774	1199.63
403.218	1180.1
403.663	1133.7
404.107	1174.57
404.551	1192.12
404.995	1096.23
405.44	1052.45
405.884	1068.87
406.328	1033.8
406.772	1036.22
407.216	949.93
407.66	913.23
408.104	860.12
408.547	808.59
408.991	782.89
409.435	751.64
409.879	745.52
410.322	741.01
410.766	722.29
411.209	693.36
411.653	666.98
412.096	658.66
412.54	661.64
412.983	662.54
413.426	671.37
413.869	672.3
414.312	665.52
414.756	642.99
415.199	614.24
415.642	597.84
416.085	602.21
416.527	600.18
416.97	609.35
417.413	585.27
417.856	579.18
418.298	572.08
418.741	567.35
419.184	565.13
419.626	585.03
420.069	584.05
420.511	589.85
420.953	579.47
421.396	577.4
421.838	562.25
422.28	573.82
422.722	580.69
423.164	587.31
423.606	582.48
424.048	580.85
424.49	556.49
424.932	555.69
425.374	545.35
425.816	552.89
426.258	560.16
426.699	566.18
427.141	560.3
427.582	567.57
428.024	564.52
428.465	557.98
428.907	545.26
429.348	540.03
429.789	544.39
430.231	538.45
430.672	546.65
431.113	535.01
431.554	529.71
431.995	513.32
432.436	500.05
432.877	490.94
433.318	487.93
433.759	486.99
434.2	487.6
434.64	481.98
435.081	483.86
435.522	459.59
435.962	443.83
436.403	436.55
436.843	443.26
437.284	430.44
437.724	420.86
438.164	419.51
438.604	411.32
439.045	397.15
439.485	383.8
439.925	375.4
440.365	368.38
440.805	365.95
441.245	360.96
441.685	351.09
442.125	350.07
442.564	352.27
443.004	347.04
443.444	349.13
443.883	351.78
444.323	348.76
444.762	348.52
445.202	352.95
445.641	361.43
446.081	360.43
446.52	365.26
446.959	364.47
447.398	359.92
447.837	358.33
448.276	353.34
448.716	358.76
449.154	362.46
449.593	356.75
450.032	357.19
450.471	349.98
450.91	353.26
451.349	353.95
451.787	352.77
452.226	357.48
452.664	357.14
453.103	357.12
453.541	355.73
453.98	359.48
454.418	363.51
454.856	359.52
455.295	361.56
455.733	363.91
456.171	365.43
456.609	365.99
457.047	366.64
457.485	373.31
457.923	375.59
458.361	370.87
458.798	370.26
459.236	369.16
459.674	372.19
460.111	373.46
460.549	371.32
460.987	369.3
461.424	369.2
461.862	366.31
462.299	360.44
462.736	360.22
463.173	361.76
463.611	360.7
464.048	360.26
464.485	363.72
464.922	360.34
465.359	357.09
465.796	360.35
466.233	357.9
466.67	358.1
467.106	358.93
467.543	354.19
467.98	348.84
468.416	337.85
468.853	334.6
469.29	322.85
469.726	319.5
470.162	311.8
470.599	301.76
471.035	298.08
471.471	289.58
471.907	286.54
472.344	284.82
472.78	287.1
473.216	290.15
473.652	287.55
474.088	287.95
474.523	287.89
474.959	290.22
475.395	287.95
475.831	287.27
476.266	290.05
476.702	289.71
477.138	287.53
477.573	286.8
478.008	287.27
478.444	289.44
478.879	293.59
479.314	295.62
479.75	296.34
480.185	297.95
480.62	300.82
481.055	302.26
481.49	304.53
481.925	310.03
482.36	317.4
482.795	325.57
483.229	334.42
483.664	341.22
484.099	342.45
484.534	348.39
484.968	353.48
485.403	355.01
485.837	353.94
486.271	354.64
486.706	355.87
487.14	350.9
487.574	347.05
488.009	344.11
488.443	341.48
488.877	347.07
489.311	348.18
489.745	352.47
490.179	357.64
490.613	368.22
491.046	372.32
491.48	376.05
491.914	379.02
492.348	383.61
492.781	388.29
493.215	391.7
493.648	393.83
494.082	399.83
494.515	403.56
494.948	410.48
495.382	414.82
495.815	420.66
496.248	427.21
496.681	437.5
497.114	447.01
497.547	457.46
497.98	470.45
498.413	478.86
498.846	489.4
499.279	498.98
499.711	506.07
500.144	511.65
500.577	524.09
501.009	536.87
501.442	548.75
501.874	555.78
502.306	561.8
502.739	573.14
503.171	588.72
503.603	597.32
504.036	609.37
504.468	619.38
504.9	633.27
505.332	643.62
505.764	652.26
506.196	662.14
506.627	677.75
507.059	693.32
507.491	704.1
507.923	708.17
508.354	724.65
508.786	738.87
509.217	758.12
509.649	775.7
510.08	795.74
510.512	814.54
510.943	834.18
511.374	849.57
511.805	871.69
512.237	893.09
512.668	924.08
513.099	952.1
513.53	979.96
513.961	1002.68
514.391	1034.4
514.822	1067.86
515.253	1103.15
515.684	1129.67
516.114	1160.4
516.545	1183.58
516.975	1211.04
517.406	1232.09
517.836	1238.4
518.267	1248.27
518.697	1269.44
519.127	1277.53
519.558	1287.31
519.988	1293.44
520.418	1305.68
520.848	1324.47
521.278	1334.46
521.708	1365.47
522.138	1380.06
522.567	1411.79
522.997	1437.12
523.427	1453.15
523.857	1471.06
524.286	1483.46
524.716	1499.79
525.145	1518.84
525.575	1530.31
526.004	1546.8
526.433	1531.39
526.863	1532.98
527.292	1525.35
527.721	1533.25
528.15	1539.75
528.579	1541.55
529.008	1552.87
529.437	1575.77
529.866	1589.54
530.295	1606.88
530.724	1619.52
531.152	1645.85
531.581	1660.93
532.01	1678.26
532.438	1686.52
532.867	1701.15
533.295	1720.18
533.723	1726.12
534.152	1725.13
534.58	1725.19
535.008	1711.02
535.436	1713.55
535.865	1720.72
536.293	1733.88
536.721	1748.27
537.149	1771.18
537.576	1773.83
538.004	1784.42
538.432	1791.85
538.86	1789.31
539.287	1795.31
539.715	1807.99
540.143	1809.89
540.57	1806.51
540.998	1802.38
541.425	1781.56
541.852	1762.45
542.28	1760.87
542.707	1746.31
543.134	1733.47
543.561	1729.86
543.988	1724.54
544.415	1724.36
544.842	1718.99
545.269	1711.9
545.696	1714.48
546.123	1725.6
546.549	1716.33
546.976	1704.12
547.403	1703.97
547.829	1706.03
548.256	1708.84
548.682	1705.65
549.108	1698.97
549.535	1700
549.961	1703.19
550.387	1691.76
550.813	1689.73
551.24	1696.29
551.666	1698.41
552.092	1690.74
552.518	1685.17
552.943	1680.64
553.369	1688.24
553.795	1695.48
554.221	1697.55
554.646	1695.06
555.072	1705.83
555.498	1710.15
555.923	1719.01
556.349	1734.28
556.774	1742.06
557.199	1743.43
557.625	1748.95
558.05	1743.97
558.475	1753.13
558.9	1751.64
559.325	1744.75
559.75	1740.48
560.175	1734.57
560.6	1729.46
561.025	1727.27
561.449	1728.11
561.874	1734.75
562.299	1739.88
562.723	1746.77
563.148	1737.29
563.572	1740.64
563.997	1748.99
564.421	1752.16
564.846	1752.04
565.27	1755.38
565.694	1753.29
566.118	1764.17
566.542	1770.69
566.966	1763.59
567.39	1757.84
567.814	1746.52
568.238	1746.38
568.662	1750.91
569.086	1752.32
569.509	1757.29
569.933	1741.53
570.357	1732.26
570.78	1712.55
571.204	1699.07
571.627	1687.66
572.05	1686.2
572.474	1685.04
572.897	1671.92
573.32	1663.73
573.743	1654.14
574.166	1637.35
574.589	1637.56
575.012	1630.42
575.435	1628.14
575.858	1619.75
576.281	1608.98
576.704	1592.17
577.126	1580.56
577.549	1569.64
577.972	1559.71
578.394	1549.22
578.817	1542.98
579.239	1524.12
579.661	1511.03
580.084	1496
580.506	1482.84
580.928	1478.91
581.35	1469.98
581.772	1465.9
582.194	1455.11
582.616	1443.94
583.038	1430.89
583.46	1419.58
583.882	1416.48
584.303	1420.38
584.725	1416.86
585.147	1419.91
585.568	1429.74
585.99	1441.28
586.411	1446.84
586.833	1459.06
587.254	1459.69
587.675	1471.69
588.096	1483.97
588.518	1478.53
588.939	1463.59
589.36	1460.86
589.781	1449.25
590.202	1423.59
590.623	1413.66
591.043	1411.42
591.464	1398.64
591.885	1394.97
592.305	1389.62
592.726	1376.24
593.147	1377.9
593.567	1371.71
593.987	1363.72
594.408	1359.19
594.828	1356.22
595.248	1351.35
595.669	1334.53
596.089	1328.39
596.509	1322.3
596.929	1309.6
597.349	1309.79
597.769	1299.47
598.189	1292.38
598.608	1293.17
599.028	1293.58
599.448	1293.72
599.867	1281.09
600.287	1276.41
600.706	1271.73
601.126	1262.28
601.545	1261.66
601.965	1260.09
602.384	1254.74
602.803	1257.31
603.222	1253.45
603.641	1247.77
604.061	1243.57
604.48	1239.41
604.898	1245.95
605.317	1249.93
605.736	1250.84
606.155	1247.32
606.574	1238.21
606.992	1242.46
607.411	1237.99
607.829	1228.57
608.248	1224.2
608.666	1220.25
609.085	1218.6
609.503	1210.28
609.921	1203.04
610.339	1204.11
610.758	1201.46
611.176	1195.57
611.594	1186.46
612.012	1182.68
612.43	1185.14
612.847	1189.03
613.265	1189.77
613.683	1192.76
614.101	1192.25
614.518	1187.71
614.936	1177.41
615.353	1163.82
615.771	1160.41
616.188	1159.11
616.606	1153.91
617.023	1146.11
617.44	1132.33
617.857	1124.1
618.274	1115.19
618.691	1109.24
619.108	1100.63
619.525	1094.46
619.942	1099.48
620.359	1101.12
620.776	1095.63
621.192	1091.01
621.609	1088.47
622.026	1094.09
622.442	1097.82
622.859	1099.75
623.275	1091.3
623.691	1095.01
624.108	1103.33
624.524	1114.43
624.94	1113.06
625.356	1120.27
625.772	1131.44
626.188	1140.82
626.604	1141.38
627.02	1138.03
627.436	1136.03
627.852	1143
628.268	1152.36
628.683	1144.71
629.099	1136.59
629.514	1132.47
629.93	1135.49
630.345	1138.98
630.761	1135.01
631.176	1136.49
631.591	1131.63
632.007	1125.14
632.422	1120.95
632.837	1109.69
633.252	1106.63
633.667	1096.73
634.082	1086.93
634.497	1075.22
634.911	1055.89
635.326	1050.55
635.741	1034.73
636.155	1022.88
636.57	1022.33
636.984	1021.06
637.399	1022.53
637.813	1019.12
638.228	1015.43
638.642	1016.86
639.056	1005.33
639.47	1004.21
639.884	994.94
640.298	987.26
640.712	983.84
641.126	970.19
641.54	959.04
641.954	949.45
642.368	936.55
642.781	928.43
643.195	909.58
643.609	907.29
644.022	898.29
644.436	890.9
644.849	877.73
645.262	865.35
645.676	863.06
646.089	856.9
646.502	842.97
646.915	836.1
647.328	818.43
647.741	815.3
648.154	802.09
648.567	798.68
648.98	786.38
649.393	783.99
649.805	779.19
650.218	771.78
650.631	758.05
651.043	750.92
651.456	744.38
651.868	743.31
652.28	753.1
652.693	759.3
653.105	760.58
653.517	765.3
653.929	762.76
654.341	763.58
654.753	751.36
655.165	751.57
655.577	747.56
655.989	740.46
656.401	730.74
656.813	703.17
657.224	686.8
657.636	662.44
658.047	646.42
658.459	629.02
658.87	617.31
659.282	604.67
659.693	586.85
660.104	571.84
660.515	558.6
660.926	550.76
661.338	542.82
661.749	533.55
662.159	523.15
662.57	514.75
662.981	506.91
663.392	498.88
663.803	497.57
664.213	490.63
664.624	482.95
665.035	479.44
665.445	469.71
665.855	462.06
666.266	453.65
666.676	448.02
667.086	438.68
667.497	434.96
667.907	428.34
668.317	419.38
668.727	417.84
669.137	414.59
669.547	411.33
669.956	409.33
670.366	407.92
670.776	406.88
671.186	407.54
671.595	408.32
672.005	408.2
672.414	406.39
672.824	404.83
673.233	402.93
673.642	403.73
674.052	405.05
674.461	406.88
674.87	408.29
675.279	407.71
675.688	407.83
676.097	409.7
676.506	408.86
676.915	417
677.323	419.66
677.732	419.47
678.141	421.22
678.549	416.57
678.958	416.81
679.366	418.18
679.775	421.78
680.183	432.15
680.592	437.63
681	444.71
681.408	444.84
681.816	452.28
682.224	461.59
682.632	473.14
683.04	496.57
683.448	517.11
683.856	543.65
684.264	574.72
684.671	600.53
685.079	635.9
685.487	674.44
685.894	725.05
686.302	770.86
686.709	812.26
687.116	859.33
687.524	901.53
687.931	941.77
688.338	977.52
688.745	1009.16
689.152	1047.06
689.559	1090.95
689.966	1135.99
690.373	1164.89
690.78	1209.21
691.187	1270.18
691.593	1319.45
692	1364.57
692.407	1425.22
692.813	1498.67
693.22	1558
693.626	1619.35
694.032	1668.45
694.439	1739.56
694.845	1796.92
695.251	1866.99
695.657	1930.24
696.063	2019.9
696.469	2088.02
696.875	2152.1
697.281	2189.03
697.687	2233.49
698.093	2269.69
698.498	2340.86
698.904	2394.24
699.31	2473.14
699.715	2533.14
700.12	2618.23
700.526	2637.58
700.931	2702.81
701.337	2750.64
701.742	2781.39
702.147	2858.89
702.552	2888.33
702.957	2942.82
703.362	2962.95
703.767	2990.39
704.172	3024.27
