Data from C_3_DIV_PA_2N_Splice17_13-15-39-909.txt Node
Date: Sat Mar 14 13:15:39 EDT 2020
User: sa697716
Spectrometer: FLMS03696
Trigger mode: 0
Integration Time (sec): 3.180400E-1
Scans to average: 20
Electric dark correction enabled: true
Nonlinearity correction enabled: true
Boxcar width: 5
XAxis mode: Wavelengths
Number of Pixels in Spectrum: 2048
>>>>>Begin Spectral Data<<<<<
187.83	-323038.51
188.298	2326.99
188.766	1263.93
189.233	1139.47
189.701	1631.33
190.169	2272.72
190.636	843.48
191.104	719.71
191.571	84.72
192.039	-89.57
192.506	-135.56
192.974	362.65
193.441	-629.3
193.908	-91.5
194.375	-32.56
194.842	31.24
195.31	160.64
195.777	194.97
196.244	361.61
196.711	215.95
197.177	228.91
197.644	211.05
198.111	325.82
198.578	400.81
199.045	295.39
199.511	424.86
199.978	439.59
200.445	406.45
200.911	387.2
201.378	355.14
201.844	362.07
202.31	511.78
202.777	581.48
203.243	341.42
203.709	319.89
204.176	368.81
204.642	330.97
205.108	318.93
205.574	222.57
206.04	184.56
206.506	183.12
206.972	138.27
207.438	127.27
207.903	137.84
208.369	134.45
208.835	157.14
209.301	167.62
209.766	143.93
210.232	133.14
210.697	135.71
211.163	135.37
211.628	129.46
212.094	140.73
212.559	270.01
213.024	184.13
213.49	254.28
213.955	229.29
214.42	197.33
214.885	212.37
215.35	229.81
215.815	349.41
216.28	397.35
216.745	336.36
217.21	407.87
217.675	333.42
218.14	375.02
218.604	372.44
219.069	431.34
219.534	484.33
219.998	532.63
220.463	615.89
220.927	631.54
221.392	574.08
221.856	588.43
222.32	659.89
222.785	845.88
223.249	1044.05
223.713	1193.38
224.177	1189.68
224.642	1454.41
225.106	1751.96
225.57	1926.44
226.034	1551.43
226.497	2430.26
226.961	2241.98
227.425	2698.93
227.889	2953.42
228.353	2933.75
228.816	5977.74
229.28	5862.3
229.744	4998.69
230.207	3160.17
230.671	3135.2
231.134	4941.78
231.597	5782.24
232.061	5766.88
232.524	5549.75
232.987	3865.73
233.45	3564.85
233.914	3235.39
234.377	3201.44
234.84	2940.52
235.303	3448.34
235.766	3881.06
236.229	4064.61
236.691	2526.9
237.154	2812.15
237.617	2158.31
238.08	2196.67
238.542	2554.02
239.005	1837.33
239.468	1858.03
239.93	1760.7
240.393	1606.93
240.855	1420.66
241.317	1438.66
241.78	1741.24
242.242	1837.05
242.704	2030.04
243.166	1786.73
243.629	1678.63
244.091	1951.99
244.553	2162.34
245.015	2360.52
245.477	3043.07
245.939	4442.41
246.4	4796.15
246.862	4690.19
247.324	4457.27
247.786	4940.73
248.247	6502.86
248.709	6550.29
249.17	4922.56
249.632	4759.34
250.093	5593.09
250.555	4887.64
251.016	3047.19
251.477	2917.68
251.939	3200.05
252.4	3333.74
252.861	3946.74
253.322	3710.29
253.783	4427.99
254.244	5777.31
254.705	4512.03
255.166	3975.52
255.627	3907.64
256.088	5546.9
256.549	5897.37
257.009	5058.94
257.47	6167.04
257.931	5052.16
258.391	3809.14
258.852	3935.68
259.312	4132.92
259.773	5133
260.233	4425.65
260.694	3794.16
261.154	4283.37
261.614	3514.53
262.074	3156.26
262.534	3338.54
262.994	3169.42
263.455	4206.36
263.915	3594.07
264.374	3390.7
264.834	3706.43
265.294	4088.27
265.754	4273.71
266.214	4055.36
266.673	3801.12
267.133	4809.42
267.593	4742.87
268.052	5843.72
268.512	5106.09
268.971	6265.97
269.431	6911.8
269.89	6213.31
270.349	9379.77
270.809	10488.21
271.268	9494.15
271.727	21213.42
272.186	13813.49
272.645	10430.46
273.104	7514.92
273.563	10928.23
274.022	8509.19
274.481	7312.27
274.94	5678.55
275.399	4211.54
275.857	4899.6
276.316	6620.09
276.775	5940.53
277.233	5881.73
277.692	5581.47
278.15	6369.96
278.609	6635.3
279.067	6147.07
279.525	5765
279.984	7438.52
280.442	9028.39
280.9	9044.72
281.358	5998.03
281.816	5594.34
282.274	5472.07
282.732	5609.65
283.19	5641.71
283.648	4854.74
284.106	5201.06
284.564	5247.95
285.021	4934.77
285.479	3678.8
285.937	3301.83
286.394	2926.48
286.852	3013.16
287.309	3199.66
287.767	3143.92
288.224	3003.77
288.682	3316.49
289.139	3688.38
289.596	3416.61
290.053	3551.42
290.511	4488.81
290.968	5509.49
291.425	7488.98
291.882	6347.16
292.339	5583.13
292.796	5535.85
293.252	5249.66
293.709	4232.38
294.166	3807.17
294.623	4211.76
295.079	4036.97
295.536	4106.91
295.992	3746.14
296.449	3709.13
296.905	3863.58
297.362	3744.63
297.818	3925.82
298.274	4118.02
298.731	4166.29
299.187	4113.87
299.643	4428.72
300.099	5404.61
300.555	5916.89
301.011	4949.86
301.467	4849.65
301.923	5633.55
302.379	5482.63
302.835	5428.55
303.291	5428.1
303.746	6226.04
304.202	7867.71
304.658	7900.9
305.113	5306.15
305.569	5204.64
306.024	5543.61
306.479	5211.93
306.935	4430.18
307.39	4801.31
307.845	4445.89
308.301	4489.62
308.756	4345.61
309.211	4208.5
309.666	4316.87
310.121	5398.16
310.576	5476.19
311.031	5416.39
311.486	6199.64
311.94	6162.61
312.395	8272.26
312.85	15400.41
313.305	74889.29
313.759	395620.99
314.214	28770.21
314.668	22955.63
315.123	19413.45
315.577	7022.47
316.032	6300.02
316.486	7913.53
316.94	6330.68
317.394	4439.39
317.849	3484.6
318.303	3305.52
318.757	3119.78
319.211	3465.45
319.665	3043.9
320.119	3094.83
320.572	4405.68
321.026	4143.78
321.48	3465.47
321.934	3763.14
322.387	3756.08
322.841	4092.46
323.295	3758.24
323.748	4275.94
324.202	4347.7
324.655	5269.72
325.108	7411.73
325.562	5296.92
326.015	6291.04
326.468	4781.55
326.921	5359.11
327.374	5050.4
327.827	5270.47
328.28	5940.27
328.733	4022.52
329.186	3556
329.639	3369.64
330.092	2830.59
330.545	2705.42
330.997	2742.02
331.45	3019.41
331.903	3564.88
332.355	6095.16
332.808	5903.97
333.26	4845.43
333.713	5270.58
334.165	5274.8
334.617	7029.43
335.069	5611.32
335.522	10032.66
335.974	11094.78
336.426	10018.42
336.878	6854.67
337.33	3509.7
337.782	3409.77
338.234	4332.85
338.686	5144.48
339.137	6108.77
339.589	5735.3
340.041	4535.01
340.493	3918.64
340.944	4012.99
341.396	4352.99
341.847	3725.53
342.299	4436.3
342.75	5524.32
343.201	4763.27
343.653	5498.63
344.104	6759.8
344.555	5370.92
345.006	8296.41
345.457	6508.64
345.908	5193.49
346.359	4933.25
346.81	4007.32
347.261	4195.22
347.712	4096.24
348.163	4415.63
348.613	4553.36
349.064	4279.89
349.515	3742.19
349.965	3895.84
350.416	4658.2
350.866	5096.1
351.317	5724.55
351.767	9504.95
352.217	12001.02
352.668	9990.74
353.118	9172.78
353.568	8704.73
354.018	6893.21
354.468	7315.19
354.918	5268.08
355.368	4570.7
355.818	6487.53
356.268	18554.86
356.718	78252.3
357.168	19693.59
357.617	9823.65
358.067	10894.05
358.517	10244.63
358.966	12103.22
359.416	13658.8
359.865	14663.6
360.315	17485.57
360.764	8163.89
361.213	4621.82
361.663	4342.09
362.112	5308.93
362.561	8659.33
363.01	6549.32
363.459	5514.23
363.908	5951.03
364.357	5090.33
364.806	8558.93
365.255	5839.13
365.703	5405.35
366.152	5455.48
366.601	4443.08
367.05	3641.82
367.498	3310.88
367.947	3468.91
368.395	3600.13
368.844	3193.49
369.292	3795.82
369.74	2654.33
370.189	4093.62
370.637	4783.75
371.085	4121.94
371.533	5030.56
371.981	4831.2
372.429	4655.89
372.877	4846.65
373.325	4094.38
373.773	4159.19
374.221	3713.94
374.669	4594.82
375.116	3989.07
375.564	4024.37
376.012	4483.08
376.459	3712.53
376.907	4422.8
377.354	5293.92
377.801	4977.73
378.249	5777.51
378.696	7357.51
379.143	8942.57
379.591	9535.34
380.038	16262.78
380.485	11828.18
380.932	12832.48
381.379	11858.97
381.826	8851.68
382.273	6332.81
382.72	5507.53
383.166	5379.87
383.613	3507.23
384.06	3165.12
384.506	3690.31
384.953	2708.69
385.4	2716.24
385.846	2378.77
386.292	2286.64
386.739	2215.15
387.185	2170.9
387.631	2178.97
388.078	2108.66
388.524	2258.35
388.97	2079.51
389.416	1734.87
389.862	1845.42
390.308	1757.54
390.754	1783.66
391.2	1932.83
391.645	1971.04
392.091	1926.65
392.537	1861.51
392.983	1853.2
393.428	1849.77
393.874	1969.52
394.319	1986.9
394.765	1888.95
395.21	1923.74
395.655	1801.03
396.101	1683.55
396.546	1521.28
396.991	1508.22
397.436	1394.57
397.881	1342.37
398.326	1245.32
398.771	1185.18
399.216	1020.72
399.661	906.98
400.106	906.55
400.551	930.37
400.995	835.18
401.44	826.18
401.885	771.32
402.329	780.79
402.774	750.43
403.218	743.22
403.663	713.51
404.107	737.69
404.551	744.79
404.995	673.09
405.44	642.72
405.884	648.59
406.328	622.04
406.772	615.83
407.216	558.58
407.66	537.39
408.104	495.27
408.547	462.67
408.991	446.03
409.435	427.86
409.879	426.6
410.322	421.07
410.766	410.16
411.209	393.03
411.653	379.48
412.096	374.75
412.54	370.5
412.983	369.99
413.426	375.03
413.869	370.5
414.312	366.31
414.756	350.95
415.199	334.62
415.642	322.79
416.085	321.64
416.527	317.39
416.97	318.03
417.413	304.24
417.856	298.64
418.298	293.59
418.741	289.42
419.184	286.72
419.626	295.13
420.069	293.76
420.511	297.28
420.953	294.84
421.396	295.56
421.838	287.41
422.28	295.13
422.722	300.25
423.164	301.18
423.606	298.8
424.048	293.68
424.49	283.1
424.932	280.5
425.374	273.63
425.816	274.18
426.258	276.56
426.699	281.61
427.141	279.31
427.582	280.99
428.024	281.08
428.465	276.66
428.907	272.26
429.348	267.25
429.789	271
430.231	270
430.672	275
431.113	268.35
431.554	264.03
431.995	254.95
432.436	248.96
432.877	243.55
433.318	243.21
433.759	241.1
434.2	240.14
434.64	235.04
435.081	233.15
435.522	220.72
435.962	212.17
436.403	208.43
436.843	207.35
437.284	197.94
437.724	189.22
438.164	184.68
438.604	180.05
439.045	175.22
439.485	170.57
439.925	167.01
440.365	161.85
440.805	159.77
441.245	158.86
441.685	154.2
442.125	153.73
442.564	154.87
443.004	153.7
443.444	153.37
443.883	153.69
444.323	147.9
444.762	143.42
445.202	144.04
445.641	148.84
446.081	143.33
446.52	144.78
446.959	143.92
447.398	142.26
447.837	139.16
448.276	135.87
448.716	136.86
449.154	137.36
449.593	136.83
450.032	137.22
450.471	130.62
450.91	130.44
451.349	131.57
451.787	129.5
452.226	129.5
452.664	128.83
453.103	129.27
453.541	126.28
453.98	130.67
454.418	131.21
454.856	130.31
455.295	130
455.733	132.18
456.171	131.51
456.609	132.83
457.047	133.62
457.485	138.74
457.923	141.29
458.361	139.84
458.798	137.95
459.236	136.91
459.674	136.07
460.111	137.18
460.549	136.23
460.987	135.12
461.424	133.87
461.862	132.76
462.299	128.95
462.736	128.09
463.173	129.59
463.611	132
464.048	134
464.485	136.66
464.922	135.91
465.359	134.57
465.796	143.88
466.233	145.09
466.67	147.09
467.106	148.72
467.543	146.74
467.98	143.83
468.416	137.18
468.853	134.43
469.29	129.57
469.726	127.83
470.162	123.91
470.599	113.52
471.035	110.5
471.471	106.22
471.907	103.12
472.344	102.17
472.78	103.51
473.216	104.28
473.652	102.82
474.088	101.66
474.523	102.42
474.959	103.87
475.395	102.84
475.831	102.58
476.266	103.6
476.702	103.39
477.138	102.62
477.573	102.39
478.008	102.52
478.444	104.58
478.879	108.15
479.314	109.67
479.75	110.15
480.185	110.9
480.62	111.57
481.055	111.54
481.49	113.3
481.925	115.44
482.36	119.92
482.795	122.59
483.229	124.52
483.664	126.38
484.099	126.54
484.534	129.05
484.968	130.89
485.403	130.89
485.837	129.82
486.271	129.27
486.706	128.44
487.14	124.69
487.574	122.81
488.009	121.65
488.443	119.5
488.877	120.68
489.311	120.19
489.745	121.07
490.179	123.21
490.613	127.61
491.046	127.22
491.48	128.21
491.914	128.11
492.348	128.87
492.781	129.94
493.215	129.43
493.648	127.39
494.082	127.76
494.515	127.47
494.948	128.33
495.382	126.52
495.815	127.28
496.248	127.54
496.681	128.11
497.114	128.16
497.547	128.55
497.98	131.44
498.413	133.6
498.846	134.54
499.279	133.85
499.711	132.12
500.144	131.41
500.577	132.96
501.009	132.31
501.442	133.65
501.874	133.31
502.306	131.14
502.739	133.43
503.171	133.36
503.603	132.14
504.036	132.09
504.468	131.93
504.9	131.68
505.332	129.62
505.764	129.39
506.196	128.03
506.627	128.11
507.059	129.09
507.491	123.78
507.923	122.02
508.354	122.47
508.786	121.68
509.217	122
509.649	122.61
510.08	122.68
510.512	123.21
510.943	123.45
511.374	123.1
511.805	122.88
512.237	123.2
512.668	123.69
513.099	123.07
513.53	123.8
513.961	124.07
514.391	124.55
514.822	127.9
515.253	129.66
515.684	129.79
516.114	130.76
516.545	131.45
516.975	131.86
517.406	131.11
517.836	129.27
518.267	128.91
518.697	129.81
519.127	128.9
519.558	126.4
519.988	124.13
520.418	123.05
520.848	122.14
521.278	119.98
521.708	160.93
522.138	162.31
522.567	163.26
522.997	163.96
523.427	162.79
523.857	162.77
524.286	162.85
524.716	163.58
525.145	165.13
525.575	165.77
526.004	166.55
526.433	124.8
526.863	122.62
527.292	123.25
527.721	123.6
528.15	123.08
528.579	122.32
529.008	122.44
529.437	122.34
529.866	121.75
530.295	121.65
530.724	123.19
531.152	125.44
531.581	127.77
532.01	128.37
532.438	127.43
532.867	127.96
533.295	129.74
533.723	130.02
534.152	130.04
534.58	130.47
535.008	129.94
535.436	131.32
535.865	131.54
536.293	130.69
536.721	130.71
537.149	133.59
537.576	135.33
538.004	136.12
538.432	135.68
538.86	136.93
539.287	137.05
539.715	137.59
540.143	135.33
540.57	135.25
540.998	135.04
541.425	136.08
541.852	134.18
542.28	133.46
542.707	131.97
543.134	132
543.561	131.29
543.988	130.97
544.415	131.15
544.842	131.27
545.269	130.8
545.696	132.52
546.123	133.32
546.549	133.19
546.976	133.05
547.403	133.78
547.829	133.39
548.256	133.38
548.682	134.15
549.108	135.55
549.535	136.13
549.961	136.49
550.387	135.19
550.813	135.72
551.24	136.6
551.666	136.19
552.092	135.96
552.518	136.29
552.943	137.48
553.369	137.77
553.795	137.94
554.221	138.6
554.646	138.87
555.072	141.65
555.498	140.16
555.923	140.22
556.349	142.34
556.774	142.8
557.199	143.11
557.625	142.41
558.05	142.86
558.475	143.79
558.9	144.12
559.325	145.35
559.75	145.1
560.175	145.03
560.6	145.58
561.025	144.56
561.449	146.06
561.874	146.95
562.299	149.33
562.723	150.04
563.148	149.42
563.572	150.02
563.997	150.76
564.421	150.59
564.846	151.28
565.27	152.48
565.694	154
566.118	155.04
566.542	158.2
566.966	157.9
567.39	158.66
567.814	159.07
568.238	160.73
568.662	161.28
569.086	162.71
569.509	164.21
569.933	165.49
570.357	165.82
570.78	164.88
571.204	165.81
571.627	165.71
572.05	166.9
572.474	168.9
572.897	168.07
573.32	169.88
573.743	168.96
574.166	169.09
574.589	168.46
575.012	168.31
575.435	168.82
575.858	167.52
576.281	167.72
576.704	166.35
577.126	164.07
577.549	163.72
577.972	162.29
578.394	163.22
578.817	165.96
579.239	164.4
579.661	164.94
580.084	166.09
580.506	165.6
580.928	164.96
581.35	164.68
581.772	166.06
582.194	165.49
582.616	163.84
583.038	161.45
583.46	158.02
583.882	158.58
584.303	157.83
584.725	155.75
585.147	161.77
585.568	164.54
585.99	166.7
586.411	167.96
586.833	170.31
587.254	172.08
587.675	174.64
588.096	176.32
588.518	176.55
588.939	176.04
589.36	177.39
589.781	169.49
590.202	169.94
590.623	168.59
591.043	167.23
591.464	166.03
591.885	166.63
592.305	165.74
592.726	164.26
593.147	164.36
593.567	163.82
593.987	162.67
594.408	161.41
594.828	157.27
595.248	158.32
595.669	157.94
596.089	157.06
596.509	155.25
596.929	154.01
597.349	155.1
597.769	153.75
598.189	153.22
598.608	154.01
599.028	155.6
599.448	155.25
599.867	152.87
600.287	151.8
600.706	152.86
601.126	153.07
601.545	154.7
601.965	154.04
602.384	153.75
602.803	153.84
603.222	153.04
603.641	152.04
604.061	153.06
604.48	152.46
604.898	153.5
605.317	153.25
605.736	152.73
606.155	152.37
606.574	151.32
606.992	152.3
607.411	152.62
607.829	151.48
608.248	151.37
608.666	150.35
609.085	151.78
609.503	151.42
609.921	152.11
610.339	153.53
610.758	152.93
611.176	153.1
611.594	152.82
612.012	152.77
612.43	154.59
612.847	155.62
613.265	157.9
613.683	158.49
614.101	158.73
614.518	157.49
614.936	156.61
615.353	156.35
615.771	156.91
616.188	157.35
616.606	157.18
617.023	156.61
617.44	155.35
617.857	153.74
618.274	152.32
618.691	152.89
619.108	152.44
619.525	151.94
619.942	153.59
620.359	155.18
620.776	154.83
621.192	155.81
621.609	156.17
622.026	158.27
622.442	159.89
622.859	160.28
623.275	159.1
623.691	159.63
624.108	161.6
624.524	163.4
624.94	162.75
625.356	164.3
625.772	164.62
626.188	165.53
626.604	165.9
627.02	165.4
627.436	165.78
627.852	168.47
628.268	171.89
628.683	169.98
629.099	168.13
629.514	167.04
629.93	167.82
630.345	169.63
630.761	169.2
631.176	169.76
631.591	171.04
632.007	171.05
632.422	169.1
632.837	165.76
633.252	167.9
633.667	167.29
634.082	166.98
634.497	167
634.911	166.88
635.326	168.09
635.741	166.36
636.155	164.46
636.57	166.91
636.984	168.74
637.399	173.08
637.813	172.81
638.228	174.38
638.642	176.12
639.056	175.41
639.47	176.12
639.884	176.65
640.298	178.43
640.712	180.61
641.126	180.54
641.54	180.56
641.954	178.69
642.368	179.79
642.781	183.47
643.195	183.09
643.609	185.36
644.022	185.52
644.436	185.95
644.849	184.67
645.262	183.79
645.676	184.81
646.089	185.84
646.502	187.55
646.915	187.37
647.328	184.91
647.741	186.44
648.154	186.04
648.567	190.5
648.98	190.47
649.393	192.28
649.805	194.04
650.218	193.58
650.631	192.53
651.043	191.89
651.456	192.79
651.868	192.67
652.28	195.65
652.693	198.94
653.105	198.47
653.517	199.99
653.929	200.68
654.341	201.48
654.753	201.43
655.165	203.03
655.577	202.66
655.989	201.77
656.401	200.04
656.813	197.18
657.224	193.94
657.636	188.37
658.047	188.02
658.459	185.07
658.87	183.93
659.282	181.13
659.693	180.08
660.104	179.08
660.515	177.51
660.926	178.35
661.338	177.46
661.749	176.57
662.159	177.33
662.57	176.35
662.981	177.33
663.392	177.31
663.803	180.08
664.213	179.09
664.624	177.61
665.035	179.03
665.445	177.38
665.855	177.29
666.266	177.31
666.676	176.14
667.086	173.79
667.497	174.43
667.907	173.22
668.317	171.05
668.727	173.78
669.137	174.29
669.547	173.4
669.956	173.12
670.366	172.93
670.776	172.53
671.186	173.42
671.595	174.89
672.005	173.89
672.414	174.33
672.824	174.87
673.233	171.34
673.642	170.99
674.052	172.56
674.461	172.68
674.87	172.45
675.279	173.22
675.688	171.92
676.097	172.52
676.506	172.19
676.915	173.94
677.323	173.5
677.732	173.33
678.141	172.38
678.549	168.02
678.958	166.39
679.366	165.59
679.775	163.9
680.183	167.82
680.592	167.52
681	167.3
681.408	164.15
681.816	164.19
682.224	163.47
682.632	166.5
683.04	172
683.448	176.4
683.856	181.39
684.264	187.48
684.671	189.26
685.079	192.01
685.487	196.97
685.894	205.72
686.302	209.84
686.709	215.17
687.116	218.06
687.524	220.92
687.931	223.28
688.338	222.54
688.745	219.31
689.152	217.14
689.559	220.36
689.966	221.82
690.373	217.87
690.78	219.12
691.187	220.67
691.593	220.71
692	218.77
692.407	219.45
692.813	226.28
693.22	228.12
693.626	229.92
694.032	230.2
694.439	232.49
694.845	233.44
695.251	233.92
695.657	235.73
696.063	238.79
696.469	240.23
696.875	241.41
697.281	236.42
697.687	235.83
698.093	234.71
698.498	235.92
698.904	235.77
699.31	239.52
699.715	245.48
700.12	249.03
700.526	248.68
700.931	251.6
701.337	253.64
701.742	254.56
702.147	259.46
702.552	260.48
702.957	262.19
703.362	261.5
703.767	261.42
704.172	258.19
704.577	251.1
704.981	251.23
705.386	250.63
705.791	246.73
706.195	248.06
706.6	245.86
707.004	247.22
707.408	241.48
707.813	243
708.217	240.56
708.621	240.19
709.025	244.92
709.43	246.03
709.834	248.96
710.237	252.95
710.641	251.22
711.045	252.26
711.449	253.38
711.853	260.61
712.256	260.86
712.66	261.32
713.064	264.63
713.467	267.85
713.87	272.73
714.274	273.86
714.677	278.62
715.08	287.78
715.484	296.12
715.887	309.86
716.29	313.68
716.693	326.42
717.096	340.68
717.499	345.47
717.901	344.8
718.304	343.55
718.707	343.13
