Data from N_1_DEC_VA_2N_Splice17_11-18-31-470.txt Node
Date: Sat Mar 14 11:18:31 EDT 2020
User: sa697716
Spectrometer: FLMS03696
Trigger mode: 0
Integration Time (sec): 3.180400E-1
Scans to average: 20
Electric dark correction enabled: true
Nonlinearity correction enabled: true
Boxcar width: 5
XAxis mode: Wavelengths
Number of Pixels in Spectrum: 2048
>>>>>Begin Spectral Data<<<<<
187.83	-49402.59
188.298	449.28
188.766	307.85
189.233	245.01
189.701	250.03
190.169	360.46
190.636	107.17
191.104	30.52
191.571	-73.14
192.039	-101.13
192.506	-154.87
192.974	155.93
193.441	-22.48
193.908	51.46
194.375	-13.88
194.842	-77.93
195.31	-145.12
195.777	41.21
196.244	106.29
196.711	75.78
197.177	104.36
197.644	83.1
198.111	141.01
198.578	164.27
199.045	156.14
199.511	282.12
199.978	317.73
200.445	292.67
200.911	290.96
201.378	302.31
201.844	316.29
202.31	468.21
202.777	543.36
203.243	322.53
203.709	289.51
204.176	358.45
204.642	280.73
205.108	256.33
205.574	231.98
206.04	191.78
206.506	163.58
206.972	124.66
207.438	118.26
207.903	132.78
208.369	135.71
208.835	163.18
209.301	157.32
209.766	155.29
210.232	162.26
210.697	178.5
211.163	212.73
211.628	331.46
212.094	317.74
212.559	454.52
213.024	302.83
213.49	363.24
213.955	318.01
214.42	299.05
214.885	287.1
215.35	265.52
215.815	294.47
216.28	310.12
216.745	256.44
217.21	278.67
217.675	222.43
218.14	220.46
218.604	220.02
219.069	251.93
219.534	268.68
219.998	272.45
220.463	310.26
220.927	304.39
221.392	273.86
221.856	250.75
222.32	241.7
222.785	282.55
223.249	332.31
223.713	337.55
224.177	302.54
224.642	318.84
225.106	336.78
225.57	321.69
226.034	277.04
226.497	386.57
226.961	349.86
227.425	432.82
227.889	448.39
228.353	435.11
228.816	787.85
229.28	732.42
229.744	570.24
230.207	421.2
230.671	409.06
231.134	524.15
231.597	642.81
232.061	585.24
232.524	507.6
232.987	358.87
233.45	340.73
233.914	314.63
234.377	291.81
234.84	287.46
235.303	288.43
235.766	310.82
236.229	299.23
236.691	158.34
237.154	157.96
237.617	136.71
238.08	129.92
238.542	120.9
239.005	87.76
239.468	93.93
239.93	85.74
240.393	95.77
240.855	87.58
241.317	88.22
241.78	102.63
242.242	125.3
242.704	170.37
243.166	148.82
243.629	156.04
244.091	186.66
244.553	188.69
245.015	205.6
245.477	239.38
245.939	309.67
246.4	340.86
246.862	288.33
247.324	286.69
247.786	244.72
248.247	286.89
248.709	210.01
249.17	162.42
249.632	233.75
250.093	311.45
250.555	250.71
251.016	195.32
251.477	185.15
251.939	233.17
252.4	219.99
252.861	242.95
253.322	262.38
253.783	285.6
254.244	331.42
254.705	228.14
255.166	164.82
255.627	183.12
256.088	238.18
256.549	281.99
257.009	221.84
257.47	267.64
257.931	227.15
258.391	157.68
258.852	196.74
259.312	219.47
259.773	240.6
260.233	246.15
260.694	220.71
261.154	246.97
261.614	223
262.074	198.7
262.534	218.73
262.994	211.08
263.455	249.93
263.915	199.37
264.374	179.15
264.834	209.73
265.294	196.8
265.754	190.5
266.214	172.03
266.673	145.87
267.133	173.3
267.593	141.09
268.052	176.74
268.512	139.63
268.971	222.18
269.431	263.93
269.89	196.93
270.349	334.89
270.809	409.37
271.268	378.98
271.727	736.18
272.186	504.43
272.645	391.53
273.104	258.42
273.563	429.56
274.022	281.34
274.481	255.08
274.94	211.88
275.399	133.95
275.857	123.37
276.316	150.85
276.775	137.67
277.233	122.78
277.692	144.33
278.15	176.7
278.609	219.38
279.067	177.57
279.525	170.75
279.984	227.49
280.442	243.37
280.9	309.69
281.358	208.38
281.816	201.22
282.274	209.09
282.732	187.31
283.19	172.77
283.648	129.77
284.106	130.33
284.564	122.84
285.021	138.42
285.479	125.86
285.937	80.44
286.394	81.7
286.852	77.8
287.309	65.59
287.767	101.15
288.224	114.29
288.682	116.99
289.139	163.91
289.596	162.95
290.053	151.82
290.511	175.59
290.968	232.8
291.425	305.86
291.882	308.34
292.339	299.01
292.796	248.12
293.252	216.49
293.709	202.23
294.166	182.15
294.623	180.83
295.079	151.09
295.536	178.24
295.992	169.89
296.449	166.87
296.905	169.78
297.362	180.36
297.818	180.28
298.274	198
298.731	181.49
299.187	167.16
299.643	175.71
300.099	238.69
300.555	240.85
301.011	213.87
301.467	253.58
301.923	246.9
302.379	249.51
302.835	236.63
303.291	234.59
303.746	265.2
304.202	305.26
304.658	295.6
305.113	207.19
305.569	203.54
306.024	184.95
306.479	114.68
306.935	117.58
307.39	89.92
307.845	108.7
308.301	127.25
308.756	109.38
309.211	147.66
309.666	147.46
310.121	200.46
310.576	195.29
311.031	184.58
311.486	220.7
311.94	206.5
312.395	256.52
312.85	427.88
313.305	1481.05
313.759	12958.52
314.214	694.4
314.668	632.09
315.123	552.53
315.577	246.52
316.032	233.95
316.486	271.68
316.94	246.94
317.394	196.14
317.849	162.55
318.303	146.22
318.757	131.88
319.211	160.71
319.665	160.89
320.119	171.88
320.572	221.13
321.026	229.31
321.48	188.37
321.934	193.91
322.387	185.52
322.841	205.88
323.295	219.08
323.748	201.74
324.202	215.67
324.655	258.42
325.108	376.18
325.562	291.92
326.015	318.43
326.468	261.57
326.921	307.13
327.374	309.5
327.827	326.62
328.28	356.52
328.733	256.88
329.186	214.34
329.639	183.97
330.092	148.99
330.545	136.23
330.997	148.82
331.45	184.99
331.903	212.94
332.355	313.48
332.808	298.86
333.26	247.35
333.713	282.3
334.165	282.4
334.617	352.68
335.069	207.85
335.522	340.07
335.974	335.44
336.426	209.25
336.878	111.66
337.33	86.91
337.782	86.64
338.234	129.71
338.686	129.86
339.137	164.9
339.589	175.78
340.041	198.27
340.493	167.72
340.944	164.67
341.396	179.45
341.847	183.68
342.299	219.17
342.75	274.5
343.201	214.43
343.653	260.47
344.104	284.88
344.555	232.4
345.006	304.99
345.457	283.66
345.908	239.33
346.359	259.87
346.81	205.88
347.261	214.02
347.712	179.61
348.163	164.74
348.613	224.87
349.064	203.21
349.515	186.59
349.965	195.65
350.416	219.8
350.866	244.21
351.317	220.07
351.767	314.29
352.217	321.44
352.668	345.36
353.118	335.76
353.568	210.78
354.018	227.43
354.468	260.35
354.918	205.37
355.368	161.86
355.818	189.74
356.268	393.52
356.718	2180.13
357.168	681.57
357.617	332.37
358.067	358.14
358.517	317.41
358.966	346.34
359.416	394.14
359.865	353.23
360.315	393.46
360.764	203.62
361.213	159.6
361.663	115.4
362.112	117.85
362.561	133.35
363.01	127.63
363.459	122.76
363.908	117.78
364.357	128.07
364.806	211.3
365.255	170.32
365.703	193.22
366.152	205.5
366.601	167.13
367.05	162.68
367.498	172.62
367.947	164.74
368.395	159.72
368.844	149.21
369.292	123.48
369.74	109.97
370.189	150.13
370.637	142.73
371.085	110.14
371.533	144.89
371.981	104.13
372.429	120.36
372.877	126.43
373.325	121.84
373.773	113.26
374.221	111.3
374.669	125.8
375.116	112.68
375.564	137.62
376.012	168.59
376.459	153.98
376.907	185.66
377.354	187.96
377.801	201.99
378.249	248.47
378.696	281.77
379.143	337.58
379.591	307.47
380.038	477.89
380.485	344.3
380.932	286.41
381.379	313.32
381.826	293.78
382.273	185.77
382.72	129.8
383.166	112.2
383.613	116.89
384.06	103.19
384.506	121.86
384.953	92.4
385.4	78.13
385.846	66.67
386.292	44.57
386.739	23.2
387.185	25.83
387.631	35.17
388.078	54.44
388.524	41.03
388.97	45.43
389.416	40.9
389.862	48.94
390.308	49.16
390.754	63.12
391.2	71.21
391.645	71.07
392.091	96.77
392.537	92.43
392.983	70.61
393.428	87.12
393.874	84.86
394.319	99.87
394.765	110.74
395.21	103.89
395.655	93.86
396.101	87.23
396.546	83.35
396.991	62.74
397.436	60.82
397.881	62.88
398.326	46.04
398.771	47.45
399.216	33.16
399.661	25.05
400.106	34.25
400.551	39.21
400.995	37.5
401.44	37.52
401.885	41.51
402.329	38.93
402.774	39.13
403.218	52.67
403.663	49.92
404.107	56.69
404.551	58.39
404.995	49.78
405.44	43.25
405.884	41.44
406.328	35.72
406.772	29.15
407.216	26.31
407.66	20.68
408.104	9.42
408.547	8.69
408.991	5.43
409.435	4.58
409.879	8.85
410.322	11.15
410.766	13.42
411.209	18.75
411.653	16.52
412.096	19.98
412.54	20.43
412.983	22.13
413.426	26.59
413.869	25.08
414.312	25.63
414.756	20.87
415.199	19.51
415.642	18.82
416.085	19.24
416.527	20.84
416.97	18.54
417.413	18.72
417.856	16.29
418.298	13.73
418.741	13.31
419.184	10.07
419.626	7.03
420.069	6.4
420.511	5.32
420.953	5.55
421.396	5.26
421.838	4.6
422.28	4.54
422.722	6.43
423.164	5.51
423.606	6.17
424.048	6.66
424.49	10.16
424.932	9.37
425.374	9.6
425.816	5.72
426.258	7.84
426.699	9.42
427.141	12.81
427.582	11.14
428.024	8.19
428.465	5.44
428.907	5.83
429.348	5.77
429.789	8.49
430.231	11.59
430.672	12.22
431.113	10.88
431.554	9.96
431.995	7.52
432.436	8.85
432.877	11.04
433.318	15.52
433.759	13.22
434.2	13.18
434.64	9.83
435.081	9.24
435.522	10.48
435.962	9.6
436.403	10.54
436.843	8.63
437.284	7.63
437.724	5.59
438.164	0.4
438.604	1.28
439.045	2.79
439.485	6.34
439.925	5.35
440.365	5.93
440.805	6.46
441.245	6.45
441.685	7.65
442.125	6.29
442.564	6.47
443.004	9.68
443.444	10.35
443.883	9.15
444.323	6.05
444.762	4.01
445.202	1.51
445.641	1.89
446.081	0.88
446.52	0.85
446.959	3.21
447.398	4.65
447.837	3.24
448.276	3.4
448.716	5.52
449.154	4.56
449.593	5.59
450.032	6.24
450.471	4.82
450.91	4.89
451.349	6.27
451.787	4.29
452.226	3.18
452.664	3.29
453.103	2.17
453.541	-0.05
453.98	4.17
454.418	4.35
454.856	6
455.295	6.91
455.733	6.69
456.171	5.01
456.609	8.03
457.047	8.86
457.485	10.25
457.923	12.4
458.361	11.86
458.798	9.87
459.236	9.54
459.674	8.39
460.111	8.23
460.549	8.9
460.987	8.35
461.424	6.47
461.862	6.32
462.299	6.47
462.736	5.76
463.173	6.24
463.611	8.18
464.048	7.82
464.485	8.53
464.922	8.21
465.359	7.48
465.796	13.19
466.233	14.31
466.67	16.18
467.106	16.46
467.543	15.3
467.98	14.41
468.416	12.27
468.853	11.87
469.29	10.7
469.726	10.29
470.162	10.57
470.599	5.92
471.035	4.64
471.471	2.96
471.907	0.69
472.344	1.21
472.78	1.6
473.216	1.36
473.652	2.68
474.088	2.49
474.523	2.33
474.959	1.86
475.395	2.11
475.831	2.36
476.266	3.12
476.702	3.92
477.138	3.83
477.573	4.53
478.008	5.16
478.444	5.11
478.879	6.29
479.314	6.63
479.75	7.36
480.185	7.13
480.62	6.54
481.055	5.86
481.49	6.68
481.925	6.85
482.36	7.13
482.795	5.66
483.229	5.24
483.664	4.93
484.099	4.9
484.534	4.86
484.968	5.3
485.403	5.28
485.837	5.16
486.271	4.2
486.706	3.92
487.14	3.15
487.574	3.72
488.009	3.25
488.443	2.39
488.877	2.94
489.311	1.52
489.745	0.69
490.179	1.36
490.613	2.48
491.046	1.69
491.48	1.79
491.914	2.36
492.348	2.43
492.781	2.84
493.215	2.95
493.648	1.68
494.082	1.99
494.515	2.78
494.948	2.9
495.382	1.64
495.815	2.56
496.248	2.82
496.681	2.13
497.114	1.88
497.547	2.14
497.98	2.76
498.413	4.15
498.846	4.86
499.279	4.41
499.711	3.84
500.144	3.92
500.577	4.79
501.009	3.75
501.442	4.09
501.874	5.06
502.306	4.44
502.739	5.98
503.171	5.9
503.603	5.87
504.036	5.72
504.468	6.34
504.9	6.36
505.332	5.73
505.764	7.54
506.196	7.19
506.627	6.71
507.059	6.93
507.491	4.96
507.923	4.97
508.354	5.03
508.786	4.99
509.217	4.63
509.649	4.97
510.08	4.43
510.512	4.44
510.943	4.92
511.374	5.05
511.805	4.73
512.237	4.94
512.668	4.32
513.099	2.91
513.53	2.93
513.961	3.01
514.391	2.57
514.822	3.7
515.253	3.15
515.684	3.23
516.114	3.47
516.545	4.02
516.975	3.65
517.406	3.22
517.836	3.86
518.267	4.3
518.697	4.51
519.127	4.5
519.558	3.46
519.988	2.71
520.418	1.87
520.848	0.82
521.278	0.42
521.708	16.6
522.138	17.24
522.567	16.43
522.997	16.05
523.427	15.33
523.857	15.47
524.286	15.66
524.716	16.01
525.145	16.7
525.575	17.73
526.004	17.14
526.433	1.56
526.863	1.22
527.292	2.89
527.721	3.16
528.15	2.97
528.579	3.41
529.008	3.49
529.437	3.03
529.866	2.73
530.295	1.46
530.724	2.04
531.152	2.03
531.581	2.95
532.01	2.74
532.438	1.99
532.867	2.19
533.295	1.96
533.723	2.12
534.152	2.3
534.58	2.81
535.008	3.92
535.436	4.73
535.865	4.27
536.293	3.11
536.721	2.94
537.149	3.53
537.576	4.37
538.004	4.47
538.432	3.85
538.86	4.04
539.287	3.27
539.715	3.08
540.143	2.71
540.57	3.32
540.998	3.5
541.425	4.36
541.852	4.25
542.28	3.8
542.707	3.52
543.134	3.86
543.561	4.11
543.988	4.8
544.415	4.54
544.842	3.8
545.269	3.94
545.696	4.67
546.123	4.49
546.549	5.24
546.976	5.67
547.403	5.65
547.829	5.13
548.256	4.56
548.682	4.13
549.108	4.89
549.535	5.4
549.961	4.81
550.387	4.21
550.813	4.63
551.24	4.55
551.666	3.74
552.092	3.35
552.518	3.5
552.943	4.45
553.369	4.55
553.795	3.9
554.221	3.78
554.646	3.7
555.072	4.3
555.498	2.85
555.923	1.67
556.349	1.72
556.774	1.89
557.199	1.75
557.625	1.03
558.05	1.38
558.475	1.1
558.9	1.31
559.325	2.11
559.75	2.26
560.175	2.78
560.6	3.33
561.025	2.95
561.449	3.17
561.874	2.83
562.299	3.29
562.723	2.71
563.148	3.03
563.572	2.83
563.997	2.09
564.421	1.47
564.846	0.49
565.27	0.48
565.694	1.04
566.118	1.29
566.542	2.16
566.966	1.9
567.39	2.15
567.814	2.29
568.238	2.17
568.662	1.96
569.086	1.91
569.509	2.78
569.933	3.78
570.357	3.34
570.78	2.91
571.204	3.78
571.627	3.77
572.05	3.84
572.474	4.49
572.897	4.62
573.32	5.36
573.743	5.03
574.166	5.09
574.589	4.14
575.012	4.32
575.435	3.88
575.858	3.08
576.281	3.22
576.704	3.11
577.126	2.23
577.549	1.87
577.972	1.23
578.394	1.62
578.817	2.86
579.239	3.14
579.661	3.9
580.084	5.33
580.506	5.44
580.928	4.92
581.35	4.97
581.772	5.13
582.194	5.47
582.616	5.11
583.038	4.59
583.46	3.52
583.882	3.45
584.303	2.43
584.725	1.37
585.147	4.52
585.568	5.23
585.99	5.3
586.411	5.47
586.833	5.81
587.254	6.77
587.675	6.66
588.096	6.34
588.518	6.13
588.939	6.62
589.36	7.42
589.781	3.39
590.202	4.93
590.623	4.61
591.043	4.09
591.464	3.77
591.885	3.51
592.305	3.25
592.726	3.18
593.147	3.7
593.567	3.81
593.987	3.36
594.408	3.47
594.828	1.53
595.248	2.27
595.669	3.33
596.089	3
596.509	2.54
596.929	2.85
597.349	3.44
597.769	2.94
598.189	2.96
598.608	3.03
599.028	3
599.448	2.73
599.867	2.47
600.287	1.75
600.706	2.18
601.126	2.74
601.545	3.33
601.965	3
602.384	3.06
602.803	2.39
603.222	2.47
603.641	2.04
604.061	2.82
604.48	2.93
604.898	2.96
605.317	3.04
605.736	2.53
606.155	2.66
606.574	2.6
606.992	2.72
607.411	3.19
607.829	2.32
608.248	2.63
608.666	2.2
609.085	2
609.503	1.81
609.921	2.14
610.339	2.56
610.758	2.49
611.176	2.18
611.594	2.43
612.012	3.05
612.43	4.25
612.847	4.86
613.265	5.44
613.683	5.43
614.101	5.22
614.518	4.62
614.936	4.08
615.353	4.63
615.771	5.2
616.188	4.91
616.606	4.5
617.023	4.53
617.44	4.35
617.857	3.34
618.274	3.54
618.691	3.93
619.108	4.08
619.525	4.42
619.942	3.55
620.359	3.29
620.776	3.37
621.192	3.93
621.609	3.96
622.026	4.08
622.442	4.32
622.859	3.51
623.275	3.8
623.691	3.84
624.108	4.28
624.524	4.6
624.94	4.65
625.356	4.29
625.772	3.8
626.188	3.07
626.604	2.85
627.02	2.9
627.436	3.79
627.852	4.61
628.268	4.45
628.683	3.36
629.099	2.75
629.514	2.55
629.93	3.01
630.345	2.56
630.761	2.52
631.176	2.01
631.591	3.06
632.007	3.55
632.422	1.96
632.837	1.32
633.252	3
633.667	3.15
634.082	3.79
634.497	3.97
634.911	5.05
635.326	5.34
635.741	6.52
636.155	5.82
636.57	5.37
636.984	5.81
637.399	6.97
637.813	6.02
638.228	5.51
638.642	4.34
639.056	4.07
639.47	3.23
639.884	3.03
640.298	2.61
640.712	3.52
641.126	3.6
641.54	3.6
641.954	2.28
642.368	2.34
642.781	5.37
643.195	6.22
643.609	6.39
644.022	6.48
644.436	5.95
644.849	4.96
645.262	3.97
645.676	3.32
646.089	3.48
646.502	4.77
646.915	4.49
647.328	2.95
647.741	3.17
648.154	3.71
648.567	5.53
648.98	6.66
649.393	7.42
649.805	7.23
650.218	7
650.631	6.75
651.043	6.34
651.456	7.11
651.868	7.09
652.28	5.92
652.693	4.79
653.105	3.11
653.517	2.62
653.929	2.9
654.341	3.68
654.753	4.84
655.165	5.56
655.577	5.83
655.989	4.94
656.401	3.56
656.813	5.64
657.224	5.72
657.636	6.05
658.047	6.92
658.459	6.96
658.87	5.43
659.282	4.9
659.693	5.02
660.104	5.24
660.515	5.68
660.926	6.06
661.338	5.55
661.749	5.11
662.159	5.46
662.57	3.65
662.981	3.65
663.392	4.8
663.803	4.87
664.213	4.06
664.624	3.78
665.035	3.54
665.445	3.45
665.855	3.51
666.266	5.49
666.676	5.25
667.086	6.17
667.497	6.66
667.907	6.74
668.317	6.53
668.727	9.29
669.137	8.23
669.547	8.14
669.956	7.95
670.366	7.8
670.776	7.56
671.186	7.06
671.595	6.74
672.005	5.08
672.414	5.43
672.824	6.33
673.233	4.18
673.642	5.07
674.052	5.35
674.461	6.75
674.87	6.44
675.279	6.33
675.688	5.18
676.097	6.8
676.506	7.82
676.915	6.56
677.323	6.5
677.732	5.99
678.141	6.16
678.549	6.21
678.958	4.92
679.366	3.68
679.775	3.25
680.183	5.68
680.592	4.69
681	4.3
681.408	5.01
681.816	4.5
682.224	4.51
682.632	5.37
683.04	5.25
683.448	5.01
683.856	7.53
684.264	8.46
684.671	7.21
685.079	7.83
685.487	8.05
685.894	7.95
686.302	7.3
686.709	8.07
687.116	7.69
687.524	8.79
687.931	10.6
688.338	8.78
688.745	7.42
689.152	7.15
689.559	6.96
689.966	8.33
690.373	9.01
690.78	10.69
691.187	11.8
691.593	12.16
692	11.07
692.407	11.86
692.813	14.27
693.22	14.98
693.626	14.99
694.032	15.06
694.439	15.15
694.845	15.58
695.251	14.68
695.657	13.94
696.063	12.87
696.469	13.04
696.875	12.33
697.281	11.09
697.687	10.51
698.093	10.58
698.498	10.72
698.904	9.27
699.31	8.89
699.715	10.11
700.12	9.68
700.526	9.83
700.931	9.5
701.337	9.39
701.742	10.53
702.147	10.45
702.552	10.43
702.957	9.35
703.362	10.07
703.767	9.84
704.172	9.22
704.577	8.93
704.981	8.63
705.386	8.52
705.791	8.61
706.195	6.71
706.6	6.5
707.004	5.46
707.408	5.12
707.813	5.56
708.217	5.87
708.621	5.54
709.025	4.79
709.43	6.59
709.834	7.31
710.237	6.98
710.641	8.3
711.045	9.67
711.449	11.35
711.853	14.4
712.256	13.19
712.66	11.93
713.064	11.41
713.467	12.71
713.87	11.59
714.274	12.76
714.677	12.66
715.08	12.33
715.484	11.44
715.887	14.25
716.29	12.03
716.693	14.02
717.096	15.79
717.499	17.62
717.901	17.04
718.304	17.84
718.707	15.04
719.109	14.87
719.512	13.69
719.915	15.18
720.317	12.64
720.719	11.61
721.122	10.57
721.524	10.95
721.926	13.59
722.328	14.37
722.731	13.91
723.133	15.12
723.535	14.44
723.937	14.88
724.338	15.45
724.74	15.8
725.142	53.35
725.544	56.59
725.945	65.23
726.347	62.7
726.748	62.25
727.15	62.99
727.551	66.13
727.952	65.57
728.354	64.25
728.755	63.77
729.156	63.33
729.557	26.84
729.958	23.16
730.359	14.55
730.76	13.01
731.161	13
731.562	11.98
731.962	9.47
732.363	10.12
732.763	10.76
733.164	7.87
733.564	8.27
733.965	9.67
734.365	10.46
734.766	10.6
735.166	10.76
735.566	12.01
735.966	12.07
736.366	11.71
736.766	12.51
737.166	12.15
737.566	13.95
737.966	12.89
738.365	13.39
738.765	14.04
739.165	13.39
739.564	13.51
739.964	11.73
740.363	11.31
740.763	10.06
741.162	10.59
741.561	11.16
741.96	9.86
742.36	8.81
742.759	7.97
743.158	6.31
743.557	6.88
743.955	6.93
744.354	7.55
744.753	7.29
745.152	8.63
745.55	6.43
745.949	5.54
746.348	5.63
746.746	4.94
747.144	6.88
747.543	6.53
747.941	4.88
748.339	5.06
748.737	4.95
749.136	6.02
749.534	4.79
749.932	7.36
750.33	7.43
750.727	7.29
751.125	8.96
751.523	7.9
751.921	10.05
752.318	10.64
752.716	11.57
753.113	11.23
753.511	10.96
753.908	11.66
754.305	14.22
754.703	14.44
755.1	15.33
755.497	14.89
755.894	13.93
756.291	13.12
756.688	14.34
757.085	14.11
757.482	16.07
757.878	18.11
758.275	20.47
758.672	15.2
759.068	16.59
759.465	16.74
759.861	18.59
760.258	19.81
760.654	19.07
761.05	20.86
761.447	18
761.843	16.43
762.239	13.23
762.635	11.45
763.031	11.17
763.427	11.53
763.822	12.3
764.218	9.85
764.614	10.5
765.01	10.54
765.405	8.44
765.801	10.85
766.196	9.67
766.592	9.83
766.987	9.97
767.382	8.93
767.778	8.21
768.173	8.28
768.568	9.51
768.963	10.09
