Data from N_1_HIR_IL_4N_Splice17_11-26-59-009.txt Node
Date: Sat Mar 14 11:26:59 EDT 2020
User: sa697716
Spectrometer: FLMS03696
Trigger mode: 0
Integration Time (sec): 3.180400E-1
Scans to average: 20
Electric dark correction enabled: true
Nonlinearity correction enabled: true
Boxcar width: 5
XAxis mode: Wavelengths
Number of Pixels in Spectrum: 2048
>>>>>Begin Spectral Data<<<<<
187.83	-145234.64
188.298	968.96
188.766	580.4
189.233	503.41
189.701	685.03
190.169	971.97
190.636	347.37
191.104	315.86
191.571	63.14
192.039	-12.17
192.506	-25.09
192.974	215.77
193.441	-640.18
193.908	-138.61
194.375	-48.85
194.842	-22.49
195.31	-3.05
195.777	73.87
196.244	168.19
196.711	164.16
197.177	175.31
197.644	208.33
198.111	330.77
198.578	468
199.045	348.58
199.511	546.73
199.978	589.42
200.445	537.58
200.911	581.45
201.378	639.6
201.844	597.31
202.31	1030.92
202.777	1086.57
203.243	592.88
203.709	554.71
204.176	689.07
204.642	570.94
205.108	546.58
205.574	447.62
206.04	377.23
206.506	352.67
206.972	312.7
207.438	281.23
207.903	318.67
208.369	307.59
208.835	325.32
209.301	321.08
209.766	310.14
210.232	300.82
210.697	346.49
211.163	441.59
211.628	613.93
212.094	521.29
212.559	706.7
213.024	436.32
213.49	531.36
213.955	481.56
214.42	469.3
214.885	434.29
215.35	413.53
215.815	434.03
216.28	454.98
216.745	365.26
217.21	395.79
217.675	315.19
218.14	332.44
218.604	311.69
219.069	327.71
219.534	339.93
219.998	362.49
220.463	401.93
220.927	388.69
221.392	330.3
221.856	314.39
222.32	332.26
222.785	397.42
223.249	453.99
223.713	488.46
224.177	483.33
224.642	489.29
225.106	547.81
225.57	548.61
226.034	452.46
226.497	653.43
226.961	581.41
227.425	664.36
227.889	706.99
228.353	716.33
228.816	1307.84
229.28	1200.23
229.744	1013.68
230.207	674.04
230.671	661.16
231.134	918.58
231.597	1077.27
232.061	1021.82
232.524	877.9
232.987	596.29
233.45	536.91
233.914	513.55
234.377	475.67
234.84	426.96
235.303	436.44
235.766	501.52
236.229	528.57
236.691	313.86
237.154	341.41
237.617	293.59
238.08	286.59
238.542	308.35
239.005	238.13
239.468	250.4
239.93	252.47
240.393	243.4
240.855	199.61
241.317	193.32
241.78	201.2
242.242	222.28
242.704	256.28
243.166	233.69
243.629	223.61
244.091	236.82
244.553	251.91
245.015	279.32
245.477	343.66
245.939	506.56
246.4	569.55
246.862	585.58
247.324	530.97
247.786	536.21
248.247	628.92
248.709	573.01
249.17	455.18
249.632	481.97
250.093	569.87
250.555	488.71
251.016	323.73
251.477	297.37
251.939	314.19
252.4	323.47
252.861	378.78
253.322	380.68
253.783	433.67
254.244	530.86
254.705	392.44
255.166	332.58
255.627	326.59
256.088	441.03
256.549	469.48
257.009	419.64
257.47	492.96
257.931	370.52
258.391	270.92
258.852	298.01
259.312	329.69
259.773	393.62
260.233	360.92
260.694	322.96
261.154	376.63
261.614	353.37
262.074	313.81
262.534	339.68
262.994	343.73
263.455	447.13
263.915	396.48
264.374	350.96
264.834	384.19
265.294	405.37
265.754	419.71
266.214	373.06
266.673	321.46
267.133	370.16
267.593	342.86
268.052	419.57
268.512	339.41
268.971	430.16
269.431	481.03
269.89	426.89
270.349	618.81
270.809	711.88
271.268	677.83
271.727	1373.23
272.186	938.94
272.645	719.51
273.104	475.64
273.563	720.46
274.022	482.41
274.481	444.01
274.94	351.36
275.399	250.17
275.857	244.29
276.316	313.97
276.775	281.5
277.233	263.31
277.692	267.9
278.15	325.88
278.609	381.73
279.067	355.79
279.525	348.17
279.984	429.29
280.442	545.04
280.9	632.97
281.358	395.5
281.816	384.11
282.274	399.35
282.732	386.77
283.19	381.61
283.648	307.74
284.106	322.69
284.564	302.48
285.021	306.59
285.479	233.69
285.937	179.5
286.394	182.61
286.852	185.1
287.309	191.42
287.767	230.4
288.224	228.95
288.682	244.27
289.139	275.71
289.596	267.82
290.053	258.07
290.511	284.95
290.968	372.13
291.425	458.37
291.882	432.95
292.339	391.6
292.796	329.23
293.252	318.56
293.709	287.74
294.166	262.49
294.623	260.13
295.079	244.26
295.536	272.85
295.992	258.58
296.449	266.15
296.905	282.37
297.362	299.88
297.818	320.77
298.274	334.78
298.731	321.05
299.187	309.75
299.643	340.47
300.099	411.13
300.555	439.91
301.011	380.9
301.467	411.41
301.923	438.36
302.379	401.74
302.835	390.5
303.291	390.41
303.746	433.53
304.202	561.83
304.658	562.17
305.113	400.56
305.569	401.26
306.024	382.89
306.479	302.76
306.935	273.35
307.39	289.33
307.845	274.55
308.301	300.89
308.756	296.8
309.211	303.43
309.666	305.13
310.121	401.69
310.576	412.83
311.031	413.62
311.486	462.3
311.94	415.67
312.395	523.05
312.85	904.57
313.305	3431.07
313.759	21839.34
314.214	1453.04
314.668	1264.12
315.123	1064.3
315.577	387.08
316.032	362.39
316.486	457.52
316.94	416.88
317.394	319.3
317.849	257.35
318.303	235.92
318.757	199.25
319.211	233.79
319.665	194.16
320.119	201.46
320.572	263.38
321.026	261.02
321.48	212.07
321.934	193.59
322.387	185.1
322.841	218.89
323.295	250.06
323.748	279.33
324.202	275.56
324.655	349.36
325.108	532.89
325.562	400.25
326.015	447.78
326.468	361.48
326.921	445.6
327.374	444.36
327.827	436.28
328.28	477.08
328.733	347.6
329.186	311.49
329.639	302.37
330.092	231.86
330.545	240.34
330.997	246.44
331.45	290.16
331.903	345.41
332.355	529.82
332.808	525.45
333.26	421.85
333.713	461.1
334.165	459.81
334.617	579.43
335.069	418.83
335.522	678.13
335.974	753.5
336.426	589.65
336.878	357.52
337.33	201.14
337.782	211.68
338.234	284.64
338.686	321.97
339.137	369.01
339.589	371.36
340.041	322.67
340.493	291.13
340.944	297.89
341.396	334.55
341.847	323.11
342.299	430.05
342.75	550.01
343.201	447.17
343.653	511.53
344.104	623.79
344.555	485.91
345.006	686.28
345.457	577.25
345.908	458.12
346.359	439.8
346.81	345.04
347.261	318.73
347.712	283.39
348.163	293.44
348.613	320.79
349.064	290.6
349.515	226.95
349.965	260.23
350.416	270.22
350.866	273.81
351.317	317.81
351.767	522.17
352.217	662.39
352.668	568.36
353.118	546.75
353.568	430.19
354.018	385.77
354.468	493.04
354.918	371.27
355.368	333.59
355.818	469.73
356.268	1187.68
356.718	5032.72
357.168	1294.51
357.617	616.29
358.067	665.9
358.517	709.63
358.966	924.21
359.416	1067.54
359.865	1097.61
360.315	1274.12
360.764	632.42
361.213	369.1
361.663	323.89
362.112	379.78
362.561	614.49
363.01	463.95
363.459	377.04
363.908	353.3
364.357	337.12
364.806	524.11
365.255	366.54
365.703	377.86
366.152	419.15
366.601	354.7
367.05	326.92
367.498	318
367.947	324.23
368.395	325.93
368.844	298.49
369.292	304.72
369.74	239.16
370.189	347.17
370.637	380.93
371.085	314.63
371.533	354.76
371.981	301.97
372.429	281.7
372.877	286.48
373.325	247.46
373.773	232.25
374.221	218.36
374.669	228.53
375.116	193.2
375.564	188.74
376.012	190.51
376.459	178.36
376.907	189.61
377.354	204.91
377.801	224.97
378.249	287.72
378.696	375.75
379.143	408.27
379.591	474.92
380.038	791.41
380.485	645.66
380.932	681.89
381.379	663.04
381.826	591.33
382.273	423.95
382.72	350.37
383.166	347.71
383.613	233.54
384.06	220.84
384.506	268.02
384.953	198.8
385.4	183.95
385.846	170.99
386.292	160.86
386.739	143.85
387.185	136.64
387.631	146.66
388.078	158.64
388.524	175.51
388.97	172.17
389.416	150.56
389.862	167.1
390.308	166.16
390.754	173.32
391.2	189.6
391.645	196.98
392.091	224.54
392.537	231.17
392.983	215.81
393.428	241.72
393.874	256.31
394.319	267.83
394.765	274.2
395.21	277.62
395.655	267.61
396.101	261.52
396.546	247.98
396.991	242.78
397.436	233.12
397.881	231.39
398.326	218.22
398.771	217.42
399.216	196.52
399.661	183.35
400.106	200.07
400.551	214.63
400.995	203.17
401.44	207.95
401.885	204.21
402.329	209.9
402.774	213.48
403.218	216.17
403.663	213.11
404.107	223.74
404.551	232.74
404.995	215.27
405.44	210.21
405.884	215.23
406.328	206.29
406.772	205.26
407.216	189.89
407.66	183.71
408.104	173.94
408.547	167.77
408.991	167.03
409.435	161.99
409.879	165.52
410.322	169.56
410.766	168.47
411.209	168.94
411.653	166.4
412.096	169.63
412.54	171.32
412.983	172.23
413.426	179.9
413.869	178.27
414.312	180.29
414.756	174.71
415.199	167.83
415.642	166.68
416.085	168.38
416.527	171.06
416.97	172.53
417.413	169.43
417.856	169.37
418.298	168.19
418.741	168.18
419.184	165.33
419.626	167.41
420.069	166.91
420.511	168.11
420.953	167.26
421.396	166.61
421.838	162.78
422.28	165.46
422.722	166.57
423.164	166.24
423.606	167.33
424.048	168.58
424.49	165.34
424.932	165.31
425.374	162.91
425.816	165.88
426.258	166.42
426.699	165.85
427.141	162.65
427.582	161.1
428.024	158.75
428.465	153.72
428.907	152.48
429.348	152.46
429.789	157.41
430.231	158.89
430.672	163.01
431.113	162.7
431.554	166.59
431.995	167.92
432.436	172.24
432.877	175.41
433.318	181.42
433.759	182.28
434.2	186.43
434.64	185.51
435.081	186.89
435.522	179.6
435.962	176.06
436.403	176.36
436.843	179.26
437.284	174.43
437.724	169.94
438.164	167.92
438.604	166.19
439.045	163.08
439.485	160.96
439.925	160.38
440.365	158.24
440.805	158.55
441.245	157.97
441.685	154.04
442.125	153.52
442.564	154.39
443.004	153.16
443.444	154.21
443.883	156.49
444.323	153.46
444.762	152.4
445.202	155.24
445.641	159.35
446.081	157.66
446.52	161.16
446.959	163.29
447.398	163.5
447.837	163.99
448.276	162.6
448.716	165.16
449.154	167.11
449.593	165.61
450.032	165.23
450.471	160.9
450.91	161.8
451.349	162.09
451.787	161.5
452.226	162.78
452.664	161.99
453.103	163.48
453.541	162.43
453.98	164.71
454.418	166.84
454.856	166.55
455.295	167.24
455.733	168.88
456.171	168.76
456.609	168.49
457.047	168.1
457.485	171.27
457.923	170.77
458.361	166.18
458.798	165.62
459.236	164.79
459.674	163.76
460.111	165.17
460.549	163.99
460.987	163.48
461.424	162.52
461.862	162.97
462.299	161.25
462.736	161.89
463.173	164.38
463.611	164.45
464.048	165.07
464.485	167.45
464.922	165.82
465.359	165.09
465.796	167.93
466.233	169.22
466.67	170.24
467.106	171.91
467.543	171
467.98	170.6
468.416	167.46
468.853	166.44
469.29	163.33
469.726	163.5
470.162	161.1
470.599	157.95
471.035	157.11
471.471	153.39
471.907	151.62
472.344	151.62
472.78	152.8
473.216	154.51
473.652	153.72
474.088	153.15
474.523	153.54
474.959	155.05
475.395	153.49
475.831	153.14
476.266	153.86
476.702	153.51
477.138	152.33
477.573	152.08
478.008	152.48
478.444	154.39
478.879	156.44
479.314	157.17
479.75	157.2
480.185	157.43
480.62	157.51
481.055	157.97
481.49	159.3
481.925	160.82
482.36	161.51
482.795	161.43
483.229	161.49
483.664	161.86
484.099	158.61
484.534	158.89
484.968	158.9
485.403	158.06
485.837	155.76
486.271	154.13
486.706	153.3
487.14	151.28
487.574	150.83
488.009	150.04
488.443	149.01
488.877	151.38
489.311	151.49
489.745	152.98
490.179	154.56
490.613	159.52
491.046	160.19
491.48	161.49
491.914	162.26
492.348	163.12
492.781	164.79
493.215	165.83
493.648	166.49
494.082	168.62
494.515	169.28
494.948	171.73
495.382	170.89
495.815	172.66
496.248	173.78
496.681	176.15
497.114	178.53
497.547	179.9
497.98	182.57
498.413	184.05
498.846	185.42
499.279	186.52
499.711	186.56
500.144	187.29
500.577	189.55
501.009	191.09
501.442	193.23
501.874	193.75
502.306	194.94
502.739	198.58
503.171	202.89
503.603	204.68
504.036	207.7
504.468	209.48
504.9	212.02
505.332	213.49
505.764	215.66
506.196	218.01
506.627	221.99
507.059	225.1
507.491	226.12
507.923	225.55
508.354	229.66
508.786	232.4
509.217	237.1
509.649	241.14
510.08	245.47
510.512	248.34
510.943	250.99
511.374	253.84
511.805	258.02
512.237	261.67
512.668	267.78
513.099	270.97
513.53	274.64
513.961	276.34
514.391	279.62
514.822	284.64
515.253	290.93
515.684	294.6
516.114	298.86
516.545	303.38
516.975	308.89
517.406	312.79
517.836	315.53
518.267	319.25
518.697	326.28
519.127	330.59
519.558	334.71
519.988	337.82
520.418	342.26
520.848	348.08
521.278	351.31
521.708	374.22
522.138	379.35
522.567	386.29
522.997	391.16
523.427	392.85
523.857	394.99
524.286	395.07
524.716	397.65
525.145	402.47
525.575	405.65
526.004	408.77
526.433	389.74
526.863	389.04
527.292	388.58
527.721	392.31
528.15	396.58
528.579	400.07
529.008	404.89
529.437	410.36
529.866	412.58
530.295	414.8
530.724	417.24
531.152	422.03
531.581	424.88
532.01	427.84
532.438	428.45
532.867	430.63
533.295	433.29
533.723	433.9
534.152	433.2
534.58	434.31
535.008	431.61
535.436	432.4
535.865	433.46
536.293	434.77
536.721	436.33
537.149	439.62
537.576	437.44
538.004	438.97
538.432	439.39
538.86	438.81
539.287	438.37
539.715	440.04
540.143	439.05
540.57	439.09
540.998	439.46
541.425	436.61
541.852	434.57
542.28	436.21
542.707	433.75
543.134	432.42
543.561	432.9
543.988	432.24
544.415	432.83
544.842	432.05
545.269	431.23
545.696	432.68
546.123	435.57
546.549	433.99
546.976	432.26
547.403	433.61
547.829	434.9
548.256	435.78
548.682	436.27
549.108	436.19
549.535	437.4
549.961	437.98
550.387	435.43
550.813	434.88
551.24	436.4
551.666	436.7
552.092	434.39
552.518	433.18
552.943	432.34
553.369	433.04
553.795	433.13
554.221	432.72
554.646	431.29
555.072	432.61
555.498	431.44
555.923	430.98
556.349	432.13
556.774	431.9
557.199	429.33
557.625	427.95
558.05	426.04
558.475	427.03
558.9	425.28
559.325	423.05
559.75	421.46
560.175	420.12
560.6	417.79
561.025	417.15
561.449	416.6
561.874	416.97
562.299	416.56
562.723	416.08
563.148	411.6
563.572	411.25
563.997	411.34
564.421	410.67
564.846	408.23
565.27	407.83
565.694	404.71
566.118	404.73
566.542	405.81
566.966	402.37
567.39	399.62
567.814	396.32
568.238	393.89
568.662	393.11
569.086	391.21
569.509	391.53
569.933	388.63
570.357	387.31
570.78	383.19
571.204	379.66
571.627	377.59
572.05	377.49
572.474	377.56
572.897	375.57
573.32	374.41
573.743	372.19
574.166	368.87
574.589	367.18
575.012	364.92
575.435	363.1
575.858	360.64
576.281	358.66
576.704	354.58
577.126	351.83
577.549	349.39
577.972	346.91
578.394	345.49
578.817	345.51
579.239	342.93
579.661	340.96
580.084	340.22
580.506	338.39
580.928	338.27
581.35	337.62
581.772	337.73
582.194	335.02
582.616	331.86
583.038	327.9
583.46	323.53
583.882	322.23
584.303	321.27
584.725	318.23
585.147	318.9
585.568	318.06
585.99	316.68
586.411	313.5
586.833	313.53
587.254	310.72
587.675	311.09
588.096	311.54
588.518	307.53
588.939	302.98
589.36	301.29
589.781	295.54
590.202	291.47
590.623	290.45
591.043	290.49
591.464	288.64
591.885	289.07
592.305	287.13
592.726	284.04
593.147	284.59
593.567	283.54
593.987	281.94
594.408	280.33
594.828	278.28
595.248	277.19
595.669	275.17
596.089	273.62
596.509	271.56
596.929	269.3
597.349	269.61
597.769	266.68
598.189	265
598.608	264.38
599.028	264.35
599.448	263.69
599.867	260.72
600.287	258.84
600.706	257.85
601.126	257.05
601.545	257.7
601.965	256.5
602.384	255.68
602.803	256.17
603.222	255.42
603.641	253.77
604.061	253.01
604.48	251.76
604.898	252.39
605.317	252.61
605.736	251.39
606.155	249.32
606.574	247.26
606.992	246.78
607.411	244.65
607.829	241.19
608.248	239.6
608.666	237.48
609.085	236.02
609.503	233.45
609.921	231.66
610.339	230.68
610.758	229.48
611.176	227.33
611.594	225.4
612.012	223.59
612.43	224.67
612.847	224.86
613.265	225.1
613.683	224.89
614.101	224.65
614.518	222.39
614.936	221.2
615.353	218.37
615.771	217.82
616.188	217.83
616.606	217.45
617.023	215.83
617.44	213.88
617.857	212.1
618.274	210.86
618.691	209.94
619.108	208
619.525	205.85
619.942	206.24
620.359	206.17
620.776	204.22
621.192	202.7
621.609	201.31
622.026	201.3
622.442	201.5
622.859	200.34
623.275	197.42
623.691	197.89
624.108	198.77
624.524	199.62
624.94	197.65
625.356	197.93
625.772	198.52
626.188	198.88
626.604	197.8
627.02	195.73
627.436	194.97
627.852	196.36
628.268	197.91
628.683	195.64
629.099	194.68
629.514	194.32
629.93	194.16
630.345	194.76
630.761	193.21
631.176	193.3
631.591	193.88
632.007	193.41
632.422	191.54
632.837	189.27
633.252	189.85
633.667	188.48
634.082	187.06
634.497	186.34
634.911	184.97
635.326	185.26
635.741	183.4
636.155	180.7
636.57	181.51
636.984	182.09
637.399	183.13
637.813	181.96
638.228	181.26
638.642	182.38
639.056	180.01
639.47	178.47
639.884	176.8
640.298	175.39
640.712	175.91
641.126	173.38
641.54	172.04
641.954	169.35
642.368	168.35
642.781	168.43
643.195	165.24
643.609	165.17
644.022	163.71
644.436	162.22
644.849	159.92
645.262	156.43
645.676	155.28
646.089	153.9
646.502	152.66
646.915	150.23
647.328	147.09
647.741	146.17
648.154	144.15
648.567	145.12
648.98	143.65
649.393	143.84
649.805	144.57
650.218	144.52
650.631	143.06
651.043	142.82
651.456	142.53
651.868	141.13
652.28	142.68
652.693	142.81
653.105	141.19
653.517	141.06
653.929	139.85
654.341	138.72
654.753	135.73
655.165	135.28
655.577	133.51
655.989	133.23
656.401	131.98
656.813	128.44
657.224	127.32
657.636	124.76
658.047	124.42
658.459	123.46
658.87	122.62
659.282	121.5
659.693	120.06
660.104	119.07
660.515	116.55
660.926	115.92
661.338	115.21
661.749	114.21
662.159	113.16
662.57	111.42
662.981	110.7
663.392	109.55
663.803	109.89
664.213	108.42
664.624	106.62
665.035	106.94
665.445	104.81
665.855	104.74
666.266	104.44
666.676	103.71
667.086	101.34
667.497	100.35
667.907	100.2
668.317	98.51
668.727	99.7
669.137	99.06
669.547	98.16
669.956	97.41
670.366	96.36
670.776	95.76
671.186	95.3
671.595	96.76
672.005	96.54
672.414	95.88
672.824	95.97
673.233	94.4
673.642	94.52
674.052	94.67
674.461	96.37
674.87	96.42
675.279	96.16
675.688	95.29
676.097	94.91
676.506	94.17
676.915	94.76
677.323	94.59
677.732	92.9
678.141	92.28
678.549	90.89
678.958	90.07
679.366	88.86
679.775	87.66
680.183	90.42
680.592	90.43
681	90.98
681.408	89.87
681.816	90.44
682.224	92.34
682.632	94.61
683.04	97.64
683.448	98.7
683.856	101.54
684.264	104.44
684.671	104.4
685.079	106.57
685.487	109.36
685.894	113.24
686.302	114.86
686.709	116.44
687.116	117.77
687.524	121.46
687.931	125.68
688.338	129.07
688.745	130.08
689.152	132.7
689.559	136.49
689.966	140.78
690.373	143.4
690.78	147.7
691.187	152.9
691.593	156.75
692	157.99
692.407	161.85
692.813	168.52
693.22	174.96
693.626	179.43
694.032	183.7
694.439	189.51
694.845	192.81
695.251	198.42
695.657	203.79
696.063	210.59
696.469	215.89
696.875	220.59
697.281	220.16
697.687	221.43
698.093	222.84
698.498	228.26
698.904	230.63
699.31	236.7
699.715	242.3
700.12	249.29
700.526	250.92
700.931	255.63
701.337	260.06
701.742	265.59
702.147	272.8
702.552	277.47
702.957	282.06
703.362	285.08
703.767	288.72
704.172	291.5
704.577	287.35
704.981	291.35
705.386	294.06
705.791	294.69
706.195	299.65
706.6	301.21
707.004	307.29
707.408	304.67
707.813	307.86
708.217	308.76
708.621	309.48
709.025	317.42
709.43	319.31
709.834	325.44
710.237	332
710.641	331.45
711.045	334.12
711.449	335.86
711.853	341.45
712.256	343.54
712.66	345.4
713.064	350.18
713.467	352.45
713.87	357.1
714.274	355.16
714.677	356.47
715.08	360.82
715.484	364.56
715.887	369.33
716.29	369.89
716.693	374.55
717.096	380.63
717.499	380.15
717.901	374.59
718.304	375.59
718.707	380.1
719.109	378.79
719.512	382.52
719.915	380.81
720.317	382.03
720.719	389.53
721.122	390.81
721.524	390.76
721.926	394.1
722.328	403.17
722.731	399.44
723.133	398.23
723.535	406.69
723.937	405.01
724.338	405.84
724.74	407.34
725.142	437.58
725.544	441.2
725.945	451.38
726.347	449.1
726.748	449.36
727.15	453.13
727.551	452.79
727.952	451.61
728.354	448.73
728.755	450.19
729.156	449.01
729.557	417.71
