Data from N_1_DIV_IL_4N_Splice17_11-16-00-089.txt Node
Date: Sat Mar 14 11:16:00 EDT 2020
User: sa697716
Spectrometer: FLMS03696
Trigger mode: 0
Integration Time (sec): 3.180400E-1
Scans to average: 20
Electric dark correction enabled: true
Nonlinearity correction enabled: true
Boxcar width: 5
XAxis mode: Wavelengths
Number of Pixels in Spectrum: 2048
>>>>>Begin Spectral Data<<<<<
187.83	-102939.06
188.298	850.38
188.766	480.11
189.233	425.05
189.701	547.28
190.169	872.46
190.636	319.1
191.104	243.46
191.571	13.03
192.039	-65.35
192.506	-84.46
192.974	248.73
193.441	-240.56
193.908	-55.82
194.375	-0.24
194.842	-1.12
195.31	65.05
195.777	116.65
196.244	151.2
196.711	97.2
197.177	127.98
197.644	157.69
198.111	254.58
198.578	330.74
199.045	262.14
199.511	413.22
199.978	448.68
200.445	390.85
200.911	389.72
201.378	450.5
201.844	450.67
202.31	711.11
202.777	702.33
203.243	421.05
203.709	415.48
204.176	504.42
204.642	409.83
205.108	394.64
205.574	346.82
206.04	310.52
206.506	274.02
206.972	242.05
207.438	240.1
207.903	266.43
208.369	254.41
208.835	265.4
209.301	273.38
209.766	290.78
210.232	292.5
210.697	344
211.163	417.49
211.628	646.18
212.094	573.1
212.559	705.28
213.024	453.99
213.49	544.34
213.955	497.27
214.42	478.59
214.885	419.46
215.35	393.07
215.815	397.67
216.28	409.42
216.745	317.33
217.21	336.69
217.675	285.72
218.14	296.22
218.604	281.21
219.069	289.62
219.534	298.59
219.998	308.94
220.463	337.6
220.927	341.14
221.392	303.83
221.856	296.95
222.32	310.28
222.785	357.32
223.249	417.89
223.713	475.77
224.177	462.07
224.642	499.87
225.106	595.85
225.57	601.88
226.034	461.9
226.497	685.51
226.961	638.69
227.425	769.73
227.889	837.67
228.353	772.13
228.816	1436.9
229.28	1373.55
229.744	1145.65
230.207	693.86
230.671	681.31
231.134	973.83
231.597	1099.72
232.061	992.18
232.524	847.9
232.987	592.59
233.45	558.12
233.914	480.5
234.377	420.99
234.84	388.55
235.303	445.43
235.766	489.93
236.229	507.87
236.691	310.29
237.154	337.72
237.617	269.12
238.08	257.57
238.542	305.21
239.005	230.54
239.468	244.91
239.93	238.59
240.393	228.35
240.855	194.59
241.317	183.49
241.78	190.96
242.242	204.81
242.704	241.15
243.166	216.7
243.629	212.34
244.091	233.59
244.553	268.61
245.015	287.06
245.477	335.44
245.939	477.34
246.4	534.14
246.862	524.83
247.324	479.78
247.786	494.1
248.247	595.13
248.709	527.33
249.17	414.99
249.632	432.86
250.093	543.55
250.555	492.3
251.016	338.42
251.477	333.09
251.939	377.17
252.4	390.53
252.861	451.05
253.322	452.33
253.783	523.35
254.244	634.81
254.705	461.67
255.166	351.77
255.627	337.08
256.088	477.54
256.549	488.52
257.009	419.91
257.47	491.01
257.931	410.97
258.391	306.88
258.852	329.76
259.312	370.68
259.773	435.83
260.233	417.52
260.694	359.16
261.154	374.33
261.614	329.41
262.074	273.17
262.534	290.28
262.994	284.03
263.455	334.43
263.915	291.5
264.374	262.9
264.834	294.64
265.294	313.18
265.754	324.48
266.214	320.34
266.673	298.92
267.133	373.04
267.593	355.92
268.052	399.28
268.512	337.9
268.971	449.52
269.431	494.34
269.89	416.56
270.349	585.7
270.809	654.98
271.268	544.78
271.727	1072.09
272.186	739.14
272.645	580.01
273.104	396.78
273.563	594.96
274.022	387.26
274.481	347.4
274.94	281.85
275.399	213.15
275.857	227.93
276.316	311.4
276.775	279.2
277.233	250.04
277.692	235.99
278.15	310.93
278.609	352.38
279.067	313.64
279.525	320.86
279.984	396.64
280.442	461.98
280.9	529.96
281.358	356.24
281.816	345.05
282.274	360.34
282.732	358.41
283.19	343.54
283.648	294.51
284.106	313.51
284.564	313.08
285.021	326.92
285.479	257.21
285.937	206.85
286.394	193.92
286.852	201.27
287.309	201.27
287.767	224.25
288.224	222.28
288.682	229.36
289.139	274.74
289.596	250.63
290.053	237.19
290.511	268.27
290.968	331.67
291.425	399.52
291.882	348.53
292.339	322.86
292.796	270.73
293.252	236.43
293.709	219.07
294.166	198.45
294.623	214.48
295.079	211.51
295.536	231.74
295.992	224.47
296.449	239.04
296.905	266.48
297.362	277.21
297.818	300.04
298.274	323.64
298.731	318.02
299.187	300.04
299.643	307.17
300.099	359.46
300.555	400.99
301.011	340.65
301.467	361.12
301.923	359.95
302.379	350.67
302.835	331.98
303.291	321.32
303.746	348.32
304.202	447.83
304.658	465.86
305.113	322.31
305.569	303.16
306.024	295.45
306.479	231.92
306.935	226.98
307.39	231.73
307.845	225.9
308.301	247.19
308.756	229.94
309.211	221.45
309.666	225.6
310.121	308.94
310.576	313.82
311.031	309.55
311.486	330.05
311.94	315.3
312.395	426.9
312.85	776.91
313.305	3332.08
313.759	21779.71
314.214	1600.59
314.668	1282.69
315.123	1115.07
315.577	448.76
316.032	426.84
316.486	540.07
316.94	450.24
317.394	318.26
317.849	274.21
318.303	255.02
318.757	241.11
319.211	263.19
319.665	245.44
320.119	251.15
320.572	335.64
321.026	316.23
321.48	276.2
321.934	298.57
322.387	298.05
322.841	325.16
323.295	341.05
323.748	356.49
324.202	392.13
324.655	448.64
325.108	657.24
325.562	493.91
326.015	585.3
326.468	461.33
326.921	509.17
327.374	493.59
327.827	516.03
328.28	548.17
328.733	391.5
329.186	341.52
329.639	337.55
330.092	263.63
330.545	250.52
330.997	259.21
331.45	304.21
331.903	367.11
332.355	598.96
332.808	567.95
333.26	478.74
333.713	531.14
334.165	511.9
334.617	651.35
335.069	506.05
335.522	830.17
335.974	902.71
336.426	723.16
336.878	458.89
337.33	238.33
337.782	216.03
338.234	263.43
338.686	288.66
339.137	328.07
339.589	308.9
340.041	276.21
340.493	241.26
340.944	232.8
341.396	245.94
341.847	232.52
342.299	273.49
342.75	380.36
343.201	326.24
343.653	363.45
344.104	442.93
344.555	342.45
345.006	467.85
345.457	451.03
345.908	369.9
346.359	387.61
346.81	311.16
347.261	314.85
347.712	286.13
348.163	283.24
348.613	340.79
349.064	336.29
349.515	308.81
349.965	331.35
350.416	384.38
350.866	396.15
351.317	419.51
351.767	641.53
352.217	811.61
352.668	670.75
353.118	645.86
353.568	533.72
354.018	405.9
354.468	409.5
354.918	333.62
355.368	277.86
355.818	395.74
356.268	1023.78
356.718	4667.02
357.168	1294.34
357.617	663.36
358.067	692.59
358.517	619.9
358.966	785.12
359.416	1008.42
359.865	1026.07
360.315	1211.12
360.764	603.73
361.213	361.4
361.663	317.85
362.112	355.95
362.561	574.37
363.01	464.78
363.459	411.51
363.908	423.1
364.357	371.17
364.806	547.8
365.255	368.51
365.703	356.47
366.152	353.99
366.601	296.09
367.05	282.75
367.498	265.17
367.947	257.27
368.395	265.85
368.844	235.05
369.292	235.97
369.74	194.2
370.189	266.93
370.637	279.55
371.085	213.42
371.533	269.63
371.981	198.84
372.429	218.24
372.877	235.65
373.325	220.12
373.773	228.46
374.221	198.08
374.669	210.97
375.116	189.02
375.564	226.67
376.012	277.97
376.459	254.08
376.907	299.43
377.354	328.64
377.801	324.09
378.249	367.37
378.696	451.98
379.143	545.87
379.591	602.36
380.038	1028.46
380.485	700.41
380.932	720.36
381.379	680.33
381.826	590.65
382.273	417.67
382.72	359.92
383.166	335.3
383.613	243.77
384.06	223.78
384.506	271.64
384.953	205.95
385.4	203.89
385.846	183.84
386.292	161.13
386.739	151.95
387.185	138.9
387.631	129.95
388.078	147.95
388.524	153.51
388.97	159.9
389.416	140.49
389.862	159.48
390.308	156.82
390.754	168.31
391.2	187.24
391.645	192.55
392.091	224.88
392.537	246.86
392.983	248.43
393.428	275.14
393.874	296.67
394.319	323.65
394.765	337.88
395.21	374.76
395.655	388.86
396.101	412.32
396.546	409.93
396.991	444.3
397.436	448.02
397.881	465.7
398.326	467.6
398.771	486.81
399.216	456.78
399.661	438.82
400.106	465.49
400.551	505.02
400.995	473.65
401.44	491.99
401.885	480.06
402.329	500.17
402.774	496.21
403.218	504.45
403.663	499.29
404.107	527.99
404.551	549.84
404.995	522.83
405.44	521.18
405.884	551.63
406.328	543.03
406.772	550.43
407.216	517.79
407.66	516
408.104	501.32
408.547	485.36
408.991	486.24
409.435	478.83
409.879	483.21
410.322	486.9
410.766	479.55
411.209	473.66
411.653	467.14
412.096	467.35
412.54	477.35
412.983	481.18
413.426	490.21
413.869	494
414.312	492.7
414.756	483.2
415.199	467.29
415.642	458.05
416.085	461.99
416.527	463.38
416.97	475.6
417.413	455.42
417.856	455.07
418.298	453.44
418.741	451.41
419.184	450.71
419.626	464.28
420.069	464.01
420.511	465.45
420.953	457.77
421.396	458.11
421.838	449.57
422.28	463.17
422.722	468.32
423.164	478.23
423.606	476.07
424.048	482.02
424.49	466.94
424.932	468.16
425.374	467.75
425.816	474.41
426.258	478.5
426.699	477.09
427.141	460.08
427.582	459
428.024	452.75
428.465	449.39
428.907	440.87
429.348	442.24
429.789	449.92
430.231	446.62
430.672	459.51
431.113	457.29
431.554	464.93
431.995	471.04
432.436	473.84
432.877	477.14
433.318	480.85
433.759	486.97
434.2	492.07
434.64	490.98
435.081	496.62
435.522	479.89
435.962	469.6
436.403	466.52
436.843	479.47
437.284	474.49
437.724	466.23
438.164	471.01
438.604	465.22
439.045	453.21
439.485	442.89
439.925	439.3
440.365	433.87
440.805	433.79
441.245	432.61
441.685	420.26
442.125	418.9
442.564	422.29
443.004	414.33
443.444	414.02
443.883	414.91
444.323	411.72
444.762	414.33
445.202	420.03
445.641	429.87
446.081	428.09
446.52	433.63
446.959	433.35
447.398	428.47
447.837	428.15
448.276	425.08
448.716	432.74
449.154	437.39
449.593	426.94
450.032	424.93
450.471	415.25
450.91	414.51
451.349	412.12
451.787	408.51
452.226	411.01
452.664	407.7
453.103	404.24
453.541	402.27
453.98	400.6
454.418	403.15
454.856	396.05
455.295	393.79
455.733	394.23
456.171	395.27
456.609	392.8
457.047	392.21
457.485	396.61
457.923	398.55
458.361	391.82
458.798	392.46
459.236	390.54
459.674	393.29
460.111	397.3
460.549	394.34
460.987	392.59
461.424	391.86
461.862	390.18
462.299	385.08
462.736	383.57
463.173	385.79
463.611	382.18
464.048	382.05
464.485	386.88
464.922	385.19
465.359	386.38
465.796	384.51
466.233	384.84
466.67	384.29
467.106	386.13
467.543	385.06
467.98	382.65
468.416	377.8
468.853	379.82
469.29	372.8
469.726	371.04
470.162	364.11
470.599	363.37
471.035	364.26
471.471	359.4
471.907	360.39
472.344	361.62
472.78	364.55
473.216	369.9
473.652	366.61
474.088	367.58
474.523	367.81
474.959	373.02
475.395	369.88
475.831	367.01
476.266	369.25
476.702	368.23
477.138	363.99
477.573	362.67
478.008	361.24
478.444	362.2
478.879	363.22
479.314	363.06
479.75	360.15
480.185	359.66
480.62	360.92
481.055	359.4
481.49	358.48
481.925	359.96
482.36	359.68
482.795	360.9
483.229	361.6
483.664	360.8
484.099	355.88
484.534	356.52
484.968	355.42
485.403	352.07
485.837	348
486.271	345.47
486.706	344.22
487.14	340.77
487.574	337.36
488.009	336.39
488.443	334.44
488.877	337.46
489.311	336.8
489.745	339.01
490.179	340.22
490.613	344.81
491.046	344.68
491.48	344.99
491.914	344.4
492.348	345.68
492.781	346.2
493.215	345.97
493.648	345.56
494.082	347.82
494.515	346.41
494.948	348.38
495.382	348.13
495.815	348.77
496.248	348.94
496.681	350.89
497.114	351.97
497.547	352.43
497.98	354.08
498.413	352.85
498.846	352.2
499.279	351.59
499.711	349.83
500.144	347.59
500.577	348.01
501.009	349.05
501.442	350.17
501.874	348.49
502.306	347.75
502.739	349.63
503.171	353.7
503.603	353.75
504.036	356.13
504.468	356.1
504.9	357.65
505.332	357.66
505.764	356.56
506.196	356.75
506.627	359.14
507.059	360.08
507.491	359.49
507.923	355.38
508.354	357.99
508.786	358.49
509.217	361.36
509.649	363.72
510.08	366.02
510.512	367.44
510.943	367.96
511.374	367.19
511.805	369.63
512.237	371.52
512.668	377.52
513.099	379.43
513.53	380.59
513.961	379.13
514.391	381.18
514.822	384.7
515.253	388.64
515.684	389.89
516.114	393.42
516.545	394.78
516.975	397.79
517.406	398.44
517.836	397.13
518.267	399.32
518.697	405.15
519.127	406.67
519.558	407.95
519.988	408.81
520.418	411.82
520.848	415.77
521.278	417.42
521.708	424.99
522.138	427.74
522.567	434.01
522.997	436.96
523.427	436.63
523.857	436.84
524.286	436.64
524.716	437.42
525.145	440.07
525.575	441.63
526.004	443.44
526.433	436.47
526.863	434.5
527.292	431.74
527.721	433.71
528.15	436.23
528.579	437.86
529.008	440.44
529.437	444.69
529.866	445.4
530.295	446.52
530.724	447.92
531.152	450.92
531.581	452.73
532.01	455.06
532.438	455.13
532.867	457.14
533.295	459.41
533.723	459.35
534.152	458.77
534.58	458.83
535.008	454.86
535.436	454.42
535.865	455.13
536.293	456.8
536.721	457.36
537.149	460.24
537.576	457.73
538.004	458.42
538.432	457.85
538.86	455.8
539.287	456.33
539.715	458.82
540.143	458.22
540.57	457.68
540.998	456.7
541.425	453.27
541.852	450.06
542.28	451.21
542.707	449.17
543.134	448.45
543.561	448.87
543.988	447.55
544.415	448.25
544.842	447.67
545.269	446.6
545.696	447.92
546.123	451.68
546.549	449.87
546.976	447.64
547.403	448.14
547.829	448.33
548.256	449.47
548.682	449.92
549.108	448.8
549.535	449.55
549.961	450.12
550.387	447.46
550.813	446.81
551.24	449.23
551.666	449.92
552.092	448.23
552.518	447.06
552.943	446.69
553.369	447.48
553.795	448.33
554.221	447.87
554.646	446.14
555.072	447.55
555.498	446.23
555.923	445.63
556.349	447.17
556.774	446.27
557.199	445.35
557.625	444.08
558.05	442.21
558.475	443.81
558.9	442.49
559.325	440.99
559.75	439.26
560.175	437.59
560.6	436.33
561.025	435.72
561.449	436.84
561.874	437.32
562.299	437.48
562.723	436.97
563.148	432.56
563.572	432.36
563.997	433.11
564.421	432.7
564.846	431.23
565.27	430.79
565.694	428.4
566.118	428.8
566.542	428.41
566.966	425.16
567.39	423.02
567.814	419.33
568.238	418.19
568.662	418
569.086	417.39
569.509	418.39
569.933	415.61
570.357	414.64
570.78	410.32
571.204	409.02
571.627	407.31
572.05	408.37
572.474	409.45
572.897	407.57
573.32	406.33
573.743	405.38
574.166	403.22
574.589	403.01
575.012	401
575.435	400.52
575.858	398.76
576.281	396.73
576.704	393.7
577.126	391.73
577.549	389.95
577.972	389.47
578.394	387.67
578.817	387.13
579.239	384.2
579.661	382.71
580.084	381.6
580.506	380
580.928	381.11
581.35	379.82
581.772	379.92
582.194	376.91
582.616	373.19
583.038	369.54
583.46	365.68
583.882	364.64
584.303	364.77
584.725	361.68
585.147	362.12
585.568	360.85
585.99	359.34
586.411	356.3
586.833	355.85
587.254	353.71
587.675	354.81
588.096	355.84
588.518	351.68
588.939	346.33
589.36	345.32
589.781	340.13
590.202	336.74
590.623	337.06
591.043	338.39
591.464	337.07
591.885	337.34
592.305	336.75
592.726	333.73
593.147	335.01
593.567	335.18
593.987	333.81
594.408	332.1
594.828	330.1
595.248	328.51
595.669	324.73
596.089	323.64
596.509	322.31
596.929	319.54
597.349	320.05
597.769	316.85
598.189	315
598.608	314.48
599.028	314.84
599.448	314.36
599.867	311.58
600.287	311.19
600.706	310.74
601.126	308.5
601.545	308.86
601.965	308.55
602.384	307.89
602.803	307.8
603.222	307.12
603.641	305.53
604.061	305.07
604.48	304
604.898	305.01
605.317	305.68
605.736	305.36
606.155	303.42
606.574	300.29
606.992	300.55
607.411	298.85
607.829	296.19
608.248	295.18
608.666	293.83
609.085	293.06
609.503	290.26
609.921	288.22
610.339	288.21
610.758	287.2
611.176	286.05
611.594	284.06
612.012	283.21
612.43	283.37
612.847	283.76
613.265	283
613.683	282.69
614.101	282.3
614.518	280.44
614.936	278.36
615.353	276.24
615.771	276.33
616.188	276.46
616.606	275.48
617.023	274.46
617.44	272.53
617.857	271.76
618.274	270.66
618.691	269.97
619.108	268.51
619.525	266.81
619.942	267.22
620.359	266.3
620.776	264.13
621.192	263.46
621.609	262.99
622.026	263.38
622.442	264.31
622.859	263.99
623.275	261.59
623.691	261.6
624.108	262.83
624.524	264.76
624.94	263.91
625.356	265.16
625.772	266.59
626.188	266.67
626.604	265.26
627.02	262.6
627.436	261.43
627.852	262.31
628.268	264.67
628.683	262.45
629.099	260.38
629.514	259.16
629.93	259.63
630.345	259.9
630.761	259.01
631.176	260.02
631.591	260.08
632.007	258.66
632.422	258.11
632.837	255.26
633.252	255.43
633.667	254.11
634.082	252.63
634.497	250.88
634.911	248.93
635.326	249.17
635.741	247.24
636.155	246.03
636.57	247.52
636.984	248.18
637.399	249.56
637.813	250.52
638.228	250.53
638.642	252.36
639.056	251.29
639.47	250.92
639.884	250.83
640.298	250.38
640.712	250.76
641.126	248.65
641.54	247.8
641.954	246.47
642.368	244.34
642.781	244.76
643.195	241.85
643.609	242.55
644.022	240.87
644.436	239.81
644.849	236.74
645.262	234.19
645.676	234.72
646.089	233.45
646.502	231.96
646.915	230.3
647.328	226.84
647.741	226.82
648.154	225.02
648.567	226.97
648.98	224.95
649.393	226.56
649.805	226.73
650.218	226.31
650.631	224.59
651.043	223.54
651.456	223.82
651.868	223.83
652.28	226.48
652.693	226.79
653.105	225.09
653.517	224.59
653.929	221.75
654.341	222.16
654.753	218.82
655.165	219.07
655.577	218.6
655.989	218.07
656.401	217.23
656.813	212.86
657.224	212.74
657.636	210.53
658.047	210.78
658.459	210.1
658.87	210.26
659.282	209.76
659.693	208.27
660.104	207.29
660.515	205.91
660.926	206.06
661.338	206.48
661.749	205.32
662.159	204.51
662.57	203.79
662.981	204.38
663.392	204.49
663.803	206.49
664.213	205.33
664.624	204.5
665.035	204.79
665.445	202.93
665.855	201.9
666.266	201.21
666.676	201.36
667.086	199.59
667.497	200.06
667.907	198
668.317	196.67
668.727	197.5
669.137	196.89
669.547	197.17
669.956	196.71
670.366	196.52
670.776	196.37
671.186	196.5
671.595	197.2
672.005	196.64
672.414	195.96
672.824	194.74
673.233	193.8
673.642	194.95
674.052	194.57
674.461	195.85
674.87	196.78
675.279	195.54
675.688	194.48
676.097	194.69
676.506	193.34
676.915	195.54
677.323	195.41
677.732	194.33
678.141	192.61
678.549	189.57
678.958	187.27
679.366	185.34
679.775	185.17
680.183	186.66
680.592	186.17
681	186.13
681.408	182.9
681.816	182.73
682.224	182.47
682.632	183.16
683.04	186.8
683.448	188.19
683.856	190.21
684.264	191.05
684.671	190.91
685.079	191.39
685.487	191.78
685.894	195.42
686.302	196.26
686.709	196.79
687.116	197.54
687.524	198.41
687.931	199.39
688.338	199.48
688.745	199.92
689.152	199.75
689.559	201.91
689.966	205.43
690.373	204.5
690.78	206.52
691.187	209.57
691.593	210.87
692	209.02
692.407	211.26
692.813	216.15
693.22	218.85
693.626	221.9
694.032	224.38
694.439	227.95
694.845	231.18
695.251	234.26
695.657	238.12
696.063	243.36
696.469	247.65
696.875	250.57
697.281	248.02
697.687	248.17
698.093	248.37
698.498	251.41
698.904	252.2
699.31	256.09
699.715	260.04
700.12	264.44
700.526	264.97
700.931	268.04
701.337	271.82
701.742	276.02
702.147	282.22
702.552	284.34
702.957	287.06
703.362	289.07
703.767	291.09
704.172	293.32
704.577	289.21
704.981	290.9
705.386	292.44
705.791	291.04
706.195	295.33
706.6	296.37
707.004	301.58
707.408	299.68
707.813	301.61
708.217	301.68
708.621	301.35
709.025	308.87
709.43	311.54
709.834	317.21
710.237	322.97
710.641	322.5
711.045	323.64
711.449	324.89
711.853	328.5
712.256	331.44
712.66	332.22
713.064	336.55
713.467	337.49
713.87	340.65
714.274	337.4
714.677	339.04
715.08	342.12
715.484	345.65
715.887	350.08
716.29	352.13
716.693	356.23
717.096	362.28
717.499	361.71
717.901	356.91
718.304	357.5
718.707	362.09
719.109	359.59
719.512	363.85
719.915	362.98
720.317	363.74
720.719	369.48
721.122	369.98
721.524	370.28
721.926	372.46
722.328	379.67
722.731	377.32
723.133	375.81
723.535	384.54
723.937	382.15
724.338	381.42
724.74	382.74
725.142	408.84
725.544	411.23
725.945	419.77
726.347	417.95
726.748	419.9
727.15	422.68
727.551	423.68
727.952	421.41
728.354	420.72
728.755	422.66
729.156	421.71
