Data from N_1_DIV_OH_2N_Splice17_11-29-48-215.txt Node
Date: Sat Mar 14 11:29:48 EDT 2020
User: sa697716
Spectrometer: FLMS03696
Trigger mode: 0
Integration Time (sec): 3.180400E-1
Scans to average: 20
Electric dark correction enabled: true
Nonlinearity correction enabled: true
Boxcar width: 5
XAxis mode: Wavelengths
Number of Pixels in Spectrum: 2048
>>>>>Begin Spectral Data<<<<<
187.83	-104884.8
188.298	967.23
188.766	506.36
189.233	441.1
189.701	594.62
190.169	899.32
190.636	281.03
191.104	261.71
191.571	36.04
192.039	2.5
192.506	69.85
192.974	471.88
193.441	-528.07
193.908	-234.69
194.375	-67.08
194.842	-12.87
195.31	37.85
195.777	84.54
196.244	204.45
196.711	178.5
197.177	194.8
197.644	236.41
198.111	367.71
198.578	465.28
199.045	330.01
199.511	498.2
199.978	538.85
200.445	469.2
200.911	498.42
201.378	498.25
201.844	487.67
202.31	799.62
202.777	799.96
203.243	445.88
203.709	438.13
204.176	554.49
204.642	475.5
205.108	437.31
205.574	344.1
206.04	295.39
206.506	281.47
206.972	235.65
207.438	225.1
207.903	241.6
208.369	231.7
208.835	230.86
209.301	226.18
209.766	226.46
210.232	233.34
210.697	275.26
211.163	341.36
211.628	489.71
212.094	446.07
212.559	624.51
213.024	391.58
213.49	456.35
213.955	441.92
214.42	412.21
214.885	373.9
215.35	343.26
215.815	381.52
216.28	389.88
216.745	300.35
217.21	327.51
217.675	246.92
218.14	269.53
218.604	269.66
219.069	271.31
219.534	302.24
219.998	301.94
220.463	327.85
220.927	327.68
221.392	278.49
221.856	275.69
222.32	260.09
222.785	310.34
223.249	352.39
223.713	358.24
224.177	351.44
224.642	349.13
225.106	384.48
225.57	393.73
226.034	315.4
226.497	473.94
226.961	460.54
227.425	577.4
227.889	581.81
228.353	550.14
228.816	1142.22
229.28	1135.24
229.744	985.32
230.207	697.51
230.671	678.39
231.134	998.59
231.597	1182.11
232.061	1071.71
232.524	932.04
232.987	669.04
233.45	614.75
233.914	509.85
234.377	467.29
234.84	386.51
235.303	385.64
235.766	441.65
236.229	444.01
236.691	259.69
237.154	282.21
237.617	238.38
238.08	236.06
238.542	256.04
239.005	195.26
239.468	198.14
239.93	205.69
240.393	196.32
240.855	157.14
241.317	144.65
241.78	148.29
242.242	152.88
242.704	198.64
243.166	179.95
243.629	190.89
244.091	230.43
244.553	254.04
245.015	270.58
245.477	314.89
245.939	438.82
246.4	485.37
246.862	481
247.324	498.77
247.786	499.81
248.247	571.09
248.709	440.24
249.17	312.18
249.632	358.96
250.093	459
250.555	421.69
251.016	322.86
251.477	302.15
251.939	335.28
252.4	328.19
252.861	344.52
253.322	369.82
253.783	445.38
254.244	553.58
254.705	367.98
255.166	303.45
255.627	283.66
256.088	344.04
256.549	374.26
257.009	302.01
257.47	340.35
257.931	264.47
258.391	187.43
258.852	191.76
259.312	192.9
259.773	238.8
260.233	245.31
260.694	239.65
261.154	265.2
261.614	255.78
262.074	214.35
262.534	226.34
262.994	240.12
263.455	289.56
263.915	268.31
264.374	241.37
264.834	267.94
265.294	270.25
265.754	277.84
266.214	261.27
266.673	248.54
267.133	305.76
267.593	292.69
268.052	341.29
268.512	289.12
268.971	382.44
269.431	444.02
269.89	402.04
270.349	585.57
270.809	663.23
271.268	606.08
271.727	1097.28
272.186	751.41
272.645	603.1
273.104	401.07
273.563	588.22
274.022	381.88
274.481	358.44
274.94	272.25
275.399	188.82
275.857	181.7
276.316	208.72
276.775	192.69
277.233	190.21
277.692	187.9
278.15	255.51
278.609	300.22
279.067	277.48
279.525	256.14
279.984	313.57
280.442	371.52
280.9	445.39
281.358	304.6
281.816	307.69
282.274	308.24
282.732	296.51
283.19	287.86
283.648	237.9
284.106	243.76
284.564	225.45
285.021	225.76
285.479	186.43
285.937	143.16
286.394	153.03
286.852	153.53
287.309	159.19
287.767	181.91
288.224	184.01
288.682	196.04
289.139	244.6
289.596	238.21
290.053	229.15
290.511	254.96
290.968	323.62
291.425	381.61
291.882	351.5
292.339	330.43
292.796	281.73
293.252	251.47
293.709	241.73
294.166	213.78
294.623	221.01
295.079	195.34
295.536	223.93
295.992	212.93
296.449	215.35
296.905	224.45
297.362	232.46
297.818	242.69
298.274	254.47
298.731	229.89
299.187	221.62
299.643	239.47
300.099	316.37
300.555	330.21
301.011	281.61
301.467	332.91
301.923	322.02
302.379	304.26
302.835	314.98
303.291	313.81
303.746	358.48
304.202	442.97
304.658	454.37
305.113	323.89
305.569	335.87
306.024	313.69
306.479	229.73
306.935	257.49
307.39	275.48
307.845	260.84
308.301	297.44
308.756	275.44
309.211	287.13
309.666	288.87
310.121	383.97
310.576	349.96
311.031	352.65
311.486	393.02
311.94	317.21
312.395	378.1
312.85	642.44
313.305	2072.94
313.759	15316.29
314.214	965.72
314.668	798.99
315.123	626.68
315.577	268.34
316.032	279.35
316.486	325.4
316.94	330.84
317.394	272.65
317.849	224.87
318.303	212.28
318.757	191.92
319.211	214.28
319.665	183.86
320.119	186.85
320.572	247.29
321.026	226.38
321.48	192.29
321.934	175.37
322.387	168.78
322.841	183.05
323.295	216.3
323.748	220.77
324.202	228.87
324.655	309.48
325.108	488.4
325.562	390.33
326.015	460.8
326.468	370.98
326.921	412.12
327.374	397.31
327.827	424.31
328.28	432.15
328.733	306.97
329.186	281.79
329.639	257.2
330.092	199.93
330.545	185.15
330.997	182.11
331.45	224.39
331.903	288.92
332.355	443.8
332.808	412.44
333.26	351.47
333.713	377.47
334.165	362.69
334.617	479.22
335.069	346.4
335.522	532.1
335.974	622.27
336.426	485.28
336.878	322.64
337.33	163.56
337.782	154.39
338.234	210.93
338.686	264.44
339.137	323.86
339.589	291.59
340.041	258.99
340.493	220.6
340.944	234.66
341.396	256.79
341.847	231.17
342.299	319.77
342.75	422.21
343.201	331.29
343.653	349.58
344.104	402.81
344.555	307.45
345.006	363.34
345.457	369.98
345.908	256.99
346.359	242.65
346.81	181.58
347.261	153.56
347.712	143.22
348.163	144.84
348.613	206.44
349.064	197.85
349.515	186.81
349.965	218.19
350.416	241.13
350.866	269.54
351.317	277.07
351.767	435.82
352.217	546.23
352.668	508.45
353.118	480.77
353.568	337.88
354.018	297.73
354.468	337.85
354.918	271.61
355.368	229.52
355.818	314.64
356.268	843.49
356.718	4456.04
357.168	1261.08
357.617	589.84
358.067	648.36
358.517	633.46
358.966	759.8
359.416	916.95
359.865	945.03
360.315	1180.38
360.764	562.35
361.213	343.67
361.663	252.7
362.112	253.46
362.561	378.5
363.01	302.81
363.459	265.96
363.908	264.48
364.357	234.69
364.806	351.6
365.255	205.77
365.703	231.64
366.152	215.4
366.601	211
367.05	219.17
367.498	207.8
367.947	206.43
368.395	220.77
368.844	210.78
369.292	198.21
369.74	167.91
370.189	242.67
370.637	269.29
371.085	227.89
371.533	250.73
371.981	181.59
372.429	220.07
372.877	228.99
373.325	168.96
373.773	146.88
374.221	131.15
374.669	126.11
375.116	109.65
375.564	106.94
376.012	100.04
376.459	97.49
376.907	102.76
377.354	79.82
377.801	114.64
378.249	157.3
378.696	210.52
379.143	270.57
379.591	320.24
380.038	492.85
380.485	423.96
380.932	503.47
381.379	599.31
381.826	527.04
382.273	348.97
382.72	266.86
383.166	268.86
383.613	179.95
384.06	179.5
384.506	200.02
384.953	158
385.4	147.58
385.846	137.81
386.292	107.8
386.739	92.57
387.185	84.93
387.631	85.05
388.078	97.61
388.524	100.32
388.97	90.07
389.416	79.01
389.862	92.54
390.308	94.01
390.754	99.39
391.2	104.39
391.645	98.89
392.091	129.65
392.537	135.82
392.983	122.36
393.428	148.54
393.874	150.21
394.319	164.79
394.765	173.37
395.21	162.17
395.655	149.87
396.101	135.2
396.546	132.33
396.991	116.55
397.436	106.77
397.881	100.73
398.326	79.98
398.771	82.12
399.216	67.61
399.661	58.45
400.106	63.64
400.551	72.54
400.995	70.99
401.44	74.46
401.885	67.92
402.329	69.49
402.774	69.15
403.218	77.32
403.663	73.51
404.107	80.39
404.551	81.55
404.995	75.52
405.44	65.33
405.884	63.45
406.328	55.73
406.772	54.51
407.216	50.61
407.66	47.22
408.104	39.03
408.547	34.89
408.991	33.33
409.435	30.63
409.879	32.46
410.322	36.99
410.766	39
411.209	42.08
411.653	43.41
412.096	45.84
412.54	44.11
412.983	43.92
413.426	47.63
413.869	44.77
414.312	46.84
414.756	44.54
415.199	42.03
415.642	43.5
416.085	43
416.527	38.82
416.97	36.07
417.413	36.84
417.856	34.49
418.298	33.77
418.741	32.08
419.184	28.16
419.626	24.49
420.069	24.46
420.511	23.38
420.953	26.96
421.396	30.63
421.838	28.68
422.28	29.65
422.722	31.88
423.164	30.78
423.606	32.84
424.048	32.14
424.49	34.59
424.932	32.73
425.374	29.91
425.816	26.4
426.258	27.82
426.699	30.9
427.141	32.72
427.582	31.43
428.024	30.78
428.465	27.32
428.907	28.62
429.348	27.34
429.789	30.46
430.231	33.65
430.672	34.69
431.113	32.44
431.554	30.47
431.995	28.78
432.436	30.29
432.877	31.8
433.318	35.83
433.759	33.64
434.2	33.92
434.64	31.89
435.081	31.97
435.522	31.41
435.962	30.25
436.403	34.19
436.843	32.86
437.284	30.04
437.724	26.65
438.164	23.25
438.604	24.21
439.045	25.4
439.485	27.36
439.925	27.07
440.365	26.1
440.805	26.17
441.245	26.19
441.685	25.35
442.125	25.71
442.564	26.37
443.004	26.11
443.444	25.68
443.883	25.48
444.323	22.41
444.762	18.52
445.202	16.46
445.641	18.4
446.081	13.83
446.52	15.23
446.959	16.95
447.398	19
447.837	20.01
448.276	19.75
448.716	21.29
449.154	20.15
449.593	22.06
450.032	23.98
450.471	21.27
450.91	22.47
451.349	23.53
451.787	22.35
452.226	20.72
452.664	19.89
453.103	20.8
453.541	18.76
453.98	22.1
454.418	21.77
454.856	22.78
455.295	23.44
455.733	23.42
456.171	23.02
456.609	24.64
457.047	25.73
457.485	26.62
457.923	28.17
458.361	26.91
458.798	24.38
459.236	25.16
459.674	23.88
460.111	24.13
460.549	24.23
460.987	23.23
461.424	21.48
461.862	21.53
462.299	22.35
462.736	22.35
463.173	22.88
463.611	26.25
464.048	27.09
464.485	27.89
464.922	27.61
465.359	28.32
465.796	35.94
466.233	37.55
466.67	39.16
467.106	40.32
467.543	37.91
467.98	36.77
468.416	33.89
468.853	33.45
469.29	32.39
469.726	31.44
470.162	29.81
470.599	23.27
471.035	21.32
471.471	19.21
471.907	17.04
472.344	17.21
472.78	18.62
473.216	18.63
473.652	17.87
474.088	16.91
474.523	17.23
474.959	16.9
475.395	16.45
475.831	16.76
476.266	16.89
476.702	16.93
477.138	18.2
477.573	17.39
478.008	17.42
478.444	18.19
478.879	19.87
479.314	20.28
479.75	20.25
480.185	20.35
480.62	19.61
481.055	19.52
481.49	20.31
481.925	19.83
482.36	21.6
482.795	20.89
483.229	20.31
483.664	19.33
484.099	18.99
484.534	19.75
484.968	20.31
485.403	20.75
485.837	19.93
486.271	19.24
486.706	18.9
487.14	18.04
487.574	18.72
488.009	18.09
488.443	17.81
488.877	18.52
489.311	17.72
489.745	17.95
490.179	18.31
490.613	20.29
491.046	19.99
491.48	19.74
491.914	19.61
492.348	19.38
492.781	20.11
493.215	20.03
493.648	19.17
494.082	19.6
494.515	19.64
494.948	19.95
495.382	18.09
495.815	18.11
496.248	18.36
496.681	18.04
497.114	17.32
497.547	17.92
497.98	19.4
498.413	20.41
498.846	20.95
499.279	20.38
499.711	20.39
500.144	20.49
500.577	21.24
501.009	21.27
501.442	22.51
501.874	23.19
502.306	22.54
502.739	24.29
503.171	23.9
503.603	23.37
504.036	23.02
504.468	23
504.9	23.22
505.332	22.39
505.764	22.9
506.196	21.94
506.627	22.26
507.059	22.02
507.491	18.73
507.923	19.21
508.354	19.85
508.786	20.1
509.217	20.27
509.649	20.87
510.08	21.05
510.512	21.12
510.943	21.31
511.374	21.16
511.805	20.71
512.237	21.02
512.668	20.19
513.099	19.64
513.53	19.84
513.961	19.92
514.391	19.57
514.822	20.54
515.253	20.82
515.684	20.99
516.114	21.58
516.545	22.27
516.975	22.88
517.406	22.66
517.836	22.15
518.267	22.68
518.697	23.11
519.127	23.22
519.558	22.54
519.988	22.1
520.418	21.68
520.848	21.21
521.278	20.91
521.708	39.7
522.138	40.47
522.567	40.25
522.997	40.05
523.427	39.05
523.857	38.95
524.286	39.2
524.716	39.02
525.145	39.4
525.575	40.31
526.004	40.14
526.433	21.04
526.863	20.88
527.292	22.17
527.721	22.58
528.15	22.91
528.579	23.05
529.008	23.31
529.437	22.97
529.866	22.84
530.295	21.57
530.724	22.57
531.152	23.52
531.581	23.95
532.01	23.65
532.438	23.19
532.867	23.27
533.295	24.23
533.723	23.88
534.152	24.78
534.58	25.37
535.008	25.7
535.436	26.41
535.865	26.04
536.293	24.87
536.721	24.42
537.149	24.53
537.576	25.1
538.004	24.52
538.432	24.41
538.86	24.26
539.287	23.8
539.715	24.21
540.143	22.98
540.57	23.33
540.998	24.18
541.425	25.9
541.852	25.99
542.28	25.58
542.707	25.4
543.134	25.84
543.561	25.74
543.988	25.85
544.415	25.49
544.842	25.28
545.269	25.08
545.696	25.41
546.123	25.08
546.549	24.87
546.976	24.63
547.403	24.41
547.829	23.61
548.256	23.51
548.682	23.96
549.108	24.79
549.535	25.09
549.961	24.41
550.387	24.27
550.813	24.52
551.24	24.41
551.666	24.44
552.092	24.73
552.518	25.21
552.943	25.57
553.369	24.59
553.795	24.45
554.221	24.81
554.646	25.39
555.072	26.24
555.498	25.16
555.923	25.42
556.349	25.59
556.774	25.3
557.199	24.86
557.625	23.98
558.05	24.97
558.475	24.76
558.9	24.67
559.325	25.25
559.75	25.28
560.175	25.58
560.6	24.85
561.025	24.38
561.449	24.7
561.874	24.95
562.299	25.81
562.723	25.71
563.148	25.38
563.572	25.29
563.997	24.77
564.421	23.16
564.846	22.43
565.27	22.91
565.694	23.19
566.118	22.7
566.542	23.51
566.966	23.56
567.39	23.04
567.814	23.05
568.238	22.7
568.662	22.34
569.086	22.82
569.509	22.69
569.933	23.48
570.357	23.7
570.78	23.9
571.204	24.02
571.627	23.57
572.05	24.13
572.474	25.38
572.897	25.62
573.32	26.7
573.743	26.33
574.166	26.96
574.589	25.93
575.012	25.74
575.435	25.73
575.858	25.37
576.281	25.54
576.704	24.98
577.126	23.83
577.549	23.1
577.972	21.73
578.394	22.04
578.817	23.77
579.239	23.98
579.661	24.27
580.084	25.06
580.506	25.24
580.928	24.74
581.35	24.96
581.772	25.13
582.194	25.57
582.616	25.41
583.038	24.56
583.46	22.68
583.882	22.99
584.303	22.26
584.725	21.42
585.147	24.76
585.568	25.51
585.99	25.29
586.411	25.79
586.833	26.69
587.254	27.64
587.675	28.56
588.096	28.78
588.518	28.62
588.939	28.47
589.36	29.23
589.781	24.49
590.202	26.19
590.623	26.72
591.043	25.62
591.464	24.81
591.885	25
592.305	24.32
592.726	24.27
593.147	24.63
593.567	25.34
593.987	24.23
594.408	24.02
594.828	21.43
595.248	21.93
595.669	23.01
596.089	22.73
596.509	22
596.929	21.69
597.349	21.51
597.769	20.59
598.189	20.25
598.608	20.31
599.028	21.15
599.448	20.63
599.867	19.51
600.287	18.66
600.706	19.11
601.126	19.27
601.545	19.87
601.965	19.77
602.384	20.06
602.803	19.54
603.222	20.04
603.641	19.17
604.061	20.46
604.48	20.47
604.898	20.28
605.317	19.79
605.736	19.43
606.155	19.75
606.574	19.75
606.992	19.71
607.411	20.15
607.829	19.24
608.248	18.87
608.666	17.92
609.085	17.72
609.503	17.54
609.921	18.29
610.339	18.67
610.758	18.25
611.176	17.98
611.594	18.23
612.012	17.94
612.43	18.87
612.847	19.64
613.265	20.44
613.683	20.51
614.101	21.34
614.518	19.96
614.936	19.36
615.353	19.81
615.771	20.47
616.188	20.33
616.606	20.4
617.023	20.49
617.44	20.56
617.857	19.42
618.274	19.09
618.691	18.71
619.108	18.89
619.525	18.79
619.942	18.52
620.359	17.94
620.776	17.44
621.192	18.11
621.609	18.52
622.026	18.75
622.442	19.45
622.859	18.89
623.275	18.36
623.691	18.28
624.108	19.02
624.524	19.16
624.94	19.64
625.356	20.08
625.772	19.39
626.188	18.01
626.604	17.02
627.02	16.58
627.436	17.87
627.852	19.13
628.268	19.59
628.683	18.61
629.099	18.12
629.514	17.22
629.93	16.89
630.345	16.67
630.761	16.38
631.176	16.83
631.591	18.43
632.007	18.46
632.422	17.06
632.837	16.52
633.252	17.37
633.667	16.9
634.082	16.86
634.497	17.36
634.911	19.28
635.326	20.09
635.741	20.11
636.155	18.79
636.57	19.74
636.984	20.56
637.399	22.39
637.813	21.44
638.228	22.09
638.642	22.15
639.056	21.85
639.47	20.65
639.884	20.07
640.298	19.95
640.712	20.92
641.126	19.73
641.54	19.1
641.954	16.43
642.368	17.19
642.781	20.25
643.195	20.26
643.609	20.49
644.022	20.39
644.436	20.25
644.849	20.46
645.262	19.07
645.676	18.63
646.089	17.97
646.502	19.53
646.915	18.85
647.328	16.07
647.741	16.52
648.154	16.04
648.567	18.2
648.98	18.64
649.393	18.25
649.805	18.78
650.218	19.24
650.631	20.52
651.043	20.83
651.456	21.32
651.868	21.41
652.28	20.48
652.693	20.66
653.105	18.51
653.517	18.18
653.929	18.36
654.341	18.72
654.753	18.59
655.165	18.1
655.577	18.21
655.989	18.52
656.401	17.85
656.813	19.48
657.224	18.93
657.636	18.31
658.047	19.85
658.459	19.92
658.87	18.69
659.282	17.99
659.693	18.44
660.104	17.97
660.515	17.28
660.926	17.24
661.338	16.36
661.749	16.28
662.159	17.11
662.57	15.2
662.981	15.13
663.392	15.72
663.803	16.22
664.213	16.3
664.624	15.98
665.035	15.59
665.445	14.82
665.855	15.89
666.266	17.16
666.676	16.52
667.086	16.41
667.497	16.42
667.907	16.04
668.317	15.25
668.727	16.98
669.137	16.76
669.547	17.79
669.956	17.59
670.366	16.56
670.776	16.04
671.186	16.45
671.595	17
672.005	15.65
672.414	16.16
672.824	17.38
673.233	14.6
673.642	14.46
674.052	14.07
674.461	15.67
674.87	16.05
675.279	16.82
675.688	15.45
676.097	16.63
676.506	17.44
676.915	18.22
677.323	17.71
677.732	18.08
678.141	18.02
678.549	17.79
678.958	16.13
679.366	15.08
679.775	13.67
680.183	15.43
680.592	14.94
681	15.5
681.408	15.05
681.816	14.27
682.224	14.16
682.632	15.64
683.04	16.35
683.448	16.84
683.856	18.44
684.264	19.79
684.671	19.09
685.079	18.23
685.487	18.31
685.894	18.6
686.302	19.27
686.709	19.82
687.116	19.17
687.524	20.42
687.931	21.67
688.338	20.94
688.745	19.34
689.152	19.02
689.559	19.97
689.966	20.91
690.373	20.51
690.78	21.53
691.187	21.43
691.593	20.99
692	19.34
692.407	19.47
692.813	22.07
693.22	23.33
693.626	22.15
694.032	22.58
694.439	22.89
694.845	23.43
695.251	23.59
695.657	24.44
696.063	24.22
696.469	24.55
696.875	24.51
697.281	22.85
697.687	21.88
698.093	23.03
698.498	24.2
698.904	22.97
699.31	23.34
699.715	24.54
700.12	23.81
700.526	25
700.931	24.93
701.337	25.2
701.742	25.59
702.147	26.18
702.552	26.88
702.957	24.47
703.362	25.04
703.767	23.77
704.172	22.4
704.577	22.37
704.981	20.98
705.386	21.53
705.791	22.34
706.195	20.7
706.6	21.12
707.004	19.85
707.408	19.89
707.813	20.21
708.217	20.7
708.621	20.4
709.025	20
709.43	22.43
709.834	22.31
710.237	21.34
710.641	22.35
711.045	22.81
711.449	24.49
711.853	29.04
712.256	28.45
712.66	29.12
713.064	29.53
713.467	31.01
713.87	30.2
714.274	31.16
714.677	32.11
715.08	32.25
715.484	33.19
715.887	35.53
716.29	31.14
716.693	32.55
717.096	34.03
717.499	34.99
717.901	33.64
718.304	33.29
718.707	31.73
719.109	31.25
719.512	30.65
719.915	32.13
720.317	30.6
720.719	30.71
721.122	30.26
721.524	29.46
721.926	32.77
722.328	33.46
722.731	33.33
723.133	34.55
723.535	35.25
723.937	37.28
724.338	36.87
724.74	37.08
725.142	81.39
725.544	85.36
725.945	95.17
726.347	91.62
726.748	92.39
727.15	93.32
727.551	96.31
727.952	94.33
728.354	90.67
728.755	89.59
729.156	88.66
729.557	45.65
729.958	41.54
730.359	30.8
730.76	30.12
731.161	30.26
731.562	29.13
731.962	26.49
732.363	26.45
732.763	28.44
733.164	25.96
733.564	26.32
733.965	27.69
734.365	27.73
734.766	29.18
735.166	29.4
735.566	29.52
735.966	30.42
736.366	30.13
736.766	30.33
737.166	28.76
737.566	30.18
737.966	29.11
738.365	28.49
738.765	29.44
739.165	28.92
739.564	28.39
739.964	26.82
740.363	25.24
740.763	24.51
741.162	25.66
741.561	26.6
741.96	26.25
742.36	25.78
742.759	26.21
743.158	24.85
743.557	24.37
743.955	23.86
744.354	23.96
744.753	23.28
745.152	23.55
745.55	23.13
745.949	22.57
746.348	22.58
746.746	21.99
747.144	23.54
747.543	23.79
747.941	22.84
748.339	23.8
748.737	24.82
749.136	26.6
749.534	25.6
749.932	26.51
750.33	27.06
