Data from N_1_DIV_WI_4N_Splice17_11-31-49-065.txt Node
Date: Sat Mar 14 11:31:49 EDT 2020
User: sa697716
Spectrometer: FLMS03696
Trigger mode: 0
Integration Time (sec): 3.180400E-1
Scans to average: 20
Electric dark correction enabled: true
Nonlinearity correction enabled: true
Boxcar width: 5
XAxis mode: Wavelengths
Number of Pixels in Spectrum: 2048
>>>>>Begin Spectral Data<<<<<
187.83	-181636.71
188.298	1415.91
188.766	760.28
189.233	640.96
189.701	922.62
190.169	1209.61
190.636	439.65
191.104	336.89
191.571	4.78
192.039	-68.46
192.506	-99.04
192.974	231.07
193.441	-459.84
193.908	-204.18
194.375	-98.58
194.842	10.1
195.31	10.83
195.777	108.08
196.244	201.88
196.711	100.33
197.177	78.44
197.644	51.36
198.111	24.24
198.578	40.77
199.045	32.09
199.511	12.02
199.978	-61.29
200.445	-28.51
200.911	-67.78
201.378	-129.02
201.844	-86.05
202.31	-126.03
202.777	-108.48
203.243	-25.63
203.709	-25.22
204.176	-18.48
204.642	-19.65
205.108	-4.4
205.574	-3.51
206.04	-33.48
206.506	-32.88
206.972	-55.29
207.438	-75.29
207.903	-89.84
208.369	-39.4
208.835	-26.34
209.301	-28.75
209.766	-26.11
210.232	-31.63
210.697	-63.51
211.163	-89.12
211.628	-182.89
212.094	-109.48
212.559	-37.39
213.024	-1.69
213.49	-12.53
213.955	-26.33
214.42	-58.49
214.885	-50.01
215.35	-34.61
215.815	41.82
216.28	62.43
216.745	72.21
217.21	100.24
217.675	50.49
218.14	48.15
218.604	22.15
219.069	30.95
219.534	65.29
219.998	58.83
220.463	51.94
220.927	-23.68
221.392	-18.37
221.856	-8.17
222.32	-70.47
222.785	-62.54
223.249	-92.97
223.713	-66.51
224.177	-57.09
224.642	-147.39
225.106	-189.01
225.57	-222.72
226.034	-70.24
226.497	-68.47
226.961	-34.55
227.425	10.75
227.889	-15.54
228.353	-9.42
228.816	-121.9
229.28	-109.02
229.744	-61.9
230.207	32.2
230.671	63.23
231.134	-36.89
231.597	-116.79
232.061	-210.85
232.524	-264.52
232.987	-159.91
233.45	-122.05
233.914	-91.46
234.377	-137.12
234.84	-114.68
235.303	-192.18
235.766	-249.9
236.229	-238.07
236.691	-177.03
237.154	-212.83
237.617	-152.88
238.08	-172.17
238.542	-214.45
239.005	-145.71
239.468	-126.99
239.93	-120.05
240.393	-90.87
240.855	-65.77
241.317	-91.38
241.78	-117.11
242.242	-104.06
242.704	-72.4
243.166	-52.64
243.629	-27.29
244.091	-24.98
244.553	-22.73
245.015	-11.02
245.477	-39.27
245.939	-89.81
246.4	-81.96
246.862	-43.01
247.324	-21.19
247.786	-68.04
248.247	-115.36
248.709	-206.98
249.17	-157.51
249.632	-76.27
250.093	-60.06
250.555	-60.4
251.016	8.36
251.477	21.74
251.939	10.12
252.4	-38.9
252.861	-78.44
253.322	-43.12
253.783	-74.97
254.244	-145.77
254.705	-174.67
255.166	-193.27
255.627	-177.9
256.088	-292.27
256.549	-322.29
257.009	-248.24
257.47	-285.26
257.931	-213.2
258.391	-153.8
258.852	-151.38
259.312	-166.07
259.773	-206.93
260.233	-136.53
260.694	-94.17
261.154	-101.95
261.614	-22.39
262.074	-33.16
262.534	-12.37
262.994	0.16
263.455	-18.62
263.915	-1.12
264.374	3.87
264.834	-1.11
265.294	-28.78
265.754	-31.44
266.214	-37.7
266.673	-53.46
267.133	-81.33
267.593	-99.16
268.052	-128.07
268.512	-131.49
268.971	-115.23
269.431	-92.88
269.89	-88.7
270.349	-112.25
270.809	-120.7
271.268	-104.87
271.727	-421.57
272.186	-232.86
272.645	-155.62
273.104	-143.95
273.563	-178.72
274.022	-194.83
274.481	-165.99
274.94	-102.51
275.399	-75.94
275.857	-108.25
276.316	-149.83
276.775	-114.25
277.233	-102.54
277.692	-76.56
278.15	-61.01
278.609	-28.33
279.067	-29.17
279.525	-4.69
279.984	-46.42
280.442	-84.01
280.9	-22.63
281.358	-7.2
281.816	-5.31
282.274	-28.66
282.732	-78.03
283.19	-110.48
283.648	-107.8
284.106	-113.2
284.564	-137.14
285.021	-95.75
285.479	-58.82
285.937	-88.46
286.394	-62.44
286.852	-66.12
287.309	-62.96
287.767	-18.69
288.224	6.53
288.682	-12.64
289.139	-9.99
289.596	3.33
290.053	-12.51
290.511	-55.61
290.968	-15.39
291.425	-57.14
291.882	11.18
292.339	21.79
292.796	-22.52
293.252	-28.25
293.709	20.15
294.166	24.72
294.623	17.32
295.079	-1.08
295.536	42.01
295.992	34.35
296.449	33.05
296.905	15.63
297.362	43.36
297.818	43.14
298.274	53.54
298.731	34.09
299.187	26.49
299.643	19.93
300.099	49.17
300.555	37.42
301.011	57.86
301.467	121.24
301.923	112.58
302.379	106.42
302.835	106.13
303.291	91.39
303.746	98.62
304.202	117.81
304.658	102.83
305.113	63.55
305.569	60.73
306.024	17.8
306.479	-58.37
306.935	-25.69
307.39	-74.02
307.845	-60.8
308.301	-53.44
308.756	-78.96
309.211	-53.54
309.666	-59.68
310.121	-42.59
310.576	-50.93
311.031	-76.32
311.486	-119.34
311.94	-175.81
312.395	-228.57
312.85	-491.36
313.305	-3215.45
313.759	-9808.02
314.214	-923.5
314.668	-715.83
315.123	-641.56
315.577	-210.54
316.032	-173.7
316.486	-210.7
316.94	-96.8
317.394	-49.84
317.849	-36.82
318.303	-30.16
318.757	-45.56
319.211	-39.62
319.665	-21.28
320.119	-20.36
320.572	-46.98
321.026	-9.54
321.48	-14.09
321.934	-38.73
322.387	-58.53
322.841	-34.43
323.295	26.08
323.748	-8.74
324.202	-12.06
324.655	-27.54
325.108	22.84
325.562	31.65
326.015	-8.54
326.468	9.25
326.921	12.72
327.374	59.05
327.827	56.43
328.28	11.42
328.733	32.2
329.186	32.24
329.639	40.98
330.092	12.06
330.545	12.4
330.997	27.14
331.45	65.33
331.903	96
332.355	90.78
332.808	62.1
333.26	52.6
333.713	64.86
334.165	51.88
334.617	28.93
335.069	-21.7
335.522	-96.46
335.974	-137.03
336.426	-324.37
336.878	-282.68
337.33	-108.32
337.782	-100.13
338.234	-109.14
338.686	-175.96
339.137	-248.31
339.589	-224.35
340.041	-135.7
340.493	-113.38
340.944	-121.68
341.396	-79.9
341.847	-44.85
342.299	-40.37
342.75	-26.44
343.201	-61.63
343.653	-49.99
344.104	-65.29
344.555	-52.64
345.006	-180.51
345.457	-67.45
345.908	-60.48
346.359	-43.37
346.81	-41.89
347.261	-74.3
347.712	-103.96
348.163	-115.34
348.613	-84.62
349.064	-75.18
349.515	-56.39
349.965	-39.65
350.416	-70.75
350.866	-109.54
351.317	-131.9
351.767	-233.69
352.217	-353.85
352.668	-257.28
353.118	-211.58
353.568	-281.79
354.018	-164.44
354.468	-166.46
354.918	-100.82
355.368	-100.72
355.818	-110.94
356.268	-537.96
356.718	-1784.83
357.168	-256.89
357.617	-133.78
358.067	-163.64
358.517	-143.82
358.966	-122.27
359.416	-58.46
359.865	-28.08
360.315	-116.92
360.764	-23.67
361.213	23.78
361.663	-39.89
362.112	-115.99
362.561	-165.67
363.01	-120.03
363.459	-77.67
363.908	-140.96
364.357	-105.22
364.806	-287.35
365.255	-159.99
365.703	-118.97
366.152	-114.04
366.601	-34.14
367.05	15.7
367.498	17.56
367.947	-0.68
368.395	-20.7
368.844	9.99
369.292	-27.15
369.74	12.37
370.189	-16.66
370.637	-81.16
371.085	-79.53
371.533	-129.53
371.981	-129.21
372.429	-101.14
372.877	-73.27
373.325	-39.07
373.773	-71.54
374.221	-73.61
374.669	-89.65
375.116	-66.62
375.564	-37
376.012	-54.46
376.459	-9.36
376.907	-28.35
377.354	-85.8
377.801	-72.71
378.249	-107.31
378.696	-113.14
379.143	-112.85
379.591	-169.68
380.038	-376.99
380.485	-280.09
380.932	-332.18
381.379	-265.86
381.826	-114.86
382.273	-72.46
382.72	-64.96
383.166	-44.07
383.613	-33.51
384.06	-22.95
384.506	-17.09
384.953	-1.2
385.4	-3.29
385.846	7.29
386.292	-23.52
386.739	-45.5
387.185	-58.65
387.631	-72.4
388.078	-46.26
388.524	-45.52
388.97	-34.26
389.416	-17.87
389.862	-9.56
390.308	-8.19
390.754	-7.66
391.2	-6.7
391.645	-14.47
392.091	21.4
392.537	25.83
392.983	-1.97
393.428	20.11
393.874	2.26
394.319	6.14
394.765	20.48
395.21	11.45
395.655	7.97
396.101	12.43
396.546	15.92
396.991	-4.37
397.436	-0.09
397.881	0.99
398.326	-13.05
398.771	-4.49
399.216	-11.14
399.661	-14.26
400.106	-10.48
400.551	-4.38
400.995	-3.57
401.44	1
401.885	3.04
402.329	-0.34
402.774	7.94
403.218	17.93
403.663	16.36
404.107	17.37
404.551	18.67
404.995	19.12
405.44	13.56
405.884	14.23
406.328	9.47
406.772	8.67
407.216	9.65
407.66	3.05
408.104	-4.33
408.547	-3.95
408.991	-4.03
409.435	-6.42
409.879	-2.32
410.322	0.16
410.766	1.53
411.209	7.22
411.653	7.56
412.096	10.04
412.54	9.48
412.983	8.25
413.426	11.31
413.869	10.31
414.312	13.43
414.756	10.39
415.199	8.18
415.642	8.28
416.085	7.89
416.527	7.59
416.97	4.67
417.413	6.5
417.856	3.47
418.298	2.51
418.741	1.81
419.184	-2.1
419.626	-8.8
420.069	-7.98
420.511	-8.3
420.953	-8.24
421.396	-9.26
421.838	-7.61
422.28	-7.6
422.722	-3.19
423.164	-6.11
423.606	-4.89
424.048	-6.17
424.49	-0.77
424.932	-2.48
425.374	-3.74
425.816	-7.64
426.258	-7.45
426.699	-7.79
427.141	-4.99
427.582	-7.06
428.024	-6.58
428.465	-9.36
428.907	-6.94
429.348	-7.74
429.789	-4.52
430.231	-0.19
430.672	1.86
431.113	1.8
431.554	2.33
431.995	-0.63
432.436	2.83
432.877	2.63
433.318	7.07
433.759	5.08
434.2	4.68
434.64	3.95
435.081	2.29
435.522	1.95
435.962	2.21
436.403	2.79
436.843	-0.96
437.284	-3.48
437.724	-5.24
438.164	-9.89
438.604	-8.25
439.045	-6.1
439.485	-2.38
439.925	-4.09
440.365	-3.97
440.805	-4.46
441.245	-3.53
441.685	-1.42
442.125	-1.15
442.564	-0.81
443.004	1.23
443.444	0.01
443.883	-0.3
444.323	-4.51
444.762	-6.8
445.202	-7.37
445.641	-5.65
446.081	-8.67
446.52	-7.67
446.959	-7.88
447.398	-5.75
447.837	-5.87
448.276	-4.75
448.716	-3.53
449.154	-4.92
449.593	-2.06
450.032	-1.39
450.471	-3.12
450.91	-3.87
451.349	-2.22
451.787	-2.43
452.226	-3.44
452.664	-3.97
453.103	-4.44
453.541	-6.41
453.98	-3.21
454.418	-3.66
454.856	-2.4
455.295	-2
455.733	-0.4
456.171	-1.74
456.609	-0.45
457.047	0.97
457.485	2.97
457.923	4.72
458.361	4.4
458.798	3.37
459.236	3.5
459.674	2.5
460.111	2.91
460.549	3.56
460.987	2.59
461.424	1.55
461.862	0.86
462.299	1.36
462.736	2.08
463.173	2.43
463.611	3.95
464.048	4.35
464.485	4.19
464.922	4.38
465.359	3.89
465.796	10.84
466.233	12.19
466.67	14.5
467.106	15.69
467.543	13.05
467.98	12.35
468.416	12.28
468.853	11.26
469.29	9.95
469.726	8.86
470.162	8.43
470.599	3.52
471.035	1.85
471.471	0.21
471.907	-3.53
472.344	-2.91
472.78	-2.64
473.216	-4.67
473.652	-4.5
474.088	-4.53
474.523	-3.82
474.959	-4.31
475.395	-4.87
475.831	-3.79
476.266	-3.71
476.702	-3.33
477.138	-2.47
477.573	-1.54
478.008	-1.01
478.444	0.03
478.879	1.77
479.314	1.68
479.75	1.53
480.185	1.95
480.62	1.22
481.055	0.47
481.49	1.66
481.925	1.61
482.36	3.16
482.795	2.64
483.229	1.56
483.664	1.07
484.099	1.39
484.534	2.35
484.968	2.83
485.403	3.01
485.837	2.61
486.271	1.69
486.706	1.16
487.14	-0.61
487.574	0.04
488.009	-0.05
488.443	-0.03
488.877	0.32
489.311	-0.26
489.745	-0.69
490.179	-0.4
490.613	1.93
491.046	1.68
491.48	1.57
491.914	1.96
492.348	2.03
492.781	2.34
493.215	2.22
493.648	1.61
494.082	1.63
494.515	2.24
494.948	2.81
495.382	0.76
495.815	1.31
496.248	1.56
496.681	1.01
497.114	0
497.547	0.28
497.98	1.4
498.413	2.4
498.846	3.05
499.279	1.85
499.711	1.26
500.144	1.16
500.577	1.97
501.009	1.66
501.442	2.87
501.874	3.96
502.306	3.67
502.739	5.06
503.171	4.66
503.603	4.59
504.036	4.96
504.468	4.78
504.9	5.09
505.332	4.09
505.764	4.93
506.196	4.33
506.627	3.98
507.059	4.43
507.491	1.24
507.923	1.25
508.354	1.29
508.786	1.34
509.217	1.68
509.649	1.98
510.08	1.53
510.512	1.58
510.943	1.35
511.374	2
511.805	1.24
512.237	1.55
512.668	0.9
513.099	-0.16
513.53	-0.22
513.961	-0.2
514.391	-1.01
514.822	1.01
515.253	1.29
515.684	1.37
516.114	1.43
516.545	2.07
516.975	2.11
517.406	1.87
517.836	1.77
518.267	1.48
518.697	2.08
519.127	2.71
519.558	1.34
519.988	0.86
520.418	0.27
520.848	-1.2
521.278	-1.64
521.708	17.76
522.138	18.55
522.567	17.97
522.997	18.02
523.427	16.96
523.857	17.13
524.286	17.35
524.716	17.63
525.145	18.29
525.575	19.23
526.004	18.71
526.433	-0.06
526.863	-0.81
527.292	0.7
527.721	1.11
528.15	0.97
528.579	0.91
529.008	0.72
529.437	-0.23
529.866	-0.92
530.295	-1.84
530.724	-0.73
531.152	-0.43
531.581	0.8
532.01	0.66
532.438	0.17
532.867	-0
533.295	0.84
533.723	1.07
534.152	0.99
534.58	1.57
535.008	2.62
535.436	3.11
535.865	2.48
536.293	1.41
536.721	1.14
537.149	1.36
537.576	2.42
538.004	1.51
538.432	1.12
538.86	1.59
539.287	1.36
539.715	0.97
540.143	0.31
540.57	0.54
540.998	0.45
541.425	2.1
541.852	2.17
542.28	1.29
542.707	1.1
543.134	0.73
543.561	1.11
543.988	1.38
544.415	0.83
544.842	0.66
545.269	0.58
545.696	0.92
546.123	-0.06
546.549	0.3
546.976	0.63
547.403	1.05
547.829	0.99
548.256	0.07
548.682	-0.24
549.108	0.85
549.535	0.59
549.961	0.37
550.387	0.41
550.813	1.3
551.24	1.21
551.666	0.99
552.092	0.9
552.518	1.59
552.943	2.79
553.369	2.54
553.795	1.65
554.221	2.08
554.646	2.19
555.072	3.27
555.498	1.53
555.923	0.89
556.349	1
556.774	0.68
557.199	0.07
557.625	-1.15
558.05	-0.82
558.475	-0.26
558.9	-0.36
559.325	0.17
559.75	-0.25
560.175	0.32
560.6	0.48
561.025	-0.04
561.449	0.24
561.874	0.15
562.299	1.14
562.723	0.57
563.148	0.42
563.572	-0.33
563.997	-0.52
564.421	-1.66
564.846	-1.74
565.27	-1.69
565.694	-1.33
566.118	-1.8
566.542	-0.63
566.966	-0.79
567.39	0.29
567.814	0.44
568.238	0.97
568.662	0.66
569.086	0.93
569.509	0.39
569.933	1.69
570.357	1.89
570.78	2.38
571.204	2.55
571.627	1.98
572.05	1.51
572.474	2.26
572.897	2.58
573.32	3.01
573.743	2.75
574.166	3.28
574.589	2.29
575.012	2.02
575.435	1.53
575.858	1.01
576.281	1.33
576.704	0.76
577.126	-0.57
577.549	-1.91
577.972	-2.28
578.394	-1.98
578.817	-0.47
579.239	-0.83
579.661	-0.33
580.084	0.62
580.506	0.74
580.928	0.65
581.35	1.25
581.772	1.85
582.194	2.91
582.616	2.52
583.038	1.6
583.46	-0.19
583.882	-0.11
584.303	-1.02
584.725	-1.96
585.147	1.87
585.568	2.24
585.99	2.81
586.411	3.43
586.833	3.52
587.254	3.49
587.675	4.28
588.096	4.18
588.518	4.13
588.939	3.98
589.36	4.34
589.781	-0.79
590.202	1.22
590.623	0.22
591.043	-1.4
591.464	-1.22
591.885	0.07
592.305	-0.4
592.726	0.09
593.147	0.5
593.567	1.05
593.987	1.14
594.408	1.2
594.828	-1.47
595.248	-0.43
595.669	0.89
596.089	0.51
596.509	-0.97
596.929	-0.77
597.349	-0.96
597.769	-1.25
598.189	-1.11
598.608	-1.66
599.028	-1.44
599.448	-1.65
599.867	-2.18
600.287	-2.78
600.706	-2.36
601.126	-1.24
601.545	-0.54
601.965	-0.52
602.384	-0.77
602.803	-0.96
603.222	-0.11
603.641	-0.01
604.061	0.73
604.48	0.77
604.898	0.62
605.317	0.75
605.736	0.19
606.155	0.29
606.574	0.66
606.992	1.12
607.411	1.75
607.829	0.84
608.248	0.42
608.666	-0.21
609.085	0.04
609.503	-0.17
609.921	0.24
610.339	0.74
610.758	0.07
611.176	-0.46
611.594	-0.46
612.012	-0.6
612.43	0.31
612.847	0.17
613.265	1.34
613.683	0.89
614.101	1.46
614.518	0.25
614.936	-0.07
615.353	0.68
615.771	1.32
616.188	1.74
616.606	1.56
617.023	1.98
617.44	2.31
617.857	1.28
618.274	0.95
618.691	1.31
619.108	1.8
619.525	1.59
619.942	1.81
620.359	1.48
620.776	1.47
621.192	2.32
621.609	2.29
622.026	2.62
622.442	3.08
622.859	3.2
623.275	2.54
623.691	2.03
624.108	2.26
624.524	1.72
624.94	2.13
625.356	1.57
625.772	0.24
626.188	-0.3
626.604	-0.31
627.02	-0.87
627.436	0.04
627.852	1.73
628.268	3.14
628.683	3.11
629.099	2.32
629.514	1.53
629.93	1.43
630.345	1.8
630.761	0.67
631.176	0.69
631.591	1.85
632.007	1.98
632.422	-0.37
632.837	-2.05
633.252	-1.29
633.667	-0.35
634.082	-0.03
634.497	0.27
634.911	1.71
635.326	2.49
635.741	2.54
636.155	2.21
636.57	2.64
636.984	3.64
637.399	5.52
637.813	4.53
638.228	3.8
638.642	3.64
639.056	3.86
639.47	3.15
639.884	3.41
640.298	3.77
640.712	3.87
641.126	3.43
641.54	2.86
641.954	0.71
642.368	0.79
642.781	3.34
643.195	3.06
643.609	3.1
644.022	2.27
644.436	1.32
644.849	0.45
645.262	0.13
645.676	-1.12
646.089	-0.69
646.502	0.77
646.915	0.77
647.328	-0.1
647.741	0.55
648.154	0.67
648.567	2.52
648.98	3.72
649.393	4.12
649.805	3.86
650.218	3.55
650.631	3.61
651.043	3.57
651.456	3.79
651.868	2.57
652.28	1.35
652.693	0.52
653.105	-0.53
653.517	-1
653.929	-1.31
654.341	-0.56
654.753	1.15
655.165	-0.03
655.577	-0.04
655.989	-0.33
656.401	-0.96
656.813	0.24
657.224	0.29
657.636	-0.8
658.047	-0.38
658.459	-0.15
658.87	-1.42
659.282	-2.17
659.693	-0.52
660.104	-1.2
660.515	-1.54
660.926	-1.61
661.338	-2.15
661.749	-2.67
662.159	-1.34
662.57	-2.13
662.981	-1.88
663.392	-1.08
663.803	-1.49
664.213	-2.24
664.624	-2.37
665.035	-2.83
665.445	-2.57
665.855	-1.49
666.266	-0.51
666.676	-0.63
667.086	-1.18
667.497	-1.05
667.907	-1.33
668.317	-1
668.727	1.34
669.137	0.88
669.547	1.24
669.956	0.34
670.366	0.25
670.776	0.31
671.186	-0.49
671.595	0.2
672.005	-0.88
672.414	-0.48
672.824	0.23
673.233	-2.28
673.642	-1.18
674.052	-0.57
674.461	1.68
674.87	1.08
675.279	2.27
675.688	1.18
676.097	2.25
676.506	3.06
676.915	2.65
677.323	1.88
677.732	2.3
678.141	1.29
678.549	1.09
678.958	-0.84
679.366	-1.74
679.775	-4.07
680.183	-1.91
680.592	-2.86
681	-2.71
681.408	-3
681.816	-2.69
682.224	-3.1
682.632	-0.64
683.04	-0.51
683.448	-0.02
683.856	1.61
684.264	3.21
684.671	1.41
685.079	0.08
685.487	-0.87
685.894	-1.31
686.302	-3.23
686.709	-2.54
687.116	-4.34
687.524	-3.48
687.931	-2.01
688.338	-1.9
688.745	-2.68
689.152	-2.71
689.559	-1.36
689.966	0.1
690.373	1.38
690.78	3.6
691.187	3.39
691.593	4.32
692	3.27
692.407	3.09
692.813	5.42
693.22	5.54
693.626	5.44
694.032	5.73
694.439	5.57
694.845	5.23
695.251	5.22
695.657	4.98
696.063	3.32
696.469	4.08
696.875	3.14
697.281	0.49
697.687	0.15
698.093	1.02
698.498	1.83
698.904	0.34
699.31	0.27
699.715	0.84
700.12	0.39
700.526	1.41
700.931	0.18
701.337	1.17
701.742	1.15
702.147	0.53
702.552	0.97
702.957	-0.94
703.362	0.17
703.767	-0.04
704.172	-0.89
704.577	-0.56
704.981	-2.1
705.386	-1.07
705.791	-1.19
706.195	-1.99
706.6	-1.18
707.004	-3.39
707.408	-3.07
707.813	-2.71
708.217	-2.48
708.621	-2.41
709.025	-2.66
709.43	-0.22
709.834	-0.52
710.237	-0.9
710.641	-0.23
711.045	0.57
711.449	2.67
711.853	5.65
712.256	4.91
712.66	4.57
713.064	4.88
713.467	5.62
713.87	4.94
714.274	5.91
714.677	6.44
715.08	7.21
715.484	7.15
715.887	8.56
716.29	6.01
716.693	7.01
717.096	8.3
717.499	8.05
717.901	7.27
718.304	6.49
718.707	4.39
719.109	3.32
719.512	1.95
719.915	3.44
720.317	1.55
720.719	0.83
721.122	0.65
721.524	0.7
721.926	4.87
722.328	4.8
722.731	4.32
723.133	4.69
723.535	4.94
723.937	5.67
724.338	6.47
724.74	8.14
725.142	52.28
725.544	55.36
725.945	65.51
726.347	61.13
726.748	61.47
727.15	62.37
727.551	65.78
727.952	63.75
728.354	62.74
728.755	61.25
729.156	59.91
729.557	16.11
729.958	12.08
730.359	2.06
730.76	2.84
731.161	3.17
731.562	1.33
731.962	-1.75
732.363	-0.57
732.763	-0.46
733.164	-2.47
733.564	-2.4
733.965	-1.16
734.365	-0.23
734.766	-0.94
735.166	-0.87
735.566	0.05
735.966	1.71
736.366	2.12
736.766	2.38
737.166	2.68
737.566	3.94
737.966	4.41
738.365	5.79
738.765	6.36
739.165	6.96
739.564	6.08
739.964	3.29
740.363	2.27
740.763	0.64
741.162	2.11
741.561	1.96
741.96	1.21
742.36	-0.29
742.759	-0.95
743.158	-2.11
743.557	-2.59
743.955	-3.45
744.354	-2.63
744.753	-3.39
745.152	-0.33
745.55	-2.2
745.949	-2.25
746.348	-1.37
746.746	-1.65
747.144	-0.27
747.543	-0.21
747.941	-0.98
748.339	-0.42
748.737	0.96
749.136	2.37
749.534	-0.43
749.932	0.72
750.33	0.21
750.727	-1.1
751.125	0.47
751.523	-1.2
751.921	1.43
752.318	2.91
752.716	4.28
753.113	3.8
753.511	4.01
753.908	5.76
754.305	10.01
754.703	10.32
755.1	12.64
755.497	11.98
755.894	11.86
756.291	9.34
756.688	8.71
757.085	7.13
757.482	7.57
757.878	8.49
758.275	8.8
758.672	1.53
759.068	0.55
759.465	-4.08
759.861	-7.48
760.258	-12.05
760.654	-12.29
761.05	-10.03
761.447	-8.47
761.843	-5.63
762.239	-5.44
762.635	-8.78
