Data from N_1_HIR_WI_4N_Splice17_11-39-12-121.txt Node
Date: Sat Mar 14 11:39:12 EDT 2020
User: sa697716
Spectrometer: FLMS03696
Trigger mode: 0
Integration Time (sec): 3.180400E-1
Scans to average: 20
Electric dark correction enabled: true
Nonlinearity correction enabled: true
Boxcar width: 5
XAxis mode: Wavelengths
Number of Pixels in Spectrum: 2048
>>>>>Begin Spectral Data<<<<<
187.83	-186813.89
188.298	1514.49
188.766	782.54
189.233	665.83
189.701	950.97
190.169	1216.8
190.636	427.3
191.104	323.44
191.571	13.35
192.039	-65.58
192.506	-102.01
192.974	333.95
193.441	-193.37
193.908	-75.07
194.375	-7.34
194.842	19.95
195.31	102.62
195.777	142.5
196.244	313.68
196.711	378.77
197.177	477.12
197.644	659.3
198.111	1136.97
198.578	1574.93
199.045	1243.7
199.511	1969.89
199.978	2238.31
200.445	1846.98
200.911	2031.29
201.378	2234.64
201.844	1993.11
202.31	3333.25
202.777	3446.05
203.243	1881.7
203.709	1740.44
204.176	2034.83
204.642	1671.56
205.108	1592.15
205.574	1294.74
206.04	1158.72
206.506	1067.91
206.972	988.91
207.438	935.16
207.903	1041.6
208.369	929.58
208.835	928.14
209.301	980.14
209.766	991.73
210.232	957.7
210.697	1156.48
211.163	1406.85
211.628	2112.17
212.094	1774.58
212.559	2179.53
213.024	1339.95
213.49	1606.93
213.955	1522.76
214.42	1444.98
214.885	1311.09
215.35	1233.93
215.815	1189.9
216.28	1219.13
216.745	959.93
217.21	1000.82
217.675	863.12
218.14	903.45
218.604	916.17
219.069	961.76
219.534	941.55
219.998	1003.76
220.463	1117.73
220.927	1202.34
221.392	1046.66
221.856	983.33
222.32	1109.67
222.785	1279.21
223.249	1492.02
223.713	1555.69
224.177	1506.5
224.642	1791.8
225.106	2093.86
225.57	2129.47
226.034	1576.11
226.497	2321.55
226.961	2038.99
227.425	2320.26
227.889	2454.62
228.353	2364.44
228.816	4690.63
229.28	4278.89
229.744	3494.1
230.207	2118.75
230.671	2085.98
231.134	3232.85
231.597	3659.23
232.061	3509.83
232.524	3301.86
232.987	2263.49
233.45	2021.69
233.914	1770.26
234.377	1747.45
234.84	1609.84
235.303	1814.42
235.766	1952.4
236.229	1977.18
236.691	1215.81
237.154	1345.52
237.617	1020.94
238.08	1007.34
238.542	1183.34
239.005	858.1
239.468	866.99
239.93	801.78
240.393	740.53
240.855	650.62
241.317	653.61
241.78	773.27
242.242	819.19
242.704	910.37
243.166	804.55
243.629	740.53
244.091	864.24
244.553	942.57
245.015	1024.94
245.477	1307.76
245.939	1878.98
246.4	2021.28
246.862	1948.31
247.324	1819.53
247.786	1967.33
248.247	2498.3
248.709	2437.06
249.17	1818.39
249.632	1760.6
250.093	2071.66
250.555	1772.06
251.016	1122.12
251.477	1074.16
251.939	1176.23
252.4	1203.04
252.861	1408.27
253.322	1351.42
253.783	1588.21
254.244	2018.05
254.705	1536.05
255.166	1324.26
255.627	1294
256.088	1844.34
256.549	1931.45
257.009	1635.92
257.47	1972.04
257.931	1576.94
258.391	1193.83
258.852	1245.65
259.312	1281.69
259.773	1553.3
260.233	1341.89
260.694	1148.11
261.154	1230.63
261.614	1036.6
262.074	919.88
262.534	975.99
262.994	933.28
263.455	1187.6
263.915	1010.41
264.374	958.25
264.834	1023.89
265.294	1086.33
265.754	1109.13
266.214	1056.65
266.673	955.99
267.133	1178.99
267.593	1143.79
268.052	1385.55
268.512	1170.12
268.971	1437.25
269.431	1567.24
269.89	1418.74
270.349	2123.75
270.809	2402.87
271.268	2176.36
271.727	4753.12
272.186	3081.21
272.645	2275.38
273.104	1597.27
273.563	2340.86
274.022	1758.67
274.481	1519.09
274.94	1200.83
275.399	898.32
275.857	1012.71
276.316	1331.72
276.775	1197.35
277.233	1200.64
277.692	1181.85
278.15	1376.37
278.609	1483.26
279.067	1391.67
279.525	1320.91
279.984	1686.76
280.442	2042.91
280.9	2123.25
281.358	1417.92
281.816	1340.83
282.274	1329.46
282.732	1337.53
283.19	1343.38
283.648	1156.27
284.106	1232.88
284.564	1231.37
285.021	1175.43
285.479	880.88
285.937	767.06
286.394	708.02
286.852	728.23
287.309	775.33
287.767	793.17
288.224	774.05
288.682	845.11
289.139	954.87
289.596	896.74
290.053	904.73
290.511	1127.99
290.968	1405.85
291.425	1857.8
291.882	1585.32
292.339	1384.46
292.796	1319.99
293.252	1219.13
293.709	1001.43
294.166	890.23
294.623	964.74
295.079	921.69
295.536	942.25
295.992	848.29
296.449	839.73
296.905	866.72
297.362	838.95
297.818	875.19
298.274	932.13
298.731	933.76
299.187	925.8
299.643	984.51
300.099	1207.36
300.555	1317.94
301.011	1108.73
301.467	1131.76
301.923	1283.07
302.379	1257.66
302.835	1245.17
303.291	1246.46
303.746	1409.6
304.202	1794.29
304.658	1800.06
305.113	1240.08
305.569	1227.25
306.024	1314.08
306.479	1202.35
306.935	1084.83
307.39	1153.86
307.845	1097.69
308.301	1113.49
308.756	1088.21
309.211	1050.16
309.666	1087.59
310.121	1392.84
310.576	1425.18
311.031	1401.92
311.486	1591.8
311.94	1530.52
312.395	2091.91
312.85	3849.92
313.305	18413.5
313.759	102238.78
314.214	7586.45
314.668	6210.95
315.123	5181.74
315.577	1911.48
316.032	1740.03
316.486	2189.45
316.94	1803.97
317.394	1289.01
317.849	1010.86
318.303	966.17
318.757	904.05
319.211	986.33
319.665	853.11
320.119	857.29
320.572	1186.34
321.026	1114.49
321.48	936.51
321.934	993.78
322.387	985.28
322.841	1091.8
323.295	1027.59
323.748	1137.79
324.202	1170.28
324.655	1416.94
325.108	2033.86
325.562	1474.23
326.015	1726.42
326.468	1311.47
326.921	1473.67
327.374	1410.14
327.827	1489.41
328.28	1660.67
328.733	1147.57
329.186	1008.59
329.639	968.99
330.092	819.31
330.545	785.75
330.997	817.27
331.45	924.33
331.903	1099.2
332.355	1840.75
332.808	1774.9
333.26	1464.02
333.713	1607.79
334.165	1619.41
334.617	2134.19
335.069	1665.6
335.522	2995.58
335.974	3278.84
336.426	2965.19
336.878	2006.24
337.33	1048.66
337.782	1017.91
338.234	1339.79
338.686	1575.88
339.137	1886.42
339.589	1823.24
340.041	1472.24
340.493	1262.59
340.944	1311.9
341.396	1413.19
341.847	1243.31
342.299	1490.14
342.75	1847.16
343.201	1560.77
343.653	1783.79
344.104	2163.69
344.555	1676.47
345.006	2479.75
345.457	1985.9
345.908	1549.17
346.359	1470.37
346.81	1165.35
347.261	1191.2
347.712	1148.84
348.163	1208.8
348.613	1287.98
349.064	1200.56
349.515	1058.71
349.965	1137.63
350.416	1324.95
350.866	1445.96
351.317	1602.41
351.767	2695.37
352.217	3407.05
352.668	2876.5
353.118	2688.32
353.568	2472.27
354.018	1997.5
354.468	2132.22
354.918	1538.41
355.368	1385.34
355.818	1974.09
356.268	5595.21
356.718	23622.58
357.168	6169.1
357.617	3089.2
358.067	3406.52
358.517	3244.72
358.966	3866.39
359.416	4397.86
359.865	4754.74
360.315	5545.37
360.764	2606.07
361.213	1484.84
361.663	1376.9
362.112	1640.33
362.561	2649.73
363.01	2013.78
363.459	1689.93
363.908	1788.36
364.357	1570.79
364.806	2616.4
365.255	1797.21
365.703	1694.17
366.152	1717.08
366.601	1426.34
367.05	1190.31
367.498	1089.9
367.947	1138.53
368.395	1162.23
368.844	1065.61
369.292	1210.02
369.74	862.73
370.189	1320.8
370.637	1533.44
371.085	1327.53
371.533	1599.26
371.981	1522.58
372.429	1476.88
372.877	1562.15
373.325	1326.43
373.773	1322.46
374.221	1204.84
374.669	1484.46
375.116	1274.15
375.564	1291.28
376.012	1431.86
376.459	1197.14
376.907	1429
377.354	1708.14
377.801	1627.49
378.249	1910.81
378.696	2472.82
379.143	3034.64
379.591	3315.98
380.038	5686.1
380.485	4219.29
380.932	4673.72
381.379	4488.34
381.826	3499.01
382.273	2573.69
382.72	2257.72
383.166	2295.24
383.613	1559.23
384.06	1467.56
384.506	1773.86
384.953	1379.92
385.4	1462.16
385.846	1364.72
386.292	1424.65
386.739	1489.07
387.185	1616.16
387.631	1816.51
388.078	1972.19
388.524	2327.12
388.97	2336.77
389.416	2088
389.862	2340.37
390.308	2326.41
390.754	2525.32
391.2	2951.51
391.645	3313.59
392.091	3486.96
392.537	3635.18
392.983	3866.36
393.428	4001.35
393.874	4530.76
394.319	4926.41
394.765	5188.24
395.21	5985.99
395.655	6274.99
396.101	6502.23
396.546	6451.5
396.991	7114.19
397.436	7232.59
397.881	7655.08
398.326	7986.41
398.771	8251.64
399.216	7843.81
399.661	7578.07
400.106	8007.36
400.551	8627.7
400.995	8113.48
401.44	8336.68
401.885	8112.16
402.329	8435.98
402.774	8296.36
403.218	8184.72
403.663	8093.43
404.107	8514.17
404.551	8815.65
404.995	8344.98
405.44	8328.9
405.884	8737.21
406.328	8729.3
406.772	8927.43
407.216	8357.88
407.66	8345.43
408.104	8261.45
408.547	8012.12
408.991	8004.83
409.435	7927.19
409.879	7984.64
410.322	8037.79
410.766	7916.8
411.209	7694.75
411.653	7596.93
412.096	7626.7
412.54	7820.83
412.983	7914.93
413.426	8056.9
413.869	8202.44
414.312	8164.26
414.756	8017.38
415.199	7782.68
415.642	7670.91
416.085	7790.7
416.527	7829.37
416.97	8056.82
417.413	7705.54
417.856	7703.29
418.298	7678.62
418.741	7659.02
419.184	7678.07
419.626	8031.76
420.069	8054.27
420.511	8126
420.953	7994.92
421.396	7985.08
421.838	7861.01
422.28	8103.57
422.722	8201.1
423.164	8439.41
423.606	8407.28
424.048	8528.74
424.49	8195.67
424.932	8267.05
425.374	8257.47
425.816	8457.19
426.258	8588.16
426.699	8562.17
427.141	8249.62
427.582	8229.97
428.024	8089.79
428.465	8064.44
428.907	7959.15
429.348	8020.31
429.789	8146.23
430.231	8072.26
430.672	8287.67
431.113	8257.83
431.554	8404.91
431.995	8584.87
432.436	8623.89
432.877	8753.59
433.318	8818.14
433.759	8963.7
434.2	9099.15
434.64	9130.52
435.081	9283.26
435.522	8945.18
435.962	8795.8
436.403	8747.43
436.843	9023.35
437.284	8980.41
437.724	8856.99
438.164	9016.99
438.604	8909.69
439.045	8648.19
439.485	8385.72
439.925	8362.51
440.365	8298.32
440.805	8305.58
441.245	8292.74
441.685	8047.69
442.125	8053.5
442.564	8148.24
443.004	7977.61
443.444	7992.34
443.883	8051.53
444.323	8090.52
444.762	8203.82
445.202	8379.22
445.641	8558.32
446.081	8595.29
446.52	8728.51
446.959	8705.73
447.398	8565.83
447.837	8570.96
448.276	8521.05
448.716	8666.86
449.154	8777.12
449.593	8531.48
450.032	8484.99
450.471	8348.91
450.91	8354.1
451.349	8298.37
451.787	8250.37
452.226	8344.62
452.664	8308.54
453.103	8287.6
453.541	8276.28
453.98	8215.72
454.418	8287.89
454.856	8133.93
455.295	8101.68
455.733	8123.69
456.171	8154.54
456.609	8121.15
457.047	8105.75
457.485	8177.56
457.923	8161.07
458.361	8045.69
458.798	8086.62
459.236	8078.46
459.674	8183.37
460.111	8257.28
460.549	8206.83
460.987	8230.25
461.424	8259.46
461.862	8253.98
462.299	8172.67
462.736	8192.71
463.173	8250.29
463.611	8143.1
464.048	8138.06
464.485	8233.72
464.922	8215.64
465.359	8256.68
465.796	8094.06
466.233	8096.55
466.67	8065.4
467.106	8102.86
467.543	8116.58
467.98	8106.7
468.416	8042.31
468.853	8111.66
469.29	7980.98
469.726	7983.21
470.162	7849.73
470.599	7943.83
471.035	7976.1
471.471	7888.64
471.907	7960.47
472.344	7986.51
472.78	8042.61
473.216	8188.93
473.652	8100.62
474.088	8111.26
474.523	8101.24
474.959	8208.54
475.395	8149.87
475.831	8094.57
476.266	8143.8
476.702	8124.31
477.138	8031.68
477.573	8011.17
478.008	7973.64
478.444	7995.62
478.879	8027.47
479.314	8034.05
479.75	7993.15
480.185	7999.52
480.62	8034.24
481.055	8024.51
481.49	8010.17
481.925	8039.45
482.36	8023.45
482.795	8093.69
483.229	8139.87
483.664	8144.52
484.099	8038.54
484.534	8036.25
484.968	8004.15
485.403	7942.73
485.837	7868.82
486.271	7796.57
486.706	7783.39
487.14	7729.8
487.574	7643.41
488.009	7620.89
488.443	7582.62
488.877	7637.57
489.311	7644.38
489.745	7703.94
490.179	7733.95
490.613	7812.24
491.046	7847.27
491.48	7863.84
491.914	7831.06
492.348	7847.41
492.781	7854.75
493.215	7852.62
493.648	7871.32
494.082	7917.21
494.515	7889.3
494.948	7927.49
495.382	7950.98
495.815	7940.76
496.248	7931.83
496.681	8005.5
497.114	8057.58
497.547	8076.58
497.98	8102.81
498.413	8043.99
498.846	8030.52
499.279	8032.4
499.711	8004.72
500.144	7953.19
500.577	7957.82
501.009	7975.24
501.442	7968.61
501.874	7898.46
502.306	7870.49
502.739	7870.9
503.171	7975.35
503.603	7955.4
504.036	7976.24
504.468	7944.35
504.9	7957.31
505.332	7943.22
505.764	7904.95
506.196	7895.32
506.627	7932.95
507.059	7941.96
507.491	7939.44
507.923	7811.05
508.354	7831.38
508.786	7818.95
509.217	7862.76
509.649	7877.9
510.08	7917.05
510.512	7912.42
510.943	7892.22
511.374	7845.22
511.805	7862.36
512.237	7873.92
512.668	7970.87
513.099	8002.19
513.53	7996.18
513.961	7926.65
514.391	7932.35
514.822	7936.38
515.253	7978.82
515.684	7966.28
516.114	7986.36
516.545	7968.35
516.975	7984.91
517.406	7966.24
517.836	7889.59
518.267	7865.6
518.697	7921.12
519.127	7904.69
519.558	7904.08
519.988	7875.35
520.418	7884.2
520.848	7929.64
521.278	7918.2
521.708	7753.62
522.138	7750.28
522.567	7834.22
522.997	7865.14
523.427	7830.28
523.857	7794.92
524.286	7739.75
524.716	7721.47
525.145	7726.27
525.575	7698.7
526.004	7698.67
526.433	7763.03
526.863	7700.94
527.292	7595.09
527.721	7588.91
528.15	7612.16
528.579	7613.56
529.008	7646.91
529.437	7717.23
529.866	7724.52
530.295	7739.19
530.724	7720.47
531.152	7774.5
531.581	7774.31
532.01	7804.04
532.438	7798.57
532.867	7814.78
533.295	7846.22
533.723	7829.63
534.152	7786.93
534.58	7766.43
535.008	7682.59
535.436	7666.92
535.865	7675.89
536.293	7707.77
536.721	7726.72
537.149	7766.8
537.576	7710.09
538.004	7713.97
538.432	7718.79
538.86	7688.81
539.287	7698.78
539.715	7730.59
540.143	7734.11
540.57	7711.85
540.998	7701.79
541.425	7620.22
541.852	7567.18
542.28	7601.9
542.707	7569.29
543.134	7537.78
543.561	7545.42
543.988	7532.24
544.415	7552.4
544.842	7543.62
545.269	7527.74
545.696	7547.36
546.123	7623.72
546.549	7598.73
546.976	7559.39
547.403	7572.23
547.829	7596.66
548.256	7625.66
548.682	7634.04
549.108	7619.21
549.535	7640.95
549.961	7670.4
550.387	7632.73
550.813	7618.09
551.24	7662.43
551.666	7689.82
552.092	7670
552.518	7662.56
552.943	7643.15
553.369	7681.84
553.795	7708.53
554.221	7714.04
554.646	7700.67
555.072	7736.08
555.498	7752
555.923	7769.08
556.349	7802.8
556.774	7815.36
557.199	7800.62
557.625	7820.91
558.05	7788.61
558.475	7835.05
558.9	7827.14
559.325	7792
559.75	7773.25
560.175	7757.68
560.6	7748.34
561.025	7758.96
561.449	7775.66
561.874	7806.35
562.299	7817.01
562.723	7838.23
563.148	7782.86
563.572	7798.77
563.997	7841.83
564.421	7869.78
564.846	7865.88
565.27	7868.71
565.694	7843.97
566.118	7883.9
566.542	7903.38
566.966	7870.78
567.39	7844.19
567.814	7789.73
568.238	7777.84
568.662	7798.46
569.086	7812.12
569.509	7863.37
569.933	7818.39
570.357	7823.47
570.78	7767.04
571.204	7741.63
571.627	7733.33
572.05	7767.5
572.474	7807.55
572.897	7797.19
573.32	7797.52
573.743	7790.67
574.166	7733.68
574.589	7767.75
575.012	7753.79
575.435	7769.51
575.858	7754.37
576.281	7736.34
576.704	7706
577.126	7702.06
577.549	7700.28
577.972	7708.38
578.394	7705.45
578.817	7713.85
579.239	7681.85
579.661	7679.25
580.084	7665.81
580.506	7669.58
580.928	7717.33
581.35	7721.4
581.772	7753.1
582.194	7732.05
582.616	7706.43
583.038	7674
583.46	7667.47
583.882	7681.69
584.303	7736.53
584.725	7741.86
585.147	7730.75
585.568	7759.81
585.99	7774.59
586.411	7750.23
586.833	7779.15
587.254	7761
587.675	7822.39
588.096	7877.87
588.518	7849.36
588.939	7762.4
589.36	7759.83
589.781	7769.67
590.202	7668.41
590.623	7703.42
591.043	7780.08
591.464	7788.09
591.885	7821.37
592.305	7837.32
592.726	7808.2
593.147	7857.54
593.567	7871.19
593.987	7867.57
594.408	7872.11
594.828	7908.43
595.248	7894.35
595.669	7816.33
596.089	7811
596.509	7815.18
596.929	7767.06
597.349	7789.72
597.769	7748.24
598.189	7721.4
598.608	7732.25
599.028	7743.83
599.448	7753.77
599.867	7704.35
600.287	7702.82
600.706	7692.52
601.126	7652.88
601.545	7664.12
601.965	7678.82
602.384	7671.22
602.803	7710.46
603.222	7706.09
603.641	7697.69
604.061	7692.48
604.48	7690.78
604.898	7751.02
605.317	7794.5
605.736	7814.67
606.155	7802.79
606.574	7756.92
606.992	7794.23
607.411	7773.66
607.829	7745.28
608.248	7739.8
608.666	7746.86
609.085	7755.62
609.503	7722.49
609.921	7698.99
610.339	7728.66
610.758	7746.95
611.176	7739.54
611.594	7705.62
612.012	7712.57
612.43	7744.24
612.847	7794.82
613.265	7799.93
613.683	7836.55
614.101	7856.71
614.518	7859.69
614.936	7828.56
615.353	7771.43
615.771	7783.95
616.188	7818.6
616.606	7829.16
617.023	7824.22
617.44	7781.63
617.857	7797.66
618.274	7792.01
618.691	7790.11
619.108	7763.44
619.525	7748.43
619.942	7801.73
620.359	7829.41
620.776	7805.25
621.192	7773.97
621.609	7753.57
622.026	7777.71
622.442	7790.07
622.859	7796.79
623.275	7746.4
623.691	7772.04
624.108	7831.81
624.524	7909.49
624.94	7889.59
625.356	7934.38
625.772	8007.21
626.188	8073.29
626.604	8072.52
627.02	8041.37
627.436	8016.41
627.852	8039.52
628.268	8096.69
628.683	8032.58
629.099	7975.89
629.514	7961.49
629.93	7996.9
630.345	8033.82
630.761	8025.17
631.176	8066.52
631.591	8045.23
632.007	8032.06
632.422	8056.15
632.837	8021.54
633.252	8030.25
633.667	8005
634.082	7981.7
634.497	7934.95
634.911	7845.55
635.326	7867.73
635.741	7805.33
636.155	7800.35
636.57	7848.52
636.984	7888.96
637.399	7934.72
637.813	7993.51
638.228	8036.03
638.642	8117.53
639.056	8106.07
639.47	8170.43
639.884	8171.81
640.298	8190.55
640.712	8241.24
641.126	8228.77
641.54	8244.71
641.954	8303.58
642.368	8282.92
642.781	8278.21
643.195	8217.63
643.609	8278.82
644.022	8291.33
644.436	8310.19
644.849	8271.24
645.262	8231.33
645.676	8292.09
646.089	8287.93
646.502	8187.76
646.915	8189.68
647.328	8118
647.741	8149.65
648.154	8099.12
648.567	8103.54
648.98	8044.45
649.393	8096.44
649.805	8116.01
650.218	8101.82
650.631	8022.75
651.043	8026.41
651.456	8012.1
651.868	8047.03
652.28	8193.61
652.693	8273.04
653.105	8279.66
653.517	8281.42
653.929	8219.11
654.341	8218.02
654.753	8095.94
655.165	8150.05
655.577	8147.89
655.989	8147.14
656.401	8139.41
656.813	7909.51
657.224	7864.41
657.636	7788.53
658.047	7795.29
658.459	7784.52
658.87	7856.73
659.282	7884.89
659.693	7790.9
660.104	7745.83
660.515	7706.24
660.926	7759.85
661.338	7816.84
661.749	7833.66
662.159	7803.35
662.57	7843
662.981	7857.37
663.392	7835.28
663.803	7921.72
664.213	7956.78
664.624	7969.59
665.035	8051.77
665.445	7971.3
665.855	7931.04
666.266	7876.43
666.676	7891.65
667.086	7827.63
667.497	7838.81
667.907	7792.04
668.317	7711.01
668.727	7646.61
669.137	7666.25
669.547	7638.57
669.956	7664.29
670.366	7681.94
670.776	7685.45
671.186	7714.9
671.595	7727.68
672.005	7756.02
672.414	7723.1
672.824	7681
673.233	7747.04
673.642	7745.72
674.052	7738.28
674.461	7716.95
674.87	7739.26
675.279	7678.91
675.688	7678.62
676.097	7648.87
676.506	7579.62
676.915	7698.17
677.323	7691.02
677.732	7638.23
678.141	7596.62
678.549	7468.77
678.958	7434.6
679.366	7389.87
679.775	7407.37
680.183	7420.08
680.592	7426.73
681	7417.05
681.408	7280.85
681.816	7279.19
682.224	7280.59
682.632	7260.08
683.04	7406.99
683.448	7454.76
683.856	7490.26
684.264	7510.77
684.671	7509.77
685.079	7538.97
685.487	7584.57
685.894	7736.47
686.302	7784.62
686.709	7737.58
687.116	7735.75
687.524	7666.22
687.931	7603.04
688.338	7562.54
688.745	7532.72
689.152	7513.95
689.559	7530.29
689.966	7512.54
690.373	7368.91
690.78	7308.4
691.187	7344.89
691.593	7290.53
692	7211.57
692.407	7209.28
692.813	7241.75
693.22	7224.39
693.626	7227.06
694.032	7185.6
694.439	7251.27
694.845	7254.96
695.251	7319.18
695.657	7353.59
696.063	7494.32
696.469	7540.34
696.875	7558.76
697.281	7486.4
697.687	7431.08
698.093	7341.94
698.498	7351.76
698.904	7309.63
699.31	7356.93
699.715	7336.54
700.12	7408.83
700.526	7309.94
700.931	7350.92
701.337	7358.55
