Data from N_1_DEC_OH_4N_Splice17_11-20-42-072.txt Node
Date: Sat Mar 14 11:20:42 EDT 2020
User: sa697716
Spectrometer: FLMS03696
Trigger mode: 0
Integration Time (sec): 3.180400E-1
Scans to average: 20
Electric dark correction enabled: true
Nonlinearity correction enabled: true
Boxcar width: 5
XAxis mode: Wavelengths
Number of Pixels in Spectrum: 2048
>>>>>Begin Spectral Data<<<<<
187.83	-137381.77
188.298	989.04
188.766	631.26
189.233	586.38
189.701	814
190.169	1109.44
190.636	472.6
191.104	452.04
191.571	134.64
192.039	79.9
192.506	180.91
192.974	532.3
193.441	-708.12
193.908	-40.54
194.375	38.93
194.842	93.16
195.31	142.62
195.777	168.37
196.244	259.06
196.711	209.56
197.177	228.08
197.644	251.77
198.111	357.46
198.578	416.1
199.045	305.49
199.511	440.01
199.978	429.41
200.445	390.18
200.911	397.23
201.378	410.48
201.844	390.93
202.31	627.87
202.777	634.59
203.243	354.62
203.709	347.4
204.176	406.86
204.642	356.6
205.108	346.54
205.574	277.46
206.04	255.78
206.506	238.92
206.972	222.14
207.438	206.27
207.903	229.93
208.369	228.61
208.835	241.37
209.301	248.66
209.766	236.72
210.232	249.61
210.697	297.18
211.163	340.71
211.628	496.62
212.094	404.43
212.559	535.83
213.024	359.96
213.49	431.78
213.955	383.8
214.42	350.51
214.885	342.61
215.35	321.59
215.815	330.6
216.28	346.83
216.745	275.72
217.21	304.9
217.675	251.56
218.14	246.46
218.604	241.14
219.069	269.76
219.534	293.19
219.998	285.26
220.463	309.3
220.927	302.6
221.392	274.39
221.856	264.91
222.32	264.47
222.785	325.28
223.249	383.53
223.713	382.67
224.177	376.67
224.642	396.02
225.106	443.44
225.57	446.02
226.034	384.53
226.497	518.83
226.961	491.07
227.425	571.16
227.889	570.3
228.353	537.59
228.816	1009.9
229.28	869.6
229.744	709.92
230.207	515.91
230.671	523.2
231.134	664.85
231.597	797.62
232.061	717.18
232.524	665.02
232.987	466.58
233.45	467.94
233.914	426.99
234.377	356.77
234.84	322.85
235.303	315.7
235.766	334.67
236.229	359.46
236.691	182.48
237.154	174.31
237.617	147.02
238.08	111.07
238.542	101
239.005	82.72
239.468	109.28
239.93	96.99
240.393	97.35
240.855	87.47
241.317	73.67
241.78	91.19
242.242	120.34
242.704	134.87
243.166	142.02
243.629	160.43
244.091	186.85
244.553	190.23
245.015	207.53
245.477	238.07
245.939	315.95
246.4	362.99
246.862	339.7
247.324	279.66
247.786	286.04
248.247	278.83
248.709	146.54
249.17	112.58
249.632	198.52
250.093	293.01
250.555	309.02
251.016	216.57
251.477	213.85
251.939	248.62
252.4	257.98
252.861	300.3
253.322	328.31
253.783	398.88
254.244	482.6
254.705	336.29
255.166	268.83
255.627	227.59
256.088	324.58
256.549	353.01
257.009	301.89
257.47	369
257.931	282.19
258.391	221.11
258.852	216.07
259.312	205.68
259.773	232.99
260.233	244
260.694	241.72
261.154	244.47
261.614	220.53
262.074	182.07
262.534	191.7
262.994	204.1
263.455	247.52
263.915	240.17
264.374	240.91
264.834	262.83
265.294	262.3
265.754	269.91
266.214	259.58
266.673	224.04
267.133	268.1
267.593	246.44
268.052	285.5
268.512	229.24
268.971	293.79
269.431	321.44
269.89	299.44
270.349	421.72
270.809	482.13
271.268	436.2
271.727	913.87
272.186	619.71
272.645	497.12
273.104	326.24
273.563	489.26
274.022	298.89
274.481	290.13
274.94	222.62
275.399	163.38
275.857	162.79
276.316	215.45
276.775	198.84
277.233	188.62
277.692	197.96
278.15	232.2
278.609	272.5
279.067	268.96
279.525	277.78
279.984	335.06
280.442	431.5
280.9	487.6
281.358	303.07
281.816	286.05
282.274	288.86
282.732	241.05
283.19	235.05
283.648	191.46
284.106	185.89
284.564	149.61
285.021	178.96
285.479	137.53
285.937	88.69
286.394	100.66
286.852	96.41
287.309	92.05
287.767	127.03
288.224	139.23
288.682	152.84
289.139	195.69
289.596	184.63
290.053	170.39
290.511	181.15
290.968	241
291.425	311.36
291.882	304.01
292.339	292.11
292.796	273.72
293.252	245.92
293.709	211.3
294.166	177.76
294.623	183.62
295.079	166.62
295.536	190.27
295.992	182.81
296.449	180.68
296.905	192.04
297.362	211.45
297.818	209.01
298.274	233.98
298.731	229.04
299.187	224.21
299.643	246.81
300.099	299.83
300.555	317.57
301.011	261.72
301.467	282.47
301.923	290.72
302.379	266.05
302.835	267.79
303.291	244.23
303.746	256.12
304.202	310.98
304.658	313.08
305.113	232.28
305.569	233.24
306.024	246.03
306.479	200.61
306.935	197.12
307.39	184.35
307.845	182.2
308.301	204.88
308.756	199.19
309.211	227.76
309.666	224.58
310.121	303.74
310.576	291.34
311.031	263.26
311.486	248.94
311.94	208.26
312.395	293.54
312.85	473.49
313.305	1466.4
313.759	12722.5
314.214	657.06
314.668	596.19
315.123	433.36
315.577	215.4
316.032	268.07
316.486	369.75
316.94	327.99
317.394	245
317.849	207.93
318.303	201
318.757	191.78
319.211	209.7
319.665	189.51
320.119	204.89
320.572	278.94
321.026	253.43
321.48	228.09
321.934	223.62
322.387	213.03
322.841	239.03
323.295	268.01
323.748	265.77
324.202	303.45
324.655	354.82
325.108	523.56
325.562	365.83
326.015	388.67
326.468	282.56
326.921	350.18
327.374	360.95
327.827	374.53
328.28	395.94
328.733	265.81
329.186	217.92
329.639	194.93
330.092	152.3
330.545	151.72
330.997	169.34
331.45	202.55
331.903	234.52
332.355	321.3
332.808	306.9
333.26	238.08
333.713	290
334.165	305.85
334.617	396.77
335.069	271.56
335.522	411.8
335.974	414.68
336.426	337.01
336.878	197.43
337.33	124.08
337.782	106.27
338.234	135.92
338.686	129.8
339.137	138.49
339.589	145.4
340.041	159.7
340.493	132.79
340.944	132.91
341.396	141.24
341.847	158.62
342.299	229.26
342.75	313.53
343.201	260.05
343.653	289.11
344.104	315.52
344.555	249.9
345.006	283.04
345.457	323.95
345.908	241.25
346.359	259.58
346.81	210.74
347.261	205.07
347.712	182.53
348.163	185.88
348.613	247.96
349.064	256.63
349.515	230.02
349.965	249.37
350.416	253.15
350.866	307.95
351.317	312.69
351.767	459.73
352.217	553.39
352.668	451.7
353.118	444.95
353.568	304.94
354.018	246.2
354.468	276.12
354.918	220.53
355.368	202.47
355.818	259.86
356.268	677.62
356.718	3379.98
357.168	899.88
357.617	506.21
358.067	507.73
358.517	483.03
358.966	581.69
359.416	725.94
359.865	752.89
360.315	789.57
360.764	390.5
361.213	217.87
361.663	178.93
362.112	196.54
362.561	268.28
363.01	218.22
363.459	166.76
363.908	183.27
364.357	181.8
364.806	306.22
365.255	206.04
365.703	218.89
366.152	230.94
366.601	193.89
367.05	182.7
367.498	182.55
367.947	185.09
368.395	193.92
368.844	167.98
369.292	152.3
369.74	112.5
370.189	169.72
370.637	173.32
371.085	170.73
371.533	210.72
371.981	150.07
372.429	159.49
372.877	165.36
373.325	154.13
373.773	166.07
374.221	134.55
374.669	144.48
375.116	136.79
375.564	133.26
376.012	122.5
376.459	105.56
376.907	146.57
377.354	151.57
377.801	176.33
378.249	212.05
378.696	200.27
379.143	301.63
379.591	323.34
380.038	459.92
380.485	367.32
380.932	368.52
381.379	421.09
381.826	377.95
382.273	259.58
382.72	168.89
383.166	193.93
383.613	158.55
384.06	131.74
384.506	171.72
384.953	141.87
385.4	137.97
385.846	127.61
386.292	89.09
386.739	68.45
387.185	56.12
387.631	68.31
388.078	82.07
388.524	87.32
388.97	87.17
389.416	68.74
389.862	75.1
390.308	75.73
390.754	86.7
391.2	97.76
391.645	90.35
392.091	119.1
392.537	120.37
392.983	94.86
393.428	114.44
393.874	113.02
394.319	130.48
394.765	142.57
395.21	138.67
395.655	131
396.101	128.67
396.546	121.53
396.991	105.01
397.436	97.21
397.881	93.26
398.326	67.24
398.771	73.96
399.216	54.18
399.661	41.31
400.106	43.28
400.551	44.25
400.995	40.41
401.44	40.56
401.885	41.68
402.329	40.28
402.774	42.35
403.218	51.03
403.663	46.69
404.107	51.76
404.551	54.96
404.995	50.06
405.44	41.14
405.884	37.64
406.328	32.5
406.772	28
407.216	27.77
407.66	23.16
408.104	17.42
408.547	16.34
408.991	16.63
409.435	13.65
409.879	14.07
410.322	18.17
410.766	18.85
411.209	23.41
411.653	24.4
412.096	25.74
412.54	25.06
412.983	25.59
413.426	28.59
413.869	24.54
414.312	27.09
414.756	27.75
415.199	26.57
415.642	28.92
416.085	29.02
416.527	26.5
416.97	23.92
417.413	25.48
417.856	22.86
418.298	21.31
418.741	21.13
419.184	17.46
419.626	12.03
420.069	10.94
420.511	10.21
420.953	11.09
421.396	13.54
421.838	13.04
422.28	12.64
422.722	14.63
423.164	13.27
423.606	13.46
424.048	12.94
424.49	15.66
424.932	14.08
425.374	13.76
425.816	11.36
426.258	10.04
426.699	9.61
427.141	13.17
427.582	11.2
428.024	10.43
428.465	9.31
428.907	8.8
429.348	8.66
429.789	11.76
430.231	14.2
430.672	14.64
431.113	15.63
431.554	18.19
431.995	15.34
432.436	17.8
432.877	19.43
433.318	23.68
433.759	22.97
434.2	23.46
434.64	21.88
435.081	19.73
435.522	18.72
435.962	18.21
436.403	17.51
436.843	14.77
437.284	12.59
437.724	9.3
438.164	4.6
438.604	5.22
439.045	5.85
439.485	7.41
439.925	6.59
440.365	6.63
440.805	5.21
441.245	5.04
441.685	6.59
442.125	5.81
442.564	4.99
443.004	6.88
443.444	6.38
443.883	7.04
444.323	4.19
444.762	1.52
445.202	0.53
445.641	1.98
446.081	1.71
446.52	3.31
446.959	4.14
447.398	7.2
447.837	6.75
448.276	6.94
448.716	7.74
449.154	6.39
449.593	9.34
450.032	9.73
450.471	8.73
450.91	7.21
451.349	7.03
451.787	6.8
452.226	5.47
452.664	5.05
453.103	5.23
453.541	3.27
453.98	7.52
454.418	6.92
454.856	7.97
455.295	7.87
455.733	9.53
456.171	8.89
456.609	10.17
457.047	10.59
457.485	11.93
457.923	13.46
458.361	13.35
458.798	11.76
459.236	11.21
459.674	9.18
460.111	9.87
460.549	10.44
460.987	9.65
461.424	8.44
461.862	8.54
462.299	8.36
462.736	8.65
463.173	8.59
463.611	10.46
464.048	11.77
464.485	14.15
464.922	12.61
465.359	10.99
465.796	17.15
466.233	17.98
466.67	19.47
467.106	20.73
467.543	19.09
467.98	18.42
468.416	17.12
468.853	16.5
469.29	14.68
469.726	15.88
470.162	16.07
470.599	11.36
471.035	10.26
471.471	8.91
471.907	6.63
472.344	6.71
472.78	7.82
473.216	7.01
473.652	6.41
474.088	5.9
474.523	5.39
474.959	5.18
475.395	4.77
475.831	5.46
476.266	4.68
476.702	4.59
477.138	4.92
477.573	4.47
478.008	3.8
478.444	4.95
478.879	7.29
479.314	7.07
479.75	6.87
480.185	6.38
480.62	5.83
481.055	5.63
481.49	6.85
481.925	7.08
482.36	7.99
482.795	7.85
483.229	6.69
483.664	5.34
484.099	5.83
484.534	6.68
484.968	7.36
485.403	7.45
485.837	7.76
486.271	7.04
486.706	6.22
487.14	5.07
487.574	5.78
488.009	6.05
488.443	5.53
488.877	5.64
489.311	4.96
489.745	5.1
490.179	5.06
490.613	6.99
491.046	7.08
491.48	7.4
491.914	7.88
492.348	7.8
492.781	7.68
493.215	8.24
493.648	7.62
494.082	7.43
494.515	7.61
494.948	8.27
495.382	6.4
495.815	6.91
496.248	7.27
496.681	6.71
497.114	5.84
497.547	6.41
497.98	7.46
498.413	8.61
498.846	9.2
499.279	8.64
499.711	7.97
500.144	8.42
500.577	8.71
501.009	8.07
501.442	9.38
501.874	10.52
502.306	9.42
502.739	10.71
503.171	10.41
503.603	10.23
504.036	10.07
504.468	10.82
504.9	10.4
505.332	9.69
505.764	10.93
506.196	10.25
506.627	10.56
507.059	11.73
507.491	8.77
507.923	8.69
508.354	9.18
508.786	9.58
509.217	9.81
509.649	10.05
510.08	10.21
510.512	10.55
510.943	10.69
511.374	10.62
511.805	10.14
512.237	10.85
512.668	10.61
513.099	9.86
513.53	9.94
513.961	9.94
514.391	10.1
514.822	11.02
515.253	10.65
515.684	11.39
516.114	11.13
516.545	11.96
516.975	12.2
517.406	12.44
517.836	12.74
518.267	13.16
518.697	13.94
519.127	14
519.558	13.24
519.988	13.12
520.418	12.85
520.848	12.68
521.278	12.12
521.708	28.59
522.138	28.93
522.567	28.31
522.997	27.99
523.427	27.28
523.857	27.69
524.286	27.8
524.716	28.19
525.145	28.49
525.575	29.35
526.004	29.13
526.433	13.35
526.863	13.3
527.292	15.29
527.721	16.09
528.15	16.05
528.579	16.61
529.008	16.86
529.437	16.24
529.866	15.74
530.295	15.38
530.724	16.89
531.152	17.17
531.581	17.85
532.01	17.36
532.438	16.94
532.867	17.02
533.295	16.89
533.723	16.75
534.152	16.99
534.58	17.53
535.008	18.03
535.436	17.75
535.865	17.11
536.293	16.1
536.721	15.66
537.149	15.92
537.576	16.34
538.004	16.17
538.432	16.13
538.86	16.8
539.287	16.49
539.715	16.72
540.143	16.61
540.57	17.54
540.998	18.12
541.425	19.8
541.852	19.44
542.28	19.24
542.707	18.93
543.134	19.36
543.561	19.05
543.988	19.47
544.415	18.99
544.842	18.28
545.269	17.63
545.696	18.14
546.123	17.83
546.549	18.42
546.976	18.29
547.403	19.22
547.829	18.42
548.256	17.74
548.682	17.66
549.108	18.24
549.535	18.34
549.961	18.41
550.387	17.87
550.813	18.25
551.24	18.35
551.666	18.46
552.092	17.89
552.518	18.07
552.943	19.14
553.369	18.7
553.795	18.72
554.221	18.96
554.646	18.96
555.072	19.97
555.498	18.23
555.923	17.17
556.349	16.87
556.774	16.44
557.199	16.62
557.625	15.6
558.05	16.41
558.475	16.24
558.9	16.42
559.325	16.8
559.75	16.47
560.175	17.05
560.6	17.25
561.025	17.15
561.449	17.64
561.874	17.06
562.299	18.1
562.723	17.1
563.148	16.73
563.572	16.21
563.997	16.15
564.421	15.32
564.846	14.68
565.27	15.13
565.694	15.4
566.118	15.14
566.542	16.71
566.966	16.83
567.39	17.22
567.814	17.14
568.238	17.37
568.662	16.6
569.086	16.46
569.509	16.39
569.933	16.94
570.357	16.82
570.78	16.65
571.204	16.53
571.627	15.72
572.05	15.62
572.474	16.13
572.897	15.85
573.32	16.75
573.743	16.79
574.166	17.03
574.589	16.29
575.012	16.36
575.435	15.97
575.858	15.43
576.281	15.95
576.704	15.32
577.126	13.84
577.549	13.9
577.972	13.09
578.394	13.32
578.817	15.05
579.239	15.06
579.661	14.83
580.084	16
580.506	15.43
580.928	14.44
581.35	14.94
581.772	15.73
582.194	15.68
582.616	15.33
583.038	13.98
583.46	12.31
583.882	11.93
584.303	11.49
584.725	10.52
585.147	14.43
585.568	14.64
585.99	14.88
586.411	14.83
586.833	14.95
587.254	15.4
587.675	15.6
588.096	15.6
588.518	15.99
588.939	15.76
589.36	16.09
589.781	11.77
590.202	13.94
590.623	14
591.043	13.83
591.464	13.6
591.885	14.1
592.305	14.67
592.726	14.3
593.147	14.16
593.567	14.86
593.987	14.88
594.408	14.64
594.828	12.47
595.248	12.68
595.669	13.44
596.089	13.17
596.509	12.48
596.929	12.32
597.349	12.03
597.769	11.97
598.189	11.48
598.608	11.05
599.028	11.17
599.448	10.69
599.867	9.83
600.287	8.87
600.706	9.3
601.126	9.24
601.545	9.74
601.965	9.85
602.384	9.23
602.803	9.01
603.222	9.13
603.641	8.84
604.061	9.59
604.48	9.7
604.898	9.66
605.317	9.74
605.736	9.8
606.155	10.15
606.574	10.03
606.992	10.99
607.411	11.6
607.829	10.61
608.248	10.54
608.666	9.59
609.085	10.06
609.503	10.27
609.921	10.11
610.339	10.12
610.758	9.32
611.176	10
611.594	9.83
612.012	9.76
612.43	11.19
612.847	11.03
613.265	11.84
613.683	11.66
614.101	11.53
614.518	11.47
614.936	11.34
615.353	11.78
615.771	11.65
616.188	12.01
616.606	11.66
617.023	11.47
617.44	11.47
617.857	11.07
618.274	10.76
618.691	11.12
619.108	10.75
619.525	10.75
619.942	10.6
620.359	10.02
620.776	9.19
621.192	9.84
621.609	10.34
622.026	11.27
622.442	11.21
622.859	10.5
623.275	9.74
623.691	10.09
624.108	10.09
624.524	10.11
624.94	10.8
625.356	10.42
625.772	9.52
626.188	8.46
626.604	7.65
627.02	7.4
627.436	8.24
627.852	8.7
628.268	8.82
628.683	8.25
629.099	8.22
629.514	7.23
629.93	7.75
630.345	8.11
630.761	7.68
631.176	8.02
631.591	10.26
632.007	10.3
632.422	10.12
632.837	8.84
633.252	10.1
633.667	10.34
634.082	10.6
634.497	10.5
634.911	12.04
635.326	11.92
635.741	12.13
636.155	10.67
636.57	11.46
636.984	11.84
637.399	13.87
637.813	12.92
638.228	13.04
638.642	12.78
639.056	12.59
639.47	10.83
639.884	11.59
640.298	11.55
640.712	12.18
641.126	11.62
641.54	10.84
641.954	8.82
642.368	9.41
642.781	11.23
643.195	11.16
643.609	11.85
644.022	11.64
644.436	10.89
644.849	10.26
645.262	9.14
645.676	8.36
646.089	8.94
646.502	10.39
646.915	9.82
647.328	7.92
647.741	8.49
648.154	8.51
648.567	10.74
648.98	11.94
649.393	12.67
649.805	13.08
650.218	13.55
650.631	14.13
651.043	14.23
651.456	14.5
651.868	13.84
652.28	13.44
652.693	13.09
653.105	11.72
653.517	10.9
653.929	10.51
654.341	10.12
654.753	10.77
655.165	10.28
655.577	9.81
655.989	10.03
656.401	9.6
656.813	10.91
657.224	10.4
657.636	9.2
658.047	10.34
658.459	9.84
658.87	9.07
659.282	8.68
659.693	9.43
660.104	10.02
660.515	9.81
660.926	9.9
661.338	9.12
661.749	8.44
662.159	10.14
662.57	8.71
662.981	8.72
663.392	9.25
663.803	8.45
664.213	7.21
664.624	6.46
665.035	5.71
665.445	5.91
665.855	6.89
666.266	8.03
666.676	7.62
667.086	7.74
667.497	8.2
667.907	8.36
668.317	9.43
668.727	11.23
669.137	10.02
669.547	10.45
669.956	10.21
670.366	9.05
670.776	9.06
671.186	8.68
671.595	8.72
672.005	8.17
672.414	9.17
672.824	9.11
673.233	7.08
673.642	7.96
674.052	8.16
674.461	9.56
674.87	9.84
675.279	10.44
675.688	9
676.097	10
676.506	10.77
676.915	8.77
677.323	8.92
677.732	9.08
678.141	9.2
678.549	8.89
678.958	6.82
679.366	6.44
679.775	5.81
680.183	8.21
680.592	8.06
681	7.69
681.408	9.14
681.816	8.49
682.224	8.27
682.632	9.01
683.04	9.11
683.448	9.54
683.856	10.15
684.264	10.35
684.671	9.72
685.079	9.07
685.487	9.34
685.894	9.07
686.302	8.58
686.709	9.61
687.116	10.46
687.524	12.24
687.931	14.36
688.338	15.68
688.745	15.02
689.152	14.37
689.559	14.81
689.966	16.21
690.373	16.1
690.78	18.16
691.187	18.83
691.593	18.64
692	17.88
692.407	17.58
692.813	18.89
693.22	20.17
693.626	19.34
694.032	20.22
694.439	19.76
694.845	20.03
695.251	19.33
695.657	19.36
696.063	18.07
696.469	18.58
696.875	18.97
697.281	17.11
697.687	16.89
698.093	17.61
698.498	17.92
698.904	17.08
699.31	17.65
699.715	19.39
700.12	19.4
700.526	20.8
700.931	19.81
701.337	19.8
701.742	21.33
702.147	21.46
702.552	23.07
702.957	21.98
703.362	23.29
703.767	22.94
704.172	21.53
704.577	21.07
704.981	19.73
705.386	20.61
705.791	21.36
706.195	21
706.6	21.17
707.004	19.06
707.408	19.44
707.813	19.86
708.217	21.4
708.621	21.37
709.025	21.22
709.43	23.47
709.834	23.91
710.237	22.82
710.641	21.77
711.045	22.32
711.449	24.4
711.853	27.11
712.256	25.93
712.66	24.9
713.064	25.23
713.467	26.61
713.87	25.19
714.274	25.87
714.677	27.19
715.08	29.25
715.484	29.33
715.887	32.27
716.29	30.03
716.693	31.76
717.096	32.32
717.499	32.95
717.901	32.7
718.304	33.94
718.707	33.09
719.109	32.92
719.512	31.7
719.915	32.73
720.317	30.99
720.719	30.03
721.122	30.01
721.524	30.96
721.926	33.02
722.328	33.7
722.731	34.11
723.133	34.21
723.535	34.38
723.937	34.5
724.338	35.69
724.74	34.74
725.142	71.14
725.544	73.88
725.945	82.99
726.347	81.48
726.748	81.14
727.15	81.69
727.551	84.39
727.952	83.65
728.354	82.56
728.755	81.07
729.156	81.05
729.557	46.51
729.958	42.58
730.359	34.61
730.76	33
731.161	33.15
731.562	31.7
731.962	28.6
732.363	27.76
732.763	28.03
733.164	26.85
733.564	26.97
733.965	27.15
734.365	27.71
734.766	26.94
735.166	27.55
735.566	27.7
735.966	28.46
736.366	29.09
736.766	29.91
737.166	29.21
737.566	29.45
737.966	27.89
738.365	27.44
738.765	28.42
739.165	29.07
739.564	27.87
739.964	26.97
740.363	25.57
740.763	24.66
741.162	25.9
741.561	26.32
741.96	25.72
742.36	26.05
742.759	26.38
743.158	25.87
743.557	24.41
743.955	25.86
744.354	25.58
744.753	26.2
745.152	27.19
745.55	24.93
745.949	24.38
746.348	24.84
746.746	23.3
747.144	25.65
747.543	24.88
747.941	24.75
748.339	24.93
748.737	26.25
749.136	26.72
749.534	25.04
749.932	26.56
750.33	26.26
750.727	26.58
751.125	28.14
751.523	26.7
751.921	29.27
752.318	30.13
752.716	30.36
753.113	29.85
753.511	30.21
753.908	32.12
754.305	34.57
754.703	35.16
755.1	35.86
755.497	35.87
755.894	36.13
756.291	34.42
756.688	34.99
757.085	35.61
757.482	37.61
757.878	39.83
758.275	41.21
