Data from N_1_DIV_PA_2N_Splice17_11-10-54-389.txt Node
Date: Sat Mar 14 11:10:54 EDT 2020
User: sa697716
Spectrometer: FLMS03696
Trigger mode: 0
Integration Time (sec): 3.180400E-1
Scans to average: 20
Electric dark correction enabled: true
Nonlinearity correction enabled: true
Boxcar width: 5
XAxis mode: Wavelengths
Number of Pixels in Spectrum: 2048
>>>>>Begin Spectral Data<<<<<
187.83	-40696.23
188.298	404.18
188.766	300.42
189.233	219.77
189.701	254.48
190.169	393.06
190.636	90.18
191.104	109.33
191.571	22.79
192.039	-3.92
192.506	-34.53
192.974	144.41
193.441	-93.63
193.908	30.02
194.375	4.17
194.842	5.1
195.31	67.97
195.777	40.56
196.244	105.93
196.711	84.46
197.177	93.33
197.644	96.84
198.111	133.35
198.578	205.49
199.045	196.63
199.511	307.74
199.978	347.79
200.445	277.36
200.911	317.36
201.378	359.77
201.844	365.57
202.31	602.97
202.777	619.7
203.243	385.68
203.709	357.98
204.176	421.47
204.642	334.19
205.108	307.99
205.574	271.79
206.04	236.74
206.506	196.87
206.972	175.22
207.438	163.83
207.903	195.16
208.369	180.93
208.835	178.1
209.301	180.56
209.766	197.05
210.232	183.96
210.697	224.84
211.163	275.85
211.628	428.16
212.094	380.44
212.559	518.11
213.024	315.74
213.49	394.46
213.955	367.28
214.42	332.5
214.885	298.98
215.35	317.93
215.815	316.86
216.28	327.55
216.745	254.6
217.21	265.13
217.675	211.67
218.14	214.73
218.604	192.29
219.069	220.74
219.534	245.97
219.998	249.93
220.463	259.15
220.927	265.51
221.392	232.39
221.856	231.2
222.32	226.2
222.785	258.33
223.249	319.81
223.713	356.97
224.177	331.21
224.642	366.56
225.106	400.31
225.57	384.55
226.034	276.26
226.497	407.84
226.961	412.8
227.425	513.76
227.889	554.25
228.353	511.79
228.816	937.16
229.28	885.47
229.744	648.33
230.207	438.14
230.671	435.86
231.134	650.7
231.597	730.81
232.061	600.87
232.524	553.52
232.987	397.17
233.45	368.21
233.914	338.6
234.377	299.87
234.84	274.88
235.303	287.67
235.766	314.74
236.229	294.58
236.691	183.33
237.154	215.88
237.617	164.55
238.08	150.8
238.542	181.26
239.005	141.35
239.468	154.12
239.93	155.71
240.393	145.8
240.855	136.35
241.317	142.42
241.78	153.96
242.242	166.17
242.704	196.7
243.166	179.63
243.629	175.08
244.091	207.92
244.553	218.24
245.015	233.1
245.477	302.84
245.939	432.28
246.4	451.55
246.862	428.83
247.324	378.45
247.786	434.4
248.247	534.18
248.709	440.71
249.17	311.58
249.632	358.43
250.093	440.32
250.555	379.56
251.016	237.08
251.477	235.13
251.939	262.78
252.4	270.24
252.861	275.55
253.322	291.01
253.783	333.37
254.244	387.68
254.705	257.17
255.166	215.48
255.627	226.17
256.088	310.6
256.549	323.01
257.009	282.96
257.47	304.05
257.931	229.63
258.391	155.14
258.852	160.56
259.312	165.9
259.773	191.59
260.233	206.38
260.694	172.68
261.154	190.51
261.614	198.18
262.074	188.91
262.534	220.96
262.994	223.04
263.455	274.28
263.915	256.19
264.374	238.44
264.834	265.25
265.294	260.81
265.754	273.98
266.214	255.05
266.673	210.25
267.133	231.74
267.593	213.04
268.052	253.42
268.512	209.72
268.971	274.6
269.431	345.82
269.89	322.51
270.349	450.53
270.809	470.54
271.268	425.98
271.727	871.26
272.186	588.08
272.645	445.83
273.104	302.5
273.563	458.01
274.022	275.93
274.481	215.66
274.94	181.97
275.399	153.73
275.857	171.68
276.316	220.32
276.775	208.54
277.233	205.71
277.692	207.05
278.15	269.49
278.609	319.1
279.067	347.36
279.525	341.12
279.984	394.74
280.442	444.05
280.9	517.22
281.358	355.75
281.816	333.81
282.274	330.73
282.732	307.08
283.19	308.69
283.648	253.28
284.106	227.3
284.564	219.31
285.021	211.2
285.479	172.46
285.937	129.1
286.394	127.16
286.852	118.98
287.309	116.64
287.767	147.8
288.224	144.98
288.682	154.08
289.139	200.1
289.596	201.48
290.053	190.75
290.511	216.23
290.968	270.06
291.425	308.24
291.882	325.6
292.339	307.83
292.796	269.04
293.252	229.73
293.709	193.1
294.166	170.51
294.623	163.6
295.079	161.42
295.536	185.51
295.992	169.64
296.449	177.56
296.905	172.28
297.362	179.88
297.818	191.6
298.274	213.84
298.731	209.87
299.187	202.9
299.643	230.83
300.099	283.44
300.555	279.87
301.011	239.1
301.467	277.18
301.923	287.97
302.379	288.39
302.835	280.35
303.291	266.32
303.746	287.11
304.202	342.42
304.658	305.84
305.113	237.23
305.569	244.32
306.024	263.78
306.479	191.7
306.935	182.03
307.39	145.02
307.845	138.32
308.301	168.08
308.756	159.25
309.211	162.87
309.666	179.4
310.121	236.17
310.576	232.81
311.031	184.52
311.486	200.99
311.94	192.68
312.395	304.85
312.85	495.03
313.305	1499.95
313.759	12272.24
314.214	917.06
314.668	677.33
315.123	555.81
315.577	211.85
316.032	222.99
316.486	285.88
316.94	242.92
317.394	171.47
317.849	160.38
318.303	163.75
318.757	149.33
319.211	163.59
319.665	161.97
320.119	156.58
320.572	209.14
321.026	212.31
321.48	181.17
321.934	198.19
322.387	193.58
322.841	218.79
323.295	221.64
323.748	208.26
324.202	205.73
324.655	238.52
325.108	382.47
325.562	288.94
326.015	311.66
326.468	249.01
326.921	267.38
327.374	293.69
327.827	291.56
328.28	294.74
328.733	248.95
329.186	228.34
329.639	215.75
330.092	163.12
330.545	160.91
330.997	174.87
331.45	201.92
331.903	239.72
332.355	324.84
332.808	331.4
333.26	295.78
333.713	309.7
334.165	310.37
334.617	403.76
335.069	270.91
335.522	433.93
335.974	469.91
336.426	378.41
336.878	251.06
337.33	174.49
337.782	150.92
338.234	185.99
338.686	196.78
339.137	220.59
339.589	192.95
340.041	209.05
340.493	175.48
340.944	190.37
341.396	231.84
341.847	214.57
342.299	261.27
342.75	353.05
343.201	299.41
343.653	337.2
344.104	396.19
344.555	310.82
345.006	441.05
345.457	436.15
345.908	319.33
346.359	276.11
346.81	211.78
347.261	187.59
347.712	144.21
348.163	133.84
348.613	166.31
349.064	163.95
349.515	149.66
349.965	168.27
350.416	151.13
350.866	178.1
351.317	195.5
351.767	319.23
352.217	411.2
352.668	413.59
353.118	396.74
353.568	336.46
354.018	300.73
354.468	327.01
354.918	239.3
355.368	216.66
355.818	290.17
356.268	764.2
356.718	3854.08
357.168	1032.99
357.617	532.75
358.067	610.07
358.517	583.88
358.966	662.45
359.416	808.77
359.865	832.75
360.315	923.65
360.764	401.22
361.213	242.73
361.663	178.25
362.112	193.16
362.561	266.92
363.01	204.52
363.459	166.27
363.908	145.66
364.357	171.47
364.806	234.4
365.255	199.02
365.703	227.51
366.152	214.6
366.601	189.1
367.05	185.71
367.498	174.95
367.947	171.56
368.395	179.05
368.844	175.37
369.292	149.97
369.74	132.98
370.189	177.7
370.637	192.23
371.085	190.82
371.533	216.41
371.981	161.85
372.429	190.85
372.877	196.01
373.325	173.16
373.773	166.26
374.221	135.74
374.669	135.15
375.116	111.96
375.564	113.83
376.012	83.95
376.459	96.71
376.907	135.23
377.354	120.49
377.801	112.57
378.249	134.38
378.696	148.33
379.143	246.67
379.591	244.98
380.038	378.31
380.485	325.05
380.932	430.21
381.379	464.39
381.826	367.9
382.273	274.59
382.72	238.5
383.166	207.6
383.613	161.57
384.06	134.25
384.506	154.89
384.953	127.65
385.4	121.78
385.846	94.46
386.292	66.92
386.739	54.35
387.185	40.27
387.631	39.02
388.078	68.19
388.524	64.4
388.97	69.12
389.416	65.89
389.862	71.49
390.308	63.91
390.754	73.15
391.2	80.8
391.645	79.04
392.091	104.12
392.537	122.41
392.983	106.34
393.428	126.49
393.874	118.57
394.319	126.76
394.765	131.05
395.21	132.7
395.655	122.03
396.101	117.57
396.546	114.32
396.991	103.16
397.436	91.98
397.881	78.81
398.326	56.79
398.771	62.01
399.216	56.25
399.661	47.33
400.106	51.06
400.551	54.67
400.995	50.72
401.44	48.28
401.885	43.58
402.329	41.84
402.774	47.05
403.218	55.56
403.663	54.32
404.107	55.17
404.551	59.68
404.995	55.94
405.44	52.31
405.884	51.92
406.328	44.68
406.772	43.18
407.216	39
407.66	35.19
408.104	27.57
408.547	27.47
408.991	25.68
409.435	22.9
409.879	23.57
410.322	26.52
410.766	26.72
411.209	30.93
411.653	31.21
412.096	33.74
412.54	33.52
412.983	35.59
413.426	37.13
413.869	37.26
414.312	37.55
414.756	35.09
415.199	33.23
415.642	33.73
416.085	32.63
416.527	32.09
416.97	32.54
417.413	32.94
417.856	29.89
418.298	28.49
418.741	24.85
419.184	23.16
419.626	20.73
420.069	21.58
420.511	21.76
420.953	23.98
421.396	25.03
421.838	22.66
422.28	23.45
422.722	25.32
423.164	22.86
423.606	26.28
424.048	25.28
424.49	26.74
424.932	24.22
425.374	22.61
425.816	20.57
426.258	18.28
426.699	18.03
427.141	19.04
427.582	17.99
428.024	16.57
428.465	13.09
428.907	15.37
429.348	14.64
429.789	16.32
430.231	19.89
430.672	19.23
431.113	20.99
431.554	21.18
431.995	18.93
432.436	20.22
432.877	23.64
433.318	25.57
433.759	22.62
434.2	23.94
434.64	24.69
435.081	21.23
435.522	23.11
435.962	22
436.403	22.75
436.843	21.41
437.284	20.6
437.724	18.17
438.164	16.01
438.604	16.57
439.045	17.66
439.485	17.15
439.925	17.9
440.365	15.7
440.805	15.12
441.245	15.05
441.685	15.59
442.125	15.5
442.564	16.9
443.004	18.43
443.444	19.38
443.883	18.97
444.323	16.08
444.762	13.58
445.202	13.6
445.641	15.57
446.081	15.29
446.52	15.95
446.959	14.91
447.398	14.06
447.837	13.36
448.276	12.53
448.716	13.81
449.154	13.88
449.593	14.75
450.032	15.56
450.471	13.54
450.91	12
451.349	13.04
451.787	13.74
452.226	13.32
452.664	13.46
453.103	12.8
453.541	10.39
453.98	12.57
454.418	13.73
454.856	14.94
455.295	15.78
455.733	17.25
456.171	16.15
456.609	17.41
457.047	18.28
457.485	19.58
457.923	21.16
458.361	20.13
458.798	18.93
459.236	18.54
459.674	16.82
460.111	17.5
460.549	16.66
460.987	15.78
461.424	13.98
461.862	13.25
462.299	12.68
462.736	12.76
463.173	14.23
463.611	16.46
464.048	17.32
464.485	18.58
464.922	17.61
465.359	17.28
465.796	22.79
466.233	23.31
466.67	26.04
467.106	27.52
467.543	25.43
467.98	23.73
468.416	22.58
468.853	21.18
469.29	20.65
469.726	20.45
470.162	20.07
470.599	16.48
471.035	16.21
471.471	14.04
471.907	11.89
472.344	12.69
472.78	13.45
473.216	12.31
473.652	12.61
474.088	13.24
474.523	13.31
474.959	13.15
475.395	12.57
475.831	13.15
476.266	13.65
476.702	13.34
477.138	13.46
477.573	12.68
478.008	13.29
478.444	14.07
478.879	13.67
479.314	13.21
479.75	13.56
480.185	13.47
480.62	12.82
481.055	12.04
481.49	13.03
481.925	13.37
482.36	14.85
482.795	14.47
483.229	13.5
483.664	13.61
484.099	13.95
484.534	14.31
484.968	14.06
485.403	13.58
485.837	13.27
486.271	12.82
486.706	12.7
487.14	12.07
487.574	11.71
488.009	11.8
488.443	11.66
488.877	12.3
489.311	11.58
489.745	12.11
490.179	12.74
490.613	14.35
491.046	14.04
491.48	13.4
491.914	13.4
492.348	13.54
492.781	12.99
493.215	13.03
493.648	12.19
494.082	12.19
494.515	11.91
494.948	12.83
495.382	11.34
495.815	11.86
496.248	13.06
496.681	12.66
497.114	12.32
497.547	13.26
497.98	13.88
498.413	14.82
498.846	16.09
499.279	15.83
499.711	14.79
500.144	14.97
500.577	15.02
501.009	13.54
501.442	14.38
501.874	15.6
502.306	14.95
502.739	15.89
503.171	15.5
503.603	15.28
504.036	15.49
504.468	15.8
504.9	15.98
505.332	16.44
505.764	17.49
506.196	17.67
506.627	17.83
507.059	18.37
507.491	16.4
507.923	17.08
508.354	17.47
508.786	18.15
509.217	18.61
509.649	19.06
510.08	18.6
510.512	19.42
510.943	19.95
511.374	20.22
511.805	20.09
512.237	20.39
512.668	19.81
513.099	19.01
513.53	18.45
513.961	18.53
514.391	18.66
514.822	19.57
515.253	19.35
515.684	18.92
516.114	18.39
516.545	19.38
516.975	19.59
517.406	19.79
517.836	19.73
518.267	20.86
518.697	21.87
519.127	21.87
519.558	21.7
519.988	21.21
520.418	20.64
520.848	20.36
521.278	19.95
521.708	33.94
522.138	34.25
522.567	34.41
522.997	33.97
523.427	33.13
523.857	33.6
524.286	33.78
524.716	34.69
525.145	35.53
525.575	36.56
526.004	36.28
526.433	22.98
526.863	23.14
527.292	24.37
527.721	24.94
528.15	24.93
528.579	24.76
529.008	24.85
529.437	24.04
529.866	24.03
530.295	23.31
530.724	24.1
531.152	24.69
531.581	25.66
532.01	25.54
532.438	25.23
532.867	25.33
533.295	26.2
533.723	25.81
534.152	26.38
534.58	26.58
535.008	27.16
535.436	28.17
535.865	27.95
536.293	26.83
536.721	26.54
537.149	27.18
537.576	27.59
538.004	27.33
538.432	27.46
538.86	27.41
539.287	27.2
539.715	27
540.143	25.78
540.57	26.11
540.998	26.72
541.425	27.79
541.852	26.89
542.28	27.06
542.707	26.94
543.134	27.65
543.561	28.06
543.988	28.35
544.415	28.64
544.842	28.58
545.269	28.38
545.696	28.6
546.123	28.7
546.549	28.9
546.976	28.22
547.403	27.88
547.829	27.44
548.256	26.95
548.682	26.66
549.108	27.02
549.535	27.25
549.961	27.27
550.387	26.79
550.813	26.79
551.24	27.18
551.666	27.31
552.092	27.78
552.518	27.28
552.943	27.62
553.369	27.37
553.795	27.17
554.221	26.91
554.646	26.65
555.072	26.98
555.498	25.61
555.923	24.98
556.349	24.89
556.774	23.83
557.199	23.48
557.625	22.99
558.05	23.82
558.475	24.05
558.9	24.11
559.325	24.43
559.75	24.5
560.175	24.4
560.6	24.32
561.025	24.35
561.449	25.17
561.874	25.17
562.299	25.74
562.723	25.41
563.148	24.56
563.572	24.31
563.997	23.81
564.421	22.57
564.846	22.44
565.27	22.36
565.694	22.37
566.118	21.88
566.542	22.93
566.966	22.46
567.39	22.33
567.814	22.98
568.238	22.99
568.662	22.27
569.086	22.91
569.509	22.69
569.933	23.74
570.357	23.94
570.78	23.99
571.204	24.31
571.627	24.26
572.05	24.15
572.474	24.4
572.897	24.7
573.32	25.85
573.743	25.18
574.166	25.82
574.589	25.21
575.012	24.88
575.435	24.6
575.858	24.04
576.281	23.75
576.704	23.21
577.126	21.86
577.549	21
577.972	20.18
578.394	20.98
578.817	21.63
579.239	21.43
579.661	21.94
580.084	22.73
580.506	22.54
580.928	22.6
581.35	22.94
581.772	23
582.194	22.93
582.616	22.17
583.038	21.34
583.46	20.1
583.882	19.66
584.303	18.07
584.725	17.11
585.147	19.44
585.568	19.34
585.99	19.5
586.411	19.8
586.833	20.42
587.254	21.18
587.675	21.31
588.096	21.25
588.518	21.49
588.939	22.2
589.36	22.9
589.781	19.46
590.202	21.18
590.623	20.53
591.043	19.93
591.464	19.79
591.885	20.28
592.305	19.75
592.726	19.46
593.147	19.18
593.567	19.71
593.987	18.86
594.408	19.15
594.828	17.23
595.248	17.8
595.669	18.6
596.089	18.01
596.509	17.25
596.929	17.04
597.349	17.54
597.769	17.35
598.189	17.08
598.608	17.48
599.028	17.11
599.448	16.85
599.867	16.41
600.287	15.76
600.706	16.49
601.126	16.43
601.545	17.23
601.965	16.61
602.384	16.64
602.803	15.86
603.222	15.86
603.641	15.82
604.061	15.99
604.48	15.6
604.898	15.92
605.317	15.5
605.736	15.46
606.155	15.48
606.574	16.19
606.992	16.17
607.411	16.76
607.829	16.07
608.248	16.16
608.666	15.8
609.085	16.24
609.503	15.9
609.921	15.87
610.339	16.04
610.758	15.26
611.176	14.68
611.594	14.88
612.012	14.85
612.43	15.31
612.847	15.58
613.265	16.43
613.683	16.13
614.101	16.02
614.518	15.91
614.936	15.37
615.353	16.16
615.771	16.66
616.188	16.9
616.606	16.77
617.023	16.72
617.44	16.28
617.857	15.3
618.274	15.13
618.691	15.25
619.108	15.23
619.525	15.16
619.942	14.68
620.359	14.28
620.776	14.23
621.192	14.56
621.609	15.1
622.026	15.1
622.442	15.49
622.859	15.44
623.275	15.24
623.691	15.27
624.108	15.25
624.524	15.48
624.94	15.14
625.356	14.96
625.772	14.35
626.188	13.47
626.604	13.25
627.02	12.95
627.436	13.06
627.852	13.97
628.268	14.18
628.683	14.4
629.099	13.61
629.514	13.93
629.93	13
630.345	12.83
630.761	12.65
631.176	12.78
631.591	14.17
632.007	14.5
632.422	12.69
632.837	12.26
633.252	13.29
633.667	13.8
634.082	13.45
634.497	13.84
634.911	15.44
635.326	15.67
635.741	15.77
636.155	14.95
636.57	14.96
636.984	15.75
637.399	16.96
637.813	15.82
638.228	16.14
638.642	16.12
639.056	16.64
639.47	15.91
639.884	16.25
640.298	15.68
640.712	16.25
641.126	16.59
641.54	16.35
641.954	14.06
642.368	13.79
642.781	15.66
643.195	15.44
643.609	14.97
644.022	14.72
644.436	13.3
644.849	13.52
645.262	12.44
645.676	11.53
646.089	11.39
646.502	12.87
646.915	12.84
647.328	11.1
647.741	11.45
648.154	11.98
648.567	12.45
648.98	13.33
649.393	13.35
649.805	12.99
650.218	12.96
650.631	13.53
651.043	13.44
651.456	13.5
651.868	13.06
652.28	12.14
652.693	10.97
653.105	10.78
653.517	10.73
653.929	10.52
654.341	11.49
654.753	11.59
655.165	11.17
655.577	10.84
655.989	11.49
656.401	10.42
656.813	12.08
657.224	12.78
657.636	11.66
658.047	12.64
658.459	12.66
658.87	11.09
659.282	11.05
659.693	11.58
660.104	11.75
660.515	11.51
660.926	12.04
661.338	11.14
661.749	10.47
662.159	11.37
662.57	9.92
662.981	10.04
663.392	10.28
663.803	10.17
664.213	9.79
664.624	9.73
665.035	9.47
665.445	9.96
665.855	10.15
666.266	10.67
666.676	9.9
667.086	9.34
667.497	10.22
667.907	10.87
668.317	11.13
668.727	12.91
669.137	11.52
669.547	11.23
669.956	10.05
670.366	10.68
670.776	10.79
671.186	11.24
671.595	12.01
672.005	11.29
672.414	11.58
672.824	12.13
673.233	9.97
673.642	11.06
674.052	11.76
674.461	13.51
674.87	13.06
675.279	13.84
675.688	12.29
676.097	13.33
676.506	13.09
676.915	12.26
677.323	11.47
677.732	11.99
678.141	11.61
678.549	11.19
678.958	9.39
679.366	8.61
679.775	7.33
680.183	9.99
680.592	9.63
681	10.85
681.408	11.78
681.816	11.89
682.224	11.15
682.632	12.95
683.04	13.64
683.448	14.24
683.856	15.21
684.264	16.24
684.671	15.18
685.079	15.77
685.487	14.75
685.894	13.92
686.302	13.24
686.709	14.39
687.116	12.37
687.524	12.84
687.931	14.57
688.338	14.83
688.745	14.82
689.152	14.53
689.559	13.19
689.966	13.88
690.373	14.63
690.78	16.12
691.187	16.35
691.593	17.59
692	17.1
692.407	16.62
692.813	18.17
693.22	18.19
693.626	17.38
694.032	18.87
694.439	19.2
694.845	19.86
695.251	18.92
695.657	19.99
696.063	19.07
696.469	19.38
696.875	19.16
697.281	18.18
697.687	18.48
698.093	19.51
698.498	19.29
698.904	18.81
699.31	19.06
699.715	21.38
700.12	20.67
700.526	22.11
700.931	21.15
701.337	22.25
701.742	22.87
702.147	23.65
702.552	24.5
702.957	24.33
703.362	25.8
703.767	25.53
704.172	24.82
704.577	24.62
704.981	23.89
705.386	25.14
705.791	24.96
706.195	24.2
706.6	24.68
707.004	23.81
707.408	23.81
707.813	23.07
708.217	23.37
708.621	22.91
709.025	23.32
709.43	25.53
709.834	26.36
710.237	26.78
710.641	27.74
711.045	27.37
711.449	28.96
711.853	31.55
712.256	32.43
712.66	32.78
713.064	33.18
713.467	34.08
713.87	33.15
714.274	33.28
714.677	33.25
715.08	33.81
715.484	34.59
715.887	36.44
716.29	35.48
716.693	35.71
717.096	37.11
717.499	38.44
717.901	36.6
718.304	36.53
718.707	36.57
719.109	37.7
719.512	37.25
719.915	38.3
720.317	37.32
720.719	36.68
721.122	37.3
721.524	37.98
721.926	41.1
722.328	43.75
722.731	44.33
723.133	44.88
723.535	44.07
723.937	44.31
724.338	45.03
724.74	44.97
725.142	75.8
725.544	78.13
725.945	84.76
726.347	81.31
726.748	80.31
727.15	80.41
727.551	82.42
727.952	81.96
728.354	80.9
728.755	79.21
729.156	77.98
729.557	48.07
729.958	45.17
730.359	37.08
730.76	37.22
731.161	36.96
731.562	36.65
731.962	33.82
732.363	33.88
732.763	34.71
733.164	33.95
733.564	33.98
733.965	34.69
734.365	34.87
734.766	36.57
735.166	36.3
735.566	37.38
735.966	37.21
736.366	38.17
736.766	38.92
737.166	38.09
737.566	38.98
737.966	40.05
738.365	39.77
738.765	39.84
739.165	39.28
739.564	39.66
739.964	38.67
740.363	37.82
740.763	36.59
741.162	37.09
741.561	37.86
741.96	37.64
742.36	37.26
742.759	37.63
743.158	36.91
743.557	36.2
743.955	36.42
744.354	36.98
744.753	37.14
745.152	38.06
745.55	36.74
745.949	36.16
746.348	36.03
746.746	34.04
747.144	34.96
747.543	34.7
747.941	34.62
748.339	33.49
748.737	33.32
749.136	34.08
749.534	32.77
749.932	34.31
750.33	34.42
750.727	33.98
751.125	35.08
