Data from N_1_DEC_NC_4N_Splice17_11-36-22-568.txt Node
Date: Sat Mar 14 11:36:22 EDT 2020
User: sa697716
Spectrometer: FLMS03696
Trigger mode: 0
Integration Time (sec): 3.180400E-1
Scans to average: 20
Electric dark correction enabled: true
Nonlinearity correction enabled: true
Boxcar width: 5
XAxis mode: Wavelengths
Number of Pixels in Spectrum: 2048
>>>>>Begin Spectral Data<<<<<
187.83	-175820.34
188.298	1368.65
188.766	771.61
189.233	653.84
189.701	919.98
190.169	1277.93
190.636	482.92
191.104	432.35
191.571	75.17
192.039	-8.07
192.506	3.29
192.974	342.82
193.441	-429.46
193.908	-82.19
194.375	-21.51
194.842	46.37
195.31	69.46
195.777	111.83
196.244	192.8
196.711	97.29
197.177	79.72
197.644	54.04
198.111	49.97
198.578	31.36
199.045	-10.37
199.511	-63.31
199.978	-169.23
200.445	-103.49
200.911	-141.1
201.378	-216.71
201.844	-163.45
202.31	-337.86
202.777	-364.69
203.243	-199.93
203.709	-202.68
204.176	-196.21
204.642	-149.71
205.108	-122.04
205.574	-93.31
206.04	-117.57
206.506	-108.75
206.972	-131.03
207.438	-136.43
207.903	-169.31
208.369	-112.36
208.835	-99.16
209.301	-111.26
209.766	-134.19
210.232	-131.71
210.697	-182.91
211.163	-225.29
211.628	-389.16
212.094	-265.91
212.559	-215.16
213.024	-114.46
213.49	-143.44
213.955	-136.48
214.42	-150.38
214.885	-132.36
215.35	-105.07
215.815	-41.66
216.28	-25.82
216.745	-1.73
217.21	13.73
217.675	-23.71
218.14	-19.48
218.604	-40.08
219.069	-26.87
219.534	15.37
219.998	2.78
220.463	-20.35
220.927	-103.1
221.392	-101.78
221.856	-83.76
222.32	-177.42
222.785	-178.44
223.249	-241.99
223.713	-253.15
224.177	-257.75
224.642	-395.4
225.106	-475.34
225.57	-471.23
226.034	-227.55
226.497	-334.22
226.961	-247.08
227.425	-189.54
227.889	-215.14
228.353	-169.95
228.816	-430.69
229.28	-345.61
229.744	-307.16
230.207	-118.24
230.671	-97.41
231.134	-388.57
231.597	-364.6
232.061	-469.05
232.524	-448.29
232.987	-307.66
233.45	-246.31
233.914	-193.05
234.377	-270.65
234.84	-237.11
235.303	-337.24
235.766	-408.42
236.229	-373.96
236.691	-262.01
237.154	-290.07
237.617	-211.27
238.08	-221.14
238.542	-274.53
239.005	-179.08
239.468	-166.04
239.93	-144.4
240.393	-99.66
240.855	-75.2
241.317	-92.17
241.78	-123.18
242.242	-113.21
242.704	-103.57
243.166	-83.02
243.629	-36.93
244.091	-49.92
244.553	-41.39
245.015	-33.09
245.477	-65.29
245.939	-132.56
246.4	-121.16
246.862	-115.92
247.324	-127.62
247.786	-175.02
248.247	-296.32
248.709	-454.15
249.17	-339.85
249.632	-256.35
250.093	-253.18
250.555	-197.97
251.016	-76.02
251.477	-69.22
251.939	-62.68
252.4	-86.54
252.861	-121.87
253.322	-48.01
253.783	-100.27
254.244	-131.18
254.705	-132.18
255.166	-178.69
255.627	-205.05
256.088	-314.34
256.549	-341.34
257.009	-282.95
257.47	-317.28
257.931	-255.34
258.391	-196.89
258.852	-188.12
259.312	-195.89
259.773	-279.07
260.233	-166.43
260.694	-107.67
261.154	-117.61
261.614	-52.93
262.074	-55.6
262.534	-40.56
262.994	-31.13
263.455	-81.28
263.915	-28.97
264.374	-29.74
264.834	-23.98
265.294	-53.34
265.754	-63.12
266.214	-71.56
266.673	-69.56
267.133	-104.34
267.593	-124.86
268.052	-139.2
268.512	-119.33
268.971	-96.46
269.431	-78.28
269.89	-52
270.349	-79.48
270.809	-81.2
271.268	-32.17
271.727	-175.07
272.186	-97.66
272.645	-23.12
273.104	-88.87
273.563	-110.9
274.022	-178.92
274.481	-135.55
274.94	-103.65
275.399	-76.44
275.857	-100.18
276.316	-194.77
276.775	-176
277.233	-172.35
277.692	-159.79
278.15	-136.12
278.609	-105.03
279.067	-108.29
279.525	-76.13
279.984	-129.51
280.442	-188.55
280.9	-103.34
281.358	-39.98
281.816	-30.81
282.274	-24.43
282.732	-64
283.19	-85.45
283.648	-94.54
284.106	-87.95
284.564	-127.73
285.021	-94.84
285.479	-69.59
285.937	-117
286.394	-79.14
286.852	-92.36
287.309	-106.4
287.767	-67.93
288.224	-42.11
288.682	-53.86
289.139	-59.2
289.596	-48.44
290.053	-61.58
290.511	-91.06
290.968	-56.45
291.425	-162.29
291.882	-75.32
292.339	-31.58
292.796	-88.23
293.252	-106.91
293.709	-65.06
294.166	-51.5
294.623	-77.11
295.079	-90.63
295.536	-62.38
295.992	-57.01
296.449	-39.91
296.905	-42.2
297.362	-33.24
297.818	-28.64
298.274	-17.44
298.731	-21.39
299.187	-24.57
299.643	-30.59
300.099	-42.4
300.555	-80.3
301.011	-54.14
301.467	-3.05
301.923	-43.97
302.379	-49.01
302.835	-55.88
303.291	-58.32
303.746	-66.96
304.202	-113.6
304.658	-97.67
305.113	-49.37
305.569	-45.26
306.024	-97.68
306.479	-152.88
306.935	-97.09
307.39	-129.92
307.845	-122.13
308.301	-111.01
308.756	-137.64
309.211	-108.88
309.666	-127.82
310.121	-141.59
310.576	-149.76
311.031	-149.97
311.486	-219.32
311.94	-307.21
312.395	-447.88
312.85	-888.56
313.305	-5368.39
313.759	-22434.13
314.214	-1727.9
314.668	-1329.08
315.123	-1050.87
315.577	-332.11
316.032	-281.51
316.486	-334.06
316.94	-210.02
317.394	-109.08
317.849	-58.83
318.303	-62.58
318.757	-53.71
319.211	-64.19
319.665	-53.53
320.119	-59.65
320.572	-105.3
321.026	-90.18
321.48	-49.91
321.934	-62.54
322.387	-71.66
322.841	-65.51
323.295	4.51
323.748	-59.36
324.202	-52.41
324.655	-60.17
325.108	-17.4
325.562	-0.26
326.015	-37.04
326.468	-29.67
326.921	-38.71
327.374	-5.38
327.827	19.77
328.28	10.66
328.733	42.44
329.186	46.09
329.639	48.74
330.092	24.58
330.545	35.46
330.997	49.64
331.45	74.25
331.903	95.54
332.355	84.14
332.808	13.17
333.26	-2.28
333.713	3.56
334.165	-34.71
334.617	-88.68
335.069	-141.27
335.522	-419.91
335.974	-482.51
336.426	-600.96
336.878	-472.59
337.33	-197.59
337.782	-191.22
338.234	-230.33
338.686	-313.54
339.137	-368.39
339.589	-318.43
340.041	-208.07
340.493	-165.36
340.944	-168.54
341.396	-149.96
341.847	-89.39
342.299	-88.45
342.75	-69.56
343.201	-90.24
343.653	-103.48
344.104	-140.97
344.555	-112.23
345.006	-253.08
345.457	-59.9
345.908	-37.42
346.359	-11.59
346.81	-4.07
347.261	-24.91
347.712	-39.09
348.163	-76.83
348.613	-35.83
349.064	-11.4
349.515	-9.23
349.965	11.11
350.416	-34.71
350.866	-43.9
351.317	-103.73
351.767	-190.59
352.217	-282.98
352.668	-243.62
353.118	-184.41
353.568	-266.29
354.018	-203.79
354.468	-227.96
354.918	-128.04
355.368	-120.31
355.818	-194.94
356.268	-589.77
356.718	-2002.41
357.168	-396.42
357.617	-202.45
358.067	-261.44
358.517	-243.77
358.966	-257.16
359.416	-144.97
359.865	-203.3
360.315	-394.38
360.764	-154.16
361.213	-83.55
361.663	-161.36
362.112	-257.54
362.561	-451.65
363.01	-282.46
363.459	-247.84
363.908	-302.47
364.357	-272.52
364.806	-557.25
365.255	-356.78
365.703	-296.16
366.152	-282.51
366.601	-177.82
367.05	-93.65
367.498	-70.04
367.947	-97.46
368.395	-102.53
368.844	-78.8
369.292	-146.83
369.74	-69.84
370.189	-121.57
370.637	-187.78
371.085	-165.8
371.533	-219.29
371.981	-256.86
372.429	-192.4
372.877	-221.02
373.325	-162.28
373.773	-183.61
374.221	-156.95
374.669	-211.11
375.116	-201.54
375.564	-201.55
376.012	-224.28
376.459	-158.64
376.907	-198.82
377.354	-316.1
377.801	-239.13
378.249	-270.66
378.696	-360.74
379.143	-370.47
379.591	-424.07
380.038	-735.15
380.485	-482.48
380.932	-560.32
381.379	-475.37
381.826	-250.55
382.273	-173.42
382.72	-191.05
383.166	-190.25
383.613	-100.62
384.06	-93.37
384.506	-101.7
384.953	-52.41
385.4	-64.1
385.846	-64.29
386.292	-86.35
386.739	-106.86
387.185	-112.64
387.631	-110.25
388.078	-87.11
388.524	-100.72
388.97	-93.08
389.416	-70.61
389.862	-79.09
390.308	-68.28
390.754	-57.69
391.2	-60.15
391.645	-70.33
392.091	-31.3
392.537	-21.75
392.983	-43.46
393.428	-16.22
393.874	-28.8
394.319	-27.12
394.765	-1.15
395.21	-7.18
395.655	-4.09
396.101	0.13
396.546	13.27
396.991	-6.78
397.436	-5.89
397.881	-4.49
398.326	-23.9
398.771	-12.79
399.216	-13.92
399.661	-19.16
400.106	-14.34
400.551	-9.13
400.995	-7.88
401.44	-8.9
401.885	-6.81
402.329	-6.26
402.774	-1.94
403.218	15.03
403.663	16.56
404.107	18.52
404.551	20.29
404.995	17.5
405.44	12.34
405.884	9.17
406.328	3.54
406.772	4.15
407.216	4.97
407.66	2.41
408.104	-6.89
408.547	-10.18
408.991	-10.31
409.435	-10.98
409.879	-7.12
410.322	-5.2
410.766	-2.06
411.209	2.12
411.653	0.06
412.096	2.15
412.54	1.93
412.983	1.11
413.426	4.96
413.869	4.01
414.312	5.24
414.756	2.63
415.199	0.87
415.642	2.54
416.085	1.25
416.527	-0.29
416.97	-4.72
417.413	-3.33
417.856	-6.7
418.298	-7.66
418.741	-11.35
419.184	-14.65
419.626	-20.82
420.069	-20.82
420.511	-21.82
420.953	-17.74
421.396	-13.81
421.838	-13.65
422.28	-15.92
422.722	-11.68
423.164	-13.05
423.606	-9.67
424.048	-9.23
424.49	-3.15
424.932	-3.56
425.374	-4.87
425.816	-8.04
426.258	-9.29
426.699	-8.12
427.141	-2.64
427.582	-4.42
428.024	-7.38
428.465	-9.92
428.907	-10.01
429.348	-11.77
429.789	-10.77
430.231	-7.67
430.672	-6.58
431.113	-7.95
431.554	-8.79
431.995	-13.19
432.436	-9.88
432.877	-7.48
433.318	-3.11
433.759	-4.08
434.2	-3.26
434.64	-3.57
435.081	-3.89
435.522	-3.74
435.962	-2.29
436.403	-0.13
436.843	-2.41
437.284	-4.24
437.724	-7.54
438.164	-12.65
438.604	-9.92
439.045	-7.92
439.485	-4.28
439.925	-5.49
440.365	-7.49
440.805	-8.73
441.245	-7.56
441.685	-4.91
442.125	-6.39
442.564	-5.23
443.004	-2.76
443.444	-4.81
443.883	-5.46
444.323	-9.13
444.762	-12.93
445.202	-11.84
445.641	-10.4
446.081	-13.21
446.52	-13.35
446.959	-11.51
447.398	-8.35
447.837	-8.4
448.276	-7.68
448.716	-7.01
449.154	-8.17
449.593	-4.92
450.032	-4.13
450.471	-5.71
450.91	-5.88
451.349	-4.55
451.787	-5.25
452.226	-6.79
452.664	-7.35
453.103	-7.01
453.541	-8.85
453.98	-5.2
454.418	-5.6
454.856	-4.64
455.295	-4.08
455.733	-3.58
456.171	-3.81
456.609	-1.54
457.047	-0.71
457.485	2.21
457.923	3.58
458.361	2.34
458.798	1.41
459.236	2.6
459.674	1.45
460.111	2.04
460.549	2.93
460.987	1.29
461.424	-0.5
461.862	-1.09
462.299	-1.41
462.736	-1.28
463.173	0.1
463.611	2.59
464.048	2.56
464.485	2.33
464.922	1.86
465.359	0.67
465.796	8.4
466.233	9.36
466.67	10.47
467.106	11.12
467.543	9.48
467.98	8.62
468.416	6.14
468.853	4.08
469.29	4.31
469.726	3.25
470.162	2.95
470.599	-2.66
471.035	-4.16
471.471	-3.73
471.907	-6.26
472.344	-6.11
472.78	-5.92
473.216	-7.24
473.652	-6.36
474.088	-7.29
474.523	-5.88
474.959	-5.15
475.395	-5.31
475.831	-4.59
476.266	-5.62
476.702	-6.14
477.138	-5.3
477.573	-4.63
478.008	-3.98
478.444	-2.85
478.879	-0.91
479.314	-0.93
479.75	-1.16
480.185	-0.72
480.62	-0.92
481.055	-0.99
481.49	0.24
481.925	0.78
482.36	2.81
482.795	1.69
483.229	1.11
483.664	0.44
484.099	0.47
484.534	0.58
484.968	0.63
485.403	0.25
485.837	-0.26
486.271	-0.3
486.706	-1.01
487.14	-2.65
487.574	-1.15
488.009	-1.45
488.443	-1.9
488.877	-1.43
489.311	-1.55
489.745	-1.93
490.179	-1.04
490.613	1.17
491.046	0.68
491.48	0.62
491.914	1.1
492.348	1.08
492.781	1.05
493.215	1.39
493.648	0.38
494.082	0.35
494.515	0.76
494.948	1.1
495.382	-0.76
495.815	0.07
496.248	0.17
496.681	-0.24
497.114	-1.39
497.547	-0.8
497.98	0.09
498.413	2.05
498.846	2.54
499.279	1.95
499.711	1.28
500.144	1.31
500.577	1.7
501.009	1.32
501.442	1.64
501.874	2.68
502.306	2.25
502.739	4
503.171	3.02
503.603	3.07
504.036	2.91
504.468	3.68
504.9	3.19
505.332	2.36
505.764	2.65
506.196	2.43
506.627	2.57
507.059	2.58
507.491	-0.08
507.923	-0.17
508.354	-0.17
508.786	0.17
509.217	-0.13
509.649	0.69
510.08	0.3
510.512	1.19
510.943	1.56
511.374	1.78
511.805	1.6
512.237	1.18
512.668	0.7
513.099	0.16
513.53	-0.1
513.961	-0.01
514.391	-0.22
514.822	1.59
515.253	1.19
515.684	1.24
516.114	0.89
516.545	1.48
516.975	2.35
517.406	2.27
517.836	1.9
518.267	1.96
518.697	2.34
519.127	2.47
519.558	1.56
519.988	0.79
520.418	-0.21
520.848	-0.79
521.278	-1.27
521.708	18.45
522.138	18.99
522.567	18.7
522.997	18.87
523.427	18.41
523.857	18.42
524.286	18.39
524.716	18.96
525.145	19.56
525.575	20.17
526.004	19.61
526.433	0.28
526.863	0.14
527.292	1.71
527.721	2.4
528.15	1.71
528.579	2.5
529.008	2.09
529.437	1.17
529.866	1.16
530.295	0.55
530.724	1.71
531.152	1.81
531.581	2.97
532.01	2.07
532.438	0.94
532.867	0.94
533.295	0.83
533.723	1.24
534.152	2.1
534.58	2.63
535.008	2.96
535.436	3.36
535.865	2.67
536.293	0.68
536.721	0.19
537.149	0.85
537.576	1.44
538.004	1.09
538.432	0.71
538.86	1
539.287	0.04
539.715	0.22
540.143	-0.51
540.57	0.16
540.998	0.79
541.425	2.78
541.852	2.8
542.28	2.36
542.707	2.04
543.134	2.15
543.561	2.5
543.988	3.01
544.415	2.4
544.842	2.34
545.269	2.49
545.696	3.15
546.123	2.49
546.549	2.42
546.976	2.74
547.403	2.79
547.829	2.31
548.256	1.22
548.682	1.27
549.108	1.98
549.535	1.63
549.961	0.65
550.387	-0.08
550.813	0.55
551.24	0.46
551.666	0.08
552.092	-0.26
552.518	-0.19
552.943	0.8
553.369	0.2
553.795	0.3
554.221	0.41
554.646	0.83
555.072	2.17
555.498	0.94
555.923	0.34
556.349	0.09
556.774	0.15
557.199	-0.06
557.625	-0.99
558.05	-0.64
558.475	-1.15
558.9	-0.77
559.325	-0.38
559.75	-0.61
560.175	-0.67
560.6	-0.35
561.025	-0.43
561.449	-0.26
561.874	-0.29
562.299	0.19
562.723	-0.11
563.148	-0.11
563.572	-0.97
563.997	-0.89
564.421	-2.48
564.846	-2.8
565.27	-2.62
565.694	-2.37
566.118	-2.95
566.542	-1.9
566.966	-2.01
567.39	-1.83
567.814	-0.92
568.238	-0.32
568.662	-1.57
569.086	-1.02
569.509	-1.14
569.933	-0.25
570.357	-0.11
570.78	0.4
571.204	1.3
571.627	1.57
572.05	1.66
572.474	2.37
572.897	2.76
573.32	4.18
573.743	4.31
574.166	5.44
574.589	4.33
575.012	4.43
575.435	4.45
575.858	3.61
576.281	3.58
576.704	3.27
577.126	1.4
577.549	0.91
577.972	-0.11
578.394	-0.17
578.817	1.13
579.239	1.4
579.661	1.46
580.084	2.15
580.506	2.19
580.928	1.53
581.35	1.42
581.772	1.77
582.194	2.05
582.616	1.82
583.038	1.38
583.46	-0.07
583.882	0.43
584.303	-0.86
584.725	-1.89
585.147	1.35
585.568	2.24
585.99	3.23
586.411	3.63
586.833	4
587.254	4.68
587.675	4.63
588.096	3.9
588.518	3.08
588.939	4.46
589.36	5.37
589.781	1.15
590.202	3.17
590.623	2.68
591.043	2.08
591.464	2.03
591.885	2.13
592.305	1.99
592.726	1.84
593.147	2.11
593.567	1.93
593.987	1.3
594.408	1.09
594.828	-1.67
595.248	-1.14
595.669	-0.04
596.089	-0.5
596.509	-1.18
596.929	-1.88
597.349	-1.61
597.769	-1.52
598.189	-1.44
598.608	-1.54
599.028	-1.22
599.448	-1.73
599.867	-2.57
600.287	-3.35
600.706	-2.68
601.126	-1.72
601.545	-0.11
601.965	0.09
602.384	0
602.803	-0.35
603.222	0.07
603.641	-0.87
604.061	-0.11
604.48	0.4
604.898	0.55
605.317	-0.15
605.736	-0.9
606.155	-0.71
606.574	-0.73
606.992	-0.95
607.411	-0.62
607.829	-0.89
608.248	-0.29
608.666	-1.32
609.085	-1.18
609.503	-1.34
609.921	-0.76
610.339	-0.34
610.758	-1.5
611.176	-1.78
611.594	-1.14
612.012	-0.91
612.43	-0.45
612.847	-0.49
613.265	1.11
613.683	0.66
614.101	0.46
614.518	-0.36
614.936	-0.56
615.353	0.6
615.771	0.96
616.188	0.69
616.606	-0.39
617.023	-0.48
617.44	-0.32
617.857	-1.37
618.274	-1.48
618.691	-0.79
619.108	-0.86
619.525	-0.92
619.942	-1.29
620.359	-1.81
620.776	-1.7
621.192	-0.31
621.609	0.12
622.026	0.5
622.442	0.75
622.859	0.61
623.275	0.08
623.691	0.42
624.108	0.96
624.524	0.61
624.94	0.85
625.356	0.32
625.772	-0.74
626.188	-2.05
626.604	-1.99
627.02	-1.7
627.436	-1.08
627.852	0.35
628.268	-0.08
628.683	-0.56
629.099	-0.86
629.514	-0.68
629.93	-0.82
630.345	-0.41
630.761	-0.24
631.176	0.02
631.591	0.95
632.007	0.92
632.422	-0.77
632.837	-0.54
633.252	0.1
633.667	0.87
634.082	0.83
634.497	1.69
634.911	3.32
635.326	3.6
635.741	3.31
636.155	2.49
636.57	3.22
636.984	3.65
637.399	4.73
637.813	3.85
638.228	3.12
638.642	2.62
639.056	2.2
639.47	0.79
639.884	1.63
640.298	1.56
640.712	1.47
641.126	1.13
641.54	0.24
641.954	-1.81
642.368	-1.51
642.781	0.64
643.195	0.71
643.609	0.85
644.022	0.74
644.436	-1.09
644.849	-2.05
645.262	-2.26
645.676	-3.72
646.089	-2.84
646.502	-1.17
646.915	-2.45
647.328	-3.35
647.741	-2.86
648.154	-2.13
648.567	-0.31
648.98	0.69
649.393	0.86
649.805	0.35
650.218	0.62
650.631	1.01
651.043	0.6
651.456	1.79
651.868	1.91
652.28	1.36
652.693	-0.1
653.105	-1.77
653.517	-2.28
653.929	-1.62
654.341	-0.77
654.753	0.5
655.165	-0.59
655.577	-0.19
655.989	-0.41
656.401	-1.99
656.813	-0.69
657.224	-0.46
657.636	-1.51
658.047	0.15
658.459	0.32
658.87	-0.79
659.282	-1.71
659.693	-0.58
660.104	-0.65
660.515	-0.7
660.926	-1.3
661.338	-2.46
661.749	-3.03
662.159	-1.3
662.57	-2.71
662.981	-3.08
663.392	-2.89
663.803	-3.2
664.213	-3.54
664.624	-3.72
665.035	-4.04
665.445	-3.44
665.855	-2.84
666.266	-1.14
666.676	-2.32
667.086	-2.7
667.497	-2.34
667.907	-2.18
668.317	-1.83
668.727	0.52
669.137	-0.35
669.547	-0.7
669.956	-1.53
670.366	-2.11
670.776	-2.87
671.186	-2.36
671.595	-1.78
672.005	-2.95
672.414	-2.33
672.824	-1.88
673.233	-4.43
673.642	-4.55
674.052	-3.15
674.461	-1.66
674.87	-1.07
675.279	-0.21
675.688	-2.14
676.097	-1.35
676.506	-0.52
676.915	-1.97
677.323	-2.3
677.732	-2.61
678.141	-2.26
678.549	-3.16
678.958	-4.38
679.366	-5.48
679.775	-6.87
680.183	-4.18
680.592	-5.52
681	-5.86
681.408	-4.72
681.816	-5.16
682.224	-5.87
682.632	-4.64
683.04	-4.82
683.448	-4.58
683.856	-3.39
684.264	-2.38
684.671	-3.98
685.079	-3.78
685.487	-4.18
685.894	-4.87
686.302	-5.96
686.709	-5.09
687.116	-6.36
687.524	-5.36
687.931	-4.05
688.338	-4.55
688.745	-5.56
689.152	-5.06
689.559	-5.32
689.966	-4.24
690.373	-2.73
690.78	-0.02
691.187	0.12
691.593	1.71
692	1.3
692.407	0.84
692.813	4.01
693.22	5.03
693.626	3.41
694.032	4
694.439	4.08
694.845	3.11
695.251	1.06
695.657	1.73
696.063	-0.55
696.469	-0.33
696.875	-0.23
697.281	-3.38
697.687	-4.92
698.093	-3.6
698.498	-2.66
698.904	-3.11
699.31	-3.33
699.715	-0.12
700.12	-0.79
700.526	0.81
700.931	-0.02
701.337	0.07
701.742	2.09
702.147	3.2
702.552	3.59
702.957	2.21
703.362	1.55
703.767	1.48
704.172	-0.89
704.577	-1.6
704.981	-3.02
705.386	-1.84
705.791	-1.48
706.195	-3.8
706.6	-3.93
707.004	-6.33
707.408	-6.49
707.813	-4.47
708.217	-3.24
708.621	-3.03
709.025	-3.35
709.43	-1.8
709.834	-1.51
710.237	-1.57
710.641	-0.01
711.045	0.32
711.449	2.16
711.853	4.95
712.256	4.05
712.66	3.29
713.064	3.17
713.467	4.37
713.87	3.97
714.274	3.31
714.677	3.45
715.08	2.58
715.484	0.98
715.887	3.8
716.29	1.21
716.693	1.89
717.096	2.04
717.499	2.49
717.901	2.11
718.304	2.59
718.707	2.45
719.109	2.05
719.512	1.88
719.915	6.62
720.317	5.17
720.719	4.16
721.122	3.39
721.524	4.35
721.926	8.48
722.328	8.83
722.731	7.52
723.133	7.67
723.535	7.06
723.937	7.21
724.338	6
724.74	6.9
725.142	54.89
725.544	58.1
725.945	69.88
726.347	66.34
726.748	66.5
727.15	68.38
727.551	71.1
727.952	70.89
728.354	70.19
728.755	69.67
729.156	66.98
729.557	20.33
729.958	16.48
730.359	4.17
730.76	3.32
731.161	3.19
731.562	1.33
731.962	-1.56
732.363	-1.32
732.763	-0.95
733.164	-3.22
733.564	-2.2
733.965	-1.1
734.365	-0.97
734.766	-0.84
735.166	-0.96
735.566	0.3
735.966	1.42
736.366	1.06
736.766	1.13
737.166	0.68
737.566	0.71
737.966	0.1
738.365	0.97
738.765	2.21
739.165	2.43
739.564	2.04
739.964	-0.33
740.363	-1.56
740.763	-2.14
741.162	-1.13
741.561	-1.46
741.96	0.09
742.36	-0.12
742.759	-0.53
743.158	-2.09
743.557	-2.93
743.955	-3.54
744.354	-2.89
744.753	-3.21
745.152	-1.44
745.55	-3.47
745.949	-3.04
746.348	-3.35
746.746	-4.66
747.144	-2.67
747.543	-2.77
747.941	-3.1
748.339	-2.74
748.737	-2.12
749.136	-0.38
749.534	-2.09
749.932	0.36
750.33	0.18
750.727	-0.09
751.125	1.6
751.523	0.09
751.921	2.92
752.318	3.75
752.716	4.96
753.113	4.8
753.511	3.97
