Data from N_1_DEC_NC_4N_Splice17_11-36-34-818.txt Node
Date: Sat Mar 14 11:36:34 EDT 2020
User: sa697716
Spectrometer: FLMS03696
Trigger mode: 0
Integration Time (sec): 3.180400E-1
Scans to average: 20
Electric dark correction enabled: true
Nonlinearity correction enabled: true
Boxcar width: 5
XAxis mode: Wavelengths
Number of Pixels in Spectrum: 2048
>>>>>Begin Spectral Data<<<<<
187.83	-181184.02
188.298	1343.23
188.766	807.31
189.233	683.71
189.701	859.56
190.169	1211.2
190.636	422.97
191.104	383.09
191.571	54.39
192.039	-33.14
192.506	-39.44
192.974	218.37
193.441	-293.2
193.908	123.31
194.375	12.11
194.842	2.84
195.31	63.32
195.777	125.13
196.244	246.98
196.711	146.63
197.177	112.96
197.644	60.27
198.111	52.9
198.578	41.23
199.045	5.27
199.511	-2.51
199.978	-101.49
200.445	-78.43
200.911	-132.25
201.378	-209.11
201.844	-175.51
202.31	-370.06
202.777	-337.73
203.243	-164.67
203.709	-171.61
204.176	-182.14
204.642	-156.82
205.108	-112.06
205.574	-109.26
206.04	-119.61
206.506	-116.39
206.972	-133.53
207.438	-123.7
207.903	-149.95
208.369	-110.07
208.835	-84.52
209.301	-88.57
209.766	-106.59
210.232	-111.21
210.697	-123.78
211.163	-162.72
211.628	-290.39
212.094	-180.67
212.559	-127.4
213.024	-67.79
213.49	-98.09
213.955	-128.48
214.42	-148.5
214.885	-116.22
215.35	-96.56
215.815	-18.91
216.28	-10.01
216.745	5.43
217.21	24.8
217.675	-13.08
218.14	-11.57
218.604	-7.99
219.069	8.32
219.534	44.88
219.998	42.65
220.463	52.87
220.927	-21.68
221.392	-15.86
221.856	-10.52
222.32	-76.5
222.785	-73.43
223.249	-98.81
223.713	-128.7
224.177	-113.32
224.642	-210.99
225.106	-288.18
225.57	-330.52
226.034	-178.31
226.497	-282.44
226.961	-182.28
227.425	-104.77
227.889	-148.2
228.353	-134.22
228.816	-387.26
229.28	-384.33
229.744	-312.93
230.207	-100.5
230.671	-104.08
231.134	-341.43
231.597	-312
232.061	-369.81
232.524	-459.33
232.987	-276.07
233.45	-221.32
233.914	-172.49
234.377	-211.52
234.84	-178.58
235.303	-264.24
235.766	-274.67
236.229	-226.41
236.691	-160.52
237.154	-222.91
237.617	-148.26
238.08	-167.69
238.542	-222.98
239.005	-134.06
239.468	-111.02
239.93	-107.7
240.393	-86.67
240.855	-76.45
241.317	-105.19
241.78	-143.16
242.242	-120.29
242.704	-93.85
243.166	-68.16
243.629	-28.57
244.091	-32.25
244.553	-45.88
245.015	-18.22
245.477	-48.89
245.939	-99.75
246.4	-59.11
246.862	-64.67
247.324	-71.29
247.786	-123.05
248.247	-248.17
248.709	-347.84
249.17	-270.77
249.632	-190.24
250.093	-211.15
250.555	-185.09
251.016	-72.67
251.477	-50.92
251.939	-39.23
252.4	-48.59
252.861	-89.14
253.322	-45.43
253.783	-90.95
254.244	-152.45
254.705	-159.75
255.166	-203.68
255.627	-206.03
256.088	-310.08
256.549	-375.09
257.009	-314.7
257.47	-386.56
257.931	-331.42
258.391	-238.46
258.852	-221.01
259.312	-219.46
259.773	-283.53
260.233	-157.94
260.694	-93.37
261.154	-96.99
261.614	-4.62
262.074	-14.36
262.534	0.45
262.994	22.31
263.455	-7.92
263.915	2.49
264.374	4.21
264.834	5.73
265.294	-36.07
265.754	-30.28
266.214	-38.47
266.673	-59.27
267.133	-79.06
267.593	-86.25
268.052	-122.29
268.512	-103.82
268.971	-76.78
269.431	-70.34
269.89	-54.28
270.349	-44.82
270.809	-36.96
271.268	-22.26
271.727	-192.58
272.186	-113.05
272.645	-108.06
273.104	-122.63
273.563	-148.04
274.022	-195.02
274.481	-138.54
274.94	-84.61
275.399	-74.35
275.857	-118.05
276.316	-202.21
276.775	-184.7
277.233	-189.97
277.692	-156.38
278.15	-132.92
278.609	-96.77
279.067	-85.6
279.525	-69.72
279.984	-161.08
280.442	-212.15
280.9	-124.09
281.358	-44.1
281.816	-44.36
282.274	-48.72
282.732	-92.4
283.19	-120.92
283.648	-137.25
284.106	-159.22
284.564	-182.3
285.021	-124.42
285.479	-91.52
285.937	-119.93
286.394	-106.01
286.852	-111.43
287.309	-108.78
287.767	-51.31
288.224	-24.24
288.682	-33.26
289.139	-10.16
289.596	-8.69
290.053	-33.55
290.511	-66.54
290.968	-58.57
291.425	-100.18
291.882	-14.8
292.339	9.8
292.796	-47.11
293.252	-78.32
293.709	-22.03
294.166	-22.03
294.623	-41.38
295.079	-48.92
295.536	-11.05
295.992	-14.07
296.449	-7.22
296.905	-20.77
297.362	-8.2
297.818	-19.12
298.274	7.94
298.731	-12.17
299.187	-23.56
299.643	-27.22
300.099	-6.87
300.555	-23.29
301.011	13.03
301.467	75.36
301.923	51.14
302.379	44.86
302.835	38.04
303.291	24.33
303.746	18.61
304.202	6.26
304.658	26.37
305.113	5.51
305.569	-2.28
306.024	-78.77
306.479	-150.33
306.935	-109.84
307.39	-162.66
307.845	-126.46
308.301	-108.71
308.756	-113.44
309.211	-83.58
309.666	-108.7
310.121	-92.6
310.576	-118.15
311.031	-110.27
311.486	-148.35
311.94	-170.16
312.395	-238.15
312.85	-548.09
313.305	-3393.81
313.759	-12048.49
314.214	-1008.41
314.668	-710.95
315.123	-625.55
315.577	-181.12
316.032	-134.45
316.486	-183.54
316.94	-100.02
317.394	-28.42
317.849	-11.75
318.303	-20.77
318.757	-28.6
319.211	-28.34
319.665	-33.85
320.119	-40.82
320.572	-81.37
321.026	-56.35
321.48	-30.33
321.934	-63.09
322.387	-82.22
322.841	-70.84
323.295	-23.7
323.748	-78.9
324.202	-81.55
324.655	-83.35
325.108	-46
325.562	-11.96
326.015	-73.64
326.468	-63.99
326.921	-59.62
327.374	-46.6
327.827	-38.75
328.28	-47.96
328.733	7.68
329.186	14.48
329.639	12.3
330.092	-6
330.545	-2.46
330.997	18.99
331.45	36.75
331.903	56.47
332.355	49.65
332.808	25.67
333.26	-7.43
333.713	-27.18
334.165	-39.04
334.617	-104.92
335.069	-142.73
335.522	-313.06
335.974	-387.18
336.426	-463.34
336.878	-392.87
337.33	-182.68
337.782	-181.76
338.234	-167.1
338.686	-220.62
339.137	-281.76
339.589	-235.48
340.041	-145.23
340.493	-130.57
340.944	-119.18
341.396	-82.17
341.847	-24.38
342.299	21.07
342.75	79.84
343.201	-3.7
343.653	-31.22
344.104	-49.11
344.555	-47.17
345.006	-179.18
345.457	-32.83
345.908	-47.73
346.359	-27.54
346.81	-31.34
347.261	-57.65
347.712	-106.6
348.163	-116.68
348.613	-42.03
349.064	-44.98
349.515	-31.1
349.965	-14.48
350.416	-71.99
350.866	-80.66
351.317	-167.8
351.767	-271.4
352.217	-367.09
352.668	-283.9
353.118	-239.96
353.568	-366.78
354.018	-236.03
354.468	-223.46
354.918	-125.8
355.368	-106.97
355.818	-184.06
356.268	-465.82
356.718	-1708.68
357.168	-343.09
357.617	-196.2
358.067	-253.68
358.517	-158.94
358.966	-124.99
359.416	-57.95
359.865	-169.97
360.315	-283.97
360.764	-105.72
361.213	-64.46
361.663	-104.52
362.112	-181.87
362.561	-265.09
363.01	-201.36
363.459	-209.04
363.908	-293.76
364.357	-241.93
364.806	-466.63
365.255	-328.9
365.703	-233.3
366.152	-211.83
366.601	-164.69
367.05	-119.13
367.498	-101.69
367.947	-120.32
368.395	-139.25
368.844	-121.5
369.292	-182.73
369.74	-92.63
370.189	-132.24
370.637	-206.02
371.085	-175.36
371.533	-212.84
371.981	-207.82
372.429	-186.15
372.877	-183.04
373.325	-123.74
373.773	-116.78
374.221	-115.21
374.669	-167.56
375.116	-153.31
375.564	-134.4
376.012	-166.85
376.459	-119.41
376.907	-157.38
377.354	-221.04
377.801	-186.98
378.249	-202.99
378.696	-310.75
379.143	-355.85
379.591	-334.5
380.038	-589.29
380.485	-400.96
380.932	-414.45
381.379	-330.68
381.826	-113.33
382.273	-62.67
382.72	-87.09
383.166	-84.64
383.613	-19.45
384.06	-13.18
384.506	-25.21
384.953	-11.29
385.4	-26.97
385.846	-20.05
386.292	-37.35
386.739	-57.37
387.185	-74.88
387.631	-76.8
388.078	-52.71
388.524	-55.87
388.97	-54.36
389.416	-39.21
389.862	-37.28
390.308	-38.21
390.754	-39.72
391.2	-47.01
391.645	-59.91
392.091	-19.13
392.537	-6.35
392.983	-33.41
393.428	-13.22
393.874	-20.05
394.319	-1.73
394.765	19.49
395.21	24.85
395.655	23.45
396.101	30.87
396.546	38.73
396.991	12.29
397.436	8.38
397.881	9.4
398.326	-9.23
398.771	0.71
399.216	-12.61
399.661	-18.5
400.106	-19.68
400.551	-16.27
400.995	-17.11
401.44	-17.7
401.885	-13.49
402.329	-10.47
402.774	-3.96
403.218	8.7
403.663	7.33
404.107	9.86
404.551	13.41
404.995	12.21
405.44	7.1
405.884	4.96
406.328	-0.28
406.772	-0.87
407.216	0.58
407.66	-4.42
408.104	-13.78
408.547	-14.29
408.991	-13.83
409.435	-17.86
409.879	-13.95
410.322	-13.23
410.766	-10.77
411.209	-4.42
411.653	-4.59
412.096	-3.51
412.54	-3.96
412.983	-1.47
413.426	2.48
413.869	-0.16
414.312	4.11
414.756	2.56
415.199	2.07
415.642	3.87
416.085	4.12
416.527	5.19
416.97	2.89
417.413	3.71
417.856	2.01
418.298	-0.61
418.741	-1.61
419.184	-4.66
419.626	-11.21
420.069	-11.7
420.511	-12.57
420.953	-12.58
421.396	-12.87
421.838	-14.32
422.28	-13.86
422.722	-12.93
423.164	-15.81
423.606	-14.31
424.048	-16.46
424.49	-12.35
424.932	-12.5
425.374	-13.8
425.816	-17.48
426.258	-17.71
426.699	-14.7
427.141	-10.28
427.582	-12.9
428.024	-12.79
428.465	-12.91
428.907	-12.32
429.348	-10.55
429.789	-7.03
430.231	-3.13
430.672	-2.54
431.113	-3.65
431.554	-3.28
431.995	-6.93
432.436	-2.37
432.877	-1.13
433.318	0.51
433.759	-0.44
434.2	0.14
434.64	-2.36
435.081	-4.13
435.522	-1.9
435.962	-1.46
436.403	-0.82
436.843	-2.26
437.284	-4.08
437.724	-6.31
438.164	-9.13
438.604	-8.45
439.045	-7.76
439.485	-4.37
439.925	-3.65
440.365	-4.81
440.805	-4.59
441.245	-4.63
441.685	-5.32
442.125	-6.32
442.564	-6.95
443.004	-5.51
443.444	-4.49
443.883	-5.78
444.323	-8.8
444.762	-13.63
445.202	-14.66
445.641	-12.81
446.081	-14.82
446.52	-13.08
446.959	-12.44
447.398	-8.63
447.837	-8.49
448.276	-9.2
448.716	-7.56
449.154	-8.04
449.593	-4.15
450.032	-3.66
450.471	-6.68
450.91	-7.55
451.349	-6.35
451.787	-6.63
452.226	-8.25
452.664	-8.28
453.103	-7.52
453.541	-9.49
453.98	-6.68
454.418	-7.37
454.856	-5.28
455.295	-4.51
455.733	-2.44
456.171	-3.31
456.609	-2.42
457.047	-1.82
457.485	-0.01
457.923	1.59
458.361	1.02
458.798	-0.22
459.236	-0.12
459.674	-2.46
460.111	-1.53
460.549	-1.83
460.987	-2.83
461.424	-3.42
461.862	-2.48
462.299	-3.21
462.736	-3.22
463.173	-2.91
463.611	0.01
464.048	0.66
464.485	2.21
464.922	1.53
465.359	0.96
465.796	9.2
466.233	10.74
466.67	13.1
467.106	15.16
467.543	13.93
467.98	14.56
468.416	12.4
468.853	11.45
469.29	9.68
469.726	9.36
470.162	9.01
470.599	2.73
471.035	1.34
471.471	-0.91
471.907	-4.19
472.344	-4.17
472.78	-3.65
473.216	-4.31
473.652	-4.14
474.088	-3.96
474.523	-3.2
474.959	-3.13
475.395	-2.61
475.831	-2.28
476.266	-1.81
476.702	-1.34
477.138	-1.44
477.573	-1.94
478.008	-1.43
478.444	-0.17
478.879	1.41
479.314	1.17
479.75	1.77
480.185	1.44
480.62	0.8
481.055	0.35
481.49	1.7
481.925	2.17
482.36	4.22
482.795	3.53
483.229	1.92
483.664	0.96
484.099	1.76
484.534	1.8
484.968	1.83
485.403	1.62
485.837	0.93
486.271	-0.51
486.706	-0.68
487.14	-2.29
487.574	-2.22
488.009	-2.09
488.443	-2.31
488.877	-1.99
489.311	-2.53
489.745	-2.88
490.179	-2.33
490.613	-0.58
491.046	-0.68
491.48	-0.55
491.914	-0.44
492.348	-0.36
492.781	0.13
493.215	0.05
493.648	-1.08
494.082	-0.96
494.515	-0.13
494.948	0.68
495.382	-0.71
495.815	0.27
496.248	0.38
496.681	-0.37
497.114	-1.03
497.547	-0.58
497.98	1.17
498.413	2.41
498.846	3.21
499.279	2.54
499.711	1.46
500.144	1.38
500.577	1.55
501.009	0.85
501.442	2.55
501.874	3.41
502.306	3.16
502.739	4.87
503.171	4.58
503.603	4.43
504.036	4.41
504.468	4.83
504.9	5.21
505.332	4.63
505.764	5.34
506.196	4.43
506.627	4.74
507.059	4.49
507.491	1.77
507.923	1.36
508.354	1.25
508.786	1.33
509.217	1.57
509.649	1.72
510.08	1.32
510.512	1.6
510.943	2.22
511.374	2.29
511.805	2.34
512.237	1.93
512.668	1.08
513.099	0.36
513.53	0.19
513.961	0.48
514.391	0.15
514.822	1.57
515.253	1.36
515.684	0.93
516.114	0.89
516.545	1.27
516.975	0.98
517.406	1.74
517.836	1.71
518.267	2.08
518.697	2.84
519.127	2.75
519.558	1.9
519.988	1.48
520.418	1.09
520.848	0.07
521.278	-0.09
521.708	20.32
522.138	20.44
522.567	19.79
522.997	19.86
523.427	18.58
523.857	18.86
524.286	19.23
524.716	19.72
525.145	19.99
525.575	20.8
526.004	20.06
526.433	0.31
526.863	-0.22
527.292	1.34
527.721	1.07
528.15	1.49
528.579	1.85
529.008	1.93
529.437	0.79
529.866	0.91
530.295	0.1
530.724	1.05
531.152	1.44
531.581	2.45
532.01	2.56
532.438	2.16
532.867	1.25
533.295	1.16
533.723	0.9
534.152	1.52
534.58	1.28
535.008	1.75
535.436	2.54
535.865	1.97
536.293	0.79
536.721	-0.3
537.149	0.25
537.576	1.41
538.004	1.07
538.432	1.07
538.86	1.69
539.287	1.89
539.715	2.12
540.143	0.64
540.57	1.39
540.998	2.25
541.425	3.87
541.852	3.72
542.28	3.44
542.707	3.16
543.134	2.9
543.561	2.57
543.988	2.51
544.415	2.02
544.842	2.14
545.269	1.47
545.696	1.81
546.123	1.61
546.549	1.99
546.976	2.13
547.403	2.34
547.829	1.81
548.256	1.44
548.682	1.64
549.108	2.43
549.535	2.5
549.961	2.43
550.387	1.83
550.813	2.56
551.24	2.51
551.666	1.83
552.092	2.24
552.518	2.91
552.943	3.32
553.369	2.8
553.795	2.48
554.221	2.41
554.646	2.67
555.072	4.15
555.498	2.26
555.923	1.58
556.349	1.69
556.774	1.25
557.199	0.41
557.625	-0.11
558.05	0.62
558.475	0.64
558.9	1.23
559.325	2.12
559.75	1.13
560.175	1.22
560.6	1.37
561.025	1.19
561.449	1.43
561.874	1.39
562.299	1.99
562.723	1.05
563.148	1.32
563.572	0.44
563.997	-0.15
564.421	-1.24
564.846	-1.35
565.27	-0.94
565.694	-0.83
566.118	-1.1
566.542	0.28
566.966	0.06
567.39	0.58
567.814	0.61
568.238	0.98
568.662	0.38
569.086	1.22
569.509	1.04
569.933	1.81
570.357	2.07
570.78	2.81
571.204	3.25
571.627	3.22
572.05	3.55
572.474	4.21
572.897	4.61
573.32	5.71
573.743	5.63
574.166	6.51
574.589	6.11
575.012	5.91
575.435	4.96
575.858	4.27
576.281	4.42
576.704	4
577.126	2.9
577.549	2.24
577.972	1.04
578.394	0.83
578.817	2.54
579.239	2.1
579.661	2.51
580.084	3.51
580.506	4.07
580.928	3.78
581.35	3.89
581.772	4.09
582.194	4.99
582.616	5
583.038	4.78
583.46	2.52
583.882	2.69
584.303	1.42
584.725	0.67
585.147	4.04
585.568	4.46
585.99	4.5
586.411	4.89
586.833	4.96
587.254	5.3
587.675	5.29
588.096	5.28
588.518	4.8
588.939	5.27
589.36	5.27
589.781	0.13
590.202	2.15
590.623	2.32
591.043	1.41
591.464	0.82
591.885	0.78
592.305	0.36
592.726	-0.16
593.147	-0.18
593.567	0.05
593.987	-0.24
594.408	-0.19
594.828	-2.37
595.248	-2.42
595.669	-1.44
596.089	-1.57
596.509	-1.69
596.929	-1.73
597.349	-0.53
597.769	-0.06
598.189	0.13
598.608	0.29
599.028	0.44
599.448	-0.12
599.867	-0.35
600.287	-0.97
600.706	-0.33
601.126	-0.09
601.545	0.87
601.965	0.39
602.384	-0.06
602.803	-0.07
603.222	0.52
603.641	0.46
604.061	0.93
604.48	0.68
604.898	0.64
605.317	0.14
605.736	0.37
606.155	0.57
606.574	-0.05
606.992	-0.1
607.411	0
607.829	-1.27
608.248	-1.28
608.666	-0.94
609.085	-0.42
609.503	-0.37
609.921	0.24
610.339	0.28
610.758	-0.34
611.176	0.23
611.594	0.98
612.012	0.9
612.43	2.05
612.847	1.8
613.265	1.99
613.683	1.69
614.101	2.34
614.518	1.77
614.936	1.58
615.353	2.07
615.771	2.61
616.188	2.3
616.606	2.04
617.023	1.93
617.44	2.47
617.857	1.53
618.274	1.34
618.691	1.02
619.108	0.78
619.525	0.94
619.942	1.12
620.359	0.74
620.776	0.64
621.192	1.55
621.609	2.52
622.026	2.79
622.442	3.3
622.859	3.02
623.275	2.55
623.691	2.45
624.108	2.35
624.524	1.43
624.94	1.44
625.356	1.22
625.772	0.03
626.188	-0.94
626.604	-1.78
627.02	-2.11
627.436	-1.62
627.852	-0.12
628.268	0.48
628.683	-0.08
629.099	-0.22
629.514	-0.73
629.93	-0.93
630.345	-0.62
630.761	-1.52
631.176	-1.13
631.591	0.02
632.007	0.59
632.422	-1.08
632.837	-2.06
633.252	-0.81
633.667	-0.66
634.082	0.18
634.497	1.1
634.911	2.9
635.326	4.01
635.741	4.58
636.155	3.96
636.57	4.77
636.984	5.23
637.399	6.6
637.813	4.47
638.228	4.53
638.642	3.36
639.056	3.06
639.47	2.07
639.884	1.59
640.298	1.22
640.712	1.68
641.126	0.44
641.54	0.37
641.954	-2.22
642.368	-1.27
642.781	1.46
643.195	1.87
643.609	2
644.022	1.49
644.436	0.59
644.849	0.09
645.262	-0.98
645.676	-1.56
646.089	-1.6
646.502	0.78
646.915	0.51
647.328	-0.64
647.741	-0.14
648.154	0.03
648.567	2.54
648.98	3.35
649.393	3.46
649.805	3.75
650.218	3.76
650.631	4.15
651.043	3.9
651.456	4.46
651.868	3.76
652.28	1.78
652.693	0.64
653.105	-1.21
653.517	-1.9
653.929	-2.13
654.341	-1.91
654.753	-1.03
655.165	-1.28
655.577	-1.19
655.989	-1.6
656.401	-2.82
656.813	-0.42
657.224	0.12
657.636	-1.23
658.047	0.45
658.459	0.72
658.87	-0.33
659.282	-0.2
659.693	0.02
660.104	0.1
660.515	0.1
660.926	-0.2
661.338	-0.25
661.749	-1.21
662.159	0.56
662.57	-0.79
662.981	-1.63
663.392	-1.72
663.803	-2.61
664.213	-2.65
664.624	-3.35
665.035	-4.37
665.445	-4.09
665.855	-3.51
666.266	-2.62
666.676	-3.38
667.086	-3.72
667.497	-2.39
667.907	-1.76
668.317	-2.28
668.727	0.11
669.137	-0.96
669.547	-0.38
669.956	-1.63
670.366	-3.62
670.776	-3.03
671.186	-3.73
671.595	-3.48
672.005	-4.87
672.414	-3.99
672.824	-2.55
673.233	-5.88
673.642	-4.21
674.052	-3.31
674.461	-1.05
674.87	-0.5
675.279	-0.43
675.688	-1.26
676.097	0.52
676.506	1.4
676.915	-0.21
677.323	-0.67
677.732	0.31
678.141	0.2
678.549	-0.51
678.958	-1.79
679.366	-1.63
679.775	-2.42
680.183	0.33
680.592	-1.44
681	-1.92
681.408	-0.77
681.816	-0.95
682.224	-2.36
682.632	-0.87
683.04	0.04
683.448	0.26
683.856	0.59
684.264	0.99
684.671	-1.15
685.079	-0.78
685.487	-0.87
685.894	-1.68
686.302	-2.56
686.709	-0.78
687.116	-2.36
687.524	-2.64
687.931	-1.4
688.338	-0.59
688.745	-1.42
689.152	-1.95
689.559	-2.09
689.966	0.14
690.373	0.83
690.78	1.42
691.187	0.21
691.593	0.85
692	0.18
692.407	0.24
692.813	2.23
693.22	2.45
693.626	1.88
694.032	2.57
694.439	1.57
694.845	1.23
695.251	1.17
695.657	1.9
696.063	0.03
696.469	-0.01
696.875	-0.36
697.281	-2.75
697.687	-2.93
698.093	-3.1
698.498	-2.53
698.904	-2.82
699.31	-2.93
699.715	-1.06
700.12	-0.8
700.526	0.1
700.931	-0.04
701.337	0.79
701.742	2.2
702.147	1.98
702.552	3.62
702.957	1.57
703.362	1.16
703.767	1.05
704.172	-1.16
704.577	-2.07
704.981	-3.22
705.386	-2.67
705.791	-3.43
706.195	-5.22
706.6	-4
707.004	-5.56
707.408	-5.19
707.813	-4.27
708.217	-3.02
708.621	-2.41
709.025	-2.54
709.43	0.05
709.834	0.18
710.237	-0.27
710.641	0.77
711.045	0.24
711.449	1.96
711.853	6.16
712.256	5.62
712.66	4.4
713.064	4.67
713.467	5.6
713.87	4.32
714.274	4.89
714.677	6.28
715.08	5.78
715.484	6.58
715.887	8.98
716.29	4.18
716.693	5.31
717.096	6.78
717.499	7.93
717.901	7.2
718.304	6.32
718.707	6.05
719.109	4.62
719.512	4.46
719.915	7.29
720.317	4.77
720.719	3.98
721.122	2.78
721.524	1.96
721.926	5.28
722.328	5.61
722.731	5.41
723.133	4.64
723.535	5.07
723.937	4.64
724.338	3.78
724.74	4.17
725.142	52.61
725.544	55.58
725.945	67.24
726.347	64.19
726.748	65.18
727.15	65.72
727.551	69.68
727.952	68.32
728.354	68.32
728.755	67.18
729.156	66.11
729.557	19.5
729.958	16.25
730.359	5.35
730.76	4.55
731.161	4.44
731.562	3.35
731.962	-0.18
732.363	-0.56
732.763	-0.25
733.164	-2.32
733.564	-0.76
733.965	1.03
734.365	2
734.766	1.66
735.166	1.16
735.566	0.81
735.966	2.03
736.366	3.7
736.766	4.46
737.166	3.4
737.566	4.42
737.966	4.01
738.365	4.28
738.765	4.15
739.165	4.71
739.564	4.74
739.964	3.56
740.363	2.85
740.763	0.44
741.162	1.53
741.561	1.72
741.96	1.65
742.36	0.72
742.759	-0.23
743.158	-1.35
743.557	-2.15
743.955	-3.26
744.354	-3.55
744.753	-3.9
745.152	-2.43
745.55	-4.99
745.949	-4.36
746.348	-4.16
746.746	-6.8
747.144	-4.78
747.543	-4.02
747.941	-4.39
748.339	-3.41
748.737	-1.04
749.136	0.75
749.534	-0.29
749.932	3.07
750.33	2.88
750.727	1.98
751.125	4.65
751.523	4.01
751.921	7.18
752.318	8.05
752.716	9.8
753.113	8.7
753.511	7.16
753.908	8.32
754.305	11.43
754.703	11.28
755.1	12.42
755.497	11.56
755.894	10.3
756.291	6.98
756.688	7.27
757.085	5.51
757.482	4.62
