Data from N_1_DEC_OH_4N_Splice17_11-20-50-977.txt Node
Date: Sat Mar 14 11:20:50 EDT 2020
User: sa697716
Spectrometer: FLMS03696
Trigger mode: 0
Integration Time (sec): 3.180400E-1
Scans to average: 20
Electric dark correction enabled: true
Nonlinearity correction enabled: true
Boxcar width: 5
XAxis mode: Wavelengths
Number of Pixels in Spectrum: 2048
>>>>>Begin Spectral Data<<<<<
187.83	-92087.34
188.298	887.29
188.766	510.12
189.233	484.01
189.701	648.42
190.169	822.06
190.636	369.93
191.104	353.29
191.571	104.16
192.039	11.98
192.506	65.53
192.974	545.89
193.441	-386.35
193.908	-39.42
194.375	27.02
194.842	76.95
195.31	77.37
195.777	115.94
196.244	190.98
196.711	152.5
197.177	148.14
197.644	169.9
198.111	301.05
198.578	315.2
199.045	237.1
199.511	363.91
199.978	361.97
200.445	337.74
200.911	359.44
201.378	371.17
201.844	353.61
202.31	604.4
202.777	638.03
203.243	337.82
203.709	362.3
204.176	442.94
204.642	375.21
205.108	370.68
205.574	291.96
206.04	257.77
206.506	243.15
206.972	208.11
207.438	190.57
207.903	212.5
208.369	213.43
208.835	208.26
209.301	215.7
209.766	196.89
210.232	187
210.697	235.2
211.163	288.82
211.628	401.71
212.094	374.39
212.559	486.78
213.024	301.76
213.49	358.46
213.955	330.65
214.42	285.34
214.885	271.95
215.35	274.83
215.815	289.66
216.28	287.3
216.745	234.7
217.21	255.27
217.675	210.03
218.14	228.77
218.604	224.52
219.069	249.51
219.534	270.21
219.998	291.91
220.463	306.99
220.927	274.01
221.392	253.16
221.856	247.1
222.32	260.45
222.785	307.15
223.249	341.14
223.713	361.83
224.177	341.82
224.642	369.7
225.106	399.77
225.57	393.98
226.034	347.16
226.497	495.96
226.961	481.05
227.425	538.11
227.889	514.67
228.353	477.24
228.816	858.62
229.28	806.2
229.744	642.74
230.207	437.14
230.671	429.9
231.134	585.7
231.597	682.13
232.061	523.66
232.524	461.01
232.987	353.42
233.45	355.74
233.914	311.48
234.377	262.47
234.84	238.47
235.303	266.34
235.766	295.8
236.229	316.18
236.691	177.33
237.154	197.76
237.617	159.25
238.08	150.96
238.542	170.95
239.005	118.88
239.468	132.03
239.93	132.82
240.393	123.13
240.855	107.62
241.317	98.46
241.78	113.71
242.242	131.07
242.704	166.25
243.166	161.9
243.629	159.57
244.091	186.93
244.553	200.3
245.015	220.06
245.477	260.13
245.939	340.83
246.4	382.81
246.862	353.06
247.324	313.51
247.786	306.21
248.247	307.37
248.709	241.25
249.17	207.12
249.632	271.35
250.093	343.6
250.555	298.66
251.016	227.37
251.477	226.25
251.939	242.56
252.4	253.78
252.861	300.01
253.322	325.92
253.783	343.19
254.244	439.75
254.705	292.33
255.166	229.76
255.627	212.35
256.088	281.95
256.549	259.71
257.009	223.92
257.47	268.71
257.931	174.05
258.391	134.31
258.852	170.07
259.312	175.8
259.773	209.72
260.233	230.57
260.694	222.19
261.154	246.61
261.614	247.49
262.074	219.7
262.534	231.91
262.994	251.04
263.455	310.2
263.915	272.5
264.374	246.89
264.834	284.24
265.294	279
265.754	296.85
266.214	283.2
266.673	243.21
267.133	293.95
267.593	278.66
268.052	331.48
268.512	280.2
268.971	371.92
269.431	412.6
269.89	363.19
270.349	546.2
270.809	622.39
271.268	552.68
271.727	1126.43
272.186	770.56
272.645	569.08
273.104	354.55
273.563	497.34
274.022	310.86
274.481	310.61
274.94	240
275.399	152.76
275.857	139.19
276.316	170.84
276.775	162.06
277.233	155.35
277.692	178.01
278.15	227.66
278.609	286.26
279.067	279.59
279.525	262.23
279.984	316.18
280.442	408.33
280.9	437.19
281.358	288.77
281.816	258.17
282.274	248.26
282.732	211.04
283.19	202.69
283.648	155.09
284.106	148.43
284.564	121.21
285.021	118.6
285.479	92.47
285.937	73.79
286.394	74.88
286.852	76.56
287.309	75.41
287.767	114.79
288.224	122.88
288.682	130.54
289.139	158.33
289.596	171.87
290.053	169.64
290.511	191.16
290.968	236.96
291.425	321.87
291.882	324.14
292.339	312.38
292.796	286.83
293.252	248.07
293.709	221.62
294.166	203.8
294.623	189.41
295.079	168.47
295.536	201.29
295.992	185.3
296.449	178.24
296.905	186.83
297.362	196.18
297.818	179.79
298.274	201.24
298.731	193.97
299.187	190.22
299.643	218.91
300.099	289.81
300.555	306.66
301.011	262.03
301.467	293.03
301.923	298.7
302.379	274.74
302.835	290.94
303.291	302.19
303.746	310.32
304.202	369.22
304.658	361.52
305.113	247.26
305.569	237.48
306.024	242.78
306.479	193.23
306.935	188.09
307.39	196.53
307.845	174.47
308.301	198.81
308.756	198.6
309.211	199.07
309.666	194.69
310.121	248.81
310.576	254.03
311.031	241.97
311.486	237.15
311.94	204.48
312.395	242.08
312.85	398.62
313.305	636.19
313.759	7722.23
314.214	650.34
314.668	580.15
315.123	638.52
315.577	255.29
316.032	236.51
316.486	322.87
316.94	277.65
317.394	221.32
317.849	199.56
318.303	202.19
318.757	174.23
319.211	179.39
319.665	158.64
320.119	141.99
320.572	176.49
321.026	191.21
321.48	159.64
321.934	164.39
322.387	145.51
322.841	159.67
323.295	185
323.748	183.29
324.202	182.74
324.655	233.19
325.108	359.57
325.562	279.3
326.015	307.01
326.468	243.04
326.921	275.2
327.374	286.72
327.827	299.24
328.28	295.94
328.733	248.02
329.186	238.07
329.639	224.43
330.092	179.87
330.545	173.84
330.997	191.95
331.45	231.45
331.903	285.59
332.355	440.4
332.808	403.15
333.26	324.86
333.713	335.13
334.165	315.34
334.617	399.29
335.069	260.72
335.522	408.13
335.974	400.42
336.426	316.42
336.878	151.82
337.33	108.02
337.782	111.46
338.234	170.36
338.686	176.15
339.137	197.32
339.589	199.69
340.041	192.77
340.493	170.21
340.944	146
341.396	146.3
341.847	170.4
342.299	229.36
342.75	317.21
343.201	259.06
343.653	290.12
344.104	342.11
344.555	252.41
345.006	355.96
345.457	363.95
345.908	301.36
346.359	302.01
346.81	239.12
347.261	213.76
347.712	184.92
348.163	191.01
348.613	248.08
349.064	254.7
349.515	225.09
349.965	243.48
350.416	255.64
350.866	280.15
351.317	300.27
351.767	487.76
352.217	627.94
352.668	524.72
353.118	466.79
353.568	329.74
354.018	276.73
354.468	338.36
354.918	240.84
355.368	182.16
355.818	225.41
356.268	558.05
356.718	2384.93
357.168	687.45
357.617	325.44
358.067	331.77
358.517	291.87
358.966	347.22
359.416	423.71
359.865	476.75
360.315	538.51
360.764	277.83
361.213	156.25
361.663	119.36
362.112	117.32
362.561	181.07
363.01	185.91
363.459	161.83
363.908	112.72
364.357	129.64
364.806	177.56
365.255	131.04
365.703	169.28
366.152	191.69
366.601	175.63
367.05	149.98
367.498	161.16
367.947	139.59
368.395	157.13
368.844	167.84
369.292	139.49
369.74	113.31
370.189	159.64
370.637	189.12
371.085	152.25
371.533	173.76
371.981	158.69
372.429	171.71
372.877	191.88
373.325	177.44
373.773	182.71
374.221	148.6
374.669	187.06
375.116	173.03
375.564	163.35
376.012	190.7
376.459	177.88
376.907	177.18
377.354	177.31
377.801	182.29
378.249	229.56
378.696	243.41
379.143	300
379.591	286.27
380.038	445.36
380.485	309.95
380.932	288.23
381.379	308.24
381.826	347.08
382.273	245.06
382.72	181.21
383.166	160.22
383.613	133.22
384.06	136.04
384.506	147.39
384.953	123.72
385.4	119.04
385.846	117.61
386.292	96.93
386.739	74.39
387.185	78.44
387.631	83.49
388.078	92.05
388.524	87.98
388.97	76.74
389.416	75.48
389.862	84.77
390.308	86.73
390.754	86.69
391.2	93.51
391.645	92.04
392.091	99.18
392.537	102.97
392.983	87.1
393.428	107.25
393.874	113.88
394.319	129.18
394.765	126.69
395.21	124.38
395.655	116.49
396.101	109.98
396.546	103.27
396.991	89.37
397.436	81.22
397.881	75.29
398.326	53.56
398.771	54.08
399.216	42.55
399.661	34.31
400.106	39.62
400.551	40.69
400.995	34.91
401.44	38.54
401.885	40.11
402.329	38.94
402.774	39.75
403.218	49.29
403.663	46.71
404.107	44.94
404.551	49.71
404.995	40.65
405.44	35.94
405.884	35.09
406.328	28.8
406.772	23.53
407.216	26.03
407.66	24.73
408.104	18.13
408.547	16.07
408.991	16.36
409.435	12.93
409.879	17.77
410.322	18.18
410.766	19.87
411.209	23.25
411.653	25.32
412.096	27.02
412.54	25.7
412.983	25.39
413.426	29.34
413.869	26.04
414.312	29.58
414.756	24.97
415.199	24.11
415.642	24.52
416.085	23.1
416.527	20.76
416.97	17.28
417.413	19.44
417.856	16.86
418.298	15.44
418.741	16.32
419.184	11.86
419.626	9.91
420.069	10.13
420.511	10.32
420.953	13.19
421.396	14.58
421.838	13.61
422.28	13.28
422.722	17.32
423.164	16.16
423.606	16.62
424.048	15.45
424.49	17.23
424.932	17.11
425.374	15.32
425.816	13.32
426.258	12.59
426.699	13.85
427.141	17.42
427.582	15.44
428.024	13.41
428.465	10.95
428.907	12.32
429.348	12.71
429.789	14.31
430.231	15.85
430.672	16.53
431.113	16.88
431.554	15.85
431.995	10.91
432.436	12.98
432.877	13.56
433.318	17.48
433.759	15.59
434.2	12.57
434.64	10.56
435.081	11.56
435.522	11.84
435.962	11.23
436.403	13.13
436.843	11.27
437.284	9.48
437.724	9.43
438.164	5.49
438.604	6.47
439.045	10.06
439.485	13.2
439.925	13.57
440.365	11.89
440.805	11.12
441.245	10.72
441.685	12.92
442.125	11.54
442.564	11.31
443.004	12.18
443.444	12.69
443.883	12.31
444.323	8.43
444.762	2.97
445.202	3.01
445.641	5.56
446.081	4.22
446.52	3.65
446.959	4.6
447.398	6.24
447.837	5.93
448.276	5.63
448.716	5.89
449.154	6
449.593	9.12
450.032	9.29
450.471	5.95
450.91	4.71
451.349	7.21
451.787	7.02
452.226	6.03
452.664	6.37
453.103	6.15
453.541	4.5
453.98	6.97
454.418	7.86
454.856	9.61
455.295	10.04
455.733	11.26
456.171	9.47
456.609	10.78
457.047	11.45
457.485	12.86
457.923	14.7
458.361	14.73
458.798	12.95
459.236	12.26
459.674	9.69
460.111	9.8
460.549	9.96
460.987	8.33
461.424	7.94
461.862	7.36
462.299	7.57
462.736	7.51
463.173	7.41
463.611	11.16
464.048	11.84
464.485	13.46
464.922	13.11
465.359	12.25
465.796	20.5
466.233	20.97
466.67	23.08
467.106	24.24
467.543	22.87
467.98	21.86
468.416	19.36
468.853	18.46
469.29	17.28
469.726	18.08
470.162	18.28
470.599	12.05
471.035	10.46
471.471	9.52
471.907	6.81
472.344	6.19
472.78	7.62
473.216	6.55
473.652	6.56
474.088	5.46
474.523	5.95
474.959	5.12
475.395	4.68
475.831	5.62
476.266	4.86
476.702	5.39
477.138	5.62
477.573	4.88
478.008	5.16
478.444	5.9
478.879	7.53
479.314	7.34
479.75	7.87
480.185	7.91
480.62	7.11
481.055	6.87
481.49	6.45
481.925	6.52
482.36	8.36
482.795	7.9
483.229	6.88
483.664	6.21
484.099	5.94
484.534	6.39
484.968	7
485.403	6.61
485.837	5.87
486.271	6.41
486.706	6.74
487.14	5.3
487.574	5.29
488.009	5.29
488.443	5.39
488.877	5.8
489.311	4.8
489.745	4.52
490.179	5.01
490.613	6.88
491.046	6.27
491.48	5.68
491.914	6.2
492.348	6.45
492.781	6.48
493.215	5.91
493.648	4.82
494.082	5.3
494.515	5.37
494.948	6.35
495.382	5.15
495.815	5.33
496.248	5.97
496.681	4.98
497.114	4.96
497.547	5.6
497.98	7.01
498.413	8.92
498.846	9.57
499.279	9.43
499.711	8.42
500.144	8.15
500.577	9.33
501.009	8.83
501.442	10.29
501.874	10.49
502.306	9.72
502.739	10.9
503.171	10.26
503.603	10.25
504.036	10.61
504.468	11.12
504.9	11.21
505.332	10.51
505.764	11.36
506.196	10.64
506.627	10.8
507.059	10.73
507.491	8.55
507.923	8.18
508.354	8.16
508.786	7.92
509.217	7.81
509.649	8.27
510.08	8.12
510.512	8.49
510.943	8.84
511.374	9.14
511.805	9.66
512.237	10.34
512.668	10.25
513.099	9.55
513.53	9.96
513.961	10.61
514.391	10.27
514.822	11.43
515.253	11.42
515.684	11.5
516.114	11.87
516.545	12.33
516.975	12.34
517.406	12.63
517.836	12.59
518.267	12.64
518.697	13.16
519.127	13.49
519.558	12.7
519.988	12.2
520.418	11.59
520.848	10.85
521.278	10.43
521.708	26.78
522.138	27.13
522.567	27.25
522.997	27.33
523.427	26.67
523.857	26.95
524.286	27.35
524.716	27.78
525.145	28.73
525.575	29.67
526.004	29.62
526.433	13.99
526.863	14.08
527.292	15.31
527.721	15.39
528.15	15.53
528.579	15.65
529.008	15.73
529.437	15.02
529.866	14.63
530.295	13.61
530.724	14.54
531.152	14.19
531.581	14.96
532.01	14.6
532.438	14.42
532.867	14.39
533.295	15.05
533.723	14.63
534.152	15.05
534.58	15.73
535.008	16.45
535.436	16.95
535.865	16.87
536.293	15.8
536.721	15.53
537.149	15.69
537.576	16.05
538.004	15.43
538.432	15.45
538.86	16.14
539.287	15.34
539.715	15.33
540.143	14.38
540.57	14.96
540.998	15.07
541.425	16.53
541.852	16.5
542.28	16.61
542.707	16.25
543.134	17.03
543.561	17.17
543.988	17.74
544.415	17.34
544.842	16.92
545.269	16.58
545.696	17.2
546.123	16.71
546.549	17.38
546.976	17.28
547.403	17.81
547.829	17.08
548.256	16.33
548.682	16.25
549.108	16.94
549.535	17.36
549.961	17.68
550.387	17.39
550.813	17.93
551.24	17.82
551.666	17.61
552.092	17.38
552.518	16.82
552.943	17.46
553.369	17.32
553.795	18.11
554.221	18.38
554.646	18.04
555.072	18.45
555.498	16.95
555.923	16.28
556.349	16.1
556.774	15.84
557.199	16.17
557.625	15.66
558.05	16.2
558.475	15.19
558.9	14.75
559.325	15.52
559.75	15.75
560.175	16.16
560.6	16.1
561.025	15.63
561.449	15.81
561.874	15.92
562.299	16.02
562.723	14.99
563.148	14.87
563.572	14.44
563.997	13.55
564.421	12.47
564.846	12.14
565.27	12.16
565.694	12.62
566.118	12.35
566.542	13.08
566.966	13.28
567.39	13.65
567.814	13.19
568.238	13.84
568.662	13.81
569.086	13.87
569.509	13.47
569.933	14.76
570.357	14.51
570.78	14.92
571.204	15.11
571.627	14.42
572.05	14.67
572.474	16.12
572.897	16.3
573.32	16.66
573.743	16.47
574.166	17.06
574.589	15.7
575.012	15.5
575.435	14.83
575.858	14.47
576.281	14.84
576.704	14.35
577.126	12.99
577.549	12.29
577.972	11.48
578.394	11.58
578.817	12.93
579.239	12.93
579.661	13.13
580.084	14.43
580.506	14.43
580.928	14.29
581.35	14.49
581.772	14.79
582.194	14.88
582.616	14.77
583.038	14.43
583.46	12.95
583.882	12.79
584.303	11.8
584.725	10.74
585.147	13.53
585.568	13.59
585.99	13.92
586.411	14.26
586.833	15.14
587.254	15.27
587.675	15.28
588.096	15.39
588.518	15.48
588.939	16.2
589.36	16.27
589.781	12.21
590.202	14.07
590.623	13.51
591.043	12.79
591.464	12.16
591.885	12.73
592.305	12.43
592.726	12.17
593.147	11.96
593.567	12.07
593.987	11.91
594.408	11.75
594.828	9.61
595.248	10.59
595.669	11.49
596.089	11.81
596.509	11.25
596.929	11.11
597.349	11.69
597.769	12.01
598.189	11.9
598.608	12.42
599.028	13.12
599.448	12.79
599.867	11.52
600.287	10.69
600.706	10.57
601.126	10.99
601.545	12.15
601.965	11.8
602.384	11.25
602.803	10.99
603.222	11.01
603.641	10.76
604.061	11.22
604.48	11.53
604.898	11.28
605.317	10.91
605.736	10.2
606.155	10.14
606.574	9.76
606.992	9.8
607.411	10.23
607.829	8.91
608.248	8.47
608.666	7.97
609.085	8.03
609.503	8.38
609.921	8.8
610.339	9.26
610.758	8.6
611.176	8.81
611.594	9.44
612.012	9.15
612.43	10.12
612.847	10.42
613.265	11.18
613.683	11.3
614.101	11.17
614.518	10.63
614.936	10.5
615.353	11.09
615.771	11.36
616.188	11.36
616.606	11.54
617.023	11.73
617.44	11.32
617.857	10.12
618.274	9.56
618.691	9.74
619.108	9.4
619.525	8.7
619.942	8.13
620.359	8.04
620.776	8.42
621.192	8.85
621.609	9.06
622.026	9.75
622.442	10.08
622.859	9.84
623.275	9.26
623.691	9.83
624.108	10.7
624.524	11.13
624.94	10.84
625.356	10.15
625.772	9.52
626.188	9.11
626.604	8.65
627.02	8.7
627.436	9.4
627.852	10.86
628.268	10.95
628.683	10.18
629.099	9.73
629.514	9.28
629.93	9.21
630.345	9.51
630.761	9.29
631.176	9.1
631.591	11.08
632.007	11.49
632.422	9.7
632.837	9.22
633.252	10.76
633.667	10.45
634.082	10.56
634.497	10.86
634.911	11.77
635.326	12.01
635.741	12.75
636.155	11.42
636.57	11.76
636.984	12.34
637.399	12.92
637.813	11.82
638.228	11.93
638.642	11.78
639.056	11.35
639.47	10
639.884	9.52
640.298	8.75
640.712	9.19
641.126	8.45
641.54	8.67
641.954	7.17
642.368	7.59
642.781	9.67
643.195	9.88
643.609	10.03
644.022	10.2
644.436	9.93
644.849	9.65
645.262	8.89
645.676	8.02
646.089	7.26
646.502	8.34
646.915	7.54
647.328	5.86
647.741	5.97
648.154	6.31
648.567	7.63
648.98	8.36
649.393	8.66
649.805	9.43
650.218	9.62
650.631	10.13
651.043	11.1
651.456	12.01
651.868	11.97
652.28	11.91
652.693	11.23
653.105	10.04
653.517	8.93
653.929	9.56
654.341	9.19
654.753	10.18
655.165	9.8
655.577	8.81
655.989	8.7
656.401	7.25
656.813	7.82
657.224	7.65
657.636	7.48
658.047	9.07
658.459	8.21
658.87	6.89
659.282	6.31
659.693	7.56
660.104	7.84
660.515	7.19
660.926	7.63
661.338	7.13
661.749	6.96
662.159	7.56
662.57	5.82
662.981	5.97
663.392	6.75
663.803	6.71
664.213	5.97
664.624	5.93
665.035	5.55
665.445	6.21
665.855	7.21
666.266	8.08
666.676	8.29
667.086	8.98
667.497	9.76
667.907	9.87
668.317	9.6
668.727	12.38
669.137	11.71
669.547	12.16
669.956	11.01
670.366	10.93
670.776	10.88
671.186	10.01
671.595	10.24
672.005	8.8
672.414	8.43
672.824	9.03
673.233	5.43
673.642	5.48
674.052	5.27
674.461	6.89
674.87	6.57
675.279	7.74
675.688	7.22
676.097	8.12
676.506	8.98
676.915	8.69
677.323	8.86
677.732	10.34
678.141	9.63
678.549	9.88
678.958	9.14
679.366	7.66
679.775	6.29
680.183	7.84
680.592	7.24
681	7.11
681.408	7.53
681.816	7.49
682.224	6.69
682.632	8.63
683.04	8.69
683.448	8.88
683.856	11.05
684.264	10.74
684.671	9.31
685.079	9.26
685.487	9.74
685.894	9.68
686.302	9.24
686.709	9.08
687.116	7.98
687.524	9.02
687.931	10.21
688.338	9.8
688.745	10.44
689.152	11.8
689.559	11.67
689.966	12.94
690.373	13.81
690.78	14.83
691.187	15.59
691.593	16.83
692	16.38
692.407	16.15
692.813	18.52
693.22	18.79
693.626	17.91
694.032	18.34
694.439	18.48
694.845	18.18
695.251	17.86
695.657	18.44
696.063	16.91
696.469	16.87
696.875	16.77
697.281	14.38
697.687	14.31
698.093	14.89
698.498	16.23
698.904	15.39
699.31	16.44
699.715	17.77
700.12	17.76
700.526	18.86
700.931	18.83
701.337	19.88
701.742	20.94
702.147	20.82
702.552	21.12
702.957	20.44
703.362	21.02
703.767	20.43
704.172	19.7
704.577	19.44
704.981	18.47
705.386	19.39
705.791	19.13
706.195	18.61
706.6	19.99
707.004	18.83
707.408	18.2
707.813	19.48
708.217	20.49
708.621	19.97
709.025	19.66
709.43	22.06
709.834	21.63
710.237	20.81
710.641	21.21
711.045	20.62
711.449	22.77
711.853	25.57
712.256	23.67
712.66	22.28
713.064	23.66
713.467	25.21
713.87	24.37
714.274	25.05
714.677	26.04
715.08	26.8
715.484	27.73
715.887	29.62
716.29	27.38
716.693	29.43
717.096	31.43
717.499	31.87
717.901	30.91
718.304	31.59
718.707	31.42
719.109	31.14
719.512	30
719.915	31.32
720.317	30.09
720.719	29.12
721.122	28.38
721.524	28.59
721.926	30.85
722.328	31.28
722.731	30.55
723.133	30.87
723.535	30.44
723.937	31.14
724.338	32.38
724.74	32.43
725.142	72.15
725.544	75.55
725.945	83.87
726.347	81.11
726.748	81.4
727.15	83.3
727.551	85.66
727.952	85.38
728.354	84.04
728.755	81.87
729.156	79.92
729.557	41.83
729.958	38.19
730.359	30.38
730.76	30.24
731.161	29.86
731.562	27.87
731.962	24.1
732.363	24.36
732.763	26.05
733.164	24.54
733.564	25.86
733.965	27.57
734.365	28.69
734.766	28.94
735.166	28.14
735.566	28.55
735.966	29.15
736.366	30.44
736.766	30.83
737.166	28.69
737.566	28.89
737.966	27.56
738.365	26.74
738.765	26.61
739.165	25.93
739.564	26.2
739.964	25.43
740.363	24.84
740.763	23.89
741.162	25.46
741.561	26.04
741.96	27.51
742.36	27.81
742.759	27.34
743.158	26.07
743.557	26.11
743.955	25.61
744.354	25.09
744.753	24.6
745.152	26.78
745.55	24.71
745.949	24.11
746.348	23.52
746.746	23.61
747.144	26.69
747.543	26.46
747.941	25.88
748.339	26
748.737	26.75
749.136	28.27
749.534	26.4
749.932	28.34
750.33	28.55
750.727	28.59
751.125	28.97
751.523	26.72
751.921	29.25
752.318	30.02
752.716	31.51
753.113	31.73
753.511	30.8
753.908	31.5
754.305	33.95
754.703	34.42
755.1	34.73
755.497	35.35
755.894	35.15
756.291	33.99
756.688	34.28
757.085	33.34
757.482	35.79
