Data from N_1_DIV_OH_2N_Splice17_11-30-13-657.txt Node
Date: Sat Mar 14 11:30:13 EDT 2020
User: sa697716
Spectrometer: FLMS03696
Trigger mode: 0
Integration Time (sec): 3.180400E-1
Scans to average: 20
Electric dark correction enabled: true
Nonlinearity correction enabled: true
Boxcar width: 5
XAxis mode: Wavelengths
Number of Pixels in Spectrum: 2048
>>>>>Begin Spectral Data<<<<<
187.83	-162969.94
188.298	1332.47
188.766	681.02
189.233	579.11
189.701	875.06
190.169	1222.25
190.636	441.08
191.104	412.58
191.571	110.64
192.039	27.4
192.506	31.72
192.974	324.45
193.441	-312.27
193.908	-138.63
194.375	-24.97
194.842	37.2
195.31	61.74
195.777	119.62
196.244	241.58
196.711	181.19
197.177	181.47
197.644	202.88
198.111	288.15
198.578	390.75
199.045	304.37
199.511	437.73
199.978	475.43
200.445	434.05
200.911	447.69
201.378	458.02
201.844	458
202.31	754.73
202.777	802.86
203.243	474.26
203.709	449.23
204.176	537.83
204.642	463.05
205.108	435.53
205.574	341.04
206.04	286.82
206.506	272.49
206.972	218.61
207.438	214.26
207.903	227.42
208.369	211.73
208.835	220.21
209.301	226.28
209.766	212.69
210.232	205.88
210.697	245.29
211.163	317.84
211.628	435.67
212.094	435.41
212.559	575.57
213.024	367.6
213.49	446.18
213.955	398.62
214.42	380.33
214.885	374.22
215.35	375.41
215.815	413.51
216.28	418.93
216.745	333.35
217.21	349.44
217.675	275.14
218.14	284.88
218.604	273.89
219.069	298.63
219.534	315.99
219.998	314.99
220.463	342
220.927	311.82
221.392	272.39
221.856	276.9
222.32	290.95
222.785	351.17
223.249	419.13
223.713	448.38
224.177	446.62
224.642	472.4
225.106	518.2
225.57	523.77
226.034	440.36
226.497	592.74
226.961	519.92
227.425	637.22
227.889	655.08
228.353	618.67
228.816	1105.74
229.28	1031.21
229.744	840.83
230.207	578.01
230.671	545.34
231.134	708.13
231.597	924.47
232.061	850.92
232.524	722.76
232.987	516.28
233.45	478.37
233.914	425.67
234.377	366.58
234.84	333.62
235.303	375.53
235.766	420.18
236.229	447.62
236.691	254.97
237.154	262.87
237.617	200.51
238.08	177.18
238.542	186.11
239.005	155.14
239.468	171.74
239.93	159.94
240.393	145.99
240.855	129.14
241.317	112.96
241.78	125.68
242.242	146.7
242.704	194.88
243.166	181
243.629	185.04
244.091	213.1
244.553	221.02
245.015	241.57
245.477	274.59
245.939	374.01
246.4	421.47
246.862	358.78
247.324	316.17
247.786	295.43
248.247	329.94
248.709	221.21
249.17	191.09
249.632	268.84
250.093	365.91
250.555	334.64
251.016	255.75
251.477	256.58
251.939	294.26
252.4	305.51
252.861	345.75
253.322	364.37
253.783	416.76
254.244	477.69
254.705	329.55
255.166	266.21
255.627	247.94
256.088	303.71
256.549	323.47
257.009	274.44
257.47	324.42
257.931	262.81
258.391	202.82
258.852	223.58
259.312	229.97
259.773	249.07
260.233	249.67
260.694	242.84
261.154	266.63
261.614	256.01
262.074	224.47
262.534	251.88
262.994	258.12
263.455	310.96
263.915	274.7
264.374	263.88
264.834	286.63
265.294	292.05
265.754	307.62
266.214	296.45
266.673	246.16
267.133	303.79
267.593	262.48
268.052	293.34
268.512	249.01
268.971	368.56
269.431	404.44
269.89	356.46
270.349	538.15
270.809	575.17
271.268	526.75
271.727	1056.54
272.186	721.57
272.645	524.29
273.104	342.73
273.563	535.21
274.022	309.06
274.481	307.23
274.94	274.27
275.399	182.7
275.857	184.19
276.316	212.41
276.775	201.71
277.233	217.98
277.692	246.13
278.15	306.9
278.609	359.18
279.067	337.32
279.525	318.05
279.984	354.98
280.442	436.77
280.9	557.39
281.358	380.83
281.816	375.83
282.274	348.57
282.732	323.26
283.19	321.11
283.648	226.64
284.106	241.61
284.564	213.62
285.021	229.27
285.479	171.36
285.937	115.53
286.394	112.74
286.852	102.5
287.309	101.23
287.767	136.02
288.224	140.53
288.682	166.68
289.139	194.23
289.596	201.43
290.053	197.59
290.511	237.86
290.968	305.9
291.425	385.9
291.882	377.98
292.339	352.89
292.796	326.41
293.252	286.68
293.709	261.3
294.166	226.52
294.623	229.48
295.079	207.68
295.536	232.67
295.992	213.68
296.449	219.06
296.905	226.22
297.362	245.16
297.818	247.48
298.274	279.9
298.731	259.88
299.187	253.22
299.643	271.83
300.099	332.02
300.555	320.06
301.011	293.09
301.467	321.84
301.923	333.44
302.379	309.78
302.835	301.65
303.291	281.27
303.746	310.98
304.202	407.95
304.658	411.6
305.113	285.22
305.569	308.69
306.024	277.03
306.479	215.84
306.935	214.86
307.39	222.27
307.845	209.93
308.301	256.38
308.756	238.34
309.211	245.94
309.666	240.34
310.121	340.41
310.576	336.6
311.031	331.27
311.486	383.82
311.94	356.11
312.395	447.18
312.85	832.15
313.305	2929.41
313.759	19623.1
314.214	1265.54
314.668	1131.53
315.123	995.48
315.577	403.03
316.032	379.75
316.486	417.43
316.94	373.88
317.394	291.12
317.849	230.86
318.303	210.61
318.757	192.35
319.211	223.03
319.665	195.01
320.119	193.28
320.572	254.32
321.026	262.73
321.48	227.59
321.934	211.76
322.387	191.26
322.841	222.57
323.295	252.29
323.748	250.6
324.202	270.01
324.655	330.23
325.108	488.65
325.562	368.03
326.015	388.79
326.468	297.36
326.921	358.2
327.374	383.58
327.827	421.08
328.28	450.53
328.733	341.46
329.186	295.51
329.639	285.87
330.092	235.07
330.545	223.09
330.997	243.1
331.45	297.55
331.903	354.52
332.355	529.17
332.808	452.62
333.26	375.27
333.713	410.66
334.165	411.83
334.617	482.26
335.069	339
335.522	569.08
335.974	574.47
336.426	471.9
336.878	254.94
337.33	140.07
337.782	153.7
338.234	222.27
338.686	248.79
339.137	267.52
339.589	282.9
340.041	235.37
340.493	182.44
340.944	189.12
341.396	188.02
341.847	207.94
342.299	282.37
342.75	373.81
343.201	283.72
343.653	297.81
344.104	350.2
344.555	279.95
345.006	391.54
345.457	423.95
345.908	324.81
346.359	347.45
346.81	277.95
347.261	254.21
347.712	240.59
348.163	257.17
348.613	330.19
349.064	328.05
349.515	289.04
349.965	310.7
350.416	317.18
350.866	351.45
351.317	346.07
351.767	562.24
352.217	647.37
352.668	503.57
353.118	449.05
353.568	340.93
354.018	274.99
354.468	304.09
354.918	218.82
355.368	218.16
355.818	280.49
356.268	763.18
356.718	3623.26
357.168	1106.29
357.617	580.66
358.067	654.52
358.517	607.94
358.966	767.04
359.416	929.12
359.865	1053.5
360.315	1121.77
360.764	578.52
361.213	329.63
361.663	255.23
362.112	285.81
362.561	418.89
363.01	307.76
363.459	234.28
363.908	240.48
364.357	225.55
364.806	317.89
365.255	223.62
365.703	245.21
366.152	266.92
366.601	262.01
367.05	264.31
367.498	280.39
367.947	276.44
368.395	274.4
368.844	232.46
369.292	234.55
369.74	193.49
370.189	284.52
370.637	311.45
371.085	258.44
371.533	266.02
371.981	198.24
372.429	180.74
372.877	207.5
373.325	213.18
373.773	229.41
374.221	209.82
374.669	223.01
375.116	193.64
375.564	212.67
376.012	218.03
376.459	215.96
376.907	240.03
377.354	263.53
377.801	263.96
378.249	286.78
378.696	324.03
379.143	370.71
379.591	414.5
380.038	645.03
380.485	401.26
380.932	466.76
381.379	514.75
381.826	468.34
382.273	318.15
382.72	247.64
383.166	258.47
383.613	185.78
384.06	166.9
384.506	196.73
384.953	154.56
385.4	147.76
385.846	124.02
386.292	95
386.739	86.91
387.185	84.22
387.631	90.76
388.078	102.36
388.524	97.45
388.97	99.41
389.416	81.99
389.862	93.43
390.308	90.82
390.754	106.67
391.2	105.5
391.645	95.24
392.091	114.42
392.537	123.76
392.983	114.57
393.428	146.45
393.874	152.31
394.319	167.27
394.765	173.61
395.21	176.59
395.655	159.39
396.101	162.94
396.546	155.37
396.991	137.51
397.436	120.13
397.881	108.32
398.326	84.01
398.771	83.94
399.216	65.27
399.661	52.48
400.106	55.78
400.551	62.88
400.995	55.94
401.44	56.51
401.885	56.55
402.329	57.3
402.774	58.99
403.218	66.95
403.663	60.66
404.107	67.23
404.551	72.67
404.995	66.76
405.44	59.69
405.884	56.11
406.328	47.86
406.772	44.89
407.216	42.97
407.66	38.2
408.104	29.42
408.547	31
408.991	30.28
409.435	26.32
409.879	28.46
410.322	29.95
410.766	31.54
411.209	35.21
411.653	37.72
412.096	40.22
412.54	39.01
412.983	41.1
413.426	42.32
413.869	38.06
414.312	40.84
414.756	37.38
415.199	34.96
415.642	37.5
416.085	38.16
416.527	35.39
416.97	31.9
417.413	33.42
417.856	30.73
418.298	29.09
418.741	29.61
419.184	25.3
419.626	22.79
420.069	24.63
420.511	22.48
420.953	23.34
421.396	25.04
421.838	24.6
422.28	25.96
422.722	28.65
423.164	27.48
423.606	28.11
424.048	29.14
424.49	30.16
424.932	28.8
425.374	28.6
425.816	25.02
426.258	25.11
426.699	25.45
427.141	27.77
427.582	24.89
428.024	24.61
428.465	23.25
428.907	22.91
429.348	22.48
429.789	23.33
430.231	25.01
430.672	25.35
431.113	23.63
431.554	24.28
431.995	19.2
432.436	22.63
432.877	25.98
433.318	28.47
433.759	29.03
434.2	31.74
434.64	30.06
435.081	29.32
435.522	28.66
435.962	27.7
436.403	28.83
436.843	28.6
437.284	24.69
437.724	20.6
438.164	16.42
438.604	15.48
439.045	15.56
439.485	20
439.925	20.38
440.365	20.07
440.805	20.94
441.245	20.91
441.685	21.5
442.125	20.98
442.564	21.78
443.004	23.92
443.444	23.58
443.883	23.25
444.323	19.64
444.762	15.19
445.202	16.47
445.641	17.1
446.081	15.79
446.52	15.08
446.959	16.9
447.398	17.43
447.837	16.54
448.276	15.85
448.716	16.96
449.154	15.5
449.593	18.36
450.032	18.33
450.471	16.14
450.91	15.35
451.349	17.63
451.787	17.11
452.226	16.37
452.664	15.64
453.103	16.1
453.541	13.19
453.98	16.29
454.418	15.93
454.856	16.09
455.295	15.81
455.733	16.21
456.171	15.05
456.609	16.41
457.047	17.65
457.485	21.17
457.923	22.46
458.361	22.85
458.798	22.07
459.236	22.26
459.674	21.05
460.111	22.79
460.549	23.31
460.987	23.17
461.424	21.93
461.862	20.48
462.299	19.56
462.736	19.95
463.173	20.16
463.611	21.74
464.048	22.77
464.485	24.16
464.922	23.29
465.359	22.58
465.796	28.53
466.233	29.97
466.67	32.79
467.106	33.37
467.543	31.43
467.98	30.56
468.416	28.42
468.853	27.12
469.29	25.86
469.726	25.88
470.162	26.29
470.599	20.67
471.035	19.1
471.471	17.25
471.907	14.63
472.344	14.48
472.78	15.5
473.216	14.32
473.652	14.65
474.088	13.33
474.523	13.44
474.959	12.1
475.395	12.08
475.831	12.46
476.266	12.73
476.702	12.67
477.138	13.25
477.573	12.62
478.008	13.38
478.444	14.42
478.879	17.08
479.314	16.8
479.75	17.41
480.185	17.47
480.62	17.06
481.055	16.58
481.49	17.58
481.925	17.65
482.36	18.97
482.795	18.35
483.229	16.43
483.664	15.5
484.099	15.59
484.534	15.8
484.968	16.43
485.403	16.07
485.837	15.48
486.271	14.73
486.706	14.18
487.14	12.9
487.574	12.85
488.009	13.79
488.443	13.65
488.877	13.99
489.311	13.41
489.745	12.93
490.179	13.57
490.613	15.64
491.046	15.38
491.48	15.52
491.914	16.47
492.348	16.88
492.781	16.33
493.215	16.09
493.648	15.04
494.082	15.01
494.515	15.24
494.948	15.37
495.382	13.67
495.815	14.16
496.248	14.19
496.681	13.41
497.114	12.86
497.547	13.02
497.98	13.93
498.413	15.62
498.846	16
499.279	15.84
499.711	15.58
500.144	15.34
500.577	16
501.009	16.24
501.442	17.16
501.874	17.77
502.306	17.36
502.739	19.03
503.171	18.88
503.603	19.16
504.036	19.05
504.468	19.05
504.9	19.04
505.332	18.19
505.764	18.51
506.196	17.75
506.627	18.28
507.059	19.02
507.491	16.37
507.923	16.01
508.354	16.33
508.786	16.21
509.217	16.2
509.649	16.96
510.08	16.75
510.512	16.92
510.943	17.43
511.374	17.01
511.805	16.67
512.237	16.79
512.668	16.32
513.099	15.54
513.53	15.72
513.961	16.49
514.391	16.43
514.822	17.84
515.253	17.99
515.684	17.96
516.114	18.65
516.545	18.8
516.975	19.03
517.406	19.45
517.836	18.89
518.267	18.83
518.697	18.91
519.127	18.76
519.558	18.03
519.988	17.85
520.418	17.35
520.848	16.31
521.278	16.4
521.708	34.43
522.138	34.5
522.567	34.99
522.997	34.9
523.427	34.2
523.857	34.47
524.286	34.5
524.716	34.54
525.145	35.02
525.575	35.82
526.004	35.65
526.433	17.7
526.863	17.02
527.292	17.51
527.721	18.37
528.15	18.36
528.579	18.44
529.008	18.53
529.437	17.56
529.866	17.37
530.295	17.22
530.724	17.89
531.152	18.67
531.581	20.05
532.01	19.8
532.438	19.36
532.867	19.4
533.295	19.6
533.723	19.65
534.152	20.05
534.58	20.08
535.008	20.02
535.436	20.77
535.865	20.06
536.293	18.9
536.721	18.25
537.149	18.09
537.576	18.95
538.004	18.83
538.432	18.34
538.86	19.1
539.287	19.11
539.715	19.19
540.143	17.64
540.57	17.96
540.998	18.22
541.425	20.43
541.852	20.81
542.28	20.08
542.707	19.48
543.134	19.77
543.561	19.7
543.988	19.5
544.415	19.36
544.842	19.32
545.269	19.27
545.696	19.77
546.123	18.86
546.549	18.93
546.976	19.42
547.403	19.73
547.829	19.54
548.256	19.21
548.682	19.62
549.108	20.09
549.535	20.27
549.961	19.84
550.387	19.61
550.813	20.4
551.24	20.35
551.666	19.44
552.092	19.57
552.518	19.15
552.943	20.08
553.369	19.32
553.795	19.55
554.221	19.73
554.646	20.23
555.072	21.12
555.498	19.7
555.923	19.25
556.349	19.41
556.774	18.93
557.199	19.2
557.625	18.4
558.05	18.89
558.475	18.3
558.9	18.41
559.325	19.1
559.75	18.91
560.175	19.22
560.6	18.81
561.025	18.42
561.449	18.68
561.874	18.3
562.299	18.81
562.723	18.47
563.148	17.79
563.572	17.13
563.997	16.46
564.421	15.67
564.846	15.22
565.27	15.61
565.694	16.24
566.118	15.77
566.542	16.74
566.966	16.36
567.39	16.87
567.814	17.44
568.238	17.78
568.662	17.38
569.086	17.57
569.509	17.29
569.933	18.57
570.357	18.48
570.78	18.67
571.204	19.18
571.627	19.06
572.05	18.46
572.474	19.47
572.897	19.8
573.32	20.36
573.743	20.05
574.166	21.08
574.589	20.17
575.012	19.65
575.435	20.12
575.858	19.81
576.281	20.27
576.704	20.84
577.126	19.2
577.549	18.72
577.972	18.33
578.394	18.45
578.817	19.59
579.239	19.06
579.661	19.54
580.084	20.01
580.506	20.31
580.928	19.64
581.35	19.53
581.772	20.43
582.194	20.41
582.616	19.89
583.038	19.57
583.46	17.82
583.882	18.25
584.303	17.41
584.725	16.44
585.147	19.64
585.568	19.78
585.99	19.97
586.411	20.58
586.833	21.24
587.254	21.78
587.675	21.63
588.096	21.83
588.518	21.54
588.939	21.59
589.36	22.34
589.781	17.54
590.202	19.71
590.623	19.67
591.043	17.99
591.464	17.61
591.885	18.36
592.305	18.85
592.726	18.44
593.147	18.84
593.567	19.33
593.987	18.4
594.408	18.13
594.828	15.67
595.248	15.39
595.669	16.63
596.089	16.15
596.509	15.21
596.929	14.49
597.349	15.07
597.769	14.91
598.189	15.38
598.608	15.5
599.028	15.76
599.448	15.39
599.867	15.45
600.287	14.32
600.706	14.58
601.126	14.47
601.545	15.38
601.965	15.06
602.384	14.36
602.803	14.13
603.222	14.1
603.641	14.15
604.061	14.67
604.48	14.35
604.898	14.47
605.317	14.61
605.736	14.61
606.155	14.63
606.574	14.33
606.992	14.34
607.411	14.24
607.829	13.61
608.248	13.02
608.666	12.18
609.085	12.55
609.503	12.69
609.921	12.74
610.339	13.15
610.758	12.19
611.176	12.13
611.594	12.95
612.012	12.87
612.43	13.88
612.847	14.18
613.265	15.35
613.683	15.23
614.101	15.35
614.518	14.62
614.936	13.87
615.353	14.63
615.771	15.02
616.188	14.96
616.606	15.01
617.023	15.51
617.44	15.17
617.857	13.76
618.274	13.36
618.691	13.33
619.108	13.54
619.525	13.97
619.942	13.88
620.359	13.54
620.776	13.47
621.192	14.34
621.609	14.13
622.026	14.82
622.442	15.81
622.859	15.28
623.275	14.98
623.691	14.89
624.108	14.93
624.524	14.83
624.94	14.98
625.356	14.6
625.772	13.42
626.188	12.68
626.604	12.54
627.02	11.9
627.436	12.79
627.852	13.71
628.268	14.32
628.683	13.53
629.099	13.03
629.514	12.31
629.93	12.48
630.345	12.49
630.761	12.14
631.176	12.08
631.591	14.04
632.007	14.24
632.422	12.9
632.837	12.29
633.252	13.78
633.667	13.98
634.082	14.92
634.497	14.94
634.911	16.58
635.326	16.63
635.741	17.19
636.155	16.37
636.57	16.77
636.984	17.35
637.399	18.39
637.813	16.9
638.228	16.84
638.642	16.22
639.056	16.04
639.47	14.37
639.884	14.65
640.298	14.52
640.712	14.65
641.126	14.18
641.54	14.32
641.954	12.56
642.368	13.51
642.781	15.58
643.195	15.32
643.609	15.51
644.022	15.89
644.436	15.39
644.849	14.79
645.262	14.22
645.676	14.49
646.089	14.52
646.502	16.38
646.915	15.21
647.328	14.2
647.741	15.49
648.154	15.8
648.567	17.19
648.98	18.29
649.393	18.95
649.805	18.67
650.218	17.49
650.631	17.58
651.043	17.42
651.456	18.4
651.868	17.69
652.28	16.65
652.693	15.63
653.105	14.47
653.517	14.21
653.929	13.51
654.341	14.78
654.753	15.93
655.165	15.13
655.577	14.89
655.989	15.1
656.401	13.94
656.813	14.87
657.224	15.47
657.636	14.86
658.047	15.61
658.459	15.21
658.87	13.95
659.282	13.85
659.693	15.25
660.104	15.5
660.515	14.15
660.926	14.35
661.338	13.72
661.749	13
662.159	13.84
662.57	12.56
662.981	13.38
663.392	13.13
663.803	12.53
664.213	11.54
664.624	10.87
665.035	11.18
665.445	11.16
665.855	12.22
666.266	13.61
666.676	13.01
667.086	12.32
667.497	12.33
667.907	13
668.317	13.56
668.727	16.38
669.137	15.44
669.547	15.68
669.956	15.48
670.366	14.78
670.776	14.54
671.186	14.22
671.595	15.02
672.005	13.61
672.414	13.23
672.824	13.91
673.233	10.91
673.642	11.72
674.052	12.19
674.461	13.62
674.87	13.23
675.279	12.97
675.688	11.91
676.097	12.72
676.506	14.15
676.915	13.65
677.323	12.78
677.732	13.01
678.141	12.37
678.549	12.33
678.958	10.98
679.366	10.6
679.775	9.76
680.183	12.84
680.592	12.36
681	12.27
681.408	12.98
681.816	12.82
682.224	12.33
682.632	13.95
683.04	13.88
683.448	14.76
683.856	16.38
684.264	18.68
684.671	16.54
685.079	15.49
685.487	14.66
685.894	14.05
686.302	12.61
686.709	12.85
687.116	12.5
687.524	13.52
687.931	14.12
688.338	14.06
688.745	12.11
689.152	12.41
689.559	14.7
689.966	16.95
690.373	17.81
690.78	19.06
691.187	19.71
691.593	20.65
692	20.12
692.407	19.79
692.813	21.14
693.22	22.41
693.626	21.32
694.032	21.18
694.439	20.57
694.845	19.86
695.251	19.71
695.657	20.43
696.063	18.41
696.469	18.33
696.875	18.72
697.281	16.75
697.687	15.73
698.093	16.6
698.498	16.24
698.904	14.94
699.31	14.61
699.715	17.42
700.12	16.91
700.526	17.63
700.931	17.2
701.337	17.75
701.742	18.98
702.147	19.76
702.552	20.12
702.957	18.97
703.362	19.75
703.767	20.15
704.172	17.62
704.577	16.73
704.981	15.4
705.386	16.75
705.791	15.99
706.195	15.03
706.6	14.33
707.004	13.37
707.408	13.07
707.813	14.1
708.217	15.55
708.621	15.94
709.025	16.09
709.43	18.71
709.834	18.54
710.237	18.58
710.641	18.77
711.045	19.26
711.449	20.49
711.853	24.13
712.256	23.06
712.66	22.23
713.064	22.53
713.467	23.43
713.87	23.28
714.274	23.56
714.677	24.07
715.08	24.69
715.484	25.75
715.887	28.25
716.29	25.3
716.693	26.71
717.096	28.09
717.499	28.07
717.901	27.59
718.304	27.16
718.707	26.53
719.109	25.93
719.512	25.69
719.915	27.36
720.317	25.45
720.719	25.65
721.122	25.41
721.524	25.15
721.926	29.45
722.328	30.02
722.731	28.8
723.133	28.07
723.535	29.27
723.937	29.03
724.338	28.06
724.74	28.94
725.142	73.32
725.544	76.13
725.945	85.37
726.347	80.53
726.748	80.86
727.15	82.3
727.551	86.85
727.952	84.89
728.354	83.19
728.755	82.9
729.156	80.97
729.557	36.75
729.958	32.34
730.359	21.93
730.76	21.7
731.161	20.89
731.562	20.09
731.962	16.64
732.363	16.74
732.763	16.69
733.164	14.88
733.564	15.62
733.965	17.55
734.365	18.55
734.766	20.07
735.166	20.47
735.566	21.74
735.966	22.47
736.366	21.54
736.766	21.81
737.166	21.45
737.566	21.59
737.966	21.05
738.365	21.63
738.765	21.88
739.165	21.32
739.564	21.73
739.964	20.4
740.363	19.76
740.763	20.31
741.162	21.24
741.561	21.76
741.96	22.39
742.36	21.38
742.759	21.03
743.158	21.3
743.557	20.75
743.955	20.91
744.354	21.12
744.753	20.38
745.152	21.34
745.55	20.33
745.949	20.88
746.348	20.53
746.746	20.44
747.144	21.96
747.543	20.92
747.941	20.64
748.339	20.42
748.737	21.34
749.136	23.31
749.534	21.74
749.932	23.93
