Data from N_1_DEC_NC_4N_Splice17_11-36-16-207.txt Node
Date: Sat Mar 14 11:36:16 EDT 2020
User: sa697716
Spectrometer: FLMS03696
Trigger mode: 0
Integration Time (sec): 3.180400E-1
Scans to average: 20
Electric dark correction enabled: true
Nonlinearity correction enabled: true
Boxcar width: 5
XAxis mode: Wavelengths
Number of Pixels in Spectrum: 2048
>>>>>Begin Spectral Data<<<<<
187.83	-99028.48
188.298	976.59
188.766	591.74
189.233	516.4
189.701	750.27
190.169	1003.64
190.636	344.99
191.104	320.48
191.571	53.98
192.039	-46.58
192.506	-58.89
192.974	316.3
193.441	-190.77
193.908	98.61
194.375	25.63
194.842	88.58
195.31	174.46
195.777	151.6
196.244	263.27
196.711	163.46
197.177	138.63
197.644	85.18
198.111	109.43
198.578	118.17
199.045	76.43
199.511	80.83
199.978	3.03
200.445	19.16
200.911	-16.31
201.378	-99.54
201.844	-91.81
202.31	-223.82
202.777	-216.91
203.243	-129.05
203.709	-138.67
204.176	-151.19
204.642	-94.03
205.108	-68.87
205.574	-60.85
206.04	-65.3
206.506	-50.27
206.972	-68.55
207.438	-54.94
207.903	-78.74
208.369	-46
208.835	-30.79
209.301	-39.15
209.766	-73.28
210.232	-74.71
210.697	-129.75
211.163	-191.09
211.628	-327.49
212.094	-185.93
212.559	-155.01
213.024	-74.25
213.49	-90.78
213.955	-95.73
214.42	-115.98
214.885	-78.97
215.35	-60.15
215.815	18.28
216.28	31
216.745	29.92
217.21	41.39
217.675	1.56
218.14	13.42
218.604	10.43
219.069	13.73
219.534	47.93
219.998	21.3
220.463	27.36
220.927	-40.46
221.392	-21.31
221.856	-5.58
222.32	-56.48
222.785	-42.77
223.249	-79.01
223.713	-92.89
224.177	-105.71
224.642	-194.78
225.106	-197.64
225.57	-219.76
226.034	-83.6
226.497	-180.25
226.961	-112.08
227.425	-101.62
227.889	-129.57
228.353	-121.82
228.816	-286.05
229.28	-209
229.744	-180.73
230.207	-43.3
230.671	-50.6
231.134	-280.77
231.597	-182.72
232.061	-281.77
232.524	-327.89
232.987	-202.4
233.45	-139.66
233.914	-105.34
234.377	-144.13
234.84	-134.06
235.303	-201.57
235.766	-254.26
236.229	-222.88
236.691	-182.39
237.154	-207.5
237.617	-123.47
238.08	-148.35
238.542	-194.2
239.005	-118.64
239.468	-102.82
239.93	-83.39
240.393	-68.38
240.855	-51.26
241.317	-65.66
241.78	-98.15
242.242	-88.74
242.704	-67.5
243.166	-44.18
243.629	-8.24
244.091	-26.28
244.553	-34.3
245.015	-24.02
245.477	-43.4
245.939	-74.85
246.4	-50.51
246.862	-37.03
247.324	-55.2
247.786	-96.47
248.247	-198.73
248.709	-347.82
249.17	-246.06
249.632	-139.6
250.093	-117
250.555	-80.85
251.016	-21.66
251.477	-20.76
251.939	-12.29
252.4	-19
252.861	-56.53
253.322	-6.71
253.783	-12
254.244	-51.44
254.705	-95.57
255.166	-128.56
255.627	-142.38
256.088	-207.72
256.549	-217.56
257.009	-189.75
257.47	-260.55
257.931	-216.36
258.391	-159.02
258.852	-166.31
259.312	-162.71
259.773	-227.06
260.233	-161.17
260.694	-117.97
261.154	-150.87
261.614	-61.51
262.074	-58.21
262.534	-30.43
262.994	-21.7
263.455	-50.68
263.915	-20.69
264.374	-8.99
264.834	13.34
265.294	-7.97
265.754	3.98
266.214	21.85
266.673	-8.74
267.133	-31.2
267.593	-51.68
268.052	-49.3
268.512	-47.27
268.971	0.43
269.431	-18.15
269.89	-43.47
270.349	-51.83
270.809	-48.94
271.268	-46.36
271.727	-192.67
272.186	-52.33
272.645	-47.3
273.104	-93.3
273.563	-154.88
274.022	-200.04
274.481	-138.51
274.94	-84.23
275.399	-62.16
275.857	-106.46
276.316	-186.43
276.775	-176.16
277.233	-180.1
277.692	-132.9
278.15	-121.91
278.609	-74.32
279.067	-76.35
279.525	-51.1
279.984	-101.79
280.442	-133.63
280.9	-19.13
281.358	11.95
281.816	31.25
282.274	10.7
282.732	-62.4
283.19	-65.44
283.648	-78.49
284.106	-92.16
284.564	-118.21
285.021	-76.62
285.479	-57.54
285.937	-99.4
286.394	-77.79
286.852	-89.12
287.309	-98.31
287.767	-44.81
288.224	-25.72
288.682	-27
289.139	-1.19
289.596	-1.53
290.053	-27.1
290.511	-46.2
290.968	-41.21
291.425	-72.48
291.882	-8.96
292.339	28.97
292.796	-0.97
293.252	-19.92
293.709	17.02
294.166	2.6
294.623	2.21
295.079	-1.77
295.536	6.78
295.992	13.05
296.449	19.97
296.905	32.33
297.362	47.44
297.818	49.28
298.274	65.84
298.731	40.25
299.187	33.83
299.643	24.79
300.099	35.02
300.555	33.88
301.011	52.76
301.467	110.36
301.923	59.74
302.379	62.28
302.835	38.98
303.291	24.8
303.746	3.93
304.202	-7.9
304.658	7.4
305.113	7.66
305.569	14
306.024	-23.42
306.479	-102.47
306.935	-46
307.39	-91.52
307.845	-60.56
308.301	-37.47
308.756	-41.72
309.211	-32.92
309.666	-59.9
310.121	-47.32
310.576	-87.34
311.031	-116.93
311.486	-165.83
311.94	-230.14
312.395	-324.48
312.85	-709.03
313.305	-4429.48
313.759	-17857.67
314.214	-1355.71
314.668	-952.64
315.123	-731.93
315.577	-192.74
316.032	-144.84
316.486	-169.31
316.94	-80.21
317.394	-8.06
317.849	17.51
318.303	-2.39
318.757	1.68
319.211	16.77
319.665	20.06
320.119	4.34
320.572	-30.13
321.026	-5.82
321.48	1.14
321.934	-20.47
322.387	-45.33
322.841	-51.08
323.295	25.51
323.748	-15.01
324.202	-6.41
324.655	14.4
325.108	75.82
325.562	93.68
326.015	67.49
326.468	56.63
326.921	77.26
327.374	100.4
327.827	119.07
328.28	89.55
328.733	80.29
329.186	63.27
329.639	45.43
330.092	31.06
330.545	35.3
330.997	53.67
331.45	79.19
331.903	91.28
332.355	92.55
332.808	39.08
333.26	17.64
333.713	13.17
334.165	-5.81
334.617	-26.43
335.069	-90.23
335.522	-303.37
335.974	-376.32
336.426	-426.04
336.878	-369.74
337.33	-151.33
337.782	-129.65
338.234	-104.67
338.686	-164.28
339.137	-175.88
339.589	-162.49
340.041	-77.99
340.493	-35.14
340.944	-28.06
341.396	-16.51
341.847	39.49
342.299	58.07
342.75	103.82
343.201	38.78
343.653	47.26
344.104	-11.72
344.555	-21.83
345.006	-132.15
345.457	-50.1
345.908	-53.91
346.359	-16.59
346.81	-22.21
347.261	-63.91
347.712	-92.57
348.163	-115.46
348.613	-45.31
349.064	-29.17
349.515	-22.37
349.965	-13.32
350.416	-35.08
350.866	-49.68
351.317	-143.75
351.767	-245.59
352.217	-274.37
352.668	-199.44
353.118	-164.92
353.568	-316.74
354.018	-170.04
354.468	-133.53
354.918	-72.63
355.368	-81.01
355.818	-134.34
356.268	-424.45
356.718	-1411.66
357.168	-268.14
357.617	-134.68
358.067	-212.58
358.517	-162.99
358.966	-190.95
359.416	-175.96
359.865	-222.93
360.315	-329.37
360.764	-126.71
361.213	-46.52
361.663	-92.37
362.112	-164.61
362.561	-344.29
363.01	-226.04
363.459	-179.37
363.908	-250.35
364.357	-189.14
364.806	-361.24
365.255	-247.67
365.703	-177.23
366.152	-148.92
366.601	-82.25
367.05	-14.77
367.498	26.57
367.947	24.49
368.395	26.81
368.844	36.96
369.292	-5
369.74	16.99
370.189	15.65
370.637	-6.23
371.085	-25.57
371.533	-47.53
371.981	-124.06
372.429	-108.84
372.877	-124.35
373.325	-101.24
373.773	-95.94
374.221	-100.23
374.669	-140.85
375.116	-114.42
375.564	-121.69
376.012	-127.48
376.459	-94.66
376.907	-80.39
377.354	-144.92
377.801	-106.32
378.249	-96.21
378.696	-195.5
379.143	-216.57
379.591	-196.12
380.038	-276.24
380.485	-202.76
380.932	-324.33
381.379	-250.75
381.826	-141.87
382.273	-89.83
382.72	-78
383.166	-68.04
383.613	-14.77
384.06	-3.85
384.506	-2.42
384.953	-8.96
385.4	-18.81
385.846	-5.96
386.292	-28.69
386.739	-51.86
387.185	-57.78
387.631	-60.83
388.078	-44.52
388.524	-42.93
388.97	-35.94
389.416	-28.47
389.862	-22.25
390.308	-14.35
390.754	-4.97
391.2	-8.4
391.645	-11.18
392.091	18.55
392.537	16.95
392.983	-6.91
393.428	7.48
393.874	-6.43
394.319	11.45
394.765	24.12
395.21	5.88
395.655	-0.4
396.101	5.4
396.546	12.86
396.991	-3.35
397.436	-3.65
397.881	-7.84
398.326	-22.2
398.771	-6.93
399.216	-19.26
399.661	-24.32
400.106	-14.48
400.551	-8.32
400.995	-4.42
401.44	-4.95
401.885	-4.85
402.329	-7.07
402.774	0.21
403.218	16.41
403.663	13.35
404.107	14.98
404.551	20.33
404.995	22.58
405.44	18.24
405.884	15.55
406.328	11.17
406.772	10.67
407.216	14.32
407.66	10.06
408.104	-2.43
408.547	-4.92
408.991	-3.87
409.435	-7.41
409.879	-5.76
410.322	-5.54
410.766	-1.89
411.209	4.83
411.653	5.44
412.096	5.82
412.54	3
412.983	6.2
413.426	13.27
413.869	10.54
414.312	13.87
414.756	8.36
415.199	7.98
415.642	8.71
416.085	7.49
416.527	5.33
416.97	2.89
417.413	6.73
417.856	3.72
418.298	-1.64
418.741	-1.94
419.184	-5.68
419.626	-7.94
420.069	-7.84
420.511	-9.1
420.953	-8.48
421.396	-6.69
421.838	-7.33
422.28	-8.41
422.722	-4.24
423.164	-5.69
423.606	-2.22
424.048	-1.97
424.49	0.35
424.932	-0.9
425.374	-2.16
425.816	-5.29
426.258	-6.28
426.699	-4.77
427.141	-2.51
427.582	-6.89
428.024	-6.74
428.465	-10.66
428.907	-9.26
429.348	-10.22
429.789	-8.69
430.231	-6.52
430.672	-4.46
431.113	-3.09
431.554	-3.79
431.995	-3.77
432.436	-0.6
432.877	2.35
433.318	5.92
433.759	3.55
434.2	2.23
434.64	1.76
435.081	2.59
435.522	3.8
435.962	3.07
436.403	4.92
436.843	0.48
437.284	-2.15
437.724	-5.97
438.164	-10.01
438.604	-9.14
439.045	-3.74
439.485	-1.76
439.925	-3.52
440.365	-4.86
440.805	-5.68
441.245	-3.77
441.685	-2.85
442.125	-3.23
442.564	-3.02
443.004	-0.63
443.444	0.5
443.883	0.3
444.323	-2.28
444.762	-5.53
445.202	-6.99
445.641	-5.4
446.081	-8.84
446.52	-7.97
446.959	-7.22
447.398	-4.82
447.837	-5.9
448.276	-7.49
448.716	-7.35
449.154	-7.68
449.593	-3.83
450.032	-3.22
450.471	-6.31
450.91	-6.96
451.349	-4.79
451.787	-4.99
452.226	-6.47
452.664	-5.14
453.103	-4.88
453.541	-6.82
453.98	-3.91
454.418	-5.33
454.856	-2.18
455.295	-0.27
455.733	1.41
456.171	0.92
456.609	2.99
457.047	3.13
457.485	3.83
457.923	6.1
458.361	5.29
458.798	3.17
459.236	3.68
459.674	0.98
460.111	1.47
460.549	1.96
460.987	0.34
461.424	-1.52
461.862	-1.32
462.299	-1.94
462.736	-0.93
463.173	-0.39
463.611	4.13
464.048	4.98
464.485	5.68
464.922	5.29
465.359	4.11
465.796	11.96
466.233	13.16
466.67	15.82
467.106	17.21
467.543	14.53
467.98	14.26
468.416	11.99
468.853	10.64
469.29	9.61
469.726	8.75
470.162	8.68
470.599	3.18
471.035	1.5
471.471	0.09
471.907	-2.19
472.344	-2.07
472.78	-1.53
473.216	-3.77
473.652	-3.41
474.088	-3.86
474.523	-3.63
474.959	-4.26
475.395	-4.68
475.831	-4.22
476.266	-4.79
476.702	-4.93
477.138	-4.84
477.573	-4.55
478.008	-3.96
478.444	-2.67
478.879	-0.39
479.314	0.51
479.75	0.86
480.185	0.37
480.62	0.13
481.055	0.43
481.49	1.54
481.925	2.05
482.36	3.55
482.795	3.29
483.229	2.3
483.664	1.39
484.099	0.8
484.534	1.9
484.968	2.63
485.403	2.09
485.837	1.12
486.271	0.47
486.706	-0.08
487.14	-1.45
487.574	-0.33
488.009	0.01
488.443	-0.37
488.877	0.43
489.311	-0.67
489.745	-0.63
490.179	0.69
490.613	2.51
491.046	2.63
491.48	2.6
491.914	2.91
492.348	1.94
492.781	1.44
493.215	1.77
493.648	0.73
494.082	0.66
494.515	0.81
494.948	0.93
495.382	-0.58
495.815	-0.58
496.248	0.28
496.681	-0.24
497.114	-0.72
497.547	-0.05
497.98	0.85
498.413	2.7
498.846	3.18
499.279	2.56
499.711	2.01
500.144	2.04
500.577	2.83
501.009	1.91
501.442	2.38
501.874	3.77
502.306	3.42
502.739	4.62
503.171	3.23
503.603	3.36
504.036	3.62
504.468	3.73
504.9	3.84
505.332	3.64
505.764	4.61
506.196	4
506.627	3.7
507.059	3.66
507.491	1.31
507.923	1.63
508.354	1.93
508.786	1.81
509.217	1.92
509.649	2.3
510.08	1.57
510.512	1.87
510.943	2.52
511.374	2.34
511.805	2.11
512.237	2.03
512.668	1.4
513.099	0.35
513.53	0.31
513.961	0.58
514.391	0.03
514.822	1.54
515.253	1.4
515.684	1.36
516.114	1.46
516.545	1.83
516.975	2.26
517.406	2.64
517.836	2.69
518.267	3.24
518.697	3.98
519.127	4.31
519.558	3.22
519.988	2.01
520.418	1.64
520.848	0.75
521.278	-0.02
521.708	20.11
522.138	20.41
522.567	20.17
522.997	20.13
523.427	19.06
523.857	18.96
524.286	19.19
524.716	19.94
525.145	20.01
525.575	20.79
526.004	20.64
526.433	0.58
526.863	0.39
527.292	1.95
527.721	2.17
528.15	2.11
528.579	2.51
529.008	2.51
529.437	1.35
529.866	1.07
530.295	0.84
530.724	2.22
531.152	2.31
531.581	3.18
532.01	2.66
532.438	1.97
532.867	1.85
533.295	2.13
533.723	2.23
534.152	2.85
534.58	3.67
535.008	3.93
535.436	4.16
535.865	4.36
536.293	3.09
536.721	2.2
537.149	2.52
537.576	3.38
538.004	3.12
538.432	2.37
538.86	3.2
539.287	2.33
539.715	2.35
540.143	1.64
540.57	1.9
540.998	1.9
541.425	3.51
541.852	3
542.28	2.16
542.707	2.01
543.134	2.65
543.561	2.48
543.988	3.08
544.415	2.44
544.842	2.2
545.269	2.05
545.696	3.26
546.123	3.25
546.549	3.44
546.976	3.78
547.403	3.71
547.829	3.24
548.256	2.64
548.682	2.28
549.108	3.38
549.535	3.04
549.961	2.36
550.387	1.52
550.813	2.21
551.24	2.32
551.666	1.91
552.092	2.06
552.518	2.33
552.943	3.27
553.369	3.08
553.795	2.74
554.221	3.21
554.646	3.81
555.072	5.04
555.498	3.36
555.923	2.67
556.349	2.95
556.774	2.78
557.199	2.43
557.625	1.36
558.05	1.61
558.475	1.25
558.9	1.33
559.325	1.66
559.75	1.52
560.175	1.42
560.6	1.88
561.025	1.74
561.449	1.8
561.874	1.32
562.299	2.28
562.723	2.18
563.148	2.68
563.572	2.17
563.997	1.67
564.421	-0.19
564.846	-0.46
565.27	-0.28
565.694	-0.41
566.118	-0.57
566.542	1.05
566.966	0.99
567.39	1.17
567.814	0.95
568.238	1.64
568.662	1.05
569.086	2.22
569.509	1.96
569.933	3.21
570.357	3.2
570.78	3.02
571.204	2.95
571.627	2.55
572.05	2.69
572.474	3.47
572.897	3.31
573.32	4.59
573.743	3.86
574.166	5.18
574.589	3.7
575.012	4.03
575.435	3.53
575.858	3.29
576.281	3.19
576.704	2.38
577.126	1.03
577.549	0.87
577.972	-0.52
578.394	-0.19
578.817	0.95
579.239	0.76
579.661	1.4
580.084	2.79
580.506	3.07
580.928	2.37
581.35	3.05
581.772	3.87
582.194	3.77
582.616	4.31
583.038	3.34
583.46	1.11
583.882	1.84
584.303	0.37
584.725	-0.16
585.147	2.84
585.568	3.6
585.99	4.11
586.411	4.43
586.833	4.5
587.254	3.83
587.675	4.53
588.096	4.73
588.518	5.19
588.939	5.86
589.36	6.17
589.781	1.59
590.202	4.07
590.623	3.58
591.043	2.43
591.464	2.79
591.885	3.62
592.305	3.25
592.726	3.22
593.147	2.48
593.567	2.29
593.987	1.93
594.408	2.15
594.828	-0.36
595.248	0.33
595.669	1.46
596.089	1.15
596.509	0.91
596.929	0.47
597.349	0.73
597.769	1.11
598.189	1.16
598.608	0.88
599.028	1.14
599.448	0.97
599.867	0.21
600.287	-0.83
600.706	-0.25
601.126	0.35
601.545	1.32
601.965	1.17
602.384	0.67
602.803	0.66
603.222	1.44
603.641	1.13
604.061	1.65
604.48	1.69
604.898	1.96
605.317	1.58
605.736	0.88
606.155	1.25
606.574	1.52
606.992	1.29
607.411	1.6
607.829	0.44
608.248	0.65
608.666	0.49
609.085	0.92
609.503	0.72
609.921	1.24
610.339	1.25
610.758	0.48
611.176	0.24
611.594	0.78
612.012	0.26
612.43	1.2
612.847	0.94
613.265	1.28
613.683	0.99
614.101	1.01
614.518	-0.48
614.936	-0.32
615.353	0.63
615.771	1.22
616.188	1.52
616.606	2.04
617.023	2.32
617.44	2.8
617.857	1.45
618.274	0.89
618.691	1.99
619.108	3.19
619.525	2.99
619.942	2.96
620.359	2.9
620.776	2.46
621.192	3.33
621.609	3.69
622.026	3.73
622.442	4.78
622.859	4.38
623.275	3.47
623.691	2.66
624.108	2.9
624.524	2.27
624.94	1.88
625.356	1.54
625.772	0.11
626.188	-0.61
626.604	-0.31
627.02	-0.06
627.436	0.93
627.852	1.75
628.268	2.44
628.683	1.77
629.099	1.65
629.514	1.44
629.93	1.55
630.345	1.68
630.761	1.31
631.176	0.66
631.591	1.34
632.007	1.8
632.422	0.39
632.837	-0.15
633.252	1.22
633.667	1.43
634.082	1.57
634.497	2.43
634.911	4.12
635.326	4.22
635.741	4.72
636.155	3.96
636.57	3.91
636.984	4.46
637.399	5.58
637.813	4.49
638.228	4
638.642	3.66
639.056	3.25
639.47	1.75
639.884	1.65
640.298	1.27
640.712	1.62
641.126	1.3
641.54	0.73
641.954	-1.12
642.368	-1.12
642.781	1.34
643.195	1.56
643.609	1.48
644.022	1.8
644.436	1.52
644.849	0.7
645.262	-0.83
645.676	-2.01
646.089	-1.41
646.502	0
646.915	-0.56
647.328	-1
647.741	-0.54
648.154	0.17
648.567	1.73
648.98	1.68
649.393	2.35
649.805	3.52
650.218	4.44
650.631	4.73
651.043	4.25
651.456	5.7
651.868	4.14
652.28	3.23
652.693	1.94
653.105	0.5
653.517	0.78
653.929	0.59
654.341	0.56
654.753	0.25
655.165	-0.17
655.577	0.29
655.989	-0.55
656.401	-1.01
656.813	0.5
657.224	1.01
657.636	0.94
658.047	1.72
658.459	1
658.87	0.17
659.282	0.86
659.693	2.15
660.104	2.05
660.515	1.72
660.926	1.41
661.338	0.02
661.749	-1.16
662.159	-0.34
662.57	-1.99
662.981	-0.88
663.392	-0.81
663.803	-1.23
664.213	-3.13
664.624	-3.65
665.035	-3.8
665.445	-3.98
665.855	-3
666.266	-1.5
666.676	-2.55
667.086	-1.89
667.497	-1.45
667.907	-1.6
668.317	-1.85
668.727	1.98
669.137	1.23
669.547	1.76
669.956	1.65
670.366	1.79
670.776	1.54
671.186	2.71
671.595	2.94
672.005	1.57
672.414	1.95
672.824	2.96
673.233	-0.88
673.642	-0.15
674.052	-0.1
674.461	1.97
674.87	2.01
675.279	3.32
675.688	0.35
676.097	1.57
676.506	2.08
676.915	1.92
677.323	1.27
677.732	2.24
678.141	1.96
678.549	1.95
678.958	0.76
679.366	0.01
679.775	-2.4
680.183	0.85
680.592	0.07
681	0.2
681.408	0.55
681.816	0.21
682.224	-1.05
682.632	1.09
683.04	0.92
683.448	0.1
683.856	0.62
684.264	2.55
684.671	0.24
685.079	-0.03
685.487	-0.79
685.894	-1.73
686.302	-2.83
686.709	-0.56
687.116	-2.44
687.524	-1.92
687.931	-0.42
688.338	-0.25
688.745	-1.34
689.152	-1.46
689.559	-1.68
689.966	0.45
690.373	1.88
690.78	3.85
691.187	2.93
691.593	2.82
692	2.62
692.407	2.78
692.813	5.5
693.22	6.23
693.626	5.58
694.032	5.87
694.439	5.05
694.845	4.13
695.251	2.22
695.657	2.28
696.063	1.64
696.469	1.21
696.875	0.83
697.281	-1.37
697.687	-2.2
698.093	-1.45
698.498	-0.88
698.904	-2.72
699.31	-2.44
699.715	0.32
700.12	0.01
700.526	0.69
700.931	1
701.337	1.46
701.742	2.09
702.147	2.45
702.552	3.4
702.957	1.63
703.362	3.52
703.767	3.24
704.172	1.76
704.577	0.7
704.981	-0.22
705.386	-0.43
705.791	-0.47
706.195	-1.51
706.6	-1.47
707.004	-3.44
707.408	-3.25
707.813	-3.1
708.217	-2.59
708.621	-2.81
709.025	-2.63
709.43	-0.52
709.834	0.04
710.237	-0.03
710.641	0.03
711.045	0.75
711.449	3.66
711.853	6.49
712.256	6.26
712.66	6.43
713.064	6.69
713.467	8.41
713.87	7.28
714.274	7.52
714.677	7.45
715.08	8.25
715.484	7.92
715.887	8.99
716.29	6.16
716.693	7.48
717.096	7.75
717.499	9.09
717.901	7.71
718.304	7.38
718.707	6.81
719.109	5.83
719.512	3.09
719.915	5.35
720.317	2.97
720.719	2.95
721.122	0.76
721.524	0.72
721.926	4.39
722.328	4.23
722.731	3.7
723.133	4.03
723.535	4.64
723.937	6.73
724.338	6.24
724.74	7.59
725.142	52.82
725.544	56.53
725.945	68.21
726.347	63.47
726.748	64.61
727.15	66.5
727.551	70.37
727.952	68.85
728.354	67.29
728.755	66.54
729.156	64.18
729.557	20.37
729.958	17.03
730.359	5.7
730.76	5.54
731.161	6.03
731.562	4.7
731.962	0.47
732.363	1.28
732.763	0.92
733.164	-1.57
733.564	-1.15
733.965	0.45
734.365	1.35
734.766	1.84
735.166	1.18
735.566	2.52
735.966	3.43
736.366	4.25
736.766	4.43
737.166	4.52
737.566	5.21
737.966	5.26
738.365	5.29
738.765	5.64
739.165	5.07
739.564	6.62
739.964	3.63
740.363	2.22
740.763	0.61
741.162	2.13
741.561	2.26
741.96	3.08
742.36	1.59
742.759	1.04
743.158	-0.58
743.557	-1.14
743.955	-2.45
744.354	-2.16
744.753	-2.55
745.152	-0.97
745.55	-3.65
745.949	-4.02
746.348	-4.56
746.746	-4.12
747.144	-2.05
747.543	-2.16
747.941	-2.89
748.339	-2.53
748.737	-0.85
749.136	0.72
749.534	-1.09
749.932	2.02
750.33	2.59
750.727	2.23
751.125	3.8
751.523	2.06
751.921	5.29
752.318	6.64
752.716	8.34
753.113	7.76
753.511	8.02
753.908	9.34
754.305	12.65
754.703	12.42
755.1	13.79
755.497	12.76
755.894	12.1
756.291	9.56
756.688	9.29
757.085	6.94
757.482	7.16
757.878	7.54
758.275	8.56
758.672	-2.12
759.068	-3.7
759.465	-7.64
759.861	-8.66
760.258	-11.39
760.654	-9.69
761.05	-6.23
761.447	-6.15
761.843	-7.36
762.239	-5.03
762.635	-9.28
763.031	-7.42
763.427	-6.26
763.822	-5.17
764.218	-6.27
764.614	-4.31
765.01	-6.23
765.405	-7.45
