Data from N_1_DEC_ON_6N_Splice17_11-22-34-856.txt Node
Date: Sat Mar 14 11:22:34 EDT 2020
User: sa697716
Spectrometer: FLMS03696
Trigger mode: 0
Integration Time (sec): 3.180400E-1
Scans to average: 20
Electric dark correction enabled: true
Nonlinearity correction enabled: true
Boxcar width: 5
XAxis mode: Wavelengths
Number of Pixels in Spectrum: 2048
>>>>>Begin Spectral Data<<<<<
187.83	-173053.25
188.298	1174.79
188.766	675.84
189.233	592.05
189.701	787.95
190.169	1094.18
190.636	403.56
191.104	310.04
191.571	52.23
192.039	2.67
192.506	-40.49
192.974	268.8
193.441	-597.1
193.908	-171.22
194.375	-37.9
194.842	-13.07
195.31	-6.89
195.777	86.09
196.244	197.16
196.711	252.39
197.177	333.45
197.644	433.67
198.111	737.72
198.578	1049.77
199.045	847.24
199.511	1337.81
199.978	1539.88
200.445	1318.72
200.911	1423.05
201.378	1589.36
201.844	1457.6
202.31	2411.71
202.777	2477.77
203.243	1371.22
203.709	1287.18
204.176	1493.83
204.642	1246.74
205.108	1144.83
205.574	929.57
206.04	847.57
206.506	782.03
206.972	718.42
207.438	690.99
207.903	794.66
208.369	707.58
208.835	704.43
209.301	737.87
209.766	738.41
210.232	727.81
210.697	890.05
211.163	1065.45
211.628	1588.64
212.094	1324.95
212.559	1641.6
213.024	1000.8
213.49	1215.09
213.955	1167.89
214.42	1128.19
214.885	1054.36
215.35	1016.77
215.815	969.27
216.28	1021.77
216.745	817.1
217.21	858.07
217.675	733.84
218.14	776.21
218.604	784.76
219.069	807.35
219.534	789.63
219.998	819.41
220.463	878.41
220.927	953.03
221.392	825.42
221.856	765.64
222.32	855.11
222.785	1003.12
223.249	1200.88
223.713	1259.13
224.177	1206.73
224.642	1378.02
225.106	1587.4
225.57	1656.6
226.034	1209.76
226.497	1752.91
226.961	1564.22
227.425	1760.45
227.889	1851.32
228.353	1764.55
228.816	3462.85
229.28	3278.8
229.744	2762.13
230.207	1688.7
230.671	1632.52
231.134	2508.56
231.597	2886.77
232.061	2771.32
232.524	2590.88
232.987	1781.33
233.45	1575.62
233.914	1376.9
234.377	1327.81
234.84	1216.57
235.303	1400.4
235.766	1539.16
236.229	1583.03
236.691	959.9
237.154	1050.07
237.617	787.57
238.08	791.47
238.542	918.08
239.005	674.82
239.468	683.78
239.93	634.73
240.393	578.29
240.855	508.98
241.317	520.55
241.78	610.97
242.242	632.73
242.704	718.73
243.166	624.14
243.629	577.13
244.091	648.34
244.553	703.73
245.015	772.46
245.477	972.24
245.939	1382.17
246.4	1453.8
246.862	1422.85
247.324	1326.14
247.786	1427.33
248.247	1861.89
248.709	1820.57
249.17	1385.47
249.632	1368.59
250.093	1595.14
250.555	1429.5
251.016	922.22
251.477	879.08
251.939	933.85
252.4	961.96
252.861	1134.73
253.322	1053.86
253.783	1239.31
254.244	1593.97
254.705	1207.16
255.166	1039.92
255.627	1006.89
256.088	1385.95
256.549	1478.95
257.009	1300.33
257.47	1573.47
257.931	1258.14
258.391	962.62
258.852	989.52
259.312	1032.99
259.773	1262.73
260.233	1108.83
260.694	939
261.154	1061.08
261.614	865.21
262.074	749.95
262.534	787.25
262.994	746.98
263.455	944.49
263.915	794.44
264.374	724.33
264.834	779.67
265.294	835.6
265.754	845.38
266.214	772.63
266.673	707.6
267.133	884.15
267.593	856.86
268.052	1038.57
268.512	882.5
268.971	1106.54
269.431	1221.59
269.89	1080.23
270.349	1571.75
270.809	1761.49
271.268	1602.44
271.727	3535.48
272.186	2296.46
272.645	1734.22
273.104	1227.56
273.563	1809.5
274.022	1368.69
274.481	1187.33
274.94	948.52
275.399	690.6
275.857	785.17
276.316	1028.06
276.775	915.7
277.233	911.31
277.692	866.03
278.15	1019.97
278.609	1095.56
279.067	1020.38
279.525	993.39
279.984	1248.13
280.442	1563.36
280.9	1619.14
281.358	1086.26
281.816	1034.35
282.274	1037.4
282.732	1064.69
283.19	1046.16
283.648	903.89
284.106	963.42
284.564	954.15
285.021	912.96
285.479	686.22
285.937	623.93
286.394	581.4
286.852	594.49
287.309	611.04
287.767	634.43
288.224	636
288.682	679.46
289.139	777.76
289.596	722
290.053	729.91
290.511	904.62
290.968	1078.69
291.425	1407.03
291.882	1220.25
292.339	1074.51
292.796	1018.63
293.252	934.93
293.709	779.38
294.166	671.46
294.623	737.46
295.079	710.98
295.536	732.45
295.992	668.95
296.449	666.98
296.905	696.33
297.362	681.79
297.818	705.45
298.274	734.14
298.731	728.77
299.187	737.09
299.643	775.67
300.099	940.61
300.555	1009.69
301.011	848.56
301.467	852.6
301.923	953.24
302.379	940.34
302.835	928.73
303.291	932.59
303.746	1051.04
304.202	1316.33
304.658	1331.08
305.113	914.93
305.569	914.38
306.024	946.4
306.479	900.83
306.935	806.45
307.39	856.8
307.845	817.9
308.301	849.08
308.756	831.8
309.211	812.98
309.666	852.66
310.121	1088.72
310.576	1081.38
311.031	1081.75
311.486	1190.19
311.94	1156.34
312.395	1581.1
312.85	2890.37
313.305	13559.67
313.759	76171.76
314.214	5496.52
314.668	4351.66
315.123	3789.86
315.577	1442.44
316.032	1323.49
316.486	1700.19
316.94	1354.45
317.394	954.47
317.849	760.14
318.303	726.21
318.757	677.46
319.211	750.76
319.665	661.07
320.119	650.2
320.572	903.98
321.026	867.09
321.48	708.59
321.934	742.9
322.387	747.46
322.841	818.61
323.295	764.41
323.748	835.98
324.202	858.38
324.655	1037.68
325.108	1503.46
325.562	1078.72
326.015	1238.2
326.468	944.34
326.921	1071.07
327.374	1025.28
327.827	1075.2
328.28	1221.79
328.733	868.92
329.186	777.19
329.639	739.93
330.092	606.1
330.545	594.14
330.997	627.92
331.45	711.84
331.903	868.46
332.355	1441.47
332.808	1377.79
333.26	1139.38
333.713	1223.26
334.165	1231.53
334.617	1650.07
335.069	1300.08
335.522	2287.58
335.974	2436.45
336.426	2204.88
336.878	1446.22
337.33	767.96
337.782	758.13
338.234	969.31
338.686	1151.71
339.137	1380.29
339.589	1309.65
340.041	1090.45
340.493	954.4
340.944	985.23
341.396	1046.68
341.847	908.97
342.299	1097.87
342.75	1376.17
343.201	1149.37
343.653	1292.69
344.104	1541.29
344.555	1223.93
345.006	1841.72
345.457	1434.28
345.908	1136.06
346.359	1095.01
346.81	901.23
347.261	902.14
347.712	857.6
348.163	927.22
348.613	991.07
349.064	935.43
349.515	803.12
349.965	818.38
350.416	957.55
350.866	1060.97
351.317	1180.94
351.767	1901.37
352.217	2442.08
352.668	2081.27
353.118	1888.33
353.568	1699.2
354.018	1343.49
354.468	1432.18
354.918	1051.84
355.368	936.43
355.818	1313.23
356.268	3625.98
356.718	15729.53
357.168	3946.4
357.617	1992.85
358.067	2260.65
358.517	2172.25
358.966	2649.03
359.416	3060.36
359.865	3264.98
360.315	3834.48
360.764	1797.73
361.213	1030.69
361.663	955.85
362.112	1170.33
362.561	1866.35
363.01	1423.8
363.459	1185.85
363.908	1258.22
364.357	1117.03
364.806	1870.68
365.255	1291.71
365.703	1199.03
366.152	1217.31
366.601	1015.19
367.05	849.37
367.498	783.28
367.947	811.26
368.395	872.55
368.844	795.62
369.292	912.48
369.74	644.3
370.189	968.71
370.637	1139.85
371.085	983.1
371.533	1193.7
371.981	1112.96
372.429	1085.66
372.877	1132.32
373.325	941.6
373.773	960.47
374.221	836.72
374.669	1038.95
375.116	920.09
375.564	930.84
376.012	1049.63
376.459	867.39
376.907	1064.09
377.354	1292.45
377.801	1232.5
378.249	1448.12
378.696	1781.91
379.143	2266.34
379.591	2462.6
380.038	4069.28
380.485	2974.3
380.932	3207.35
381.379	3086.2
381.826	2394.79
382.273	1707.66
382.72	1509.68
383.166	1519.04
383.613	1051.63
384.06	962.7
384.506	1138.13
384.953	879.04
385.4	918.48
385.846	855.87
386.292	860.08
386.739	873.36
387.185	921.28
387.631	1007.99
388.078	1072.82
388.524	1225.36
388.97	1216.45
389.416	1080.87
389.862	1210.44
390.308	1204.07
390.754	1290.52
391.2	1506.62
391.645	1680.3
392.091	1774.44
392.537	1848.48
392.983	1951.19
393.428	2043.68
393.874	2319.08
394.319	2534.01
394.765	2682.38
395.21	3087.02
395.655	3235.97
396.101	3354.7
396.546	3329.19
396.991	3670.85
397.436	3738.4
397.881	3976.23
398.326	4150.08
398.771	4303.21
399.216	4099.62
399.661	3976.94
400.106	4228.98
400.551	4589.05
400.995	4336.41
401.44	4497.15
401.885	4405.01
402.329	4618.88
402.774	4575.81
403.218	4547.45
403.663	4528.27
404.107	4804.09
404.551	5010.78
404.995	4776.73
405.44	4799.42
405.884	5072.68
406.328	5086.27
406.772	5235.95
407.216	4924.62
407.66	4945.99
408.104	4921.83
408.547	4798.75
408.991	4813.24
409.435	4778.92
409.879	4830.46
410.322	4879.92
410.766	4827.12
411.209	4715.57
411.653	4670.28
412.096	4703.53
412.54	4836.75
412.983	4911.32
413.426	5014.15
413.869	5115.34
414.312	5109.68
414.756	5029.2
415.199	4894.82
415.642	4839.23
416.085	4920.7
416.527	4956.1
416.97	5111.2
417.413	4896.33
417.856	4899.01
418.298	4893.83
418.741	4885.37
419.184	4900.04
419.626	5131.92
420.069	5153.13
420.511	5198.69
420.953	5120.58
421.396	5117.1
421.838	5037.5
422.28	5195.5
422.722	5259.6
423.164	5413.24
423.606	5400.48
424.048	5485.59
424.49	5271.7
424.932	5315.67
425.374	5312.46
425.816	5439.31
426.258	5519.34
426.699	5503.43
427.141	5308.48
427.582	5299.57
428.024	5209.93
428.465	5198.49
428.907	5132.25
429.348	5176.18
429.789	5256.09
430.231	5203.87
430.672	5350.19
431.113	5332.72
431.554	5432.76
431.995	5541.73
432.436	5568.15
432.877	5647.17
433.318	5682.46
433.759	5770.85
434.2	5851.26
434.64	5868.46
435.081	5964.95
435.522	5742.08
435.962	5644.11
436.403	5604.78
436.843	5776.9
437.284	5741.78
437.724	5657.61
438.164	5755.03
438.604	5683.41
439.045	5516.61
439.485	5346.78
439.925	5326.21
440.365	5282.24
440.805	5282.66
441.245	5271.26
441.685	5111.58
442.125	5114.83
442.564	5170.93
443.004	5059.25
443.444	5069.43
443.883	5105.3
444.323	5127.37
444.762	5200.69
445.202	5309.18
445.641	5417.95
446.081	5440.91
446.52	5526.14
446.959	5507.02
447.398	5418.94
447.837	5419.79
448.276	5382.49
448.716	5469.29
449.154	5536.21
449.593	5376.61
450.032	5344.78
450.471	5261.56
450.91	5262.9
451.349	5223.37
451.787	5190.62
452.226	5249.64
452.664	5224.52
453.103	5206.23
453.541	5196.98
453.98	5157.69
454.418	5205.16
454.856	5106.16
455.295	5081.93
455.733	5096.42
456.171	5114.19
456.609	5090.38
457.047	5075.42
457.485	5119.98
457.923	5109.71
458.361	5033.11
458.798	5055.34
459.236	5044.85
459.674	5105.93
460.111	5148.35
460.549	5112.89
460.987	5122.45
461.424	5137.78
461.862	5131.66
462.299	5078.72
462.736	5086.63
463.173	5121.31
463.611	5056.4
464.048	5050.55
464.485	5107.35
464.922	5096.64
465.359	5116.41
465.796	5014.38
466.233	5014.26
466.67	4990.44
467.106	5009.65
467.543	5017.75
467.98	5007.74
468.416	4962.61
468.853	5001.43
469.29	4920.45
469.726	4916.48
470.162	4835.16
470.599	4891.99
471.035	4907.75
471.471	4855.64
471.907	4896.32
472.344	4909.53
472.78	4943.17
473.216	5029.61
473.652	4975.26
474.088	4978.27
474.523	4969.97
474.959	5030
475.395	4991.1
475.831	4954.57
476.266	4979.49
476.702	4963.75
477.138	4903.35
477.573	4886.68
478.008	4860.87
478.444	4868.38
478.879	4884.19
479.314	4881.93
479.75	4852.39
480.185	4852.35
480.62	4868.2
481.055	4856.81
481.49	4843.27
481.925	4854.65
482.36	4838.2
482.795	4876.46
483.229	4905.36
483.664	4908.25
484.099	4847.12
484.534	4845.66
484.968	4822.47
485.403	4783.52
485.837	4736.53
486.271	4693.69
486.706	4682.74
487.14	4650.12
487.574	4592.72
488.009	4570.98
488.443	4540.63
488.877	4567.52
489.311	4569.15
489.745	4601.89
490.179	4618.98
490.613	4666.23
491.046	4683.75
491.48	4693.61
491.914	4672.93
492.348	4683.18
492.781	4688.05
493.215	4686.82
493.648	4697.5
494.082	4722.5
494.515	4705.89
494.948	4727.26
495.382	4740.79
495.815	4738.49
496.248	4734.54
496.681	4779.82
497.114	4814.55
497.547	4829.12
497.98	4848.16
498.413	4817.21
498.846	4815.1
499.279	4821.73
499.711	4812.35
500.144	4784.74
500.577	4790.67
501.009	4808.33
501.442	4812.3
501.874	4777.3
502.306	4766.29
502.739	4773.23
503.171	4842.93
503.603	4837.53
504.036	4856.46
504.468	4844.29
504.9	4863.1
505.332	4865.56
505.764	4850.89
506.196	4851.52
506.627	4881.87
507.059	4897.75
507.491	4908.1
507.923	4840.7
508.354	4864.1
508.786	4866.71
509.217	4904.45
509.649	4923.2
510.08	4956.76
510.512	4967
510.943	4971.23
511.374	4956.66
511.805	4984.63
512.237	5007.34
512.668	5084.65
513.099	5119.71
513.53	5134.4
513.961	5112.15
514.391	5137.05
514.822	5162.37
515.253	5210.29
515.684	5222.62
516.114	5257.95
516.545	5263.31
516.975	5293.19
517.406	5298.67
517.836	5265.72
518.267	5267.9
518.697	5317.07
519.127	5319.77
519.558	5331.83
519.988	5326.69
520.418	5344.61
520.848	5386.7
521.278	5392.61
521.708	5296.39
522.138	5307.6
522.567	5376.42
522.997	5409.24
523.427	5399.35
523.857	5391.05
524.286	5369.91
524.716	5370.35
525.145	5386.66
525.575	5379.46
526.004	5390.43
526.433	5443.79
526.863	5409.29
527.292	5347.86
527.721	5352.64
528.15	5375.2
528.579	5379.69
529.008	5406.49
529.437	5463.11
529.866	5476.59
530.295	5497.31
530.724	5495.07
531.152	5542.3
531.581	5554.78
532.01	5583.21
532.438	5585.09
532.867	5602.62
533.295	5631.14
533.723	5626.17
534.152	5601.18
534.58	5588.81
535.008	5529.89
535.436	5521.92
535.865	5532.57
536.293	5558.28
536.721	5578.05
537.149	5616.86
537.576	5588.91
538.004	5600.96
538.432	5609.68
538.86	5591.56
539.287	5602.38
539.715	5631.27
540.143	5635.93
540.57	5622.7
540.998	5615.98
541.425	5554.68
541.852	5512.78
542.28	5529.6
542.707	5502.13
543.134	5475.82
543.561	5476.88
543.988	5466.22
544.415	5475.47
544.842	5468.63
545.269	5455.59
545.696	5468.98
546.123	5522.54
546.549	5502.51
546.976	5473.71
547.403	5479.25
547.829	5493.82
548.256	5511.17
548.682	5510.59
549.108	5497.51
549.535	5507.24
549.961	5524.58
550.387	5491.76
550.813	5476.94
551.24	5503.26
551.666	5515.73
552.092	5496.75
552.518	5485.01
552.943	5467.97
553.369	5493.28
553.795	5509.78
554.221	5509.44
554.646	5495.07
555.072	5514.95
555.498	5524.41
555.923	5536.39
556.349	5561.22
556.774	5569.77
557.199	5560.03
557.625	5573.17
558.05	5548.12
558.475	5576.46
558.9	5568.7
559.325	5539.16
559.75	5524.92
560.175	5509.07
560.6	5496.31
561.025	5498.73
561.449	5505.35
561.874	5522.09
562.299	5523.79
562.723	5536.27
563.148	5494.92
563.572	5501.36
563.997	5526.87
564.421	5539.78
564.846	5532.24
565.27	5529.47
565.694	5506.86
566.118	5529.61
566.542	5536.76
566.966	5509.26
567.39	5484.9
567.814	5442.34
568.238	5431.51
568.662	5442.97
569.086	5448.55
569.509	5478.37
569.933	5441.67
570.357	5439.24
570.78	5394.58
571.204	5373.75
571.627	5364.26
572.05	5381.17
572.474	5403.18
572.897	5390
573.32	5385.28
573.743	5379.86
574.166	5339.11
574.589	5360.88
575.012	5349.27
575.435	5361.48
575.858	5349.58
576.281	5335.79
576.704	5312.57
577.126	5305.09
577.549	5298.68
577.972	5298.81
578.394	5287.54
578.817	5287.17
579.239	5258.7
579.661	5248.74
580.084	5224.17
580.506	5215.2
580.928	5234.23
581.35	5226.56
581.772	5234.77
582.194	5208.4
582.616	5178.54
583.038	5145.66
583.46	5124.19
583.882	5116.1
584.303	5136.14
584.725	5122.74
585.147	5098.02
585.568	5099.81
585.99	5093.13
586.411	5063.82
586.833	5066.65
587.254	5037.66
587.675	5055.8
588.096	5073.61
588.518	5036.71
588.939	4961.62
589.36	4943.25
589.781	4929.01
590.202	4847.76
590.623	4847.75
591.043	4873.94
591.464	4857.51
591.885	4858.95
592.305	4849.46
592.726	4812.61
593.147	4823
593.567	4812.23
593.987	4792.83
594.408	4776.2
594.828	4778.27
595.248	4756.93
595.669	4694.07
596.089	4674.49
596.509	4659
596.929	4615.33
597.349	4614.49
597.769	4577.4
598.189	4547.75
598.608	4542.14
599.028	4537.67
599.448	4531.12
599.867	4487.78
600.287	4474.6
600.706	4458.65
601.126	4425.46
601.545	4421.19
601.965	4417.94
602.384	4402.86
602.803	4415.93
603.222	4402.07
603.641	4385.59
604.061	4373.42
604.48	4361.94
604.898	4385.93
605.317	4399.61
605.736	4402.26
606.155	4385.48
606.574	4351.86
606.992	4362.9
607.411	4341.84
607.829	4314.6
608.248	4303.54
608.666	4296.48
609.085	4291.65
609.503	4263.95
609.921	4240.7
610.339	4243.89
610.758	4242.67
611.176	4227.31
611.594	4197.93
612.012	4190.2
612.43	4198.87
612.847	4215.4
613.265	4208.64
613.683	4217.93
614.101	4219.8
614.518	4212.26
614.936	4188.27
615.353	4149.13
615.771	4146.21
616.188	4154.34
616.606	4149.69
617.023	4137.07
617.44	4106.28
617.857	4104.7
618.274	4092.54
618.691	4080.01
619.108	4055.73
619.525	4038.28
619.942	4058.51
620.359	4062.36
620.776	4041.71
621.192	4019.53
621.609	4000.29
622.026	4003.73
622.442	4004.87
622.859	4002
623.275	3969.1
623.691	3975.91
624.108	3999.09
624.524	4028.63
624.94	4013.04
625.356	4028.59
625.772	4057.15
626.188	4083.57
626.604	4076.02
627.02	4050.95
627.436	4031.94
627.852	4038.01
628.268	4060.41
628.683	4024.11
629.099	3992.3
629.514	3978.84
629.93	3991.34
630.345	4004.65
630.761	3994.17
631.176	4011.25
631.591	3995.27
632.007	3981.82
632.422	3986.56
632.837	3961
633.252	3957.11
633.667	3936.42
634.082	3918.32
634.497	3886.5
634.911	3835.03
635.326	3839.07
635.741	3798.69
636.155	3788.68
636.57	3802.65
636.984	3814.46
637.399	3829.04
637.813	3845.27
638.228	3855.39
638.642	3883.63
639.056	3869.34
639.47	3888.88
639.884	3875.61
640.298	3873.16
640.712	3884.67
641.126	3867.89
641.54	3863.92
641.954	3881.03
642.368	3863.83
642.781	3850.98
643.195	3810.55
643.609	3825.93
644.022	3818.91
644.436	3818.73
644.849	3787.83
645.262	3758.59
645.676	3772.01
646.089	3756.32
646.502	3696.97
646.915	3685.28
647.328	3644
647.741	3650.42
648.154	3620.55
648.567	3615.75
648.98	3580.87
649.393	3600.16
649.805	3602.74
650.218	3594.58
650.631	3557.69
651.043	3557.32
651.456	3548.16
651.868	3557
652.28	3613.83
652.693	3643.35
653.105	3642.18
653.517	3640.21
653.929	3611.63
654.341	3608.2
654.753	3551.4
655.165	3571.05
655.577	3566.31
655.989	3563.19
656.401	3559.13
656.813	3459.51
657.224	3437.4
657.636	3403.17
658.047	3404.57
658.459	3394.38
658.87	3422.65
659.282	3433.42
659.693	3389.53
660.104	3367.41
660.515	3347.06
660.926	3366.89
661.338	3390.5
661.749	3396.12
662.159	3379.76
662.57	3394.05
662.981	3399
663.392	3387.08
663.803	3420.11
664.213	3433.03
664.624	3437.47
665.035	3470.82
665.445	3435.73
665.855	3415.41
666.266	3391.48
666.676	3398.23
667.086	3370.43
667.497	3373.28
667.907	3352.64
668.317	3318.07
668.727	3290.91
669.137	3297.78
669.547	3285.05
669.956	3296.5
670.366	3303.79
670.776	3306.99
671.186	3317.71
671.595	3325.01
672.005	3337.2
672.414	3322.65
672.824	3305.81
673.233	3335.94
673.642	3335.12
674.052	3334.11
674.461	3325.25
674.87	3336.5
675.279	3309.61
675.688	3309.1
676.097	3294.98
676.506	3267.52
676.915	3319.74
677.323	3315.56
677.732	3291.39
678.141	3275.31
678.549	3222.39
678.958	3208.58
679.366	3188.48
679.775	3196.4
680.183	3206.27
680.592	3210.99
681	3207.41
681.408	3151.31
681.816	3155.28
682.224	3159.23
682.632	3153.4
683.04	3217.29
683.448	3238.97
683.856	3259.17
684.264	3271.65
684.671	3273.39
685.079	3290.47
685.487	3316.33
685.894	3388.46
686.302	3414.64
686.709	3403.59
687.116	3412.25
687.524	3395.23
687.931	3383.73
688.338	3378.47
688.745	3381.23
689.152	3391.36
689.559	3413.77
689.966	3423.36
690.373	3372.96
690.78	3361.08
691.187	3394.43
691.593	3386.89
692	3366.48
692.407	3382.15
692.813	3417
693.22	3429.26
693.626	3449.41
694.032	3451.55
694.439	3501.68
694.845	3528.08
695.251	3580.92
695.657	3616.38
696.063	3704.18
696.469	3744.49
696.875	3772
697.281	3754.2
697.687	3741.38
698.093	3711.47
698.498	3732.2
698.904	3726.84
699.31	3765.12
699.715	3769.38
700.12	3821.81
700.526	3789.09
700.931	3829.67
701.337	3851.9
701.742	3857.08
702.147	3927.92
702.552	3934.18
702.957	3976.51
703.362	3974.73
703.767	3987.14
704.172	4016.26
704.577	3939.05
704.981	3969.42
