Data from N_1_HIR_WI_4N_Splice17_11-39-33-384.txt Node
Date: Sat Mar 14 11:39:33 EDT 2020
User: sa697716
Spectrometer: FLMS03696
Trigger mode: 0
Integration Time (sec): 3.180400E-1
Scans to average: 20
Electric dark correction enabled: true
Nonlinearity correction enabled: true
Boxcar width: 5
XAxis mode: Wavelengths
Number of Pixels in Spectrum: 2048
>>>>>Begin Spectral Data<<<<<
187.83	-149675.23
188.298	1226.3
188.766	632.94
189.233	565.06
189.701	719.14
190.169	964.55
190.636	300.86
191.104	240.03
191.571	10.6
192.039	-98.68
192.506	-177.86
192.974	143.09
193.441	-194.76
193.908	-61.19
194.375	18.64
194.842	-48.61
195.31	-49.75
195.777	85.61
196.244	202.09
196.711	120.17
197.177	74.94
197.644	46.3
198.111	37.16
198.578	18.38
199.045	9.05
199.511	-65.21
199.978	-107.14
200.445	-56.92
200.911	-109.43
201.378	-183.62
201.844	-110.39
202.31	-203.6
202.777	-228.45
203.243	-104.64
203.709	-79.75
204.176	-95.87
204.642	-26.14
205.108	2.26
205.574	-30.07
206.04	-52.27
206.506	-55.72
206.972	-73.01
207.438	-77.66
207.903	-91.92
208.369	-44.85
208.835	-24.95
209.301	-30.2
209.766	-61.19
210.232	-69.79
210.697	-78.43
211.163	-108.65
211.628	-196.55
212.094	-157.97
212.559	-111.21
213.024	-57.19
213.49	-83.64
213.955	-118.84
214.42	-130.73
214.885	-121.17
215.35	-82.06
215.815	20.13
216.28	14.12
216.745	25.15
217.21	47.65
217.675	9.02
218.14	4.98
218.604	-4.06
219.069	13.75
219.534	50.15
219.998	48.08
220.463	38.25
220.927	-61.15
221.392	-34.94
221.856	-13.75
222.32	-78.04
222.785	-66.76
223.249	-94.15
223.713	-102.34
224.177	-111.45
224.642	-231.42
225.106	-254.3
225.57	-330.14
226.034	-156.12
226.497	-211.81
226.961	-181.78
227.425	-123.31
227.889	-168.37
228.353	-165.9
228.816	-406.63
229.28	-288.63
229.744	-161.35
230.207	-60.15
230.671	-29.85
231.134	-282.51
231.597	-303.29
232.061	-407.99
232.524	-437.95
232.987	-280.94
233.45	-207.41
233.914	-200.81
234.377	-277.03
234.84	-259.8
235.303	-354.62
235.766	-391.98
236.229	-347.25
236.691	-264.05
237.154	-285.3
237.617	-209.13
238.08	-228.53
238.542	-271.48
239.005	-169.8
239.468	-149.13
239.93	-138.19
240.393	-110.71
240.855	-93.79
241.317	-117.85
241.78	-153.65
242.242	-152.97
242.704	-123.63
243.166	-96.3
243.629	-47.1
244.091	-57.53
244.553	-64.11
245.015	-52.46
245.477	-73.09
245.939	-141.1
246.4	-115.91
246.862	-94.58
247.324	-75.79
247.786	-131.26
248.247	-220.01
248.709	-425.17
249.17	-276.83
249.632	-146.03
250.093	-114.86
250.555	-109.45
251.016	-7.38
251.477	6.86
251.939	14.08
252.4	-1.63
252.861	-48.13
253.322	-14.62
253.783	-14.74
254.244	-48.25
254.705	-114.61
255.166	-180.11
255.627	-164.95
256.088	-241.39
256.549	-262.09
257.009	-209
257.47	-244.03
257.931	-187.81
258.391	-130.66
258.852	-131.71
259.312	-153.71
259.773	-234.1
260.233	-110.11
260.694	-76.58
261.154	-107.28
261.614	-44.86
262.074	-70.03
262.534	-55.91
262.994	-32.72
263.455	-71.78
263.915	-34.88
264.374	-27.15
264.834	-16.56
265.294	-54.73
265.754	-45.97
266.214	-43.61
266.673	-48.26
267.133	-54.32
267.593	-88.05
268.052	-113.66
268.512	-110.65
268.971	-82.5
269.431	-101.79
269.89	-76.3
270.349	-82.04
270.809	-94.23
271.268	-64.77
271.727	-296.61
272.186	-148.81
272.645	-124.04
273.104	-120.51
273.563	-148.83
274.022	-240.44
274.481	-172.95
274.94	-146.82
275.399	-138.16
275.857	-201.44
276.316	-323.73
276.775	-275.62
277.233	-259.98
277.692	-192.02
278.15	-203.39
278.609	-178.1
279.067	-150
279.525	-131.07
279.984	-180.77
280.442	-212.78
280.9	-104.61
281.358	-48.45
281.816	-45.87
282.274	-68.06
282.732	-124.76
283.19	-141.28
283.648	-147.93
284.106	-150.33
284.564	-170.9
285.021	-125.79
285.479	-95.79
285.937	-125.77
286.394	-97.51
286.852	-112.49
287.309	-115.72
287.767	-69.44
288.224	-50.08
288.682	-53.21
289.139	-56.48
289.596	-35.39
290.053	-65.79
290.511	-95.56
290.968	-98.64
291.425	-183.37
291.882	-91.77
292.339	-66.77
292.796	-112.91
293.252	-107.32
293.709	-58.77
294.166	-47.43
294.623	-76.02
295.079	-68.08
295.536	-51.08
295.992	-47.11
296.449	-29.17
296.905	-32.37
297.362	-8.68
297.818	-1.4
298.274	3.59
298.731	-22.68
299.187	-19.94
299.643	-2.26
300.099	0.15
300.555	-4.28
301.011	9.3
301.467	63.14
301.923	18.52
302.379	5.34
302.835	-17.66
303.291	-6.85
303.746	2.29
304.202	-33.58
304.658	-56.2
305.113	-38.77
305.569	-26.34
306.024	-75.72
306.479	-127.75
306.935	-74.94
307.39	-122.97
307.845	-110.25
308.301	-119.12
308.756	-126.47
309.211	-102.07
309.666	-127.77
310.121	-121.84
310.576	-169.58
311.031	-187.82
311.486	-261.23
311.94	-323.64
312.395	-409.01
312.85	-837.69
313.305	-4928.46
313.759	-22190.26
314.214	-1607.32
314.668	-1115.14
315.123	-893.37
315.577	-237.86
316.032	-164.39
316.486	-208.85
316.94	-80.06
317.394	-51.21
317.849	-11.95
318.303	-18.82
318.757	0.01
319.211	-4.32
319.665	-3.35
320.119	-9.97
320.572	-42.74
321.026	-8.76
321.48	3.19
321.934	-36.39
322.387	-34.63
322.841	-22.74
323.295	47.32
323.748	-11.26
324.202	-21.18
324.655	-22.61
325.108	-31.17
325.562	-14.38
326.015	-64.05
326.468	-43.15
326.921	-22.49
327.374	29.27
327.827	27.94
328.28	10.96
328.733	42.42
329.186	46.56
329.639	47.16
330.092	41.89
330.545	57.79
330.997	68.27
331.45	95.09
331.903	112.69
332.355	121.09
332.808	75.99
333.26	36.33
333.713	34.18
334.165	15.48
334.617	-47.16
335.069	-105.46
335.522	-339.05
335.974	-392.34
336.426	-462.71
336.878	-376.15
337.33	-181.85
337.782	-179.76
338.234	-175.64
338.686	-239.72
339.137	-285.65
339.589	-246.43
340.041	-171.74
340.493	-145.99
340.944	-139.32
341.396	-121.42
341.847	-61.61
342.299	-14.05
342.75	53.16
343.201	-29.66
343.653	-43.96
344.104	-57.47
344.555	-49.44
345.006	-139.68
345.457	12.03
345.908	-8.5
346.359	0.41
346.81	4.95
347.261	-47.29
347.712	-93.86
348.163	-114.53
348.613	-50.65
349.064	-55.83
349.515	-38.17
349.965	-7.01
350.416	-64.9
350.866	-96.03
351.317	-145.85
351.767	-250.24
352.217	-289.11
352.668	-188.44
353.118	-148.9
353.568	-275.2
354.018	-155.52
354.468	-145.05
354.918	-70.83
355.368	-67.18
355.818	-72.41
356.268	-317.14
356.718	-1019.16
357.168	-216.57
357.617	-156.1
358.067	-199.07
358.517	-171.83
358.966	-179.92
359.416	-166.68
359.865	-327.54
360.315	-434.31
360.764	-187.86
361.213	-90.38
361.663	-128.24
362.112	-222.22
362.561	-372.9
363.01	-278.57
363.459	-228.03
363.908	-283.81
364.357	-195.77
364.806	-367.78
365.255	-222.39
365.703	-193.23
366.152	-173.78
366.601	-117.8
367.05	-48.09
367.498	-11.78
367.947	-19.35
368.395	-30.58
368.844	-15.22
369.292	-91.08
369.74	-36.45
370.189	-109.06
370.637	-129.02
371.085	-108.65
371.533	-173.85
371.981	-194.1
372.429	-166.02
372.877	-169.81
373.325	-138.58
373.773	-148.32
374.221	-145.75
374.669	-197.53
375.116	-147.73
375.564	-146.2
376.012	-182.5
376.459	-134.32
376.907	-177.48
377.354	-270.85
377.801	-200.44
378.249	-212.73
378.696	-330.04
379.143	-378.29
379.591	-399.71
380.038	-648.11
380.485	-470.74
380.932	-514.68
381.379	-306.31
381.826	-126.55
382.273	-102.96
382.72	-116.74
383.166	-82.92
383.613	-27.47
384.06	-3.67
384.506	-17.09
384.953	-5.09
385.4	-9.71
385.846	-7.57
386.292	-46.54
386.739	-60.5
387.185	-65.52
387.631	-66.33
388.078	-46.59
388.524	-60.15
388.97	-49.56
389.416	-26.97
389.862	-27.43
390.308	-24.24
390.754	-19.63
391.2	-26.21
391.645	-38.45
392.091	1.85
392.537	14.27
392.983	-8.91
393.428	27.69
393.874	9.12
394.319	23.18
394.765	32.32
395.21	27.71
395.655	27.82
396.101	38.42
396.546	38.72
396.991	15.83
397.436	6.72
397.881	2.15
398.326	-28.24
398.771	-14.8
399.216	-22.68
399.661	-24.94
400.106	-20.55
400.551	-15.26
400.995	-12.88
401.44	-4.61
401.885	-3.95
402.329	-1.73
402.774	2.15
403.218	19.52
403.663	16.01
404.107	19.47
404.551	24.62
404.995	22.24
405.44	16
405.884	10.61
406.328	1.25
406.772	-1.13
407.216	-2.24
407.66	-4.99
408.104	-13.11
408.547	-12.06
408.991	-12.55
409.435	-12.44
409.879	-12.25
410.322	-10.82
410.766	-7.97
411.209	-3.71
411.653	-4.17
412.096	-0.2
412.54	-2.4
412.983	-4.3
413.426	-1.81
413.869	-4.87
414.312	-5.05
414.756	-6.32
415.199	-7.18
415.642	-3.97
416.085	-4.32
416.527	-2.72
416.97	-5.65
417.413	-0.17
417.856	0.77
418.298	-1.18
418.741	-1.79
419.184	-5.76
419.626	-11.35
420.069	-10.91
420.511	-11.25
420.953	-8.76
421.396	-8.69
421.838	-10.46
422.28	-11.8
422.722	-9.86
423.164	-11.4
423.606	-11.65
424.048	-11.73
424.49	-6.03
424.932	-8.61
425.374	-10.59
425.816	-12.21
426.258	-12.45
426.699	-10.09
427.141	-7.59
427.582	-10.74
428.024	-12.62
428.465	-14.87
428.907	-12.68
429.348	-12.6
429.789	-7.39
430.231	-3.51
430.672	-3.99
431.113	-4.01
431.554	-3.36
431.995	-4.04
432.436	0.24
432.877	3.89
433.318	9.56
433.759	8.88
434.2	9.08
434.64	5.97
435.081	5.37
435.522	6.56
435.962	7.06
436.403	7.22
436.843	3.53
437.284	0.85
437.724	-1.62
438.164	-6.07
438.604	-6.37
439.045	-5.35
439.485	-0.7
439.925	-2.29
440.365	-3.29
440.805	-4.94
441.245	-4.66
441.685	-3.12
442.125	-3.79
442.564	-4.08
443.004	-2.33
443.444	-2.3
443.883	-2.94
444.323	-7.32
444.762	-10.71
445.202	-13.24
445.641	-10.62
446.081	-11.99
446.52	-10.78
446.959	-10.22
447.398	-8.5
447.837	-8.01
448.276	-8.41
448.716	-7.55
449.154	-9.18
449.593	-5.76
450.032	-4.57
450.471	-6.02
450.91	-6.85
451.349	-5.35
451.787	-6.12
452.226	-5.53
452.664	-7.18
453.103	-6.9
453.541	-8.54
453.98	-4.83
454.418	-5.37
454.856	-3
455.295	-2.92
455.733	-1.43
456.171	-2.7
456.609	-0.51
457.047	-1.02
457.485	2.21
457.923	4.21
458.361	5.32
458.798	3.69
459.236	3.88
459.674	1.53
460.111	1.8
460.549	1.91
460.987	-0.02
461.424	-0.65
461.862	-1.12
462.299	-1.5
462.736	-1.27
463.173	-2.32
463.611	1.58
464.048	2.53
464.485	4.15
464.922	3.65
465.359	2.1
465.796	11.56
466.233	12.41
466.67	14.99
467.106	16.23
467.543	15.12
467.98	14.49
468.416	11.77
468.853	9.64
469.29	8.32
469.726	6.94
470.162	6.88
470.599	-0.76
471.035	-2.85
471.471	-3.69
471.907	-5.45
472.344	-6.14
472.78	-4.91
473.216	-5.7
473.652	-4.57
474.088	-4.75
474.523	-2.97
474.959	-2.87
475.395	-2.28
475.831	-0.95
476.266	-1.11
476.702	-2
477.138	-1.21
477.573	-1.91
478.008	-1.57
478.444	-0.15
478.879	1.57
479.314	1.47
479.75	1.9
480.185	1.23
480.62	0.72
481.055	0.35
481.49	1.15
481.925	1.17
482.36	3.26
482.795	2.55
483.229	1.22
483.664	0.71
484.099	0.67
484.534	1.11
484.968	1.93
485.403	2.09
485.837	1.22
486.271	1.44
486.706	1.35
487.14	-0.18
487.574	0.26
488.009	0.26
488.443	-0.39
488.877	-0.02
489.311	-1.07
489.745	-0.76
490.179	-0.59
490.613	1.53
491.046	0.71
491.48	0.67
491.914	1
492.348	0.61
492.781	0.7
493.215	1.32
493.648	0.61
494.082	0.59
494.515	0.17
494.948	0.4
495.382	-1.03
495.815	-0.56
496.248	-0.28
496.681	-0.69
497.114	-0.89
497.547	-0.63
497.98	0.38
498.413	2.06
498.846	3.03
499.279	2.45
499.711	1.94
500.144	1.72
500.577	2.24
501.009	1.7
501.442	2.74
501.874	3.78
502.306	3.14
502.739	4.73
503.171	4.14
503.603	3.91
504.036	3.88
504.468	4.02
504.9	3.94
505.332	3.52
505.764	3.99
506.196	3.73
506.627	3.87
507.059	4.12
507.491	1.25
507.923	0.84
508.354	1.46
508.786	1.82
509.217	1.87
509.649	1.94
510.08	1.62
510.512	2.37
510.943	2.56
511.374	2.42
511.805	1.79
512.237	1.68
512.668	0.98
513.099	-0.47
513.53	-0.67
513.961	-0.45
514.391	-0.65
514.822	0.82
515.253	0.4
515.684	-0.4
516.114	-1.03
516.545	0.28
516.975	0.44
517.406	0.83
517.836	1.09
518.267	2.04
518.697	2.68
519.127	2.89
519.558	1.89
519.988	0.75
520.418	0.43
520.848	-0.39
521.278	-1.09
521.708	30.11
522.138	31.18
522.567	30.93
522.997	30.39
523.427	29.89
523.857	30.07
524.286	29.76
524.716	30.53
525.145	31.46
525.575	32.9
526.004	32.84
526.433	2.13
526.863	0.71
527.292	2.06
527.721	2.42
528.15	2.04
528.579	2.36
529.008	2.69
529.437	1.81
529.866	0.93
530.295	0.14
530.724	1.09
531.152	1.31
531.581	2.44
532.01	1.86
532.438	1.28
532.867	0.8
533.295	0.7
533.723	0.65
534.152	1.16
534.58	1.88
535.008	2.1
535.436	2.61
535.865	2.16
536.293	0.79
536.721	0.58
537.149	0.95
537.576	2.03
538.004	2.25
538.432	1.26
538.86	1.97
539.287	1.26
539.715	1.29
540.143	-0.1
540.57	0.46
540.998	1.23
541.425	2.76
541.852	2.78
542.28	2.59
542.707	2.28
543.134	3.09
543.561	3.03
543.988	3.45
544.415	3
544.842	3.08
545.269	2.65
545.696	3.07
546.123	2.64
546.549	2.66
546.976	2.6
547.403	2.62
547.829	2.15
548.256	1.86
548.682	1.73
549.108	2.52
549.535	2.29
549.961	2.16
550.387	1.57
550.813	2.44
551.24	2.71
551.666	1.96
552.092	1.88
552.518	1.77
552.943	2.02
553.369	1.95
553.795	2.24
554.221	2.6
554.646	2.54
555.072	3.44
555.498	1.15
555.923	0.47
556.349	1.11
556.774	0.93
557.199	0.78
557.625	-0.08
558.05	0.1
558.475	-0.85
558.9	-0.5
559.325	0.39
559.75	0.45
560.175	0.6
560.6	0.34
561.025	-0.92
561.449	-1.24
561.874	-1.65
562.299	-0.71
562.723	-0.9
563.148	-0.95
563.572	-1.73
563.997	-2.12
564.421	-3.69
564.846	-3.91
565.27	-3.69
565.694	-2.8
566.118	-2.88
566.542	-1.54
566.966	-1.68
567.39	-1.16
567.814	-0.43
568.238	0.29
568.662	-0.84
569.086	-0.53
569.509	-0.82
569.933	0.72
570.357	0.64
570.78	1.34
571.204	2.15
571.627	1.85
572.05	1.21
572.474	2.07
572.897	2.06
573.32	3.54
573.743	3.79
574.166	4.99
574.589	3.25
575.012	3.19
575.435	2.35
575.858	1.88
576.281	1.74
576.704	1.06
577.126	0.41
577.549	-0.1
577.972	-1.24
578.394	-0.99
578.817	0.57
579.239	1.13
579.661	1.96
580.084	3.62
580.506	3.79
580.928	3.19
581.35	4.22
581.772	3.95
582.194	3.65
582.616	3.47
583.038	2.19
583.46	-0.13
583.882	-0.29
584.303	-1.64
584.725	-2.44
585.147	1.29
585.568	2.2
585.99	2.86
586.411	3.05
586.833	3.88
587.254	4.6
587.675	5.08
588.096	5.69
588.518	6.13
588.939	6.62
589.36	6.65
589.781	1.38
590.202	4.23
590.623	3.73
591.043	2.24
591.464	2.14
591.885	2.2
592.305	2.56
592.726	2.04
593.147	1.95
593.567	2.68
593.987	2.19
594.408	1.8
594.828	-1.52
595.248	-0.66
595.669	1.04
596.089	1
596.509	0.34
596.929	-0.01
597.349	0.68
597.769	0.05
598.189	-0.93
598.608	-0.64
599.028	-0.21
599.448	-0.57
599.867	-1.38
600.287	-2.19
600.706	-1.83
601.126	-0.93
601.545	0.32
601.965	0.24
602.384	0.64
602.803	1
603.222	1.13
603.641	0.7
604.061	1.6
604.48	1.14
604.898	1.11
605.317	0.37
605.736	-0.24
606.155	-0.34
606.574	-0.49
606.992	-0.99
607.411	-0.84
607.829	-1.96
608.248	-1.77
608.666	-2.19
609.085	-2.05
609.503	-2.17
609.921	-1.32
610.339	-0.86
610.758	-1.59
611.176	-1.62
611.594	-1.11
612.012	-1.54
612.43	0.06
612.847	-0.1
613.265	0.7
613.683	1.17
614.101	1.51
614.518	0.57
614.936	0.57
615.353	1.1
615.771	1.45
616.188	1.89
616.606	2.11
617.023	2.17
617.44	2.57
617.857	1.66
618.274	1.27
618.691	1.78
619.108	1.85
619.525	1.47
619.942	1.77
620.359	1.88
620.776	1.68
621.192	2.16
621.609	2.2
622.026	1.93
622.442	1.83
622.859	1.32
623.275	0.55
623.691	1.21
624.108	2
624.524	1.84
624.94	1.32
625.356	0.52
625.772	-0.11
626.188	-1.01
626.604	-0.3
627.02	0.11
627.436	1.3
627.852	2.58
628.268	2.83
628.683	2.04
629.099	1.66
629.514	1.39
629.93	1.97
630.345	1.83
630.761	1.32
631.176	0.82
631.591	2.22
632.007	2.38
632.422	0.74
632.837	-0.14
633.252	1.29
633.667	1.24
634.082	1.71
634.497	2.56
634.911	4.58
635.326	4.99
635.741	5.55
636.155	4.55
636.57	4.54
636.984	5.54
637.399	6.89
637.813	5.46
638.228	4.69
638.642	4.06
639.056	3.25
639.47	1.81
639.884	1.86
640.298	1.18
640.712	2.02
641.126	1.9
641.54	1.19
641.954	-1.48
642.368	-1.18
642.781	1.89
643.195	2.71
643.609	3.46
644.022	2.91
644.436	1.96
644.849	1.68
645.262	-0.07
645.676	-1.35
646.089	-1.27
646.502	0.9
646.915	-0.28
647.328	-2.1
647.741	-1.77
648.154	-2.25
648.567	0.23
648.98	1.86
649.393	2.69
649.805	2.71
650.218	2.49
650.631	3.18
651.043	2.75
651.456	4.14
651.868	4.15
652.28	3.03
652.693	1.93
653.105	0.21
653.517	-0.78
653.929	-1.56
654.341	-0.59
654.753	0.84
655.165	0.15
655.577	0.6
655.989	-0.03
656.401	-1.36
656.813	0.54
657.224	1.23
657.636	0.6
658.047	2.21
658.459	2.31
658.87	0.83
659.282	0.3
659.693	1.03
660.104	0.23
660.515	0.3
660.926	0.07
661.338	-1.17
661.749	-2.14
662.159	-0.8
662.57	-1.87
662.981	-1.76
663.392	-0.79
663.803	-1.04
664.213	-1.45
664.624	-1.35
665.035	-1.77
665.445	-1.6
665.855	-0.93
666.266	0.51
666.676	-0.23
667.086	-1.23
667.497	-0.79
667.907	-0.89
668.317	-0.89
668.727	2.18
669.137	1.19
669.547	0.88
669.956	0.79
670.366	0.02
670.776	0.17
671.186	-0.04
671.595	0.39
672.005	-0.62
672.414	0.27
672.824	1.71
673.233	-2.29
673.642	-1.47
674.052	-0.66
674.461	0.63
674.87	0.26
675.279	1.21
675.688	0.94
676.097	2.38
676.506	2.69
676.915	1.63
677.323	1.06
677.732	1.07
678.141	0
678.549	-0.12
678.958	-1.41
679.366	-1.81
679.775	-3.68
680.183	-2.33
680.592	-3.73
681	-3.24
681.408	-3.11
681.816	-3.14
682.224	-2.99
682.632	-0.46
683.04	-1.32
683.448	-2.04
683.856	-0.74
684.264	0.6
684.671	-0.88
685.079	-1.11
685.487	-1.89
685.894	-2.25
686.302	-4.08
686.709	-3.44
687.116	-3.85
687.524	-1.17
687.931	1.43
688.338	1.18
688.745	-1.28
689.152	-0.72
689.559	0.33
689.966	1.54
690.373	2.43
690.78	3.97
691.187	4.55
691.593	4.61
692	2.65
692.407	2.56
692.813	5.12
693.22	6.8
693.626	5.75
694.032	6.35
694.439	6.86
694.845	6.32
695.251	5.34
695.657	4.7
696.063	3.18
696.469	3.56
696.875	2.76
697.281	0.21
697.687	-0.41
698.093	0.06
698.498	-0.79
698.904	-2.48
699.31	-2.75
699.715	-0.09
700.12	-0.22
700.526	0.99
700.931	0.43
701.337	0.68
701.742	1.74
702.147	1.23
702.552	1.88
702.957	1.84
703.362	2.78
703.767	2.5
704.172	0.07
704.577	0.71
704.981	-1.03
705.386	-0.19
705.791	0.74
706.195	-0.63
706.6	-0.59
707.004	-2.58
707.408	-3.49
707.813	-2.59
708.217	-1.9
708.621	-1.67
709.025	-2.44
709.43	-0.44
709.834	-0.2
710.237	-1.74
710.641	-1.76
711.045	-0.58
711.449	1.54
711.853	5.72
712.256	4.22
712.66	4.15
713.064	5.24
713.467	6.48
713.87	6.12
714.274	6.19
714.677	7.25
715.08	8.68
715.484	8.74
715.887	10.97
716.29	7.1
716.693	8.67
717.096	9.1
717.499	8.02
717.901	5.97
718.304	5.13
718.707	4.46
719.109	4.48
719.512	2.4
719.915	5.28
720.317	3.17
720.719	2.75
721.122	1.92
721.524	2.03
721.926	7.13
722.328	8.26
722.731	6.59
723.133	6.2
723.535	4.9
723.937	6.36
724.338	4.94
724.74	5.51
725.142	56.33
725.544	59.82
725.945	72.34
726.347	68.1
726.748	67.97
727.15	70.76
727.551	74.13
727.952	74.26
728.354	73.42
728.755	72.47
729.156	71.17
729.557	22.3
729.958	18.41
730.359	6.45
730.76	5.48
731.161	5.07
731.562	3.8
731.962	0.98
732.363	1.24
732.763	1.88
733.164	0.44
733.564	1.12
733.965	2.67
734.365	3.85
734.766	4.19
735.166	4.37
735.566	6.27
735.966	6.87
736.366	7.21
736.766	7.53
737.166	5.62
737.566	6.92
737.966	7
738.365	6.22
738.765	6.82
739.165	6.72
739.564	6.69
739.964	4.8
740.363	4.09
740.763	2.69
741.162	3.42
741.561	4.25
741.96	3.15
742.36	0.99
742.759	0.62
743.158	-1.3
743.557	-1.62
743.955	-2.19
744.354	-2.86
744.753	-3.6
745.152	-2.1
745.55	-3.36
745.949	-3.88
746.348	-3.13
746.746	-4.05
747.144	-2.15
747.543	-2.16
747.941	-2.97
748.339	-1.64
748.737	-0.65
749.136	0.21
749.534	-1.97
749.932	0.66
750.33	1
750.727	0.29
751.125	2.94
751.523	2.28
751.921	5.76
752.318	6.16
752.716	7.66
753.113	7.5
753.511	7.7
753.908	9.57
754.305	12.1
754.703	11.45
755.1	12.74
755.497	12.96
755.894	12.15
756.291	9.44
756.688	10.22
757.085	6.86
757.482	7.68
757.878	10.54
758.275	12.47
758.672	4.44
759.068	4.71
