Data from N_1_HIR_WI_4N_Splice17_11-39-15-091.txt Node
Date: Sat Mar 14 11:39:15 EDT 2020
User: sa697716
Spectrometer: FLMS03696
Trigger mode: 0
Integration Time (sec): 3.180400E-1
Scans to average: 20
Electric dark correction enabled: true
Nonlinearity correction enabled: true
Boxcar width: 5
XAxis mode: Wavelengths
Number of Pixels in Spectrum: 2048
>>>>>Begin Spectral Data<<<<<
187.83	-86825.39
188.298	800.78
188.766	455.68
189.233	392.64
189.701	570.94
190.169	781.75
190.636	242.88
191.104	206.9
191.571	-16.69
192.039	-114.48
192.506	-143.24
192.974	104.76
193.441	95.44
193.908	102.41
194.375	5.39
194.842	17.08
195.31	45.53
195.777	117.71
196.244	212.47
196.711	106.92
197.177	91.32
197.644	65.67
198.111	77.07
198.578	76.67
199.045	46.75
199.511	73.55
199.978	37.75
200.445	38.14
200.911	-12.79
201.378	-88.65
201.844	-57.64
202.31	-155.53
202.777	-203.67
203.243	-107.04
203.709	-115.64
204.176	-116.79
204.642	-93.33
205.108	-63.24
205.574	-66.4
206.04	-79.78
206.506	-66.53
206.972	-76.54
207.438	-80.79
207.903	-84.27
208.369	-46.93
208.835	-26.81
209.301	-37.46
209.766	-50.14
210.232	-61.6
210.697	-71.28
211.163	-105.67
211.628	-175.46
212.094	-127.49
212.559	-94.83
213.024	-48.54
213.49	-76.07
213.955	-104.55
214.42	-118.39
214.885	-93.58
215.35	-81.13
215.815	-5.16
216.28	-4.4
216.745	-14.36
217.21	22
217.675	-5.31
218.14	7.21
218.604	-5.11
219.069	7.89
219.534	48.11
219.998	29.33
220.463	27.17
220.927	-36.06
221.392	-20.68
221.856	-8.48
222.32	-69.64
222.785	-55.88
223.249	-85.83
223.713	-114.43
224.177	-111.64
224.642	-210.2
225.106	-272.19
225.57	-302.41
226.034	-193.7
226.497	-257.61
226.961	-174.58
227.425	-164.06
227.889	-211.22
228.353	-239.63
228.816	-450.71
229.28	-448.32
229.744	-382.03
230.207	-150.65
230.671	-124.38
231.134	-359.74
231.597	-406.46
232.061	-454.78
232.524	-483.69
232.987	-278.48
233.45	-214.95
233.914	-212.59
234.377	-261.85
234.84	-220.96
235.303	-308.87
235.766	-318.45
236.229	-283.56
236.691	-214.85
237.154	-254.69
237.617	-177.6
238.08	-209.34
238.542	-253.51
239.005	-145.74
239.468	-110.43
239.93	-103.98
240.393	-74.62
240.855	-71.2
241.317	-92.37
241.78	-132.64
242.242	-117.67
242.704	-89.39
243.166	-60.16
243.629	-21.89
244.091	-19.71
244.553	-31.16
245.015	-16.59
245.477	-34.83
245.939	-69.47
246.4	-33.05
246.862	-5.71
247.324	-25.5
247.786	-71.52
248.247	-163.21
248.709	-286.37
249.17	-232.77
249.632	-144.26
250.093	-134.56
250.555	-115.55
251.016	-39.3
251.477	-43.35
251.939	-29.58
252.4	-50.13
252.861	-94.46
253.322	-64.83
253.783	-122.38
254.244	-178.99
254.705	-203.17
255.166	-231.15
255.627	-235.99
256.088	-316.41
256.549	-333.37
257.009	-285.51
257.47	-348.16
257.931	-291.51
258.391	-196.64
258.852	-192.72
259.312	-221.96
259.773	-280.24
260.233	-166.18
260.694	-109.95
261.154	-147.05
261.614	-56.76
262.074	-63.15
262.534	-41.4
262.994	-16.52
263.455	-35.72
263.915	-5.87
264.374	1.08
264.834	2.18
265.294	-45.54
265.754	-47.24
266.214	-51.5
266.673	-68.29
267.133	-89.09
267.593	-126.5
268.052	-150.67
268.512	-158.72
268.971	-145.99
269.431	-162.89
269.89	-138.14
270.349	-170.18
270.809	-171.32
271.268	-139.22
271.727	-399.04
272.186	-220.89
272.645	-130.77
273.104	-140.9
273.563	-195.68
274.022	-235.43
274.481	-147.98
274.94	-104
275.399	-94.57
275.857	-151.56
276.316	-215.91
276.775	-198.11
277.233	-206.71
277.692	-175.62
278.15	-163.46
278.609	-95.02
279.067	-84.5
279.525	-59.13
279.984	-106.28
280.442	-111.4
280.9	-18.6
281.358	-8.33
281.816	12.97
282.274	8.81
282.732	-28.93
283.19	-47.91
283.648	-86.88
284.106	-94.33
284.564	-139.4
285.021	-100.56
285.479	-73.73
285.937	-98.24
286.394	-63.84
286.852	-90.68
287.309	-98.78
287.767	-47.83
288.224	-42.58
288.682	-46.05
289.139	-37.85
289.596	-14.85
290.053	-36.78
290.511	-76.78
290.968	-75.17
291.425	-172.87
291.882	-62.77
292.339	-31.45
292.796	-93.3
293.252	-88.61
293.709	-33.12
294.166	-36.02
294.623	-58.75
295.079	-67.96
295.536	-37.46
295.992	-38.78
296.449	-25.68
296.905	-39.6
297.362	-19.18
297.818	-19.83
298.274	-13.96
298.731	-48.53
299.187	-45.05
299.643	-49.38
300.099	-48.37
300.555	-56.19
301.011	-47.53
301.467	9.58
301.923	-23.37
302.379	-39.95
302.835	-37.8
303.291	-42.46
303.746	-54.22
304.202	-64.54
304.658	-83.52
305.113	-35.18
305.569	-63.95
306.024	-67.63
306.479	-130.98
306.935	-80.66
307.39	-122.03
307.845	-112.12
308.301	-83.09
308.756	-86.07
309.211	-85.25
309.666	-95.39
310.121	-98.56
310.576	-100.39
311.031	-126.71
311.486	-213.98
311.94	-239.79
312.395	-316.84
312.85	-683.55
313.305	-4594.91
313.759	-19357.86
314.214	-1449.8
314.668	-1091.32
315.123	-917.29
315.577	-238.95
316.032	-192.73
316.486	-207.09
316.94	-145.54
317.394	-72.14
317.849	-31.34
318.303	-19.88
318.757	-16.86
319.211	-12.04
319.665	-0.18
320.119	-5.93
320.572	-78.16
321.026	-48.87
321.48	-32.81
321.934	-64.06
322.387	-69.91
322.841	-66.38
323.295	-22.97
323.748	-75.19
324.202	-98.81
324.655	-126.08
325.108	-142.78
325.562	-70.33
326.015	-118.49
326.468	-84.12
326.921	-67.01
327.374	-29.9
327.827	-9.55
328.28	-26.05
328.733	15.25
329.186	32.98
329.639	38.76
330.092	33.66
330.545	43.8
330.997	46.45
331.45	81.72
331.903	110.17
332.355	97.4
332.808	36.56
333.26	18.38
333.713	17.88
334.165	5.99
334.617	-36.51
335.069	-122.88
335.522	-304.88
335.974	-323.61
336.426	-392
336.878	-378.36
337.33	-150.67
337.782	-136.72
338.234	-142.8
338.686	-206.98
339.137	-239.81
339.589	-206.02
340.041	-126.88
340.493	-115.06
340.944	-135
341.396	-125.03
341.847	-57.22
342.299	-47.2
342.75	-8.48
343.201	-41.71
343.653	-51.32
344.104	-84.39
344.555	-63.84
345.006	-147.15
345.457	-13.15
345.908	0.43
346.359	23.57
346.81	22.3
347.261	-12.08
347.712	-48.16
348.163	-65.69
348.613	-5.78
349.064	10.79
349.515	2.09
349.965	17.21
350.416	-7.69
350.866	-31.5
351.317	-69.04
351.767	-170.87
352.217	-171.49
352.668	-115.4
353.118	-109.08
353.568	-224.44
354.018	-168.18
354.468	-181.7
354.918	-90.92
355.368	-84.13
355.818	-132.14
356.268	-601.18
356.718	-2032.48
357.168	-473.25
357.617	-274.47
358.067	-255.66
358.517	-233.27
358.966	-263.05
359.416	-123.46
359.865	-227.56
360.315	-329.67
360.764	-82.4
361.213	-2.47
361.663	-33.06
362.112	-90.62
362.561	-143.36
363.01	-119.41
363.459	-132.37
363.908	-146.75
364.357	-136.08
364.806	-264.23
365.255	-200.98
365.703	-171.94
366.152	-175.34
366.601	-142.14
367.05	-66.02
367.498	-41.5
367.947	-69.71
368.395	-68.24
368.844	-67.19
369.292	-111.25
369.74	-57.31
370.189	-72.17
370.637	-92.38
371.085	-68.33
371.533	-89.68
371.981	-146.26
372.429	-119.59
372.877	-108.81
373.325	-42.77
373.773	-48.44
374.221	-47.01
374.669	-82.23
375.116	-88.79
375.564	-106.7
376.012	-147.48
376.459	-108.7
376.907	-142.9
377.354	-219.3
377.801	-161.7
378.249	-171.75
378.696	-242.18
379.143	-304.02
379.591	-314.45
380.038	-532.7
380.485	-302.33
380.932	-357.98
381.379	-198.01
381.826	-37.6
382.273	-36.3
382.72	-77.21
383.166	-88.09
383.613	-34.01
384.06	-35.72
384.506	-47.85
384.953	-39.37
385.4	-46.48
385.846	-36.55
386.292	-55.98
386.739	-74.59
387.185	-83.22
387.631	-85.34
388.078	-71.13
388.524	-87.69
388.97	-78.1
389.416	-48.18
389.862	-35.24
390.308	-37.74
390.754	-35.72
391.2	-41.57
391.645	-38.67
392.091	6.01
392.537	19.22
392.983	-0.14
393.428	26.71
393.874	28.25
394.319	38.62
394.765	57.48
395.21	52.62
395.655	59.88
396.101	61.03
396.546	61.45
396.991	40.42
397.436	35.34
397.881	39.96
398.326	25.15
398.771	32.34
399.216	22.11
399.661	13.16
400.106	24.56
400.551	28.94
400.995	27.31
401.44	27.6
401.885	30.61
402.329	32.62
402.774	31.81
403.218	46.15
403.663	42.64
404.107	44.88
404.551	47.1
404.995	40.37
405.44	35.06
405.884	30.82
406.328	26.48
406.772	20.52
407.216	19.46
407.66	14.39
408.104	2.51
408.547	2.03
408.991	4.05
409.435	3.65
409.879	7.28
410.322	11.62
410.766	16.65
411.209	19.5
411.653	21.42
412.096	25.46
412.54	27.12
412.983	29.56
413.426	34.82
413.869	31.74
414.312	33.65
414.756	29.68
415.199	25.34
415.642	26.78
416.085	27.05
416.527	26.68
416.97	22.21
417.413	23.24
417.856	22.55
418.298	20.57
418.741	20.43
419.184	16.86
419.626	13.33
420.069	15.1
420.511	15.05
420.953	18.23
421.396	20.11
421.838	21.91
422.28	23.24
422.722	25.63
423.164	23.26
423.606	23.25
424.048	22.24
424.49	27.68
424.932	24.8
425.374	22.78
425.816	20.12
426.258	18.03
426.699	17.37
427.141	18.74
427.582	15.66
428.024	15.96
428.465	14.66
428.907	15.41
429.348	13.64
429.789	17.44
430.231	20.95
430.672	22.44
431.113	22.94
431.554	23.92
431.995	22.66
432.436	27.12
432.877	28.08
433.318	31.21
433.759	30.77
434.2	30.83
434.64	28.5
435.081	28.75
435.522	27.13
435.962	27.76
436.403	28.7
436.843	28.09
437.284	26.24
437.724	25.22
438.164	22.18
438.604	23.26
439.045	23.96
439.485	27.87
439.925	25.07
440.365	25.23
440.805	24.43
441.245	25.17
441.685	25.09
442.125	23.32
442.564	23.6
443.004	24.36
443.444	23.96
443.883	24.47
444.323	20.32
444.762	16.43
445.202	14.52
445.641	17.81
446.081	15.81
446.52	15.8
446.959	18.1
447.398	19.19
447.837	19.96
448.276	19.71
448.716	21.64
449.154	20.62
449.593	24.83
450.032	26.17
450.471	22.65
450.91	22.86
451.349	24.46
451.787	22
452.226	21.45
452.664	20.53
453.103	20.96
453.541	17.62
453.98	20.49
454.418	20.5
454.856	22.22
455.295	23.95
455.733	24.36
456.171	24.16
456.609	26.39
457.047	27.59
457.485	29.07
457.923	29.83
458.361	29.94
458.798	29.4
459.236	28.87
459.674	27.99
460.111	27.43
460.549	27.56
460.987	26.85
461.424	25.08
461.862	23.87
462.299	23.97
462.736	25.67
463.173	26.39
463.611	29.79
464.048	29.99
464.485	31.18
464.922	30.62
465.359	29.52
465.796	36.7
466.233	38.83
466.67	41.71
467.106	43.73
467.543	41.57
467.98	40.85
468.416	38.29
468.853	37.96
469.29	36.12
469.726	35.27
470.162	35.06
470.599	28.55
471.035	26.16
471.471	24.16
471.907	22.39
472.344	22.49
472.78	23.28
473.216	22.44
473.652	22.21
474.088	21.4
474.523	22.76
474.959	22.52
475.395	22.9
475.831	23.28
476.266	23.46
476.702	22.78
477.138	23.31
477.573	23.36
478.008	23.8
478.444	24.94
478.879	27.02
479.314	27.75
479.75	28.39
480.185	28.37
480.62	28.62
481.055	28.76
481.49	29.67
481.925	30.01
482.36	31.7
482.795	30.98
483.229	30.31
483.664	30.08
484.099	29.24
484.534	29.62
484.968	30
485.403	29.98
485.837	28.7
486.271	27.92
486.706	27.56
487.14	26.11
487.574	26.6
488.009	26.08
488.443	25.46
488.877	26.34
489.311	25.71
489.745	25.65
490.179	26.43
490.613	29.2
491.046	29.23
491.48	29.51
491.914	29.72
492.348	29.96
492.781	31.19
493.215	31.07
493.648	30.33
494.082	30.57
494.515	30.93
494.948	31.32
495.382	29.44
495.815	30.49
496.248	30.25
496.681	29.94
497.114	29.5
497.547	29.51
497.98	31.21
498.413	32.1
498.846	32.88
499.279	32.56
499.711	31.52
500.144	31.27
500.577	31.82
501.009	31.87
501.442	32.52
501.874	32.89
502.306	32.44
502.739	34.07
503.171	34.04
503.603	33.92
504.036	33.39
504.468	34.22
504.9	34.45
505.332	33.75
505.764	34.05
506.196	33.85
506.627	34.36
507.059	34.51
507.491	31.49
507.923	31.13
508.354	31.68
508.786	31.84
509.217	32.17
509.649	32.86
510.08	32.44
510.512	33.55
510.943	33.71
511.374	34.36
511.805	34.44
512.237	34.45
512.668	34.47
513.099	33.42
513.53	33.93
513.961	33.91
514.391	33.95
514.822	36
515.253	35.98
515.684	36.47
516.114	36.54
516.545	37.53
516.975	38.32
517.406	38.43
517.836	38.57
518.267	38.87
518.697	39.83
519.127	40.12
519.558	39.33
519.988	38.45
520.418	37.77
520.848	37.33
521.278	36.4
521.708	66.62
522.138	68.34
522.567	68.69
522.997	69.27
523.427	68.06
523.857	68.4
524.286	68.01
524.716	68.71
525.145	69.76
525.575	70.63
526.004	71.26
526.433	41.63
526.863	40.25
527.292	41.6
527.721	42.69
528.15	43.8
528.579	44.32
529.008	44.86
529.437	44.41
529.866	44.09
530.295	43.85
530.724	44.82
531.152	45.88
531.581	46.84
532.01	46.5
532.438	45.32
532.867	45.07
533.295	45.05
533.723	45.22
534.152	45.73
534.58	46.49
535.008	46.02
535.436	46.8
535.865	46.33
536.293	45.92
536.721	45.58
537.149	46.68
537.576	47.42
538.004	47.42
538.432	46.51
538.86	46.81
539.287	46.59
539.715	47.53
540.143	46.07
540.57	46.76
540.998	47
541.425	48.63
541.852	48.08
542.28	47.89
542.707	47.65
543.134	48.17
543.561	48.31
543.988	48.63
544.415	48.07
544.842	48.26
545.269	47.92
545.696	48.21
546.123	47.81
546.549	47.65
546.976	47.62
547.403	48.14
547.829	47.99
548.256	48.29
548.682	48.47
549.108	49.32
549.535	49
549.961	48.71
550.387	48.58
550.813	49.34
551.24	49.71
551.666	49.25
552.092	48.66
552.518	48.68
552.943	48.8
553.369	48.59
553.795	48.49
554.221	50.09
554.646	50.22
555.072	51.02
555.498	49.56
555.923	48.81
556.349	48.95
556.774	48.95
557.199	48.8
557.625	48.1
558.05	48.19
558.475	47.81
558.9	46.81
559.325	47.28
559.75	47.52
560.175	47.57
560.6	47.51
561.025	47.2
561.449	47.85
561.874	47.83
562.299	48.53
562.723	48.25
563.148	48.01
563.572	47.62
563.997	47.2
564.421	44.98
564.846	44.82
565.27	45.23
565.694	45.33
566.118	44.41
566.542	45.8
566.966	45.15
567.39	45.08
567.814	44.75
568.238	45.09
568.662	44.22
569.086	45.35
569.509	45.01
569.933	46
570.357	45.94
570.78	46.42
571.204	46.21
571.627	45.93
572.05	46.61
572.474	47.73
572.897	47.3
573.32	48.42
573.743	48.16
574.166	48.22
574.589	46.78
575.012	46.19
575.435	45.29
575.858	44.59
576.281	44.67
576.704	43.29
577.126	41.74
577.549	41.06
577.972	40.07
578.394	39.12
578.817	40.9
579.239	40.72
579.661	41.26
580.084	42.62
580.506	42.21
580.928	41.57
581.35	41.77
581.772	42.47
582.194	42.62
582.616	42.32
583.038	42.21
583.46	39.74
583.882	39.78
584.303	38.39
584.725	36.79
585.147	41.22
585.568	42.18
585.99	42.69
586.411	42.6
586.833	42.94
587.254	42.74
587.675	42.6
588.096	42.66
588.518	42.9
588.939	43.55
589.36	44.41
589.781	38.55
590.202	40.44
590.623	39.87
591.043	39.19
591.464	38.78
591.885	39.69
592.305	39.4
592.726	39.8
593.147	39.49
593.567	39.84
593.987	39.13
594.408	38.73
594.828	36.12
595.248	36.85
595.669	37.32
596.089	37.37
596.509	36.31
596.929	35.95
597.349	36.14
597.769	35.91
598.189	36.01
598.608	35.64
599.028	36.1
599.448	35.59
599.867	34.72
600.287	34.11
600.706	34.09
601.126	34.62
601.545	36.23
601.965	36.4
602.384	36.3
602.803	35.71
603.222	36.16
603.641	36.21
604.061	36.81
604.48	36.51
604.898	36.54
605.317	36.56
605.736	36.25
606.155	36.15
606.574	35.36
606.992	35.22
607.411	35.39
607.829	34.43
608.248	34.1
608.666	33.37
609.085	33.85
609.503	33.72
609.921	34.34
610.339	34.83
610.758	33.73
611.176	33.77
611.594	34.56
612.012	34.44
612.43	35.76
612.847	36.28
613.265	37.45
613.683	36.92
614.101	37.1
614.518	35.7
614.936	35.02
615.353	35.04
615.771	34.92
616.188	34.4
616.606	34.15
617.023	33.7
617.44	33.45
617.857	31.47
618.274	31.33
618.691	31.99
619.108	32.21
619.525	32.06
619.942	32.34
620.359	32.96
620.776	32.6
621.192	33.35
621.609	33.42
622.026	33.54
622.442	34.31
622.859	33.81
623.275	32.69
623.691	32.49
624.108	32.58
624.524	32.72
624.94	31.86
625.356	31.6
625.772	31.08
626.188	30.43
626.604	29.92
627.02	29.49
627.436	29.95
627.852	31.43
628.268	32.22
628.683	31.47
629.099	30.92
629.514	30.4
629.93	30.99
630.345	30.93
630.761	30.79
631.176	31.2
631.591	32.94
632.007	33.31
632.422	31.77
632.837	30.44
633.252	31.18
633.667	31.27
634.082	31.86
634.497	32.38
634.911	33.44
635.326	33.8
635.741	33.61
636.155	32.5
636.57	33.64
636.984	33.95
637.399	35.76
637.813	36.08
638.228	36.24
638.642	36.43
639.056	35.28
639.47	34.6
639.884	34.57
640.298	34.53
640.712	34.62
641.126	33.46
641.54	33.25
641.954	31.2
642.368	30.76
642.781	32.97
643.195	32.27
643.609	33.03
644.022	32.41
644.436	31.51
644.849	30.89
645.262	29.89
645.676	28.61
646.089	28.77
646.502	29.76
646.915	29.15
647.328	27.17
647.741	28.75
648.154	28.47
648.567	31.28
648.98	32.25
649.393	32.52
649.805	33.23
650.218	33.6
650.631	33.71
651.043	34.12
651.456	34.88
651.868	35
652.28	33.92
652.693	32.94
653.105	31.22
653.517	30.47
653.929	30.14
654.341	30.5
654.753	31.17
655.165	30.18
655.577	29.82
655.989	29.92
656.401	28.44
656.813	29.18
657.224	29.61
657.636	28.08
658.047	29.51
658.459	29.39
658.87	28.36
659.282	27.75
659.693	28.35
660.104	28.28
660.515	27.41
660.926	27.8
661.338	27.12
661.749	26.46
662.159	27.09
662.57	25.79
662.981	26.1
663.392	25.94
663.803	26.03
664.213	25.34
664.624	25.23
665.035	24.42
665.445	23.69
665.855	24.26
666.266	25.75
666.676	25.08
667.086	24.59
667.497	25.21
667.907	25.66
668.317	25.13
668.727	28.8
669.137	28.03
669.547	28.84
669.956	28.42
670.366	27.93
670.776	27.25
671.186	27.96
671.595	28.39
672.005	27.05
672.414	27.25
672.824	28.22
673.233	24.51
673.642	25.25
674.052	25.66
674.461	27.44
674.87	27.17
675.279	27.97
675.688	26.04
676.097	26.28
676.506	26.87
676.915	26.3
677.323	26.01
677.732	25.85
678.141	25.39
678.549	24.57
678.958	22.7
679.366	22.31
679.775	20.55
680.183	23.68
680.592	23.52
681	24.09
681.408	24.72
681.816	24.89
682.224	25.13
682.632	26.68
683.04	26.73
683.448	27.23
683.856	27.88
684.264	29.07
684.671	26.76
685.079	26.41
685.487	25.31
685.894	25.21
686.302	24.28
686.709	23.82
687.116	22.45
687.524	24.51
687.931	26.85
688.338	27.58
688.745	27.47
689.152	28.35
689.559	29.79
689.966	30.82
690.373	31.75
690.78	33.1
691.187	34.84
691.593	36.08
692	35.33
692.407	34.79
692.813	36.78
693.22	37.58
693.626	36.37
694.032	36.58
694.439	37.38
694.845	36.5
695.251	35.39
695.657	35.77
696.063	34.77
696.469	34.49
696.875	35.18
697.281	33.23
697.687	32.73
698.093	34.13
698.498	35.42
698.904	35.07
699.31	35.73
699.715	39.47
700.12	39.46
700.526	41.23
700.931	42.48
701.337	43.87
701.742	46.18
702.147	46.51
702.552	46.84
702.957	46.08
703.362	47.12
703.767	47.84
704.172	46.21
704.577	46.2
704.981	45.9
705.386	47.08
705.791	46.25
706.195	45.01
706.6	46.01
707.004	46.22
707.408	46.18
707.813	47.87
708.217	49.83
708.621	50.51
709.025	51.5
709.43	53.29
709.834	53.9
710.237	55.12
710.641	55.89
711.045	57.91
711.449	60.41
711.853	64.84
712.256	64.32
712.66	63.51
713.064	64.2
713.467	66.15
713.87	66.55
714.274	67.25
714.677	68.55
715.08	70.34
715.484	70.64
715.887	73.19
716.29	69.46
716.693	71.42
717.096	72.82
717.499	73.37
717.901	71.81
718.304	71.65
718.707	72.5
719.109	72.51
719.512	71.82
719.915	74.09
720.317	72.16
720.719	73.69
721.122	73.67
721.524	74.92
721.926	79.82
722.328	81.74
722.731	81.52
723.133	80.67
723.535	81.34
723.937	83.04
724.338	83.01
724.74	85.09
725.142	137.87
725.544	142.41
725.945	154.33
726.347	150.32
726.748	151.11
727.15	152.12
727.551	155.89
727.952	155.52
728.354	153.33
728.755	152.38
729.156	151.05
729.557	101.36
729.958	96.09
730.359	85.55
730.76	86.14
731.161	85.21
731.562	84.94
731.962	82.57
732.363	83.63
732.763	85.09
733.164	83.83
733.564	84.58
733.965	83.23
734.365	84.4
734.766	85.03
735.166	85.68
735.566	86.28
735.966	87.51
736.366	87.92
736.766	87.09
737.166	86.77
737.566	88.58
737.966	87.25
738.365	89.17
738.765	89.92
739.165	89.36
739.564	87.82
739.964	88.18
740.363	85.69
740.763	85.36
741.162	86.53
741.561	86.15
741.96	85.86
742.36	85.58
742.759	85.14
743.158	84.12
743.557	83.83
743.955	84.68
744.354	83.71
744.753	85.31
745.152	85.98
745.55	84.9
745.949	85.73
746.348	84.69
746.746	84.1
747.144	86.42
