Data from N_1_DEC_VA_2N_Splice17_11-18-53-080.txt Node
Date: Sat Mar 14 11:18:53 EDT 2020
User: sa697716
Spectrometer: FLMS03696
Trigger mode: 0
Integration Time (sec): 3.180400E-1
Scans to average: 20
Electric dark correction enabled: true
Nonlinearity correction enabled: true
Boxcar width: 5
XAxis mode: Wavelengths
Number of Pixels in Spectrum: 2048
>>>>>Begin Spectral Data<<<<<
187.83	-92521.72
188.298	835.78
188.766	405.59
189.233	351.66
189.701	503.39
190.169	569.48
190.636	207.31
191.104	168.74
191.571	32.08
192.039	8.09
192.506	-26.31
192.974	145.58
193.441	-147.21
193.908	-38.89
194.375	1.65
194.842	14.34
195.31	-14.76
195.777	72.31
196.244	159.15
196.711	126.48
197.177	134.82
197.644	148.17
198.111	208.73
198.578	309.09
199.045	227.29
199.511	335.7
199.978	393.98
200.445	344.85
200.911	374.31
201.378	403.46
201.844	401.77
202.31	678.93
202.777	702.23
203.243	426.14
203.709	406.64
204.176	491.71
204.642	419.4
205.108	384.32
205.574	309.03
206.04	256.73
206.506	220.34
206.972	184.36
207.438	165.52
207.903	167.13
208.369	153.24
208.835	153.86
209.301	151.83
209.766	158.31
210.232	142.68
210.697	161.82
211.163	189.39
211.628	286.81
212.094	291.88
212.559	429.2
213.024	285.44
213.49	339.36
213.955	324.31
214.42	308.28
214.885	275.01
215.35	284.12
215.815	322.71
216.28	351.32
216.745	280.92
217.21	304.42
217.675	243.95
218.14	246.1
218.604	240.42
219.069	250.23
219.534	273.75
219.998	286.5
220.463	312.66
220.927	284.3
221.392	236.58
221.856	213.99
222.32	191.95
222.785	229.86
223.249	270.03
223.713	287.75
224.177	264.07
224.642	241.6
225.106	237.69
225.57	228.87
226.034	203.29
226.497	294.04
226.961	305.25
227.425	369.76
227.889	407.68
228.353	406.26
228.816	722.11
229.28	748.7
229.744	636.14
230.207	425.51
230.671	410.57
231.134	573.51
231.597	716.45
232.061	631.32
232.524	600.32
232.987	394.52
233.45	368.7
233.914	334.07
234.377	322.73
234.84	310.12
235.303	320.59
235.766	342.93
236.229	375.08
236.691	200.9
237.154	220.36
237.617	186
238.08	164.86
238.542	195.7
239.005	166.21
239.468	163.18
239.93	153.96
240.393	155.83
240.855	137.94
241.317	129.61
241.78	137.84
242.242	149.89
242.704	175.75
243.166	169.64
243.629	168.88
244.091	178.42
244.553	178.84
245.015	194.44
245.477	229.19
245.939	315.96
246.4	354.21
246.862	376.19
247.324	338.58
247.786	341.64
248.247	364.92
248.709	313.47
249.17	222.59
249.632	268.76
250.093	353
250.555	325.45
251.016	228.66
251.477	209.44
251.939	219.52
252.4	213.69
252.861	215.74
253.322	245.62
253.783	239.51
254.244	300.47
254.705	217.55
255.166	150.64
255.627	147.56
256.088	207.83
256.549	221.27
257.009	193.45
257.47	266.25
257.931	223
258.391	171.09
258.852	183.5
259.312	193.87
259.773	220.31
260.233	234.52
260.694	204.7
261.154	216.33
261.614	221.22
262.074	178.34
262.534	183.87
262.994	196.99
263.455	230.79
263.915	221.85
264.374	203.2
264.834	225.56
265.294	225.39
265.754	249.23
266.214	225.34
266.673	183.03
267.133	228.55
267.593	224.2
268.052	245.35
268.512	212.08
268.971	287.59
269.431	330.88
269.89	277.5
270.349	406.35
270.809	423.9
271.268	409.93
271.727	828.5
272.186	594.84
272.645	426.81
273.104	284.68
273.563	432.39
274.022	260.73
274.481	235.98
274.94	190.22
275.399	120.04
275.857	134.03
276.316	130.59
276.775	120.16
277.233	125.46
277.692	140.91
278.15	185.16
278.609	218.58
279.067	226.52
279.525	226.64
279.984	281.3
280.442	369.41
280.9	378.14
281.358	284.73
281.816	266.5
282.274	249.89
282.732	228.14
283.19	214.2
283.648	166.23
284.106	167.87
284.564	169.08
285.021	178.37
285.479	127.93
285.937	101.26
286.394	98.15
286.852	101.72
287.309	100.99
287.767	134.15
288.224	137.1
288.682	136.88
289.139	142.91
289.596	135.44
290.053	118.38
290.511	127.36
290.968	167.23
291.425	188.64
291.882	209.44
292.339	204.58
292.796	170.28
293.252	167.2
293.709	184.9
294.166	171.24
294.623	169.1
295.079	155.16
295.536	185.02
295.992	176.35
296.449	171.17
296.905	174.4
297.362	185.34
297.818	189.71
298.274	200.55
298.731	167.47
299.187	175.94
299.643	197.77
300.099	253.24
300.555	255.86
301.011	221.05
301.467	270.77
301.923	269.75
302.379	255.9
302.835	241.42
303.291	242.77
303.746	277.74
304.202	307.1
304.658	294.27
305.113	221.2
305.569	210.62
306.024	185.28
306.479	129.4
306.935	132.02
307.39	133.33
307.845	116.53
308.301	137.33
308.756	130.78
309.211	152.53
309.666	167.87
310.121	220.33
310.576	232.89
311.031	237.08
311.486	231.3
311.94	200.08
312.395	214.34
312.85	368.08
313.305	883.11
313.759	7769.07
314.214	457.59
314.668	382.61
315.123	246.73
315.577	141.65
316.032	117.02
316.486	194.2
316.94	197.8
317.394	159.14
317.849	155.03
318.303	149.05
318.757	148.93
319.211	167.86
319.665	147.76
320.119	155.18
320.572	200.35
321.026	212.03
321.48	173.93
321.934	165.92
322.387	156.03
322.841	169.71
323.295	204.46
323.748	174.68
324.202	194.3
324.655	243.48
325.108	395.37
325.562	290.93
326.015	325.49
326.468	271.15
326.921	327.55
327.374	368.2
327.827	404.71
328.28	421.54
328.733	330.64
329.186	296.02
329.639	276.52
330.092	222.2
330.545	216.97
330.997	222.48
331.45	256.67
331.903	305.15
332.355	441.77
332.808	395.02
333.26	309.02
333.713	327.99
334.165	298.51
334.617	367.85
335.069	237.43
335.522	344.06
335.974	429.84
336.426	328.9
336.878	182.76
337.33	119.37
337.782	107.79
338.234	166.63
338.686	189.83
339.137	206.1
339.589	202.92
340.041	232.39
340.493	214.22
340.944	199.91
341.396	217.63
341.847	217.77
342.299	270.18
342.75	352.8
343.201	265.66
343.653	272.67
344.104	355.29
344.555	290.43
345.006	324.19
345.457	332.61
345.908	265.52
346.359	274.1
346.81	201.16
347.261	191.11
347.712	161.44
348.163	154.74
348.613	211.25
349.064	190.5
349.515	169.73
349.965	193.15
350.416	183.23
350.866	174.01
351.317	168.05
351.767	293.55
352.217	386.35
352.668	368.15
353.118	396.86
353.568	273.19
354.018	268.29
354.468	267.56
354.918	201.78
355.368	182.18
355.818	252.58
356.268	517.93
356.718	2448.1
357.168	659.79
357.617	360.22
358.067	382.25
358.517	381.25
358.966	449
359.416	649.45
359.865	688.67
360.315	712.05
360.764	392.09
361.213	249.25
361.663	210.34
362.112	227.55
362.561	287.35
363.01	182.15
363.459	150.96
363.908	117.84
364.357	79
364.806	98.14
365.255	90.82
365.703	107.17
366.152	110.94
366.601	79.91
367.05	94.65
367.498	108.16
367.947	107.99
368.395	102.79
368.844	107.29
369.292	103.55
369.74	89.28
370.189	98.82
370.637	94.44
371.085	94.77
371.533	126.31
371.981	91.46
372.429	126.55
372.877	152.72
373.325	155.1
373.773	143.35
374.221	120.45
374.669	115.04
375.116	112.86
375.564	104.78
376.012	90.67
376.459	94.36
376.907	115.88
377.354	122.61
377.801	133.75
378.249	149.47
378.696	174.97
379.143	203.96
379.591	237.28
380.038	489.15
380.485	435.71
380.932	490.19
381.379	484.8
381.826	432.06
382.273	273.46
382.72	228.26
383.166	238.75
383.613	178.63
384.06	168.57
384.506	219.66
384.953	163.66
385.4	151.18
385.846	132.99
386.292	115.29
386.739	87.29
387.185	83.52
387.631	85.28
388.078	88.61
388.524	89.16
388.97	73.56
389.416	54.92
389.862	60.66
390.308	62.15
390.754	63.77
391.2	68.96
391.645	75.31
392.091	93.63
392.537	91.25
392.983	78.32
393.428	90.57
393.874	99.18
394.319	112.28
394.765	106.74
395.21	99.85
395.655	96.88
396.101	91.83
396.546	83.99
396.991	70.29
397.436	70.6
397.881	63.59
398.326	48.12
398.771	52.77
399.216	46.17
399.661	45.21
400.106	47.89
400.551	53.28
400.995	52.57
401.44	55.27
401.885	55.07
402.329	54.18
402.774	58.99
403.218	67.57
403.663	62.79
404.107	62.1
404.551	64.11
404.995	58.69
405.44	51.93
405.884	50
406.328	42.52
406.772	36.94
407.216	32.16
407.66	27.01
408.104	17.67
408.547	17.69
408.991	15.77
409.435	12.47
409.879	16.21
410.322	19.27
410.766	19.28
411.209	22.66
411.653	23.32
412.096	27.42
412.54	27.09
412.983	27.3
413.426	27.81
413.869	28.81
414.312	29.62
414.756	25.72
415.199	22.4
415.642	23.67
416.085	22.39
416.527	20.9
416.97	16.77
417.413	16.98
417.856	17.51
418.298	17.48
418.741	15.46
419.184	14.32
419.626	11.09
420.069	12.79
420.511	12.16
420.953	16.28
421.396	18.36
421.838	17.68
422.28	18.06
422.722	19.52
423.164	17.78
423.606	17.31
424.048	15.92
424.49	17.74
424.932	15.54
425.374	14.04
425.816	9.63
426.258	9
426.699	10.71
427.141	12.79
427.582	9.16
428.024	9.01
428.465	5.67
428.907	5.89
429.348	5.86
429.789	7.41
430.231	9.81
430.672	9.76
431.113	9.85
431.554	9.95
431.995	8.39
432.436	13.15
432.877	13.53
433.318	18.42
433.759	16.69
434.2	18.26
434.64	17.43
435.081	16.66
435.522	17.68
435.962	17.71
436.403	18.43
436.843	14.33
437.284	10.81
437.724	10.06
438.164	6.5
438.604	8.13
439.045	8.22
439.485	11.07
439.925	10.5
440.365	9.12
440.805	9.58
441.245	9.63
441.685	11.08
442.125	10.7
442.564	11.33
443.004	12.71
443.444	12.65
443.883	13.7
444.323	9.95
444.762	6.68
445.202	6.3
445.641	6.75
446.081	3.82
446.52	5.02
446.959	7.23
447.398	8.48
447.837	8.15
448.276	7.87
448.716	8.75
449.154	7.33
449.593	10.19
450.032	10.74
450.471	8.77
450.91	9.09
451.349	10.13
451.787	7.97
452.226	5.61
452.664	5.7
453.103	4.62
453.541	3.09
453.98	6.02
454.418	5.37
454.856	6.01
455.295	6.45
455.733	7.63
456.171	6.55
456.609	8.26
457.047	8.88
457.485	10.2
457.923	11.51
458.361	9.74
458.798	8.79
459.236	8.43
459.674	6.95
460.111	7.17
460.549	6.7
460.987	6.72
461.424	6.65
461.862	7.12
462.299	7.27
462.736	8.32
463.173	8.01
463.611	10.32
464.048	10.39
464.485	11.27
464.922	10.78
465.359	10.02
465.796	15.76
466.233	16.44
466.67	18.16
467.106	18.95
467.543	17.07
467.98	17.39
468.416	15.38
468.853	15.2
469.29	14.11
469.726	13.86
470.162	13.23
470.599	8.26
471.035	5.73
471.471	4.04
471.907	1.57
472.344	1.77
472.78	1.51
473.216	0.49
473.652	0.01
474.088	-0.16
474.523	-0.02
474.959	1.04
475.395	1.26
475.831	2.38
476.266	2.29
476.702	2.51
477.138	2.49
477.573	3.04
478.008	3.77
478.444	5.26
478.879	6.45
479.314	6.23
479.75	5.71
480.185	4.62
480.62	3.5
481.055	3.2
481.49	3.71
481.925	4.68
482.36	5.9
482.795	4.94
483.229	3.54
483.664	3.45
484.099	4.26
484.534	4.95
484.968	6.06
485.403	6.5
485.837	6.3
486.271	5.62
486.706	4.4
487.14	3.1
487.574	4.31
488.009	4.21
488.443	3.53
488.877	3.81
489.311	3.01
489.745	3.09
490.179	3.24
490.613	4.9
491.046	4.89
491.48	4.67
491.914	4.95
492.348	4.2
492.781	4.65
493.215	5.13
493.648	3.6
494.082	3.39
494.515	3.52
494.948	4.15
495.382	2.79
495.815	3.65
496.248	4.25
496.681	4.11
497.114	3.58
497.547	4.43
497.98	4.9
498.413	6.31
498.846	6.75
499.279	6.5
499.711	5.9
500.144	5.95
500.577	5.97
501.009	6.14
501.442	6.98
501.874	8.03
502.306	7.1
502.739	8
503.171	7.58
503.603	7.78
504.036	7.36
504.468	7.67
504.9	7.42
505.332	6.95
505.764	7.33
506.196	6.46
506.627	6.07
507.059	6.26
507.491	4.65
507.923	5.23
508.354	5.62
508.786	5.4
509.217	5.15
509.649	4.95
510.08	4.48
510.512	4.37
510.943	4.94
511.374	5.34
511.805	4.69
512.237	4.5
512.668	3.45
513.099	2.46
513.53	2.72
513.961	3.06
514.391	2.78
514.822	4.24
515.253	4.46
515.684	4.15
516.114	3.95
516.545	4.3
516.975	4.54
517.406	4.59
517.836	4.33
518.267	4.92
518.697	5.45
519.127	5.58
519.558	4.03
519.988	3.45
520.418	2.84
520.848	1.96
521.278	1.66
521.708	17.7
522.138	18.03
522.567	17.65
522.997	17.37
523.427	16.77
523.857	17.34
524.286	17.85
524.716	18.27
525.145	18.72
525.575	19.67
526.004	19.48
526.433	3.67
526.863	3.1
527.292	4.37
527.721	4.18
528.15	3.78
528.579	3.72
529.008	3.44
529.437	2.36
529.866	2.45
530.295	1.74
530.724	2.59
531.152	2.55
531.581	3.53
532.01	3.49
532.438	3.18
532.867	2.64
533.295	2.74
533.723	3.22
534.152	3.92
534.58	3.96
535.008	4.25
535.436	5.26
535.865	4.89
536.293	3.99
536.721	3.56
537.149	3.72
537.576	4.93
538.004	5.08
538.432	4.27
538.86	4.36
539.287	3.84
539.715	4.23
540.143	3.01
540.57	3.55
540.998	3.66
541.425	4.69
541.852	4.52
542.28	3.9
542.707	3.52
543.134	4.19
543.561	4.68
543.988	4.91
544.415	4.18
544.842	3.8
545.269	3.86
545.696	4.66
546.123	4.09
546.549	4.31
546.976	4.63
547.403	4.83
547.829	4.47
548.256	3.59
548.682	3.57
549.108	4.72
549.535	5.24
549.961	4.98
550.387	4.7
550.813	5.57
551.24	5.78
551.666	5.11
552.092	5.16
552.518	5.09
552.943	5.75
553.369	5.47
553.795	4.92
554.221	4.76
554.646	4.84
555.072	5.5
555.498	4.05
555.923	3.57
556.349	4.09
556.774	3.97
557.199	3.76
557.625	3.17
558.05	4.07
558.475	4.03
558.9	3.52
559.325	3.97
559.75	3.71
560.175	4.3
560.6	4.29
561.025	3.87
561.449	4.01
561.874	3.83
562.299	4.36
562.723	3.64
563.148	3.76
563.572	3.84
563.997	3.14
564.421	2.1
564.846	1.44
565.27	1.81
565.694	2
566.118	1.29
566.542	2.55
566.966	2.47
567.39	2.56
567.814	2.54
568.238	2.84
568.662	2.53
569.086	2.36
569.509	2.31
569.933	2.87
570.357	2.79
570.78	3.56
571.204	3.52
571.627	3.3
572.05	3.43
572.474	3.68
572.897	4.08
573.32	4.7
573.743	4.63
574.166	5.24
574.589	4.93
575.012	5.03
575.435	4.72
575.858	4.91
576.281	4.68
576.704	4.32
577.126	3.67
577.549	3.5
577.972	3.35
578.394	3.99
578.817	5.67
579.239	5.58
579.661	5.52
580.084	6.27
580.506	5.03
580.928	4.81
581.35	5.23
581.772	5.66
582.194	5.96
582.616	5.52
583.038	4.85
583.46	2.95
583.882	3.16
584.303	2.57
584.725	2.25
585.147	6.43
585.568	7.14
585.99	7.3
586.411	7.73
586.833	7.29
587.254	7.99
587.675	8.07
588.096	8.35
588.518	7.96
588.939	8.33
589.36	7.92
589.781	4.29
590.202	5.84
590.623	6.46
591.043	5.92
591.464	5.56
591.885	5.66
592.305	5.8
592.726	5.44
593.147	5.65
593.567	6.46
593.987	6.87
594.408	6.23
594.828	4.08
595.248	3.48
595.669	4.5
596.089	5.1
596.509	4.31
596.929	4.06
597.349	4.17
597.769	3.94
598.189	3.65
598.608	2.79
599.028	3.19
599.448	3.08
599.867	2.9
600.287	1.72
600.706	2.06
601.126	2.79
601.545	3.55
601.965	3.69
602.384	3.77
602.803	3.37
603.222	4.01
603.641	3.79
604.061	4.39
604.48	4.62
604.898	4.77
605.317	3.88
605.736	3.59
606.155	3.68
606.574	3.57
606.992	3.83
607.411	4.16
607.829	3.14
608.248	2.91
608.666	2.44
609.085	2.66
609.503	2.55
609.921	3.58
610.339	4.03
610.758	3.46
611.176	3.5
611.594	3.27
612.012	3.35
612.43	4.22
612.847	4.72
613.265	5.67
613.683	5.3
614.101	5.84
614.518	4.97
614.936	4.52
615.353	5.46
615.771	5.99
616.188	6.26
616.606	5.9
617.023	6.08
617.44	5.66
617.857	4.89
618.274	5
618.691	4.59
619.108	4.75
619.525	4.08
619.942	3.49
620.359	3.11
620.776	2.81
621.192	3.76
621.609	4.46
622.026	5.2
622.442	5.54
622.859	5.28
623.275	5.55
623.691	5.58
624.108	6.49
624.524	6.35
624.94	6.34
625.356	6.37
625.772	5.61
626.188	4.27
626.604	4.02
627.02	3.57
627.436	3.6
627.852	4.09
628.268	4.55
628.683	4.42
629.099	4.48
629.514	3.96
629.93	3.53
630.345	3.15
630.761	3.61
631.176	3.14
631.591	5.09
632.007	5.54
632.422	4.65
632.837	3.55
633.252	4.15
633.667	4.46
634.082	4.69
634.497	5.34
634.911	6.97
635.326	6.94
635.741	7.39
636.155	6
636.57	6.07
636.984	6.01
637.399	7.33
637.813	6.61
638.228	6.34
638.642	6.56
639.056	6.47
639.47	5.75
639.884	6.05
640.298	6.06
640.712	6.45
641.126	5.9
641.54	5.8
641.954	3.34
642.368	3.46
642.781	5.49
643.195	5.55
643.609	5.92
644.022	5.8
644.436	5.3
644.849	4.81
645.262	4.55
645.676	4.39
646.089	4.67
646.502	7.1
646.915	6.69
647.328	5.5
647.741	5.73
648.154	5.99
648.567	7.82
648.98	8.71
649.393	9.22
649.805	8.77
650.218	8.61
650.631	9.22
651.043	8.96
651.456	9.32
651.868	8.84
652.28	8.21
652.693	7.32
653.105	6.24
653.517	5.96
653.929	5.95
654.341	6.59
654.753	8.06
655.165	7.91
655.577	8.44
655.989	8.4
656.401	8.18
656.813	9.09
657.224	8.97
657.636	8.04
658.047	8.77
658.459	8.2
658.87	6.76
659.282	5.74
659.693	6.05
660.104	5.58
660.515	5.64
660.926	4.74
661.338	4.34
661.749	3.99
662.159	4.61
662.57	3.02
662.981	3.25
663.392	3.91
663.803	3.81
664.213	2.7
664.624	2.67
665.035	2.3
665.445	2.89
665.855	3.27
666.266	4.34
666.676	4.2
667.086	4.1
667.497	4.87
667.907	5.48
668.317	5.66
668.727	8.94
669.137	7.89
669.547	7.91
669.956	8.12
670.366	7.67
670.776	8.11
671.186	7.86
671.595	7.87
672.005	6.52
672.414	7.16
672.824	6.98
673.233	4.9
673.642	5.42
674.052	6.1
674.461	6.86
674.87	7.25
675.279	6.57
675.688	5.2
676.097	6.74
676.506	6.76
676.915	6.01
677.323	6.49
677.732	5.73
678.141	5.44
678.549	5.26
678.958	3.94
679.366	3.36
679.775	3.39
680.183	5.46
680.592	5.27
681	6.11
681.408	6.12
681.816	5.97
682.224	6.28
682.632	7.86
683.04	8.1
683.448	7.84
683.856	8.97
684.264	9.78
684.671	8.76
685.079	8.48
685.487	8.47
685.894	7.21
686.302	6.46
686.709	7.25
687.116	5.97
687.524	6.34
687.931	8.39
688.338	8.15
688.745	6.84
689.152	6.47
689.559	6.76
689.966	8
690.373	10.11
690.78	11.49
691.187	10.65
691.593	12.33
692	12.55
692.407	12.49
692.813	14.42
693.22	16.13
693.626	15.76
694.032	15.4
694.439	14.9
694.845	13.86
695.251	12.5
695.657	13.42
696.063	10.37
696.469	9.99
696.875	9.87
697.281	8.79
697.687	7.99
698.093	8.5
698.498	8.86
698.904	7.72
699.31	8.24
699.715	10.23
700.12	9.01
700.526	11.17
700.931	10.14
701.337	10.61
701.742	10.63
702.147	10.2
702.552	11.15
702.957	9.95
703.362	9.87
703.767	9.25
704.172	8.4
704.577	8.51
704.981	7.17
705.386	7.8
705.791	6.95
706.195	5.46
706.6	5.33
707.004	2.94
707.408	2.68
707.813	3.8
708.217	4.52
708.621	4.15
709.025	3.88
709.43	5.35
709.834	5.33
710.237	5.07
710.641	5.76
711.045	6.19
711.449	8.42
711.853	11.42
712.256	10.88
712.66	10.97
713.064	11.7
713.467	13.5
713.87	13.6
714.274	14.93
714.677	16
715.08	16.75
715.484	16.63
715.887	18.01
716.29	15.55
716.693	16.73
717.096	18
717.499	19.15
717.901	17.01
718.304	16.83
718.707	15.5
719.109	15.13
719.512	14.24
719.915	16.01
720.317	14.2
720.719	14.42
721.122	14.1
721.524	12.69
721.926	14.64
722.328	15.89
722.731	14.82
723.133	14.76
723.535	14.74
723.937	15.24
724.338	16.04
724.74	17.41
725.142	54.89
725.544	56.91
725.945	65.79
726.347	62.21
726.748	62.01
727.15	63.32
727.551	65.69
727.952	64.32
728.354	62.89
728.755	61.38
729.156	60.67
729.557	24.36
729.958	21.18
730.359	13.55
730.76	13.71
731.161	13.51
731.562	12.32
731.962	9.28
732.363	10.33
732.763	10.42
733.164	9.42
733.564	10.01
733.965	11.46
734.365	12.04
734.766	11.11
735.166	11.19
735.566	12.66
735.966	13.78
736.366	14.76
736.766	14.04
737.166	14.2
737.566	14.17
737.966	13.62
738.365	13.53
738.765	14.85
739.165	15.31
739.564	15.38
739.964	12.95
740.363	11.76
740.763	11.21
741.162	12.16
741.561	11.49
741.96	12.07
742.36	11.21
742.759	10.1
743.158	9.29
743.557	8.09
743.955	7.63
744.354	7.57
744.753	7.14
745.152	6.72
745.55	5.54
745.949	5.74
746.348	5.15
746.746	3.88
747.144	5.54
747.543	4.68
747.941	5.43
748.339	4.96
748.737	6.37
749.136	7.32
749.534	7.08
749.932	8.54
750.33	8.29
750.727	8.28
751.125	9.87
751.523	9.35
751.921	11.19
752.318	11.48
752.716	13.15
753.113	12.52
753.511	13.12
753.908	14.47
754.305	16.68
754.703	16.57
755.1	17.35
755.497	17.23
755.894	15.98
756.291	14.71
756.688	15.55
757.085	14.95
757.482	16.42
757.878	17.37
758.275	18.92
758.672	14.82
759.068	16.74
759.465	16.96
759.861	18.42
760.258	21.11
760.654	21.67
761.05	22.47
761.447	21.12
761.843	19.56
762.239	17.13
762.635	14.47
763.031	13.11
763.427	12.59
763.822	12.42
764.218	11.66
764.614	10.67
765.01	10.25
765.405	8.62
765.801	8.34
766.196	7.66
766.592	7.72
766.987	8.62
767.382	8.82
767.778	8.57
768.173	7.94
768.568	7.72
