Data from N_1_DEC_CT_2N_Splice17_11-34-59-835.txt Node
Date: Sat Mar 14 11:34:59 EDT 2020
User: sa697716
Spectrometer: FLMS03696
Trigger mode: 0
Integration Time (sec): 3.180400E-1
Scans to average: 20
Electric dark correction enabled: true
Nonlinearity correction enabled: true
Boxcar width: 5
XAxis mode: Wavelengths
Number of Pixels in Spectrum: 2048
>>>>>Begin Spectral Data<<<<<
187.83	-125896.42
188.298	1106.32
188.766	660.03
189.233	629.11
189.701	823.91
190.169	1189.46
190.636	423.99
191.104	409.46
191.571	95.27
192.039	-9.67
192.506	-64.07
192.974	347.19
193.441	-509.19
193.908	-72.18
194.375	52.2
194.842	55.12
195.31	154.64
195.777	135.01
196.244	256.28
196.711	149.23
197.177	121.34
197.644	76.63
198.111	100.73
198.578	138.99
199.045	119.53
199.511	126.39
199.978	106.9
200.445	110.83
200.911	76.06
201.378	20.05
201.844	66.47
202.31	76.13
202.777	71.16
203.243	45.82
203.709	48.56
204.176	30.13
204.642	36.87
205.108	61.2
205.574	30.96
206.04	15.12
206.506	13.7
206.972	-16.53
207.438	-26.21
207.903	-23.78
208.369	5.5
208.835	22.86
209.301	25.13
209.766	6.01
210.232	-16.29
210.697	-32.28
211.163	-62.68
211.628	-113.85
212.094	-40.94
212.559	42.69
213.024	37.61
213.49	42.26
213.955	11.82
214.42	-34.15
214.885	-21.5
215.35	9.3
215.815	82.31
216.28	99.75
216.745	72.46
217.21	94.89
217.675	51.28
218.14	52.79
218.604	36.49
219.069	47.76
219.534	92.81
219.998	88.18
220.463	87.12
220.927	21.06
221.392	23.03
221.856	25.71
222.32	-28.65
222.785	1.77
223.249	-22.41
223.713	-7.06
224.177	-30.87
224.642	-115.11
225.106	-149.98
225.57	-211.13
226.034	-82.69
226.497	-144.01
226.961	-52.95
227.425	-37.33
227.889	-136.87
228.353	-129.35
228.816	-384.98
229.28	-250.79
229.744	-203.22
230.207	-55.3
230.671	-37.23
231.134	-238.05
231.597	-199.47
232.061	-274.29
232.524	-283.27
232.987	-165.66
233.45	-94.16
233.914	-79.92
234.377	-128.68
234.84	-115
235.303	-182.97
235.766	-188.48
236.229	-184.86
236.691	-144.74
237.154	-179.34
237.617	-121.07
238.08	-135.79
238.542	-175.66
239.005	-99.17
239.468	-82.41
239.93	-74.07
240.393	-51.17
240.855	-38.2
241.317	-47.36
241.78	-59.02
242.242	-41.47
242.704	-9.92
243.166	11.25
243.629	36.59
244.091	30.37
244.553	31.8
245.015	59.03
245.477	66.05
245.939	62.38
246.4	64.71
246.862	45.5
247.324	29.79
247.786	-42.95
248.247	-111.4
248.709	-248.21
249.17	-152
249.632	-97.03
250.093	-110.83
250.555	-121.91
251.016	-31.92
251.477	-35.17
251.939	-36.74
252.4	-69.5
252.861	-93.04
253.322	-38.72
253.783	-62.76
254.244	-129.52
254.705	-161.88
255.166	-173.19
255.627	-155.2
256.088	-212.3
256.549	-196.7
257.009	-185.19
257.47	-199.28
257.931	-156.87
258.391	-118.53
258.852	-117.91
259.312	-123.02
259.773	-153.23
260.233	-68.08
260.694	-30.61
261.154	-63.9
261.614	2.1
262.074	20.3
262.534	27.36
262.994	35.24
263.455	14.6
263.915	45.78
264.374	46.38
264.834	62.98
265.294	27.61
265.754	36.05
266.214	32.9
266.673	28.93
267.133	9.9
267.593	18.53
268.052	9.52
268.512	-0.42
268.971	40.73
269.431	43.19
269.89	42.39
270.349	67.76
270.809	57.1
271.268	38.77
271.727	-96.55
272.186	-46.56
272.645	-56.43
273.104	-61.32
273.563	-88.93
274.022	-179.34
274.481	-127.31
274.94	-102.38
275.399	-89.35
275.857	-128.77
276.316	-201.34
276.775	-171.2
277.233	-164.68
277.692	-142.42
278.15	-136.45
278.609	-93.24
279.067	-72.78
279.525	-37.45
279.984	-60.37
280.442	-61.04
280.9	24.25
281.358	29.82
281.816	13.53
282.274	20.45
282.732	-7.49
283.19	-22.19
283.648	-39.28
284.106	-41.85
284.564	-74.96
285.021	-49.62
285.479	-35.44
285.937	-65.93
286.394	-25.91
286.852	-19.18
287.309	-26.39
287.767	9.86
288.224	18.71
288.682	11.47
289.139	6.51
289.596	21.92
290.053	2.57
290.511	-20.86
290.968	-14.26
291.425	-76.76
291.882	-24.58
292.339	-3.12
292.796	-51.53
293.252	-61.12
293.709	-22.6
294.166	-5.7
294.623	-32.06
295.079	-37.85
295.536	-5.28
295.992	1
296.449	7.18
296.905	20.3
297.362	43.35
297.818	45.83
298.274	75.66
298.731	64.44
299.187	62.6
299.643	81.06
300.099	90.38
300.555	83.19
301.011	108.45
301.467	145.09
301.923	115.54
302.379	95.37
302.835	91.63
303.291	71.39
303.746	67.29
304.202	73.7
304.658	51.36
305.113	73.11
305.569	87.67
306.024	34.68
306.479	-37.59
306.935	-13.81
307.39	-61.79
307.845	-35.97
308.301	-7.46
308.756	-4.82
309.211	4.96
309.666	-4.43
310.121	16.22
310.576	-33.96
311.031	-39.74
311.486	-53.54
311.94	-83.56
312.395	-94.04
312.85	-312.49
313.305	-2624.87
313.759	-9371.73
314.214	-911.6
314.668	-656.25
315.123	-530.57
315.577	-135.7
316.032	-129.19
316.486	-186.8
316.94	-115.67
317.394	-57.29
317.849	-25.91
318.303	-29.97
318.757	-36.73
319.211	-35.28
319.665	-26.81
320.119	-35.57
320.572	-65.49
321.026	-42.5
321.48	-17.9
321.934	-42.07
322.387	-45.12
322.841	-36.94
323.295	21.66
323.748	-14.21
324.202	3.99
324.655	26.54
325.108	74.03
325.562	74.28
326.015	76.23
326.468	78.37
326.921	113.95
327.374	148.05
327.827	169.92
328.28	157.93
328.733	135.49
329.186	133.81
329.639	111.98
330.092	99.18
330.545	106.34
330.997	118.17
331.45	155.45
331.903	189.08
332.355	240.23
332.808	203.16
333.26	172.18
333.713	188.41
334.165	163.2
334.617	178.55
335.069	36.3
335.522	-86.72
335.974	-164.57
336.426	-298.1
336.878	-312.39
337.33	-125.42
337.782	-107.59
338.234	-106.31
338.686	-145.2
339.137	-160.67
339.589	-135
340.041	-63.87
340.493	-52.31
340.944	-39.1
341.396	-27.92
341.847	24.53
342.299	73.82
342.75	94.15
343.201	6.44
343.653	-26.94
344.104	-86.71
344.555	-47.86
345.006	-119.7
345.457	7.87
345.908	-18.03
346.359	15.54
346.81	12.01
347.261	-39.69
347.712	-52.02
348.163	-29.62
348.613	35.37
349.064	54.57
349.515	55.19
349.965	69.13
350.416	41.43
350.866	46.85
351.317	15.76
351.767	15.21
352.217	23.71
352.668	20.95
353.118	9.41
353.568	-88.13
354.018	-32.63
354.468	-15.5
354.918	-1.06
355.368	16.86
355.818	24.16
356.268	-41.64
356.718	220.31
357.168	188.06
357.617	122.87
358.067	136.38
358.517	126.88
358.966	170.61
359.416	193.74
359.865	83.26
360.315	38.6
360.764	48.34
361.213	44.47
361.663	-4.32
362.112	-72.55
362.561	-162.66
363.01	-109.31
363.459	-94.54
363.908	-138.08
364.357	-80.97
364.806	-113.49
365.255	-83.99
365.703	-45.05
366.152	-31.3
366.601	3.84
367.05	56.42
367.498	66.81
367.947	45.04
368.395	57.16
368.844	65.89
369.292	14.58
369.74	44.81
370.189	43.37
370.637	16.93
371.085	5.27
371.533	-7.47
371.981	-52.56
372.429	-45.1
372.877	-47.51
373.325	-43.41
373.773	-83.88
374.221	-73.85
374.669	-126.21
375.116	-82.12
375.564	-59.36
376.012	-63.54
376.459	-29.77
376.907	-46.54
377.354	-83.38
377.801	-48.48
378.249	-24.96
378.696	-50.42
379.143	-27.09
379.591	-28.62
380.038	-93.71
380.485	-73.85
380.932	-124.13
381.379	-45.79
381.826	70.5
382.273	42.53
382.72	18.39
383.166	10.63
383.613	34.37
384.06	21.89
384.506	9.96
384.953	-4.05
385.4	-11.62
385.846	-16.28
386.292	-39.95
386.739	-68.68
387.185	-68.09
387.631	-63.4
388.078	-35.72
388.524	-38.67
388.97	-36.9
389.416	-8.88
389.862	2.2
390.308	4.55
390.754	10.68
391.2	0.44
391.645	0.14
392.091	39.74
392.537	46.44
392.983	13.79
393.428	41.41
393.874	43.22
394.319	40.3
394.765	57.14
395.21	51.37
395.655	51.62
396.101	55.95
396.546	60.38
396.991	30.42
397.436	27.8
397.881	24.99
398.326	2.44
398.771	10.98
399.216	-0.12
399.661	-3.2
400.106	0.54
400.551	3.61
400.995	5.71
401.44	1.77
401.885	2.56
402.329	0.6
402.774	8.32
403.218	20.64
403.663	16.76
404.107	23.95
404.551	25.72
404.995	23.02
405.44	17.85
405.884	12.5
406.328	6.04
406.772	5.07
407.216	3.48
407.66	-1.11
408.104	-11.18
408.547	-9.75
408.991	-11.59
409.435	-13.62
409.879	-9.05
410.322	-6.23
410.766	0.04
411.209	7.47
411.653	8.4
412.096	12.29
412.54	11.18
412.983	13.69
413.426	16.65
413.869	15.11
414.312	17.55
414.756	12.75
415.199	12.45
415.642	13.38
416.085	12.57
416.527	12.78
416.97	9.97
417.413	10.41
417.856	8.04
418.298	6.15
418.741	3.23
419.184	0.12
419.626	-3.73
420.069	-5.66
420.511	-6.8
420.953	-5.34
421.396	-7.27
421.838	-8.53
422.28	-8.25
422.722	-4.19
423.164	-4.32
423.606	-1.96
424.048	-3.33
424.49	2.28
424.932	2.19
425.374	0.3
425.816	-2.79
426.258	-3.98
426.699	-2.11
427.141	1.29
427.582	-2.81
428.024	-4.24
428.465	-5.77
428.907	-4.13
429.348	-6.78
429.789	-3.18
430.231	-0.13
430.672	1.06
431.113	4.21
431.554	3.03
431.995	0.27
432.436	3.9
432.877	4.4
433.318	7.65
433.759	5.77
434.2	5.64
434.64	1.87
435.081	2.24
435.522	1.76
435.962	0.63
436.403	3.33
436.843	0.77
437.284	-1.89
437.724	-4.23
438.164	-6.78
438.604	-7.72
439.045	-5.24
439.485	-0.51
439.925	-3.24
440.365	-2.26
440.805	-2.23
441.245	-0.81
441.685	1.45
442.125	1.74
442.564	2.07
443.004	3.18
443.444	4.43
443.883	4.73
444.323	0.82
444.762	-2.61
445.202	-4.8
445.641	-2.44
446.081	-6.47
446.52	-6.31
446.959	-5.22
447.398	-3.18
447.837	-2.88
448.276	-3.76
448.716	-2.7
449.154	-4.96
449.593	-0.68
450.032	1.09
450.471	-2.26
450.91	-1.2
451.349	-0.49
451.787	-1.54
452.226	-3.06
452.664	-4.21
453.103	-4.67
453.541	-7.58
453.98	-4.1
454.418	-4.74
454.856	-3.97
455.295	-2.41
455.733	-1.54
456.171	-0.89
456.609	0.17
457.047	2.07
457.485	3.68
457.923	7.18
458.361	7.26
458.798	5.94
459.236	6.39
459.674	5.52
460.111	5.49
460.549	4.66
460.987	2.51
461.424	2.08
461.862	1.26
462.299	2.1
462.736	2.05
463.173	1.74
463.611	5.22
464.048	5.69
464.485	6.37
464.922	5.69
465.359	5.11
465.796	13.13
466.233	14.41
466.67	17.02
467.106	17.74
467.543	15.54
467.98	14.78
468.416	12.49
468.853	11.18
469.29	11.03
469.726	10.64
470.162	10.85
470.599	4.6
471.035	2.14
471.471	0.41
471.907	-2.85
472.344	-2.31
472.78	-1.38
473.216	-2.42
473.652	-2.36
474.088	-3.31
474.523	-2.81
474.959	-3.55
475.395	-3.36
475.831	-2.34
476.266	-2.01
476.702	-1.29
477.138	-1.15
477.573	-1.63
478.008	-0.79
478.444	-0.04
478.879	2.07
479.314	2.76
479.75	3.26
480.185	2.83
480.62	2.41
481.055	2.03
481.49	2.7
481.925	2.89
482.36	5.01
482.795	3.87
483.229	2.98
483.664	1.41
484.099	1.14
484.534	1.17
484.968	1.88
485.403	1.37
485.837	0.14
486.271	-0.28
486.706	-1.19
487.14	-2.41
487.574	-1.57
488.009	-0.89
488.443	-0.93
488.877	-0.44
489.311	-0.82
489.745	-1.1
490.179	-0.25
490.613	1.93
491.046	1.74
491.48	2.24
491.914	2.48
492.348	2.56
492.781	2.68
493.215	2.98
493.648	2.43
494.082	2.77
494.515	3.03
494.948	3.87
495.382	2.58
495.815	3.16
496.248	3.6
496.681	3.3
497.114	2.1
497.547	2.09
497.98	2.84
498.413	3.91
498.846	4.3
499.279	3.64
499.711	2.62
500.144	1.87
500.577	2.1
501.009	1.4
501.442	2.38
501.874	3.84
502.306	3.36
502.739	5.21
503.171	4.61
503.603	4.66
504.036	4.62
504.468	4.28
504.9	4.75
505.332	4.5
505.764	5.03
506.196	4.52
506.627	4.28
507.059	4.41
507.491	1.39
507.923	1.02
508.354	0.83
508.786	0.86
509.217	1.19
509.649	1.66
510.08	0.87
510.512	1.28
510.943	1.37
511.374	1.62
511.805	1.02
512.237	0.93
512.668	0.61
513.099	0.24
513.53	0.34
513.961	0.67
514.391	0.12
514.822	2.12
515.253	2.03
515.684	2.03
516.114	1.87
516.545	2.65
516.975	2.82
517.406	2.51
517.836	2.4
518.267	2.68
518.697	3.13
519.127	3.15
519.558	1.98
519.988	1.01
520.418	0.21
520.848	-0.6
521.278	-1.04
521.708	18.63
522.138	19.35
522.567	18.75
522.997	18.74
523.427	17.44
523.857	17.58
524.286	17.74
524.716	18.45
525.145	18.81
525.575	19.77
526.004	19.62
526.433	0.93
526.863	0.45
527.292	2.37
527.721	2.73
528.15	3.21
528.579	3.23
529.008	3.13
529.437	2.14
529.866	1.74
530.295	1.12
530.724	2.14
531.152	1.63
531.581	1.93
532.01	0.7
532.438	0.23
532.867	0.05
533.295	0.85
533.723	0.89
534.152	1.47
534.58	2.06
535.008	2.65
535.436	2.77
535.865	2.3
536.293	1.94
536.721	1.93
537.149	1.92
537.576	2.65
538.004	2.29
538.432	1.49
538.86	2.08
539.287	1.23
539.715	0.97
540.143	0.41
540.57	1.38
540.998	1.49
541.425	3.02
541.852	3.23
542.28	2.95
542.707	2.56
543.134	2.94
543.561	2.68
543.988	3.37
544.415	2.95
544.842	2.63
545.269	2.07
545.696	2.61
546.123	1.79
546.549	1.48
546.976	1.6
547.403	1.29
547.829	0.97
548.256	0.73
548.682	0.63
549.108	1.59
549.535	1.47
549.961	1.67
550.387	1.53
550.813	2.07
551.24	2.04
551.666	1.44
552.092	1.86
552.518	1.82
552.943	2.5
553.369	2.19
553.795	2.01
554.221	2.73
554.646	2.55
555.072	3.29
555.498	2.39
555.923	2.19
556.349	2.27
556.774	1.96
557.199	1.73
557.625	0.08
558.05	0.66
558.475	0.41
558.9	-0.33
559.325	-0.15
559.75	-0.51
560.175	-0.53
560.6	-0.42
561.025	-0.63
561.449	-0.54
561.874	-0.47
562.299	0.43
562.723	0.04
563.148	-0.64
563.572	-0.65
563.997	-0.54
564.421	-1.44
564.846	-1.93
565.27	-1.69
565.694	-1.35
566.118	-1.49
566.542	-0.5
566.966	-0.15
567.39	0.13
567.814	1.13
568.238	1.61
568.662	1.21
569.086	1.12
569.509	1.18
569.933	2.14
570.357	2.05
570.78	2.07
571.204	2.65
571.627	2.67
572.05	2.09
572.474	2.35
572.897	2.33
573.32	3.15
573.743	2.85
574.166	3.23
574.589	1.97
575.012	2.08
575.435	2.09
575.858	1.69
576.281	1.38
576.704	1.5
577.126	0.93
577.549	0.27
577.972	-0.7
578.394	-0.01
578.817	1.75
579.239	1.71
579.661	1.92
580.084	3.05
580.506	2.86
580.928	2.67
581.35	2.81
581.772	2.84
582.194	3.25
582.616	3.02
583.038	2.16
583.46	0.27
583.882	0.74
584.303	-0.26
584.725	-1.49
585.147	2.26
585.568	2.83
585.99	3.84
586.411	3.92
586.833	4.15
587.254	4.69
587.675	5.12
588.096	5.7
588.518	5.66
588.939	6.52
589.36	6.92
589.781	2.15
590.202	4.46
590.623	3.65
591.043	3.21
591.464	2.9
591.885	3.38
592.305	3.12
592.726	2.72
593.147	3.09
593.567	2.91
593.987	3.24
594.408	3.26
594.828	0.48
595.248	0.76
595.669	1.96
596.089	2.38
596.509	1.95
596.929	1.98
597.349	2.24
597.769	1.93
598.189	2.21
598.608	1.99
599.028	2.37
599.448	2.09
599.867	2.13
600.287	0.94
600.706	0.93
601.126	1.33
601.545	2.1
601.965	1.86
602.384	1.36
602.803	1.19
603.222	1.63
603.641	1.44
604.061	2.14
604.48	2.02
604.898	2.11
605.317	1.82
605.736	1.43
606.155	1.67
606.574	1.66
606.992	1.81
607.411	2.18
607.829	0.84
608.248	0.51
608.666	-0.13
609.085	0.21
609.503	0.03
609.921	0.85
610.339	1.48
610.758	0.58
611.176	0.77
611.594	1.76
612.012	1.29
612.43	2.74
612.847	2.86
613.265	4.1
613.683	3.36
614.101	3.46
614.518	2.02
614.936	1.15
615.353	2.28
615.771	2.29
616.188	1.69
616.606	1.67
617.023	1.37
617.44	1.58
617.857	0.73
618.274	1.21
618.691	1.55
619.108	2.28
619.525	2.78
619.942	2.66
620.359	2.62
620.776	2.46
621.192	2.96
621.609	3.39
622.026	3.75
622.442	3.93
622.859	3.2
623.275	2.68
623.691	2.51
624.108	2.45
624.524	2.03
624.94	1.44
625.356	1.33
625.772	0.68
626.188	-0.61
626.604	-0.71
627.02	-1.23
627.436	-0.47
627.852	1.08
628.268	1.41
628.683	0.74
629.099	0.46
629.514	0.34
629.93	-0.16
630.345	-0.01
630.761	0.17
631.176	-0.11
631.591	2.05
632.007	2.11
632.422	0.16
632.837	-0.49
633.252	0.85
633.667	0.59
634.082	0.83
634.497	1.89
634.911	3.67
635.326	4
635.741	4.1
636.155	2.33
636.57	3.63
636.984	4.78
637.399	6.3
637.813	5.13
638.228	5.73
638.642	5.79
639.056	5.58
639.47	4.22
639.884	4.54
640.298	4.51
640.712	5.36
641.126	4.11
641.54	3.38
641.954	0.59
642.368	1.6
642.781	3.51
643.195	4.22
643.609	4.26
644.022	4.09
644.436	2.83
644.849	2.74
645.262	2.05
645.676	1.2
646.089	1.16
646.502	3.35
646.915	2.12
647.328	1.04
647.741	0.95
648.154	1.04
648.567	3.1
648.98	4.69
649.393	4.54
649.805	5.1
650.218	4.73
650.631	5.8
651.043	5.2
651.456	6.27
651.868	5.32
652.28	3.83
652.693	3.5
653.105	1.64
653.517	0.86
653.929	1.74
654.341	1.63
654.753	3.14
655.165	2.01
655.577	2.62
655.989	2.31
656.401	2.17
656.813	4.23
657.224	3.79
657.636	3.32
658.047	4.98
658.459	4.79
658.87	3.68
659.282	2.87
659.693	4.34
660.104	4.3
660.515	4.24
660.926	3.54
661.338	2.98
661.749	3
662.159	4.43
662.57	2.39
662.981	2.67
663.392	2.85
663.803	2.24
664.213	1.16
664.624	1.02
665.035	-0.04
665.445	0.15
665.855	0.71
666.266	1.7
666.676	0.92
667.086	0.83
667.497	0.25
667.907	0.41
668.317	1.03
668.727	3.51
669.137	2.24
669.547	2.84
669.956	2.56
670.366	2.42
670.776	2.01
671.186	1.86
671.595	1.94
672.005	1.57
672.414	1.96
672.824	3.06
673.233	0.69
673.642	1.33
674.052	1.83
674.461	3.29
674.87	3.18
675.279	3.83
675.688	2.13
676.097	3.74
676.506	3.6
676.915	2.73
677.323	2.56
677.732	2.12
678.141	2.49
678.549	2.62
678.958	1.17
679.366	-0.57
679.775	-2.33
680.183	-0.06
680.592	-1.21
681	-0.62
681.408	-0.12
681.816	-1.65
682.224	-2.54
682.632	-1.39
683.04	-2.27
683.448	-1.2
683.856	0.82
684.264	3.38
684.671	2.25
685.079	2.18
685.487	1.7
685.894	1.47
686.302	1.32
686.709	2.88
687.116	2.34
687.524	3.81
687.931	3.95
688.338	3.98
688.745	1.69
689.152	1.29
689.559	1.36
689.966	2.65
690.373	2.72
690.78	4.8
691.187	5.11
691.593	5.51
692	5.58
692.407	5.71
692.813	7.2
693.22	8.37
693.626	7.84
694.032	8.41
694.439	9.06
694.845	8.99
695.251	7.05
695.657	7.31
696.063	5.31
696.469	4.81
696.875	5.37
697.281	3.71
697.687	1.97
698.093	2.1
698.498	1.85
698.904	-0.41
699.31	-0.13
699.715	2.6
700.12	2.31
700.526	3.63
700.931	2.79
701.337	2.65
701.742	3.42
702.147	4.69
702.552	5.81
702.957	5.07
703.362	6.28
703.767	6.07
704.172	3.82
704.577	3.02
704.981	1.45
705.386	1.55
705.791	1.2
706.195	-0.03
706.6	-0.33
707.004	-2.19
707.408	-2.11
707.813	-1.29
708.217	-0.05
708.621	0.35
709.025	0.72
709.43	3.46
709.834	4.18
710.237	3.62
710.641	3.4
711.045	4.54
711.449	6.7
711.853	9.71
712.256	8.2
712.66	7.42
713.064	7.8
713.467	8.12
713.87	7.78
714.274	7.51
714.677	8.23
715.08	8.39
715.484	7.72
715.887	9.99
716.29	6.72
716.693	8.64
717.096	8.58
717.499	8.3
717.901	8
718.304	6.85
718.707	5.85
719.109	5.3
719.512	5
719.915	7.86
720.317	5.9
720.719	5.68
721.122	3.1
721.524	3.03
721.926	7.35
722.328	7.43
722.731	7.14
723.133	6.74
723.535	5.72
723.937	6.56
724.338	5.5
724.74	5.79
725.142	53.15
725.544	58.17
725.945	69.71
726.347	65.72
726.748	66.41
727.15	67.94
727.551	72.47
727.952	72.57
728.354	70.65
728.755	69.72
729.156	67.91
729.557	21.69
729.958	17.32
730.359	7.36
730.76	7.12
731.161	6.54
731.562	3.98
731.962	0.22
732.363	0.68
732.763	1.37
733.164	-0.19
733.564	0.77
733.965	1.57
734.365	2.48
734.766	1.96
735.166	2.55
735.566	3.33
735.966	5.51
736.366	6.3
736.766	6.74
737.166	5.86
737.566	6.28
737.966	5.96
738.365	6.45
738.765	7.19
739.165	7.23
739.564	6.69
739.964	4.86
740.363	3.07
740.763	1.21
741.162	1.74
741.561	2.66
741.96	3.55
742.36	2.54
742.759	2.09
743.158	0.31
743.557	-0.38
743.955	-0.95
744.354	-0.14
744.753	-0.57
745.152	1.01
745.55	-0.62
745.949	-0.27
746.348	-0.91
746.746	-1.91
747.144	0.74
747.543	0.91
747.941	-0.28
748.339	0.25
748.737	1.97
749.136	3.8
749.534	2.58
749.932	4.34
750.33	3.75
750.727	3.23
751.125	4.83
751.523	3.1
751.921	5.86
752.318	7.73
752.716	9.38
753.113	8.08
753.511	6.91
753.908	7.93
754.305	10.97
754.703	11.39
755.1	11.87
755.497	11.85
755.894	11.72
756.291	9.23
756.688	9.74
757.085	7.96
757.482	7.99
757.878	11.39
758.275	12.27
758.672	4.68
759.068	3.28
759.465	0.69
759.861	-1.29
760.258	-5.04
760.654	-8.56
761.05	-6.89
761.447	-8.6
761.843	-6.54
762.239	-7.78
762.635	-8.7
763.031	-8.02
763.427	-5.82
763.822	-2.9
764.218	-2.68
764.614	-1.33
765.01	-1.35
765.405	-3.17
765.801	-1.07
766.196	-1.72
766.592	-2.14
766.987	-1.47
767.382	-1.38
767.778	-1.82
768.173	-3.27
768.568	-2.11
768.963	-1.3
769.358	-0.4
769.753	0.99
770.148	0.81
770.542	0.63
