Data from N_1_HIR_WI_4N_Splice17_11-39-29-931.txt Node
Date: Sat Mar 14 11:39:29 EDT 2020
User: sa697716
Spectrometer: FLMS03696
Trigger mode: 0
Integration Time (sec): 3.180400E-1
Scans to average: 20
Electric dark correction enabled: true
Nonlinearity correction enabled: true
Boxcar width: 5
XAxis mode: Wavelengths
Number of Pixels in Spectrum: 2048
>>>>>Begin Spectral Data<<<<<
187.83	-159746.47
188.298	1289.41
188.766	736.42
189.233	714.87
189.701	969.35
190.169	1230.63
190.636	423.23
191.104	366.94
191.571	70.78
192.039	-4.36
192.506	-0.06
192.974	334.62
193.441	-657.46
193.908	-66.16
194.375	65.23
194.842	127.6
195.31	152.33
195.777	135.05
196.244	221.56
196.711	118.76
197.177	89.99
197.644	37.89
198.111	48.68
198.578	54.93
199.045	6.71
199.511	-61.77
199.978	-161.99
200.445	-97.14
200.911	-146.44
201.378	-239.04
201.844	-176.94
202.31	-336.22
202.777	-331.55
203.243	-200.73
203.709	-179.57
204.176	-210.88
204.642	-144.75
205.108	-143.59
205.574	-146.78
206.04	-161.82
206.506	-157.99
206.972	-173.86
207.438	-160.24
207.903	-183.21
208.369	-121.02
208.835	-108.61
209.301	-110.09
209.766	-135.69
210.232	-121.13
210.697	-162.15
211.163	-195.02
211.628	-271.04
212.094	-212.5
212.559	-157.78
213.024	-72.52
213.49	-78.04
213.955	-99.11
214.42	-140.71
214.885	-103.03
215.35	-95.72
215.815	10.69
216.28	27.53
216.745	16.56
217.21	45.99
217.675	-4.15
218.14	-14.22
218.604	-44.37
219.069	-36.9
219.534	5.96
219.998	-16.98
220.463	-11.61
220.927	-103.52
221.392	-109.65
221.856	-89.78
222.32	-146.41
222.785	-157.66
223.249	-185.01
223.713	-197.96
224.177	-190.75
224.642	-296.93
225.106	-383.29
225.57	-443.42
226.034	-275.64
226.497	-387.32
226.961	-294.75
227.425	-297.47
227.889	-345.69
228.353	-385.38
228.816	-755.68
229.28	-707.83
229.744	-581.72
230.207	-252.25
230.671	-188.46
231.134	-418.7
231.597	-437.03
232.061	-488.97
232.524	-574.99
232.987	-385.01
233.45	-278.24
233.914	-239.43
234.377	-264.9
234.84	-232.59
235.303	-343.8
235.766	-427.44
236.229	-440.89
236.691	-287.82
237.154	-346.58
237.617	-227.77
238.08	-238.93
238.542	-286.07
239.005	-215.26
239.468	-203.31
239.93	-193.87
240.393	-146.17
240.855	-119.34
241.317	-133.22
241.78	-186.79
242.242	-176.22
242.704	-154.53
243.166	-119.83
243.629	-78.05
244.091	-85.37
244.553	-82.12
245.015	-67.27
245.477	-121.86
245.939	-209.39
246.4	-192.09
246.862	-176.1
247.324	-165.75
247.786	-242.51
248.247	-364.7
248.709	-529.69
249.17	-374.72
249.632	-254.12
250.093	-252.63
250.555	-196.96
251.016	-72.12
251.477	-65.83
251.939	-53.32
252.4	-67
252.861	-98.93
253.322	-70.09
253.783	-111.43
254.244	-164.77
254.705	-206.52
255.166	-230.47
255.627	-213.98
256.088	-299.88
256.549	-327.58
257.009	-274.21
257.47	-366.83
257.931	-315.41
258.391	-215.79
258.852	-197.97
259.312	-199.5
259.773	-259.41
260.233	-144.89
260.694	-113.68
261.154	-156.44
261.614	-70.11
262.074	-62.27
262.534	-26.76
262.994	-5.87
263.455	-22.23
263.915	14.48
264.374	-0.3
264.834	6.15
265.294	-36.21
265.754	-30.43
266.214	-32.79
266.673	-40.04
267.133	-82.17
267.593	-104.61
268.052	-121.33
268.512	-121.64
268.971	-125.07
269.431	-115.46
269.89	-108.7
270.349	-161.98
270.809	-170.63
271.268	-107.15
271.727	-419.09
272.186	-214.47
272.645	-159.84
273.104	-148.42
273.563	-217.51
274.022	-246.94
274.481	-191.69
274.94	-143.04
275.399	-108.68
275.857	-162.07
276.316	-264.01
276.775	-230.64
277.233	-220.21
277.692	-165.26
278.15	-187.67
278.609	-160.93
279.067	-151.65
279.525	-122.32
279.984	-191.25
280.442	-252.64
280.9	-182.11
281.358	-109.69
281.816	-82.61
282.274	-94.07
282.732	-156.25
283.19	-137.48
283.648	-136.82
284.106	-159.13
284.564	-176.76
285.021	-136.91
285.479	-111.24
285.937	-136.51
286.394	-101.35
286.852	-123.25
287.309	-135.35
287.767	-90.4
288.224	-78.63
288.682	-94.7
289.139	-88.93
289.596	-79.4
290.053	-89.73
290.511	-107.05
290.968	-108.75
291.425	-191.06
291.882	-97.95
292.339	-63.52
292.796	-101.24
293.252	-122
293.709	-51.34
294.166	-37.04
294.623	-50.94
295.079	-64.17
295.536	-44.65
295.992	-30.63
296.449	-16.51
296.905	-25.66
297.362	-7.93
297.818	-23.11
298.274	3.1
298.731	-28.33
299.187	-37.29
299.643	-30.03
300.099	-22.25
300.555	-26.03
301.011	-21.23
301.467	28.27
301.923	-0.82
302.379	-9.64
302.835	9.49
303.291	-9.15
303.746	-15.02
304.202	-53.36
304.658	-80.33
305.113	-45.65
305.569	-40.04
306.024	-67.9
306.479	-128.89
306.935	-79.83
307.39	-116.4
307.845	-110.37
308.301	-93.59
308.756	-104.91
309.211	-77.96
309.666	-88.82
310.121	-92.82
310.576	-140.54
311.031	-155.91
311.486	-228.39
311.94	-256.24
312.395	-371.44
312.85	-858.86
313.305	-5237.33
313.759	-22536.57
314.214	-1711.2
314.668	-1239.61
315.123	-918.55
315.577	-261.4
316.032	-215.9
316.486	-274.86
316.94	-196.44
317.394	-106.2
317.849	-53.94
318.303	-45.23
318.757	-40.28
319.211	-29.47
319.665	-26.02
320.119	-47.29
320.572	-97.06
321.026	-53.14
321.48	-23.65
321.934	-46.21
322.387	-57.55
322.841	-41.87
323.295	1.55
323.748	-55
324.202	-79.05
324.655	-85.01
325.108	-41.41
325.562	4.07
326.015	-45.14
326.468	-47.08
326.921	-47.07
327.374	9.05
327.827	22.31
328.28	8.39
328.733	37.55
329.186	53.87
329.639	49.2
330.092	15.69
330.545	13.79
330.997	30.99
331.45	57.59
331.903	78.37
332.355	30.96
332.808	-13.42
333.26	-21.26
333.713	-22.29
334.165	-39.46
334.617	-83.89
335.069	-114.54
335.522	-322.98
335.974	-391.75
336.426	-388.95
336.878	-332.58
337.33	-137.66
337.782	-137.56
338.234	-139.52
338.686	-215.65
339.137	-270.91
339.589	-278.22
340.041	-175.26
340.493	-131.03
340.944	-141.17
341.396	-154.34
341.847	-118.44
342.299	-84.36
342.75	-54.96
343.201	-93.4
343.653	-82.25
344.104	-141.68
344.555	-107.48
345.006	-293.78
345.457	-144.31
345.908	-119.16
346.359	-92.09
346.81	-54.35
347.261	-121.39
347.712	-150.14
348.163	-180.41
348.613	-138.89
349.064	-107.11
349.515	-76.92
349.965	-50.17
350.416	-99.51
350.866	-142.29
351.317	-204.84
351.767	-312.16
352.217	-365.43
352.668	-292.92
353.118	-239.81
353.568	-311.97
354.018	-211.84
354.468	-205.43
354.918	-124.41
355.368	-118
355.818	-157.65
356.268	-571.22
356.718	-2241.72
357.168	-486.54
357.617	-274.82
358.067	-364.06
358.517	-363.78
358.966	-432.78
359.416	-511.51
359.865	-700.1
360.315	-806.65
360.764	-330.33
361.213	-142.53
361.663	-173.35
362.112	-267.52
362.561	-419.55
363.01	-313.13
363.459	-238.62
363.908	-273.51
364.357	-174.38
364.806	-271.59
365.255	-240.32
365.703	-183.67
366.152	-155.03
366.601	-97.24
367.05	-27.93
367.498	-4.43
367.947	-12.45
368.395	-32.63
368.844	-18.46
369.292	-91.04
369.74	-46.28
370.189	-57.9
370.637	-98.75
371.085	-121.25
371.533	-171.81
371.981	-203.69
372.429	-188.83
372.877	-152.37
373.325	-115.82
373.773	-155.55
374.221	-143.23
374.669	-181.5
375.116	-154.64
375.564	-149.14
376.012	-166.48
376.459	-131.43
376.907	-176.16
377.354	-244.38
377.801	-218.35
378.249	-205.5
378.696	-253.8
379.143	-261.77
379.591	-302.01
380.038	-563.11
380.485	-386.8
380.932	-458.5
381.379	-327.38
381.826	-147.85
382.273	-119.37
382.72	-124.6
383.166	-127.61
383.613	-56.02
384.06	-42.38
384.506	-43.35
384.953	-21.81
385.4	-37.19
385.846	-27
386.292	-45.54
386.739	-63.79
387.185	-65.91
387.631	-65.36
388.078	-40.09
388.524	-57.32
388.97	-58.54
389.416	-46.05
389.862	-43.68
390.308	-34.04
390.754	-29.09
391.2	-30.43
391.645	-32.69
392.091	-0.69
392.537	10.37
392.983	-13.41
393.428	20.84
393.874	13.71
394.319	32.16
394.765	46.79
395.21	36.58
395.655	34.95
396.101	29.26
396.546	33.69
396.991	14.75
397.436	6.03
397.881	3.55
398.326	-13.76
398.771	-5.39
399.216	-15.42
399.661	-21.89
400.106	-16.13
400.551	-14.44
400.995	-8.3
401.44	-10.49
401.885	-7.87
402.329	-10.83
402.774	-7.65
403.218	5.94
403.663	5.05
404.107	10.66
404.551	16.62
404.995	12.23
405.44	9.12
405.884	4.34
406.328	-0.83
406.772	-2.59
407.216	0.43
407.66	-2.84
408.104	-14.11
408.547	-13.42
408.991	-17.06
409.435	-19.44
409.879	-13.94
410.322	-15.59
410.766	-13
411.209	-5.48
411.653	-6.17
412.096	-4.5
412.54	-5.14
412.983	-3.58
413.426	0.65
413.869	-0.29
414.312	3.05
414.756	-0.9
415.199	1.28
415.642	4.08
416.085	3.86
416.527	3.3
416.97	0.75
417.413	2.5
417.856	0.05
418.298	-2.11
418.741	-2.81
419.184	-6.36
419.626	-11.75
420.069	-10.31
420.511	-11.69
420.953	-13.55
421.396	-10.81
421.838	-8.9
422.28	-11.04
422.722	-8.89
423.164	-12.82
423.606	-14.03
424.048	-15.52
424.49	-7.8
424.932	-10.95
425.374	-11.57
425.816	-11.62
426.258	-14.22
426.699	-14.36
427.141	-8.44
427.582	-10.5
428.024	-8.59
428.465	-8.45
428.907	-8.03
429.348	-10.3
429.789	-6.15
430.231	-2.45
430.672	-1.35
431.113	-0.36
431.554	-1.45
431.995	-5.78
432.436	-1.05
432.877	1.05
433.318	3.98
433.759	3.24
434.2	3.13
434.64	-0.67
435.081	-3.29
435.522	-2.8
435.962	-3.13
436.403	0.02
436.843	-0.8
437.284	-3.65
437.724	-7.52
438.164	-10.83
438.604	-9.76
439.045	-6.74
439.485	-2.61
439.925	-3.73
440.365	-5.26
440.805	-5.74
441.245	-5.91
441.685	-5.66
442.125	-6.76
442.564	-6.3
443.004	-3.27
443.444	-3.84
443.883	-4.93
444.323	-9.19
444.762	-11.04
445.202	-11.12
445.641	-8.94
446.081	-12.5
446.52	-11.48
446.959	-8.93
447.398	-7.33
447.837	-8.25
448.276	-7.16
448.716	-6.82
449.154	-7.43
449.593	-4.55
450.032	-4.07
450.471	-5.51
450.91	-5.22
451.349	-3.61
451.787	-4.61
452.226	-5.79
452.664	-6.87
453.103	-8.52
453.541	-10.19
453.98	-6.51
454.418	-7.14
454.856	-5.62
455.295	-6.17
455.733	-5.08
456.171	-6.1
456.609	-5.69
457.047	-4.73
457.485	-2
457.923	-0.37
458.361	-0.27
458.798	-1.62
459.236	-2.8
459.674	-3.69
460.111	-2.85
460.549	-2.6
460.987	-4.57
461.424	-5.46
461.862	-5.32
462.299	-6.22
462.736	-5.52
463.173	-5.25
463.611	-0.95
464.048	1.58
464.485	2.39
464.922	2.72
465.359	2.65
465.796	11.79
466.233	13.84
466.67	16.94
467.106	18.72
467.543	18
467.98	17.33
468.416	13.14
468.853	10.61
469.29	8.6
469.726	7.37
470.162	7.42
470.599	0.55
471.035	-2.03
471.471	-4.88
471.907	-7.81
472.344	-7.09
472.78	-6.09
473.216	-6.75
473.652	-5.55
474.088	-5.56
474.523	-5.02
474.959	-6.08
475.395	-5.89
475.831	-5.13
476.266	-4.46
476.702	-4
477.138	-4.41
477.573	-4.4
478.008	-3.67
478.444	-2.88
478.879	-1.05
479.314	-0.83
479.75	-0.05
480.185	-0.2
480.62	-0.08
481.055	-0.43
481.49	0.07
481.925	0.33
482.36	2.83
482.795	2.62
483.229	1.38
483.664	0.13
484.099	0.97
484.534	1.36
484.968	2.34
485.403	2.16
485.837	1.52
486.271	1.31
486.706	1.34
487.14	-1.14
487.574	-1.21
488.009	-0.78
488.443	-0.99
488.877	-1.1
489.311	-1.54
489.745	-1.79
490.179	-1.65
490.613	0.9
491.046	0.48
491.48	-0.48
491.914	-0.13
492.348	0.25
492.781	0.76
493.215	1.38
493.648	0.24
494.082	0.28
494.515	0.79
494.948	1.79
495.382	-0.4
495.815	0.05
496.248	0.95
496.681	0.59
497.114	0.06
497.547	-0.05
497.98	0.7
498.413	2.51
498.846	2.84
499.279	1.56
499.711	0.63
500.144	0.28
500.577	0.91
501.009	0.37
501.442	1.49
501.874	2.18
502.306	1.83
502.739	3.88
503.171	3.02
503.603	2.69
504.036	2.79
504.468	3.25
504.9	3.72
505.332	2.83
505.764	3.75
506.196	3.01
506.627	3.06
507.059	3.09
507.491	-0.33
507.923	0.25
508.354	0.93
508.786	0.97
509.217	0.66
509.649	0.84
510.08	0.81
510.512	1.12
510.943	1.36
511.374	1.25
511.805	0.99
512.237	1.1
512.668	-0.01
513.099	-1.49
513.53	-1.68
513.961	-1.17
514.391	-1.33
514.822	0.25
515.253	0.15
515.684	0.32
516.114	0.31
516.545	1.12
516.975	1.47
517.406	1.16
517.836	1.53
518.267	2.11
518.697	2.95
519.127	3.04
519.558	2.17
519.988	1.37
520.418	0.36
520.848	-0.4
521.278	-1.48
521.708	29.86
522.138	31.2
522.567	30.6
522.997	30.35
523.427	29.41
523.857	29.55
524.286	29.38
524.716	29.79
525.145	30.64
525.575	31.28
526.004	30.85
526.433	0.48
526.863	-0.51
527.292	1.1
527.721	2.01
528.15	1.94
528.579	2.1
529.008	2.15
529.437	0.95
529.866	0.25
530.295	-0.46
530.724	1.04
531.152	0.66
531.581	1.36
532.01	0.63
532.438	-0.57
532.867	-1.15
533.295	-0.74
533.723	-0.99
534.152	-0.37
534.58	0.24
535.008	0.38
535.436	0.85
535.865	0.58
536.293	-0.42
536.721	-0.75
537.149	-0.29
537.576	0.82
538.004	0.57
538.432	0.08
538.86	0.54
539.287	0.15
539.715	0.68
540.143	-0.7
540.57	-0.16
540.998	0.17
541.425	1.98
541.852	1.61
542.28	1.02
542.707	0.83
543.134	1.36
543.561	1.26
543.988	1.81
544.415	1.29
544.842	1.19
545.269	1.06
545.696	1.66
546.123	0.85
546.549	1.32
546.976	1.58
547.403	1.7
547.829	1.36
548.256	0.74
548.682	0.38
549.108	1.49
549.535	2.07
549.961	1.46
550.387	0.76
550.813	1.89
551.24	1.91
551.666	1.21
552.092	0.68
552.518	0.46
552.943	1.31
553.369	1.4
553.795	1.33
554.221	0.76
554.646	1.2
555.072	2.72
555.498	1.05
555.923	0.39
556.349	0.32
556.774	0.5
557.199	0.45
557.625	-0.36
558.05	-0.21
558.475	-0.82
558.9	-0.49
559.325	-0.09
559.75	-0.64
560.175	-0.66
560.6	-0.55
561.025	-0.35
561.449	-0.42
561.874	-0.37
562.299	0.4
562.723	-0.08
563.148	-0.37
563.572	-0.76
563.997	-1.14
564.421	-2.16
564.846	-2.69
565.27	-2.37
565.694	-2.78
566.118	-3.21
566.542	-2.29
566.966	-2.31
567.39	-2.39
567.814	-2.19
568.238	-1.83
568.662	-2.14
569.086	-1.91
569.509	-1.82
569.933	-0.36
570.357	-0.11
570.78	0.39
571.204	1.06
571.627	0.77
572.05	1.26
572.474	2.28
572.897	2.79
573.32	3.46
573.743	3.18
574.166	3.9
574.589	1.9
575.012	2.09
575.435	1.6
575.858	0.41
576.281	0.19
576.704	-0.92
577.126	-2.09
577.549	-2.66
577.972	-2.85
578.394	-2.61
578.817	-1.1
579.239	-0.99
579.661	-0.56
580.084	0.75
580.506	1.28
580.928	1.16
581.35	2.48
581.772	2.75
582.194	2.63
582.616	1.74
583.038	0.99
583.46	-0.51
583.882	-0.15
584.303	-1.63
584.725	-2.57
585.147	1.53
585.568	2.16
585.99	2.23
586.411	2.61
586.833	3.03
587.254	3.49
587.675	3.68
588.096	3.19
588.518	3.4
588.939	4.34
589.36	4.58
589.781	-0.26
590.202	2.17
590.623	1.68
591.043	1.19
591.464	1.12
591.885	1.44
592.305	1.39
592.726	1.07
593.147	0.8
593.567	0.85
593.987	0.69
594.408	0.22
594.828	-3.09
595.248	-2.33
595.669	-1.62
596.089	-1.97
596.509	-2.65
596.929	-2.57
597.349	-1.49
597.769	-1.67
598.189	-1.46
598.608	-1.55
599.028	-1.13
599.448	-0.56
599.867	-1.41
600.287	-2.44
600.706	-1.54
601.126	-0.71
601.545	0.05
601.965	-0.5
602.384	-0.17
602.803	-0.52
603.222	0.14
603.641	-0.25
604.061	0.38
604.48	0.43
604.898	0.96
605.317	-0.02
605.736	0.02
606.155	0.2
606.574	0.33
606.992	-0.2
607.411	0.01
607.829	-1.18
608.248	-0.72
608.666	-1.78
609.085	-1.54
609.503	-1.64
609.921	-0.57
610.339	-0.85
610.758	-1.78
611.176	-1.85
611.594	-0.41
612.012	-0.2
612.43	1.05
612.847	0.92
613.265	2.4
613.683	2.25
614.101	1.93
614.518	0.95
614.936	0.99
615.353	1.82
615.771	2.21
616.188	1.42
616.606	1.51
617.023	1.39
617.44	1.17
617.857	-0.43
618.274	-0.78
618.691	-0.16
619.108	0.16
619.525	-0.19
619.942	-0.23
620.359	-0.63
620.776	-0.74
621.192	-0.51
621.609	-0.29
622.026	-0.21
622.442	0.54
622.859	0.7
623.275	0.14
623.691	-0.02
624.108	0.48
624.524	0.28
624.94	0.29
625.356	0.15
625.772	-0.72
626.188	-1.71
626.604	-1.77
627.02	-2.58
627.436	-2.08
627.852	-0.82
628.268	-0.49
628.683	-0.74
629.099	-0.6
629.514	-0.94
629.93	-0.69
630.345	-0.59
630.761	-0.5
631.176	-0.33
631.591	1.62
632.007	1.9
632.422	0.31
632.837	-0.33
633.252	0.5
633.667	0.37
634.082	0.69
634.497	0.74
634.911	2.92
635.326	3.21
635.741	3.39
636.155	2.15
636.57	2.34
636.984	3.17
637.399	4.05
637.813	2.82
638.228	2.3
638.642	1.86
639.056	2.03
639.47	0.53
639.884	0.36
640.298	0.15
640.712	0.99
641.126	0.37
641.54	-0.47
641.954	-2.43
642.368	-1.28
642.781	2.1
643.195	2.95
643.609	3.44
644.022	3.17
644.436	2.78
644.849	2.7
645.262	1.96
645.676	0.94
646.089	1.47
646.502	3.99
646.915	2.66
647.328	0.81
647.741	0.75
648.154	0.27
648.567	2.31
648.98	3
649.393	2.55
649.805	1.73
650.218	2.7
650.631	3.3
651.043	2.7
651.456	3.64
651.868	2.72
652.28	1.18
652.693	0.4
653.105	-1.21
653.517	-1.84
653.929	-1.42
654.341	-0.37
654.753	0.43
655.165	-0.47
655.577	-0.89
655.989	-1.27
656.401	-2.68
656.813	-0.13
657.224	-0.3
657.636	-1.56
658.047	0.2
658.459	0.02
658.87	-1.23
659.282	-2.18
659.693	-1.13
660.104	-0.68
660.515	-0.59
660.926	-0.46
661.338	-1.01
661.749	-0.96
662.159	0.7
662.57	-1.34
662.981	-1.93
663.392	-1.41
663.803	-1.5
664.213	-2.12
664.624	-2.74
665.035	-3.54
665.445	-3.11
665.855	-2.3
666.266	-1.23
666.676	-2.24
667.086	-2.48
667.497	-1.26
667.907	-0.74
668.317	-0.87
668.727	2.6
669.137	1.52
669.547	1.16
669.956	0.24
670.366	-1.39
670.776	-1.29
671.186	-1.32
671.595	-0.72
672.005	-1.89
672.414	-1.06
672.824	-0.3
673.233	-4.08
673.642	-3.31
674.052	-2.07
674.461	0.1
674.87	0.04
675.279	0.56
675.688	-0.67
676.097	0.59
676.506	1.85
676.915	-0.14
677.323	-0.24
677.732	-0.09
678.141	-0.52
678.549	-0.71
678.958	-2.29
679.366	-2.49
679.775	-4.11
680.183	-1.81
680.592	-2.55
681	-2.96
681.408	-2.06
681.816	-2.17
682.224	-2.61
682.632	-0.65
683.04	-0.77
683.448	-1.62
683.856	-0.09
684.264	1.24
684.671	-0.24
685.079	-0.64
685.487	-1.41
685.894	-1.86
686.302	-4.75
686.709	-3.98
687.116	-5.25
687.524	-3.35
687.931	-1.54
688.338	-2.88
688.745	-4.57
689.152	-4.07
689.559	-3.11
689.966	-1.4
690.373	-0.26
690.78	2.54
691.187	1.84
691.593	2.85
692	0.5
692.407	1.63
692.813	4.55
693.22	5.99
693.626	5.04
694.032	4.47
694.439	4.56
694.845	3.97
695.251	2.06
695.657	3.5
696.063	2.33
696.469	2.45
696.875	2.37
697.281	-0.15
697.687	-1.6
698.093	-1.41
698.498	-0.93
698.904	-2.36
699.31	-2.77
699.715	1.02
700.12	-0.25
700.526	-0.48
700.931	-0.9
701.337	-0.81
701.742	0.55
702.147	0.76
702.552	0.88
702.957	0.07
703.362	-0.1
703.767	-0.5
704.172	-3.14
704.577	-3.01
704.981	-3.8
705.386	-2.6
705.791	-3.51
706.195	-5.56
706.6	-4.78
707.004	-6.07
707.408	-6.01
707.813	-4.25
708.217	-3.34
708.621	-3.34
709.025	-3.84
709.43	-1.5
709.834	-1.07
710.237	-1.37
710.641	-0.23
711.045	-0.23
711.449	2.14
711.853	5.26
712.256	3.51
712.66	3.37
713.064	3.36
713.467	5.05
713.87	3.92
714.274	3.58
714.677	3.82
715.08	4.03
715.484	4.42
715.887	6.72
716.29	2.99
716.693	5.59
717.096	6.67
717.499	7.62
717.901	6.32
718.304	6.37
718.707	5.46
719.109	6.82
719.512	5.1
719.915	6.19
720.317	3.18
720.719	1.85
721.122	-0.01
721.524	0.19
721.926	4.62
722.328	3.6
722.731	2.89
723.133	3.6
723.535	1.51
723.937	2.96
724.338	4.35
724.74	6.16
725.142	56.01
725.544	60.65
725.945	71.76
726.347	67.29
726.748	69.05
727.15	71.04
727.551	73.74
727.952	73.49
728.354	71.49
728.755	69.79
729.156	67.05
729.557	20.34
729.958	15.36
730.359	3.32
730.76	4.09
731.161	4.14
731.562	2
731.962	-0.58
732.363	0.05
732.763	0.35
733.164	-1.95
733.564	-0.8
733.965	0.03
734.365	0.76
734.766	0.87
735.166	-0.42
735.566	-0.16
735.966	1.76
736.366	2.55
736.766	2.71
737.166	2.77
737.566	4.27
737.966	4.48
738.365	4.45
738.765	5.88
739.165	6.38
739.564	6.4
739.964	4.88
740.363	3.19
740.763	0.99
741.162	2.17
741.561	2.24
741.96	1.92
742.36	0.63
742.759	0.21
743.158	-2.35
743.557	-2.76
743.955	-2.68
744.354	-2.21
744.753	-2.11
745.152	0.01
745.55	-2.13
745.949	-2.38
746.348	-1.73
746.746	-2.65
747.144	-0.84
747.543	-0.61
747.941	-1.14
748.339	-1.48
748.737	-0.8
749.136	-0.86
749.534	-3.01
749.932	0.23
750.33	0.3
750.727	-1.28
751.125	0.35
751.523	-1.15
751.921	2.09
752.318	2.24
752.716	4.61
753.113	3.53
753.511	3.78
753.908	5.72
