Data from N_1_HIR_IL_4N_Splice17_11-27-16-815.txt Node
Date: Sat Mar 14 11:27:16 EDT 2020
User: sa697716
Spectrometer: FLMS03696
Trigger mode: 0
Integration Time (sec): 3.180400E-1
Scans to average: 20
Electric dark correction enabled: true
Nonlinearity correction enabled: true
Boxcar width: 5
XAxis mode: Wavelengths
Number of Pixels in Spectrum: 2048
>>>>>Begin Spectral Data<<<<<
187.83	-130991.35
188.298	908.11
188.766	383.83
189.233	300.54
189.701	383.62
190.169	692.68
190.636	291.48
191.104	288.03
191.571	70.4
192.039	-29.87
192.506	-38
192.974	319.68
193.441	-559.78
193.908	-492.13
194.375	-175.58
194.842	-162.42
195.31	-68.14
195.777	86.35
196.244	212.17
196.711	176.14
197.177	186.54
197.644	213.18
198.111	374.4
198.578	480.79
199.045	358.57
199.511	555.11
199.978	579.12
200.445	507.64
200.911	547.81
201.378	575.85
201.844	552.42
202.31	900.68
202.777	945.53
203.243	523.93
203.709	471.6
204.176	597.45
204.642	493.74
205.108	478.65
205.574	378.73
206.04	335.97
206.506	303.66
206.972	265.44
207.438	235.46
207.903	257.42
208.369	239.79
208.835	258.17
209.301	254.84
209.766	252.19
210.232	240.16
210.697	278.81
211.163	315.87
211.628	442.23
212.094	396.7
212.559	561.49
213.024	359.63
213.49	437.51
213.955	422.79
214.42	382.35
214.885	345.43
215.35	347.29
215.815	383.43
216.28	408.95
216.745	332.44
217.21	357.41
217.675	295.19
218.14	319.41
218.604	303.47
219.069	316.64
219.534	328.54
219.998	334.67
220.463	356.51
220.927	328.69
221.392	275.32
221.856	261.55
222.32	267.11
222.785	302.62
223.249	343.14
223.713	361.3
224.177	333.85
224.642	355.02
225.106	429.35
225.57	452.13
226.034	386.83
226.497	573.7
226.961	541.29
227.425	637.14
227.889	679.89
228.353	636.82
228.816	1221.69
229.28	1195
229.744	1025.02
230.207	623.79
230.671	583.31
231.134	777.33
231.597	886.56
232.061	813.83
232.524	758.43
232.987	541.01
233.45	502.17
233.914	460.98
234.377	413.85
234.84	361.32
235.303	423.88
235.766	486.86
236.229	529.64
236.691	309.65
237.154	322.93
237.617	254.17
238.08	232.47
238.542	256.52
239.005	184.34
239.468	200.12
239.93	197.37
240.393	180.34
240.855	156.64
241.317	155.61
241.78	173.89
242.242	185.76
242.704	222.29
243.166	217.99
243.629	225.44
244.091	262.89
244.553	271.64
245.015	305.55
245.477	368.33
245.939	516.78
246.4	555.62
246.862	547.03
247.324	519.2
247.786	513.51
248.247	611.84
248.709	487.85
249.17	374.52
249.632	440.81
250.093	526.7
250.555	464.35
251.016	310.87
251.477	284.92
251.939	316.96
252.4	317.56
252.861	365.17
253.322	342.65
253.783	396.38
254.244	461.03
254.705	306.84
255.166	210.19
255.627	209.76
256.088	280.74
256.549	305.06
257.009	253.49
257.47	302.18
257.931	255.86
258.391	220.16
258.852	222
259.312	245.47
259.773	283.98
260.233	306.96
260.694	289.87
261.154	320.33
261.614	288.18
262.074	257.4
262.534	277.29
262.994	270.01
263.455	323.41
263.915	283.65
264.374	259.56
264.834	288.09
265.294	297.59
265.754	301.47
266.214	273.56
266.673	246.3
267.133	292.21
267.593	270.57
268.052	326.35
268.512	276.35
268.971	397.69
269.431	463.94
269.89	417.26
270.349	595.91
270.809	652.83
271.268	612.64
271.727	1337.57
272.186	856.86
272.645	667.69
273.104	422.19
273.563	598.61
274.022	398.94
274.481	350.15
274.94	286.7
275.399	211.18
275.857	218.54
276.316	247.97
276.775	206.25
277.233	210.76
277.692	207.4
278.15	271.39
278.609	328.69
279.067	309.16
279.525	306.61
279.984	349.08
280.442	432.16
280.9	513.84
281.358	362.7
281.816	322.02
282.274	315.09
282.732	299.7
283.19	294.01
283.648	229.86
284.106	234.06
284.564	219.05
285.021	237.18
285.479	176.89
285.937	127.56
286.394	136.06
286.852	152.31
287.309	161.78
287.767	189.34
288.224	201.56
288.682	220.71
289.139	265.7
289.596	245.32
290.053	231.57
290.511	285.18
290.968	376.26
291.425	464.68
291.882	409.73
292.339	385.02
292.796	350.45
293.252	311.98
293.709	277.1
294.166	235.99
294.623	248.09
295.079	233.73
295.536	255.93
295.992	233.35
296.449	232.62
296.905	256.98
297.362	256.95
297.818	262.97
298.274	280.65
298.731	279.69
299.187	275.87
299.643	293.9
300.099	368.34
300.555	389.86
301.011	343.65
301.467	398.47
301.923	395.67
302.379	381.89
302.835	372.37
303.291	354.58
303.746	376.64
304.202	458.95
304.658	461.91
305.113	310.85
305.569	301.34
306.024	279.63
306.479	184.73
306.935	187.42
307.39	188.97
307.845	179.05
308.301	205.13
308.756	193.17
309.211	195.6
309.666	196.55
310.121	293.44
310.576	263.61
311.031	254.49
311.486	293.48
311.94	273.53
312.395	351.43
312.85	641.02
313.305	2308.06
313.759	15290.26
314.214	1040.6
314.668	924.94
315.123	821.57
315.577	383.57
316.032	378.02
316.486	446.91
316.94	404.48
317.394	299.29
317.849	244.56
318.303	234.42
318.757	223.04
319.211	253.48
319.665	228.76
320.119	219.54
320.572	283.23
321.026	275.18
321.48	236.25
321.934	213.35
322.387	200.51
322.841	218.32
323.295	247.18
323.748	250.77
324.202	265.15
324.655	310.13
325.108	451.33
325.562	332.72
326.015	377.44
326.468	287.46
326.921	361.46
327.374	357.76
327.827	391.39
328.28	390.69
328.733	279.42
329.186	241.58
329.639	225.67
330.092	180.06
330.545	176.8
330.997	180.87
331.45	224.37
331.903	274.67
332.355	457.01
332.808	413.25
333.26	348.6
333.713	405.63
334.165	401.92
334.617	498.99
335.069	350.4
335.522	589.96
335.974	644.63
336.426	481.11
336.878	274.87
337.33	138.21
337.782	134.42
338.234	200.26
338.686	206.98
339.137	232.95
339.589	236.95
340.041	229.45
340.493	193.56
340.944	201.78
341.396	223.7
341.847	237.54
342.299	341.34
342.75	468.35
343.201	348.99
343.653	378.42
344.104	435.88
344.555	351.47
345.006	470.96
345.457	429.04
345.908	316.89
346.359	332.11
346.81	250.09
347.261	202.42
347.712	165.16
348.163	195.01
348.613	269.29
349.064	275.27
349.515	254.23
349.965	281.25
350.416	300.97
350.866	314.11
351.317	338.68
351.767	542.69
352.217	691.74
352.668	628.56
353.118	550.64
353.568	388.93
354.018	333.48
354.468	325.39
354.918	247.73
355.368	227.73
355.818	317.08
356.268	809.16
356.718	3894.3
357.168	1073.29
357.617	532.75
358.067	581.83
358.517	573.77
358.966	754.94
359.416	939.2
359.865	968.24
360.315	1075.5
360.764	556.31
361.213	313.17
361.663	255.15
362.112	305.14
362.561	444.64
363.01	323.65
363.459	273.23
363.908	270.54
364.357	255.93
364.806	383.5
365.255	251.27
365.703	265.35
366.152	273.74
366.601	241.45
367.05	205.31
367.498	205.96
367.947	215.47
368.395	207.03
368.844	174.04
369.292	146.21
369.74	125.23
370.189	191.4
370.637	182.87
371.085	159.68
371.533	188.62
371.981	155.21
372.429	163.25
372.877	165.23
373.325	181.32
373.773	176.89
374.221	168.91
374.669	209.42
375.116	195.23
375.564	214.55
376.012	257.17
376.459	218.82
376.907	263.95
377.354	291.09
377.801	308.51
378.249	339
378.696	436.12
379.143	554.82
379.591	558.94
380.038	853.84
380.485	641.65
380.932	634.24
381.379	667.73
381.826	581.96
382.273	394.29
382.72	315.46
383.166	310.62
383.613	210.14
384.06	191.17
384.506	222.18
384.953	162.65
385.4	136.61
385.846	123.85
386.292	88.89
386.739	57.97
387.185	47.78
387.631	56.35
388.078	74.52
388.524	72.04
388.97	65.19
389.416	62.97
389.862	80.75
390.308	88.54
390.754	95.05
391.2	107.19
391.645	109.25
392.091	134.96
392.537	129.86
392.983	110.01
393.428	133.26
393.874	150.57
394.319	162.14
394.765	163.26
395.21	151
395.655	133.22
396.101	128.01
396.546	117.99
396.991	102.67
397.436	97.54
397.881	89.78
398.326	73.61
398.771	70.14
399.216	55.94
399.661	45.57
400.106	57.19
400.551	62.01
400.995	58.16
401.44	57.06
401.885	56.78
402.329	56.57
402.774	58.77
403.218	68.59
403.663	64.39
404.107	67.12
404.551	71.08
404.995	62.98
405.44	56.76
405.884	53.71
406.328	48.46
406.772	44.53
407.216	43.29
407.66	40.33
408.104	29.77
408.547	24.73
408.991	23.44
409.435	20.66
409.879	22.08
410.322	25.04
410.766	28.58
411.209	33.79
411.653	34.02
412.096	34.34
412.54	32.33
412.983	33.25
413.426	38.4
413.869	37.37
414.312	39.22
414.756	34.13
415.199	31.19
415.642	31.2
416.085	29.73
416.527	29.27
416.97	26.13
417.413	27.33
417.856	24.41
418.298	22.6
418.741	21.51
419.184	18.15
419.626	15.92
420.069	16.74
420.511	16.29
420.953	18.88
421.396	18.83
421.838	19.5
422.28	19.17
422.722	21.18
423.164	19.35
423.606	21.08
424.048	21.04
424.49	23.69
424.932	22.16
425.374	20.55
425.816	17.28
426.258	17.66
426.699	20.23
427.141	22.63
427.582	22.01
428.024	20.86
428.465	15.54
428.907	15.91
429.348	17.04
429.789	21.01
430.231	24.36
430.672	24.39
431.113	24.22
431.554	22.14
431.995	20.14
432.436	20.7
432.877	20.59
433.318	25.52
433.759	23.95
434.2	22.81
434.64	20.47
435.081	19.46
435.522	19.62
435.962	19.18
436.403	21.47
436.843	19.56
437.284	19.33
437.724	18.54
438.164	13.63
438.604	15.42
439.045	17.83
439.485	17.43
439.925	15.6
440.365	14.37
440.805	13.19
441.245	12.5
441.685	13.15
442.125	12.35
442.564	12.09
443.004	13.8
443.444	11.77
443.883	11.11
444.323	9.24
444.762	5.89
445.202	5.87
445.641	7.23
446.081	5.28
446.52	5.34
446.959	5.22
447.398	7.31
447.837	7.91
448.276	8.55
448.716	9.37
449.154	9.59
449.593	13.08
450.032	13.07
450.471	10.41
450.91	9.85
451.349	11.71
451.787	11.26
452.226	10.51
452.664	9.11
453.103	8.95
453.541	7.52
453.98	9.96
454.418	9.09
454.856	10.47
455.295	11.29
455.733	11.97
456.171	11.12
456.609	12.22
457.047	13.09
457.485	15.16
457.923	16.02
458.361	15.58
458.798	13.73
459.236	13.22
459.674	11.34
460.111	12.29
460.549	12.45
460.987	10.74
461.424	9.08
461.862	8.19
462.299	8.07
462.736	8.86
463.173	8.25
463.611	10.91
464.048	12.04
464.485	13.95
464.922	13.67
465.359	13.27
465.796	21.13
466.233	22.62
466.67	24.06
467.106	24.36
467.543	22.63
467.98	22.1
468.416	20.33
468.853	19.54
469.29	17.66
469.726	17
470.162	15.8
470.599	9.52
471.035	8.27
471.471	6.84
471.907	5.05
472.344	5.35
472.78	6
473.216	4.13
473.652	3.22
474.088	3.15
474.523	3.3
474.959	4.37
475.395	4.49
475.831	5.14
476.266	5.4
476.702	5.44
477.138	5.32
477.573	5.16
478.008	5.97
478.444	7.79
478.879	9.1
479.314	9.37
479.75	8.66
480.185	7.95
480.62	6.65
481.055	6.27
481.49	6.76
481.925	6.64
482.36	8.18
482.795	7.69
483.229	6.02
483.664	4.97
484.099	5.03
484.534	5.86
484.968	7.04
485.403	7.79
485.837	7.73
486.271	7.41
486.706	6.99
487.14	6.17
487.574	6.66
488.009	6.97
488.443	6.57
488.877	6.57
489.311	5.68
489.745	5.63
490.179	5.51
490.613	7.03
491.046	6.93
491.48	7.05
491.914	6.97
492.348	6.42
492.781	6.57
493.215	6.8
493.648	5.89
494.082	6.03
494.515	5.95
494.948	6.46
495.382	4.74
495.815	5.01
496.248	5.16
496.681	4.88
497.114	4.61
497.547	5.16
497.98	6.15
498.413	8.1
498.846	8.23
499.279	7.63
499.711	7.18
500.144	7.12
500.577	7.87
501.009	7.61
501.442	8.08
501.874	8.69
502.306	8
502.739	9.52
503.171	8.85
503.603	9
504.036	9.12
504.468	9.18
504.9	9.82
505.332	8.99
505.764	9.77
506.196	9.37
506.627	9.67
507.059	9.1
507.491	6.34
507.923	6.17
508.354	6.49
508.786	6.12
509.217	6.12
509.649	6.02
510.08	6.11
510.512	6.43
510.943	6.71
511.374	6.52
511.805	6.75
512.237	6.69
512.668	5.83
513.099	5.07
513.53	5.37
513.961	5.51
514.391	5.22
514.822	6.16
515.253	6.03
515.684	5.64
516.114	5.3
516.545	5.08
516.975	5.13
517.406	4.9
517.836	4.67
518.267	5.04
518.697	5.4
519.127	5.53
519.558	4.77
519.988	4.41
520.418	4.18
520.848	4.04
521.278	4.13
521.708	31.78
522.138	33.26
522.567	32.86
522.997	32.5
523.427	31.99
523.857	32.21
524.286	31.85
524.716	31.81
525.145	32.23
525.575	32.92
526.004	32.7
526.433	5.92
526.863	4.57
527.292	6.11
527.721	6.22
528.15	5.95
528.579	6.27
529.008	6.6
529.437	5.87
529.866	5.33
530.295	4.42
530.724	5.44
531.152	5.74
531.581	6.96
532.01	6.15
532.438	5.7
532.867	5.36
533.295	5.21
533.723	4.26
534.152	4.77
534.58	4.85
535.008	5.36
535.436	6.02
535.865	5.61
536.293	4.44
536.721	4.58
537.149	5.12
537.576	6.07
538.004	6.4
538.432	6.61
538.86	6.86
539.287	6.66
539.715	6.93
540.143	5.94
540.57	6.06
540.998	5.87
541.425	7.43
541.852	7.37
542.28	7.22
542.707	6.6
543.134	6.87
543.561	7.34
543.988	7.31
544.415	6.72
544.842	6.3
545.269	5.98
545.696	6.48
546.123	5.57
546.549	5.62
546.976	5.78
547.403	5.63
547.829	5.22
548.256	4.34
548.682	4.84
549.108	5.59
549.535	5.69
549.961	5.18
550.387	5.36
550.813	6.08
551.24	6.11
551.666	5.57
552.092	5.71
552.518	5.65
552.943	6.44
553.369	6.07
553.795	5.76
554.221	5.8
554.646	6.2
555.072	6.93
555.498	5.73
555.923	4.82
556.349	4.66
556.774	4.52
557.199	4.43
557.625	3.39
558.05	4.2
558.475	4.04
558.9	4.16
559.325	5.07
559.75	4.54
560.175	4.45
560.6	4.65
561.025	4.26
561.449	4.44
561.874	4.41
562.299	5.19
562.723	4.18
563.148	4.17
563.572	3.91
563.997	3.04
564.421	2.14
564.846	1.69
565.27	2.52
565.694	2.77
566.118	2.07
566.542	3.23
566.966	2.77
567.39	3.46
567.814	3.69
568.238	3.8
568.662	3.42
569.086	3.82
569.509	3.97
569.933	4.65
570.357	4.96
570.78	5.47
571.204	5.58
571.627	5.3
572.05	5.33
572.474	6.24
572.897	6.26
573.32	7.36
573.743	6.75
574.166	7.38
574.589	6.13
575.012	5.95
575.435	5.78
575.858	5.55
576.281	6
576.704	5.24
577.126	4.04
577.549	3.76
577.972	3.08
578.394	3.76
578.817	4.76
579.239	4.71
579.661	5.23
580.084	6.27
580.506	6.23
580.928	6.27
581.35	6.83
581.772	6.84
582.194	6.92
582.616	6.53
583.038	6.12
583.46	4.86
583.882	5.2
584.303	4.33
584.725	3.27
585.147	6.65
585.568	6.58
585.99	6.49
586.411	7.21
586.833	7.71
587.254	8.03
587.675	7.94
588.096	7.53
588.518	7.7
588.939	8.37
589.36	8.95
589.781	5.06
590.202	7.36
590.623	7.78
591.043	6.7
591.464	6.2
591.885	6.3
592.305	6.63
592.726	6.8
593.147	6.27
593.567	6.64
593.987	6.09
594.408	5.14
594.828	2.74
595.248	3.17
595.669	4.44
596.089	4.29
596.509	3.72
596.929	3.32
597.349	3.76
597.769	4.16
598.189	3.62
598.608	4.3
599.028	4.77
599.448	4.27
599.867	3.19
600.287	2.16
600.706	2.81
601.126	3.71
601.545	4.29
601.965	3.83
602.384	3.66
602.803	3.42
603.222	3.15
603.641	3.53
604.061	4.46
604.48	4.72
604.898	5.01
605.317	4.48
605.736	4.04
606.155	4.44
606.574	4.44
606.992	4.53
607.411	5.16
607.829	4.48
608.248	4.01
608.666	3.1
609.085	3.31
609.503	3.59
609.921	4.08
610.339	4.07
610.758	3.28
611.176	3.1
611.594	3.46
612.012	2.86
612.43	3.53
612.847	3.65
613.265	4.88
613.683	4.87
614.101	4.49
614.518	4.2
614.936	4.43
615.353	5.41
615.771	6.18
616.188	6.4
616.606	7.04
617.023	7.49
617.44	7.21
617.857	6.28
618.274	6
618.691	6.53
619.108	6.81
619.525	7.13
619.942	6.47
620.359	6.34
620.776	6.19
621.192	7
621.609	7.31
622.026	8.07
622.442	8.53
622.859	8.12
623.275	7.42
623.691	7.55
624.108	7.79
624.524	7.98
624.94	8.2
625.356	7.41
625.772	6.07
626.188	5.48
626.604	5.16
627.02	4.66
627.436	5.27
627.852	6.96
628.268	7.32
628.683	6.16
629.099	5.65
629.514	5.18
629.93	5.78
630.345	5.54
630.761	4.56
631.176	4.96
631.591	6.5
632.007	7.12
632.422	5.23
632.837	4.07
633.252	5.61
633.667	6.13
634.082	6.5
634.497	6.7
634.911	8.32
635.326	8.93
635.741	8.43
636.155	7.39
636.57	7.56
636.984	8.2
637.399	9.29
637.813	8.3
638.228	7.83
638.642	7.37
639.056	7.15
639.47	6.72
639.884	7.14
640.298	7.77
640.712	8.32
641.126	8.59
641.54	7.88
641.954	6.16
642.368	6.04
642.781	8.51
643.195	8.37
643.609	8.88
644.022	8.31
644.436	7.68
644.849	6.82
645.262	5.99
645.676	4.21
646.089	4.6
646.502	6.18
646.915	6.04
647.328	4.74
647.741	4.94
648.154	4.46
648.567	6.62
648.98	7.26
649.393	7.94
649.805	8.25
650.218	8.56
650.631	8.93
651.043	8.61
651.456	9.62
651.868	9.09
652.28	9.05
652.693	8.87
653.105	7.56
653.517	7.6
653.929	7.39
654.341	7.82
654.753	8.53
655.165	8.48
655.577	8.65
655.989	8.45
656.401	7.25
656.813	8.38
657.224	8.62
657.636	8.13
658.047	8.25
658.459	8.26
658.87	7.72
659.282	8.14
659.693	8.97
660.104	9.05
660.515	8.13
660.926	8.79
661.338	8.1
661.749	7.48
662.159	8.02
662.57	7.64
662.981	7.79
663.392	7.57
663.803	6.76
664.213	6.03
664.624	5.62
665.035	5.83
665.445	5.36
665.855	6.09
666.266	7.57
666.676	6.81
667.086	6.13
667.497	6.67
667.907	6.84
668.317	7.03
668.727	9.77
669.137	9.37
669.547	8.97
669.956	8.28
670.366	7.75
670.776	7.06
671.186	7.25
671.595	8.37
672.005	7.35
672.414	7.96
672.824	8.63
673.233	6.22
673.642	6.08
674.052	6.61
674.461	8.75
674.87	8.62
675.279	9.17
675.688	8.73
676.097	9.13
676.506	8.92
676.915	8.58
677.323	8.05
677.732	6.91
678.141	7.07
678.549	7.19
678.958	6.42
679.366	5.43
679.775	3.94
680.183	4.85
680.592	4.09
681	4.78
681.408	4.39
681.816	4.45
682.224	4.8
682.632	6.53
683.04	6.32
683.448	5.95
683.856	7.69
684.264	9.7
684.671	8.73
685.079	7.76
685.487	7.79
685.894	7.5
686.302	6.7
686.709	7.5
687.116	6.01
687.524	6.75
687.931	8.49
688.338	8.43
688.745	6.8
689.152	6.75
689.559	7.73
689.966	8.34
690.373	9.38
690.78	10.49
691.187	11.09
691.593	12.44
692	12.4
692.407	12.19
692.813	14.13
693.22	14.61
693.626	13.88
694.032	14.87
694.439	14.7
694.845	14.62
695.251	14.68
695.657	14.86
696.063	12.97
696.469	12.5
696.875	12.29
697.281	9.95
697.687	9.69
698.093	10.89
698.498	11.82
698.904	10.77
699.31	11.45
699.715	12.46
700.12	10.89
700.526	12.29
700.931	11.6
701.337	11.84
701.742	12.84
702.147	13.09
702.552	12.85
702.957	10.5
703.362	10.72
703.767	10
704.172	8.55
704.577	8.75
704.981	7.22
705.386	8.44
705.791	8.24
706.195	7.04
706.6	7.3
707.004	5.99
707.408	5.57
707.813	5.96
708.217	6.21
708.621	6.32
709.025	6.36
709.43	8.35
709.834	8.04
710.237	7.64
710.641	7.58
711.045	8.08
711.449	10.39
711.853	14.24
712.256	14.11
712.66	13.81
713.064	14.41
713.467	16.36
713.87	16.08
714.274	16.4
714.677	17.65
715.08	19.38
715.484	19.87
715.887	21.71
716.29	19.03
716.693	21.32
717.096	22.65
717.499	22.93
717.901	20.65
718.304	20.45
718.707	20.87
719.109	19.11
719.512	16.87
719.915	18.81
720.317	16.94
720.719	15.12
721.122	13.67
721.524	13.43
721.926	16.98
722.328	16.89
722.731	16.06
723.133	15.02
723.535	15.44
723.937	16.87
724.338	15.86
724.74	17.09
725.142	59.62
725.544	63.17
725.945	73.3
726.347	68.98
726.748	70.74
727.15	72.34
727.551	75.32
727.952	74.64
728.354	72.8
728.755	71.95
729.156	70.3
729.557	29.96
729.958	25.8
730.359	16.22
730.76	16.21
731.161	15.92
731.562	14.19
731.962	11.25
732.363	11.58
732.763	11.78
733.164	9.81
733.564	9.52
733.965	10.19
734.365	11.34
734.766	11.37
735.166	11.31
735.566	11.68
735.966	12.55
736.366	13.12
736.766	12.5
737.166	12.45
737.566	13.69
737.966	14.38
738.365	15.11
738.765	15.84
739.165	16.16
739.564	16.41
739.964	14.35
740.363	13.63
740.763	12.88
741.162	14.91
741.561	14.49
741.96	13.59
742.36	12.59
742.759	12.87
743.158	11.46
743.557	10.5
743.955	9.73
744.354	10.52
744.753	10.41
745.152	12.43
745.55	9.46
745.949	10.12
746.348	11.19
746.746	9.72
747.144	10.1
747.543	9.25
747.941	9.11
748.339	9.48
748.737	9.66
749.136	10.81
749.534	7.64
749.932	10.84
750.33	10.99
750.727	9.56
751.125	11.21
751.523	10.95
751.921	13.67
752.318	14.73
752.716	16.62
753.113	16.45
753.511	15.74
753.908	17.67
754.305	20
754.703	19.53
755.1	21.16
755.497	20.13
755.894	19.13
756.291	18.13
756.688	17.75
757.085	16.56
757.482	17.45
757.878	20.82
758.275	21.64
758.672	16.12
759.068	17.48
759.465	16.46
759.861	18.48
760.258	17.82
760.654	15.41
761.05	19.89
761.447	16.62
761.843	17.34
762.239	15.13
762.635	13.5
763.031	13.3
763.427	13.89
763.822	16.2
764.218	15.66
764.614	16.55
765.01	15.27
