Data from N_1_DIV_WI_4N_Splice17_11-32-10-650.txt Node
Date: Sat Mar 14 11:32:10 EDT 2020
User: sa697716
Spectrometer: FLMS03696
Trigger mode: 0
Integration Time (sec): 3.180400E-1
Scans to average: 20
Electric dark correction enabled: true
Nonlinearity correction enabled: true
Boxcar width: 5
XAxis mode: Wavelengths
Number of Pixels in Spectrum: 2048
>>>>>Begin Spectral Data<<<<<
187.83	-152167.92
188.298	1146.02
188.766	631.2
189.233	590.49
189.701	768.8
190.169	992.68
190.636	374.71
191.104	292.05
191.571	41.98
192.039	-30.88
192.506	-89.06
192.974	192.11
193.441	-387.55
193.908	-103.07
194.375	-36.64
194.842	-5.29
195.31	-37.52
195.777	64.1
196.244	126.08
196.711	67
197.177	47.57
197.644	0.26
198.111	-27.27
198.578	-23.75
199.045	-39.49
199.511	-94.25
199.978	-170.13
200.445	-105.34
200.911	-118.89
201.378	-163.92
201.844	-103.11
202.31	-191.36
202.777	-153.22
203.243	-57.59
203.709	-77.63
204.176	-56.12
204.642	-14.59
205.108	2.93
205.574	12.95
206.04	-13.24
206.506	-16.39
206.972	-43.84
207.438	-48.68
207.903	-52.33
208.369	-17.38
208.835	13.74
209.301	15.05
209.766	11.47
210.232	14.08
210.697	-10.19
211.163	-47.73
211.628	-111.46
212.094	-76.3
212.559	-39.43
213.024	-40.76
213.49	-56.38
213.955	-99.62
214.42	-138.27
214.885	-139.06
215.35	-125.51
215.815	-35.33
216.28	6.29
216.745	8.35
217.21	47.29
217.675	20.24
218.14	26.04
218.604	7.68
219.069	23.18
219.534	72.09
219.998	67.42
220.463	64.74
220.927	-23.26
221.392	-24.13
221.856	-2.78
222.32	-57.72
222.785	-46.68
223.249	-64.27
223.713	-82.78
224.177	-68.28
224.642	-191.25
225.106	-228.91
225.57	-244.55
226.034	-103.23
226.497	-169.71
226.961	-150.86
227.425	-141.97
227.889	-200.03
228.353	-196.06
228.816	-448.75
229.28	-421.78
229.744	-304.85
230.207	-102.66
230.671	-127.37
231.134	-354.49
231.597	-306.69
232.061	-281.24
232.524	-307.96
232.987	-190.11
233.45	-127.82
233.914	-87.29
234.377	-121.25
234.84	-112.51
235.303	-193.39
235.766	-194.78
236.229	-185.59
236.691	-142.68
237.154	-192.16
237.617	-133.13
238.08	-153.06
238.542	-201.12
239.005	-137.42
239.468	-111.24
239.93	-94.3
240.393	-79.5
240.855	-73.09
241.317	-80.82
241.78	-117.63
242.242	-103.38
242.704	-83.1
243.166	-60.38
243.629	-19.87
244.091	-17.8
244.553	-40.84
245.015	-31.65
245.477	-58.44
245.939	-84.7
246.4	-99.99
246.862	-112.83
247.324	-100.68
247.786	-155.02
248.247	-261.59
248.709	-380.63
249.17	-275.17
249.632	-147.29
250.093	-127.9
250.555	-100.01
251.016	-23.52
251.477	-5.07
251.939	-9.11
252.4	-23.91
252.861	-49.75
253.322	-8.02
253.783	-45.78
254.244	-98.21
254.705	-167.25
255.166	-203.59
255.627	-203
256.088	-293.63
256.549	-296.42
257.009	-240.06
257.47	-300.86
257.931	-276.5
258.391	-190.74
258.852	-197.05
259.312	-201.99
259.773	-253.02
260.233	-155.43
260.694	-83.5
261.154	-106.69
261.614	-44.6
262.074	-39.3
262.534	-38.75
262.994	-8.31
263.455	-42.83
263.915	-7.14
264.374	-17.29
264.834	-19.82
265.294	-47.06
265.754	-68.41
266.214	-69.04
266.673	-85.15
267.133	-120.68
267.593	-126.6
268.052	-139.99
268.512	-114.25
268.971	-99.72
269.431	-83.78
269.89	-51.68
270.349	-79.41
270.809	-54.78
271.268	-25.94
271.727	-152.14
272.186	-60.83
272.645	-10.25
273.104	-69.35
273.563	-147.22
274.022	-165.03
274.481	-105.75
274.94	-84.28
275.399	-61.23
275.857	-101.93
276.316	-199.56
276.775	-179.91
277.233	-176.87
277.692	-156.78
278.15	-141.14
278.609	-67.04
279.067	-84.35
279.525	-75.37
279.984	-127.7
280.442	-175.66
280.9	-101.92
281.358	-29.7
281.816	-19.61
282.274	-33.63
282.732	-58.92
283.19	-93.08
283.648	-127.2
284.106	-137.94
284.564	-154.05
285.021	-105.55
285.479	-77.23
285.937	-105.16
286.394	-86.57
286.852	-97.65
287.309	-85.59
287.767	-42.65
288.224	-14.06
288.682	-26.27
289.139	-20.01
289.596	-15.79
290.053	-43.85
290.511	-87.49
290.968	-81.76
291.425	-126.25
291.882	-60.91
292.339	-44.63
292.796	-87.14
293.252	-97.48
293.709	-29.92
294.166	-36.17
294.623	-41.69
295.079	-43.91
295.536	-0.55
295.992	5.04
296.449	12.78
296.905	25.7
297.362	32.16
297.818	27.17
298.274	36.29
298.731	9.14
299.187	15.16
299.643	1.49
300.099	15.17
300.555	-5.34
301.011	13.3
301.467	70.69
301.923	22.72
302.379	44.8
302.835	35.98
303.291	42.41
303.746	28.4
304.202	24.68
304.658	26.98
305.113	22.04
305.569	15.02
306.024	-44.42
306.479	-105.03
306.935	-48.71
307.39	-109.46
307.845	-100.49
308.301	-94.36
308.756	-91.68
309.211	-68.07
309.666	-66.75
310.121	-47.68
310.576	-53.87
311.031	-49.33
311.486	-97.91
311.94	-156.99
312.395	-222.42
312.85	-440.73
313.305	-3137.06
313.759	-11277.62
314.214	-897.62
314.668	-773.93
315.123	-631.41
315.577	-197.51
316.032	-171.71
316.486	-218.76
316.94	-143.31
317.394	-71.35
317.849	-47.33
318.303	-38.89
318.757	-35.01
319.211	-23.76
319.665	1.51
320.119	1.44
320.572	-36.35
321.026	-6.75
321.48	9.15
321.934	5.3
322.387	8.17
322.841	9.16
323.295	54.54
323.748	22.8
324.202	7.57
324.655	24.92
325.108	54.94
325.562	94.6
326.015	79.88
326.468	54.79
326.921	76.76
327.374	87.39
327.827	122.96
328.28	123.81
328.733	113.09
329.186	107.17
329.639	72.86
330.092	41.26
330.545	30.69
330.997	34.13
331.45	53.41
331.903	71.16
332.355	61.97
332.808	46.63
333.26	42.53
333.713	20.75
334.165	9.88
334.617	18.35
335.069	-37.98
335.522	-144.12
335.974	-163.19
336.426	-209.88
336.878	-254.41
337.33	-112.21
337.782	-137.89
338.234	-178.01
338.686	-223.33
339.137	-283.7
339.589	-298.98
340.041	-189.8
340.493	-142.03
340.944	-118.92
341.396	-135.07
341.847	-72.52
342.299	-61.6
342.75	-57.54
343.201	-81.77
343.653	-97.71
344.104	-145.72
344.555	-87.38
345.006	-210.26
345.457	-101.7
345.908	-128.81
346.359	-64.95
346.81	-54.06
347.261	-92.91
347.712	-96.93
348.163	-109.97
348.613	-45.11
349.064	-21.46
349.515	-14.03
349.965	10.08
350.416	-14.8
350.866	-7.39
351.317	-75.32
351.767	-101.84
352.217	-97.53
352.668	-32.16
353.118	-37.97
353.568	-173.01
354.018	-108.26
354.468	-93.12
354.918	-59.44
355.368	-73.77
355.818	-106.86
356.268	-386.29
356.718	-1264.16
357.168	-258.34
357.617	-173.08
358.067	-239.21
358.517	-199.22
358.966	-209.41
359.416	-180.21
359.865	-220.73
360.315	-257.43
360.764	-120.84
361.213	-43.84
361.663	-86.72
362.112	-128
362.561	-213.98
363.01	-140.5
363.459	-119.74
363.908	-157.69
364.357	-113.2
364.806	-265.95
365.255	-155.36
365.703	-80.01
366.152	-71.87
366.601	-32.79
367.05	18.5
367.498	43.05
367.947	35.07
368.395	32.93
368.844	36.15
369.292	-23.44
369.74	19.07
370.189	12.89
370.637	-46.34
371.085	-36.03
371.533	-51.15
371.981	-93.06
372.429	-59.87
372.877	-20.35
373.325	-1.82
373.773	-9.63
374.221	0.01
374.669	-37.85
375.116	-38.62
375.564	-46.03
376.012	-83.25
376.459	-60.57
376.907	-69.4
377.354	-142.98
377.801	-140.55
378.249	-162.02
378.696	-231.74
379.143	-295.38
379.591	-297.68
380.038	-466.24
380.485	-213.75
380.932	-178.04
381.379	-68.92
381.826	12.17
382.273	-11.02
382.72	-21.1
383.166	-18.91
383.613	5.69
384.06	28.62
384.506	36.02
384.953	12.09
385.4	2.86
385.846	9.92
386.292	-11.39
386.739	-35.36
387.185	-41.7
387.631	-45.08
388.078	-29.32
388.524	-39.79
388.97	-33.99
389.416	-19.61
389.862	-11.04
390.308	-2.19
390.754	-5.39
391.2	-18.65
391.645	-25.94
392.091	11.95
392.537	13.16
392.983	-4.73
393.428	27.17
393.874	21.01
394.319	30.13
394.765	50.42
395.21	42.35
395.655	46.44
396.101	50.38
396.546	52.52
396.991	34.24
397.436	37.76
397.881	37.38
398.326	15.52
398.771	19.84
399.216	13.55
399.661	0.97
400.106	4.06
400.551	3.89
400.995	3.64
401.44	5.7
401.885	7.26
402.329	1.9
402.774	4.92
403.218	15.95
403.663	12.31
404.107	10.55
404.551	16.15
404.995	14.21
405.44	10.09
405.884	7.54
406.328	1.21
406.772	-1.37
407.216	4.7
407.66	0.85
408.104	-5.94
408.547	-5.3
408.991	-3.53
409.435	-7.63
409.879	-5.27
410.322	-4.44
410.766	-0.84
411.209	4.11
411.653	2.79
412.096	2.29
412.54	3.02
412.983	2.47
413.426	7.15
413.869	5.73
414.312	9.99
414.756	7.28
415.199	6.23
415.642	8.33
416.085	7.41
416.527	4.98
416.97	3.31
417.413	3.5
417.856	1.82
418.298	-1.71
418.741	-4.06
419.184	-8.46
419.626	-14.2
420.069	-13.93
420.511	-15.11
420.953	-11.24
421.396	-7.46
421.838	-7.07
422.28	-6.45
422.722	-4.8
423.164	-6.54
423.606	-3.99
424.048	-5.29
424.49	-0.42
424.932	-0.33
425.374	-2.94
425.816	-8.24
426.258	-9.46
426.699	-11.76
427.141	-7.9
427.582	-6.94
428.024	-6.32
428.465	-8.92
428.907	-5.9
429.348	-6.79
429.789	-5.28
430.231	-1.85
430.672	-1.22
431.113	-1.36
431.554	-0.6
431.995	-3.92
432.436	-2.66
432.877	-2.78
433.318	1.27
433.759	-0.08
434.2	0.16
434.64	-1.25
435.081	-1.6
435.522	0.2
435.962	1.36
436.403	4.44
436.843	2.31
437.284	1.08
437.724	-0.03
438.164	-4.06
438.604	-3.65
439.045	-1.07
439.485	1.93
439.925	1.51
440.365	1.02
440.805	-0.52
441.245	-0.08
441.685	0.59
442.125	-2.52
442.564	-4.2
443.004	-2.29
443.444	-1.95
443.883	-2.38
444.323	-7.26
444.762	-11.12
445.202	-12.79
445.641	-9.72
446.081	-12.95
446.52	-11.79
446.959	-8.64
447.398	-4.69
447.837	-3.93
448.276	-5.47
448.716	-4.93
449.154	-4.61
449.593	-2.15
450.032	-1.78
450.471	-4.73
450.91	-3.97
451.349	-2.18
451.787	-3.45
452.226	-5.29
452.664	-5.76
453.103	-3.93
453.541	-6.69
453.98	-3.07
454.418	-2.85
454.856	0.34
455.295	1.18
455.733	1.59
456.171	-0.33
456.609	1.87
457.047	3.16
457.485	4.11
457.923	5.21
458.361	5.6
458.798	4.02
459.236	3.73
459.674	0.61
460.111	1.33
460.549	1.82
460.987	0.81
461.424	0.24
461.862	-0.11
462.299	0.25
462.736	0.35
463.173	0.86
463.611	3.99
464.048	5.15
464.485	7.1
464.922	6.09
465.359	5.78
465.796	13.41
466.233	13.81
466.67	15.94
467.106	16.26
467.543	14.7
467.98	14.34
468.416	12.31
468.853	11.26
469.29	9.81
469.726	9.36
470.162	8.53
470.599	2.8
471.035	2.14
471.471	0.55
471.907	-1.65
472.344	-1.65
472.78	-1.47
473.216	-2.71
473.652	-2.5
474.088	-2.97
474.523	-1.66
474.959	-2.63
475.395	-2.57
475.831	-3.07
476.266	-2.73
476.702	-3.57
477.138	-2.87
477.573	-3.15
478.008	-2.16
478.444	-0.97
478.879	0.67
479.314	-0.02
479.75	1.05
480.185	0.46
480.62	0.03
481.055	-0.18
481.49	1.08
481.925	0.88
482.36	2.85
482.795	1.71
483.229	0.27
483.664	-0.32
484.099	-0.22
484.534	0
484.968	0.8
485.403	0.98
485.837	0.58
486.271	0.36
486.706	-0.23
487.14	-1.6
487.574	-0.8
488.009	-0.63
488.443	-0.94
488.877	-0.32
489.311	-1.21
489.745	-0.91
490.179	-0.83
490.613	0.65
491.046	0.67
491.48	0.85
491.914	1.44
492.348	0.81
492.781	0.83
493.215	1
493.648	0.26
494.082	0.28
494.515	0.17
494.948	1.06
495.382	-0.55
495.815	-0.53
496.248	-0.11
496.681	-1.22
497.114	-1.48
497.547	-0.79
497.98	0.13
498.413	1.48
498.846	2.14
499.279	1.68
499.711	0.67
500.144	0.68
500.577	1.68
501.009	1.15
501.442	2.56
501.874	3.16
502.306	2.12
502.739	3.34
503.171	2.78
503.603	2.56
504.036	2.11
504.468	2.87
504.9	2.9
505.332	2.36
505.764	3.33
506.196	2.76
506.627	2.8
507.059	3.18
507.491	0.89
507.923	0.55
508.354	1.4
508.786	1.75
509.217	1.48
509.649	1.38
510.08	0.73
510.512	0.68
510.943	0.96
511.374	1.07
511.805	0.87
512.237	0.93
512.668	0.5
513.099	-0.46
513.53	-0.39
513.961	-0.06
514.391	0.08
514.822	1.75
515.253	1.96
515.684	1.55
516.114	1.48
516.545	1.88
516.975	1.5
517.406	1.21
517.836	0.99
518.267	1.18
518.697	1.84
519.127	2.04
519.558	1.12
519.988	0.44
520.418	-0.01
520.848	-0.62
521.278	-1.07
521.708	18.88
522.138	19.68
522.567	18.92
522.997	18.83
523.427	17.99
523.857	17.76
524.286	17.26
524.716	17.56
525.145	18.31
525.575	19.16
526.004	18.76
526.433	-0.74
526.863	-1.21
527.292	0.85
527.721	1.36
528.15	1.23
528.579	1.47
529.008	1.98
529.437	1.02
529.866	-0.16
530.295	-0.71
530.724	0.5
531.152	0.9
531.581	1.86
532.01	1.46
532.438	0.42
532.867	0.1
533.295	0.07
533.723	-0.38
534.152	0.12
534.58	1.28
535.008	1.78
535.436	2.1
535.865	1.5
536.293	0.22
536.721	-0.4
537.149	0.15
537.576	0.65
538.004	0.73
538.432	0.55
538.86	1.13
539.287	0.49
539.715	0.42
540.143	-0.67
540.57	0.32
540.998	0.66
541.425	2.26
541.852	1.79
542.28	1.46
542.707	1.16
543.134	1.63
543.561	1.4
543.988	1.6
544.415	1.06
544.842	0.34
545.269	-0.52
545.696	-0.25
546.123	-1.02
546.549	-0.23
546.976	-0.35
547.403	0.03
547.829	-1.01
548.256	-1.71
548.682	-1.9
549.108	-1.03
549.535	-0.48
549.961	-0.25
550.387	-0.38
550.813	-0.02
551.24	-0.31
551.666	-0.41
552.092	-0.38
552.518	0.15
552.943	1.02
553.369	0.88
553.795	0.91
554.221	1.57
554.646	1.72
555.072	2.48
555.498	1.49
555.923	0.71
556.349	0.8
556.774	0.54
557.199	0.39
557.625	-0.79
558.05	-0.24
558.475	-0.56
558.9	-0.89
559.325	-0.34
559.75	-0.04
560.175	0.4
560.6	0.73
561.025	0.6
561.449	0.61
561.874	0.33
562.299	1.14
562.723	0.64
563.148	0.38
563.572	0.45
563.997	0.12
564.421	-1.15
564.846	-1.51
565.27	-1.15
565.694	-1.14
566.118	-1.52
566.542	-0.18
566.966	0.31
567.39	0.56
567.814	0.63
568.238	0.68
568.662	0.14
569.086	0.4
569.509	-0.36
569.933	0.81
570.357	0.65
570.78	1.14
571.204	1.11
571.627	0.79
572.05	0.66
572.474	1.77
572.897	2.03
573.32	2.65
573.743	2.38
574.166	3.52
574.589	2.23
575.012	2.89
575.435	2.28
575.858	2.39
576.281	2.4
576.704	2.13
577.126	0.67
577.549	-0.51
577.972	-1.63
578.394	-1.14
578.817	0.17
579.239	0.3
579.661	0.53
580.084	1.99
580.506	1.67
580.928	1.36
581.35	2.03
581.772	2.41
582.194	2.87
582.616	3.35
583.038	2.56
583.46	1.04
583.882	0.93
584.303	-0.48
584.725	-1.52
585.147	2.29
585.568	2.77
585.99	3.14
586.411	3.78
586.833	4.23
587.254	4.78
587.675	4.68
588.096	4.43
588.518	4.39
588.939	4.87
589.36	5.48
589.781	0.21
590.202	2.26
590.623	2.02
591.043	1.12
591.464	1.41
591.885	1.46
592.305	1.3
592.726	1.19
593.147	1.94
593.567	2.07
593.987	1.5
594.408	1.64
594.828	-0.61
595.248	0.01
595.669	0.78
596.089	0.45
596.509	-0.17
596.929	-0.13
597.349	0.21
597.769	-0.13
598.189	0.34
598.608	0.55
599.028	1.05
599.448	0.63
599.867	-0.32
600.287	-1.07
600.706	-0.46
601.126	0.34
601.545	1.38
601.965	1.07
602.384	1.17
602.803	0.85
603.222	1.28
603.641	0.82
604.061	1.48
604.48	1.81
604.898	1.59
605.317	0.91
605.736	0.47
606.155	1.03
606.574	0.86
606.992	0.35
607.411	0.61
607.829	-0.2
608.248	-0.35
608.666	-0.9
609.085	-1.22
609.503	-0.8
609.921	-0.18
610.339	-0
610.758	-1.43
611.176	-0.89
611.594	-0.15
612.012	-0.22
612.43	0.61
612.847	0.9
613.265	1.8
613.683	1.95
614.101	1.93
614.518	1.23
614.936	1.07
615.353	2
615.771	2.42
616.188	2.23
616.606	2.19
617.023	2.22
617.44	2.46
617.857	1.45
618.274	1.66
618.691	2.12
619.108	2.38
619.525	1.92
619.942	1.86
620.359	1.21
620.776	1.25
621.192	1.95
621.609	2.22
622.026	2.06
622.442	2.48
622.859	1.22
623.275	0.44
623.691	0.24
624.108	1.05
624.524	0.32
624.94	0.34
625.356	-0.13
625.772	-1
626.188	-1.88
626.604	-1.96
627.02	-1.9
627.436	-0.78
627.852	0.88
628.268	1.33
628.683	0.76
629.099	0.48
629.514	0.37
629.93	0.24
630.345	0.18
630.761	-0.49
631.176	-0.23
631.591	1.42
632.007	2.44
632.422	0.45
632.837	-0.33
633.252	0.76
633.667	1.45
634.082	1.38
634.497	2.22
634.911	4.04
635.326	4.82
635.741	5.45
636.155	3.84
636.57	3.9
636.984	4.59
637.399	5.78
637.813	4.54
638.228	4.59
638.642	4.47
639.056	3.97
639.47	2.37
639.884	2.34
640.298	1.92
640.712	2.74
641.126	1.57
641.54	1.09
641.954	-0.88
642.368	-0.46
642.781	0.84
643.195	1.34
643.609	1.81
644.022	1.86
644.436	1.13
644.849	0.74
645.262	-0.31
645.676	-1.11
646.089	-0.8
646.502	1.66
646.915	1.37
647.328	0.84
647.741	0.7
648.154	0.93
648.567	3.04
648.98	4.26
649.393	4.01
649.805	3.51
650.218	3.96
650.631	4.63
651.043	3.43
651.456	3.55
651.868	2.7
652.28	2.44
652.693	0.54
653.105	-1
653.517	-1.38
653.929	-1.14
654.341	0.13
654.753	0.87
655.165	0.25
655.577	0.62
655.989	0.88
656.401	0.54
656.813	1.3
657.224	1.95
657.636	0.67
658.047	1.03
658.459	0.56
658.87	-0.67
659.282	-0.89
659.693	-0.28
660.104	-0.84
660.515	-1.71
660.926	-2.66
661.338	-2.7
661.749	-3.08
662.159	-1.35
662.57	-3.28
662.981	-2.56
663.392	-2.91
663.803	-3.4
664.213	-4.16
664.624	-3.85
665.035	-3.91
665.445	-3.29
665.855	-2.49
666.266	-1.2
666.676	-2.22
667.086	-1.13
667.497	-1.09
667.907	-0.47
668.317	-0.34
668.727	2.98
669.137	2.19
669.547	2.34
669.956	1.99
670.366	0.82
670.776	-0.11
671.186	-0.36
671.595	1.03
672.005	0.04
672.414	0.66
672.824	0.97
673.233	-2.25
673.642	-2.36
674.052	-2
674.461	-0.79
674.87	-0.86
675.279	0.32
675.688	-0.02
676.097	-0.07
676.506	0.31
676.915	-0.89
677.323	-0.62
677.732	-0.34
678.141	0.16
678.549	0.71
678.958	-1.04
679.366	-2.04
679.775	-3.51
680.183	-1.56
680.592	-2.53
681	-2.14
681.408	-1.07
681.816	-2.37
682.224	-3.62
682.632	-2.16
683.04	-3.16
683.448	-2.04
683.856	-0.77
684.264	-0.15
684.671	-1.96
685.079	-1.52
685.487	-2.23
685.894	-3.24
686.302	-2.17
686.709	-0.32
687.116	-1.67
687.524	0.06
687.931	0.57
688.338	0.27
688.745	0.37
689.152	0.47
689.559	-0.22
689.966	2.1
690.373	2.97
690.78	3.4
691.187	3.14
691.593	5.1
692	4.12
692.407	4.31
692.813	6.36
693.22	7.07
693.626	6.18
694.032	6.42
694.439	6.01
694.845	5.42
695.251	3.72
695.657	3.59
696.063	0.56
696.469	0.13
696.875	-0.46
697.281	-2.21
697.687	-3.36
698.093	-3.16
698.498	-2.4
698.904	-3.72
699.31	-3.45
699.715	-1.15
700.12	-1.35
700.526	0.66
700.931	0.83
701.337	1.94
701.742	3.48
702.147	4.12
702.552	4.85
702.957	3.42
703.362	3.15
703.767	2.16
704.172	0.15
704.577	-0.33
704.981	-1.84
705.386	-1.18
705.791	-1.47
706.195	-4.26
706.6	-4.45
707.004	-6.2
707.408	-6.28
707.813	-4.46
708.217	-3.14
708.621	-3.02
709.025	-3.14
709.43	-1.1
709.834	-1.54
710.237	-2.12
710.641	-0.86
711.045	-0.17
711.449	1.52
711.853	4.67
712.256	3.4
712.66	2.81
713.064	2.77
713.467	4.12
713.87	3.45
714.274	4.55
714.677	5.58
715.08	5.41
715.484	5.28
715.887	8.48
716.29	5.32
716.693	6.02
717.096	6.76
717.499	8
717.901	6.47
718.304	5.65
718.707	4.21
719.109	3.85
719.512	3.13
719.915	5.85
720.317	3.14
720.719	2.09
721.122	1.18
721.524	0.76
721.926	5.54
722.328	6.6
722.731	5.78
723.133	5.78
723.535	3.91
723.937	4.52
724.338	4.1
724.74	4.98
725.142	49.49
725.544	53.67
725.945	64.58
726.347	59.73
726.748	59.92
727.15	61.7
727.551	64.47
727.952	64.03
728.354	63.01
728.755	60.48
729.156	58.86
729.557	15.96
729.958	11.54
730.359	1.11
730.76	1.35
731.161	0.52
731.562	-1.32
731.962	-4.06
732.363	-3.24
732.763	-1.88
733.164	-3.54
733.564	-2.92
733.965	-1.39
734.365	-1.08
734.766	-0.95
735.166	-0.94
735.566	0.21
735.966	1.42
736.366	1.97
736.766	1.88
737.166	0.67
737.566	2.01
737.966	1.68
738.365	2.17
738.765	4.2
739.165	4.39
739.564	3.66
739.964	1.75
740.363	0.71
740.763	-0.63
741.162	0.38
741.561	0.25
741.96	0.72
742.36	-0.21
742.759	-1.22
743.158	-3.81
743.557	-4.24
743.955	-3.99
744.354	-3.73
744.753	-4.11
745.152	-1.86
745.55	-2.57
745.949	-1.87
746.348	-2.81
746.746	-3.45
747.144	-0.75
747.543	-0.03
747.941	-0.74
748.339	-0.79
748.737	0.77
749.136	1.66
749.534	-1.47
749.932	0.41
750.33	-0.01
750.727	-0.14
751.125	1.12
751.523	-0.03
751.921	2.68
752.318	3.07
752.716	4.65
753.113	3.85
753.511	2.99
753.908	5.37
754.305	8.27
754.703	8.28
755.1	9.16
755.497	9.27
755.894	6.91
756.291	4.66
756.688	5.63
757.085	3.85
757.482	4.17
757.878	7.14
758.275	6.94
758.672	-0.45
759.068	-1.13
759.465	-3.36
759.861	-5.02
760.258	-6.52
760.654	-6.43
761.05	-4.16
761.447	-4.48
761.843	-3.11
762.239	-4.74
