Data from N_1_DIV_IL_4N_Splice17_11-16-07-706.txt Node
Date: Sat Mar 14 11:16:07 EDT 2020
User: sa697716
Spectrometer: FLMS03696
Trigger mode: 0
Integration Time (sec): 3.180400E-1
Scans to average: 20
Electric dark correction enabled: true
Nonlinearity correction enabled: true
Boxcar width: 5
XAxis mode: Wavelengths
Number of Pixels in Spectrum: 2048
>>>>>Begin Spectral Data<<<<<
187.83	-92761.7
188.298	758.04
188.766	451.63
189.233	380.45
189.701	579.31
190.169	682.69
190.636	245.12
191.104	176.41
191.571	-10.29
192.039	-95.24
192.506	-167.04
192.974	-40.87
193.441	82.79
193.908	309.08
194.375	78.41
194.842	55.25
195.31	-12.26
195.777	62.66
196.244	105.93
196.711	75.63
197.177	78.06
197.644	76.67
198.111	148.74
198.578	222.72
199.045	162.85
199.511	286.45
199.978	324.66
200.445	303.86
200.911	326.74
201.378	363.42
201.844	365.36
202.31	614.84
202.777	662.86
203.243	362.88
203.709	345.29
204.176	446.87
204.642	378.27
205.108	379.64
205.574	322.11
206.04	281.04
206.506	253.57
206.972	232.87
207.438	221.88
207.903	264.88
208.369	259.68
208.835	271.52
209.301	263.25
209.766	257.77
210.232	249.82
210.697	293.4
211.163	351.9
211.628	544.94
212.094	479.23
212.559	610.3
213.024	377.68
213.49	454.45
213.955	409.48
214.42	387.91
214.885	348.84
215.35	330.64
215.815	351.92
216.28	374.43
216.745	281.64
217.21	293.23
217.675	238.52
218.14	243.89
218.604	225.16
219.069	258.26
219.534	277.83
219.998	293.02
220.463	323.56
220.927	295.65
221.392	267.61
221.856	268.7
222.32	272.18
222.785	322.71
223.249	368.33
223.713	397.85
224.177	361.06
224.642	400.06
225.106	420.2
225.57	440.98
226.034	383.82
226.497	504.85
226.961	477.53
227.425	577.33
227.889	613.17
228.353	591.23
228.816	1104.64
229.28	1063.59
229.744	854.56
230.207	586.53
230.671	578.31
231.134	801.29
231.597	953.87
232.061	869.73
232.524	752.29
232.987	512.09
233.45	457.71
233.914	399.16
234.377	349.33
234.84	315.19
235.303	343.57
235.766	368.66
236.229	396.91
236.691	244.51
237.154	255.77
237.617	218.91
238.08	201.13
238.542	243.43
239.005	193.56
239.468	216.59
239.93	208.06
240.393	192.26
240.855	176.8
241.317	174.93
241.78	187.2
242.242	203.1
242.704	234.25
243.166	211.7
243.629	213.35
244.091	243.25
244.553	259.35
245.015	280.51
245.477	347.87
245.939	467.75
246.4	490.75
246.862	480.77
247.324	456.59
247.786	460
248.247	586.03
248.709	482.01
249.17	375.45
249.632	408.53
250.093	516.53
250.555	457.35
251.016	311.19
251.477	288.42
251.939	331.93
252.4	320.49
252.861	374.29
253.322	370.29
253.783	437.17
254.244	554.68
254.705	396.65
255.166	311.67
255.627	282.01
256.088	377.93
256.549	407.26
257.009	333.11
257.47	405.72
257.931	307.11
258.391	243.9
258.852	249.19
259.312	245.59
259.773	268.68
260.233	301.89
260.694	278.44
261.154	303.31
261.614	290.86
262.074	250.91
262.534	278.26
262.994	275.81
263.455	334.18
263.915	298.87
264.374	272.06
264.834	297.39
265.294	265.56
265.754	285.49
266.214	251.75
266.673	217.95
267.133	268.13
267.593	255.17
268.052	294.88
268.512	232.5
268.971	303.2
269.431	351.19
269.89	315.13
270.349	495.91
270.809	547.05
271.268	510.85
271.727	1002.52
272.186	689.21
272.645	477.44
273.104	331.61
273.563	489.08
274.022	314.76
274.481	275.45
274.94	211.74
275.399	148.4
275.857	139.8
276.316	168.26
276.775	175.25
277.233	139.42
277.692	144.19
278.15	177.08
278.609	237.84
279.067	239.27
279.525	237.88
279.984	295.02
280.442	345.77
280.9	392.21
281.358	277.43
281.816	250.43
282.274	263.71
282.732	261.83
283.19	245.43
283.648	196.29
284.106	187.09
284.564	189.63
285.021	214.27
285.479	182.91
285.937	159.12
286.394	158.41
286.852	161.44
287.309	170.31
287.767	193.36
288.224	210.52
288.682	229.81
289.139	268.38
289.596	245.86
290.053	230.22
290.511	251.39
290.968	310.78
291.425	376.17
291.882	371.01
292.339	335.66
292.796	314.1
293.252	284.67
293.709	251.19
294.166	226.91
294.623	237.06
295.079	223.1
295.536	244.77
295.992	229.27
296.449	228.11
296.905	226.78
297.362	238.92
297.818	242.59
298.274	253.07
298.731	231.66
299.187	222.31
299.643	239.64
300.099	300.69
300.555	327
301.011	268.26
301.467	309.39
301.923	309.28
302.379	291.48
302.835	287.31
303.291	281.22
303.746	319.15
304.202	387.97
304.658	409.04
305.113	299.36
305.569	293.3
306.024	302.91
306.479	243.61
306.935	237.15
307.39	231.27
307.845	212.08
308.301	229.79
308.756	199.33
309.211	217.05
309.666	205.34
310.121	250.14
310.576	241.59
311.031	230.79
311.486	237.1
311.94	232.27
312.395	326.67
312.85	627.93
313.305	2377.96
313.759	18387.74
314.214	1323.58
314.668	1109.21
315.123	1019.52
315.577	415.57
316.032	388.96
316.486	464.82
316.94	388.15
317.394	295.37
317.849	224.44
318.303	225.24
318.757	209.08
319.211	222.8
319.665	188.85
320.119	186.9
320.572	240.22
321.026	261.1
321.48	225.21
321.934	207.02
322.387	191.1
322.841	236.85
323.295	241.16
323.748	248.02
324.202	259.66
324.655	342.01
325.108	502.82
325.562	376.26
326.015	392.27
326.468	329.41
326.921	388.66
327.374	397.3
327.827	407.63
328.28	440.17
328.733	312.47
329.186	276.68
329.639	263.61
330.092	212.24
330.545	208.75
330.997	226.78
331.45	260.56
331.903	342.72
332.355	502.93
332.808	474.23
333.26	390.07
333.713	431.77
334.165	414.12
334.617	530.21
335.069	384.66
335.522	618.73
335.974	653.28
336.426	516.66
336.878	294.93
337.33	205.57
337.782	179.85
338.234	241.18
338.686	297.65
339.137	354.41
339.589	314.55
340.041	299.35
340.493	238.52
340.944	221.34
341.396	231.22
341.847	209.28
342.299	241.51
342.75	340.17
343.201	281.93
343.653	286.83
344.104	356.66
344.555	283.47
345.006	367.54
345.457	379.61
345.908	305.95
346.359	321.12
346.81	261.79
347.261	259.69
347.712	232.99
348.163	226.56
348.613	263.19
349.064	232.24
349.515	202.79
349.965	219.76
350.416	230.09
350.866	251.86
351.317	269.89
351.767	426.47
352.217	549.08
352.668	490.95
353.118	488.57
353.568	413.22
354.018	387.48
354.468	404.93
354.918	297.56
355.368	276.85
355.818	407.98
356.268	1049.02
356.718	4750.19
357.168	1224.45
357.617	627.37
358.067	617.9
358.517	580.49
358.966	670.36
359.416	864.59
359.865	937.18
360.315	1070.3
360.764	482.72
361.213	293.88
361.663	237.02
362.112	267.02
362.561	393.14
363.01	299.65
363.459	242.27
363.908	249.56
364.357	241.22
364.806	323.03
365.255	216.84
365.703	251.06
366.152	241.83
366.601	197.28
367.05	182.49
367.498	192.58
367.947	207.8
368.395	218.13
368.844	206.68
369.292	206.68
369.74	173.49
370.189	244.02
370.637	240.72
371.085	209.25
371.533	269.65
371.981	218.04
372.429	187.62
372.877	204.92
373.325	170.77
373.773	144.42
374.221	122.68
374.669	117.98
375.116	117.33
375.564	133.87
376.012	127.65
376.459	123.25
376.907	171.06
377.354	213.34
377.801	201.1
378.249	271.31
378.696	317.6
379.143	384.34
379.591	449.03
380.038	685.7
380.485	457.92
380.932	505.12
381.379	501.98
381.826	428.1
382.273	296.33
382.72	251.75
383.166	245.17
383.613	195.66
384.06	182.46
384.506	203.3
384.953	165.68
385.4	167.44
385.846	158.25
386.292	133.75
386.739	106.52
387.185	96.07
387.631	99.79
388.078	108.6
388.524	107.86
388.97	108.59
389.416	95.73
389.862	100.77
390.308	101.79
390.754	97.1
391.2	102.21
391.645	103.21
392.091	133.81
392.537	133.2
392.983	117.1
393.428	139.75
393.874	137.07
394.319	151.84
394.765	159.28
395.21	153.02
395.655	149.52
396.101	149.89
396.546	142.34
396.991	118.93
397.436	115.13
397.881	110.15
398.326	89.21
398.771	93.61
399.216	73.6
399.661	63.45
400.106	64.9
400.551	69.03
400.995	58.85
401.44	55.3
401.885	55.21
402.329	51.19
402.774	51.69
403.218	57.39
403.663	51.73
404.107	53.53
404.551	52.2
404.995	49.24
405.44	45.37
405.884	45.01
406.328	39.68
406.772	36.23
407.216	37.15
407.66	32.15
408.104	25.53
408.547	24.51
408.991	25.41
409.435	23.41
409.879	25.75
410.322	24.65
410.766	25.6
411.209	31.11
411.653	31.39
412.096	29.4
412.54	27.26
412.983	27.61
413.426	28.78
413.869	26.65
414.312	29
414.756	24.33
415.199	24.59
415.642	26.2
416.085	25.35
416.527	24.58
416.97	26.02
417.413	30.49
417.856	28.31
418.298	28.08
418.741	25.95
419.184	21.2
419.626	19.15
420.069	17.92
420.511	16.96
420.953	16.78
421.396	16.37
421.838	13.66
422.28	12.84
422.722	14.24
423.164	11.65
423.606	12.15
424.048	15.1
424.49	17.3
424.932	18.24
425.374	18.12
425.816	16.91
426.258	16.76
426.699	18.55
427.141	20.14
427.582	18.54
428.024	18.01
428.465	17.09
428.907	16.41
429.348	16.93
429.789	18.49
430.231	20.17
430.672	20.89
431.113	21.73
431.554	21.11
431.995	18.72
432.436	20.6
432.877	21.7
433.318	25.12
433.759	23.56
434.2	22.26
434.64	18.81
435.081	17.53
435.522	17.57
435.962	15.46
436.403	15.81
436.843	14.8
437.284	13.37
437.724	10.52
438.164	6.16
438.604	6.91
439.045	9.88
439.485	13.13
439.925	13.28
440.365	12.07
440.805	14.04
441.245	13.87
441.685	13.51
442.125	13.25
442.564	14.38
443.004	15.19
443.444	14.99
443.883	14.49
444.323	12.57
444.762	7.89
445.202	6.5
445.641	5.57
446.081	4.99
446.52	5.86
446.959	6.19
447.398	7.19
447.837	8.15
448.276	7.51
448.716	8.27
449.154	6.78
449.593	10.2
450.032	11.65
450.471	10.53
450.91	9.75
451.349	10.09
451.787	9.06
452.226	7.88
452.664	6.89
453.103	7.37
453.541	5.71
453.98	7.78
454.418	7.5
454.856	7.64
455.295	8.34
455.733	7.93
456.171	7.46
456.609	8.41
457.047	8.96
457.485	10.63
457.923	11.52
458.361	11.23
458.798	10.18
459.236	10.16
459.674	9.22
460.111	8.86
460.549	9.72
460.987	8.26
461.424	7.79
461.862	8.27
462.299	8.73
462.736	9.3
463.173	9.26
463.611	11.9
464.048	12.11
464.485	12.7
464.922	13.09
465.359	13.05
465.796	20.45
466.233	21.95
466.67	23.71
467.106	24.66
467.543	22.37
467.98	21.93
468.416	19.53
468.853	18.42
469.29	18.08
469.726	16.85
470.162	16.45
470.599	10.36
471.035	9.03
471.471	6.87
471.907	4.33
472.344	4.76
472.78	5.15
473.216	4.48
473.652	5.11
474.088	4.29
474.523	5.22
474.959	4.35
475.395	4.92
475.831	4.74
476.266	5.14
476.702	4.64
477.138	5.14
477.573	4.77
478.008	4.86
478.444	6.37
478.879	7.74
479.314	7.63
479.75	8.71
480.185	8.09
480.62	8.53
481.055	7.62
481.49	9.27
481.925	9.16
482.36	10.76
482.795	10.33
483.229	9.05
483.664	8.46
484.099	8.11
484.534	7.47
484.968	7.51
485.403	6.38
485.837	6.45
486.271	5.28
486.706	5.11
487.14	3.78
487.574	4.62
488.009	4.22
488.443	4.07
488.877	4.78
489.311	4.6
489.745	4.77
490.179	5.33
490.613	6.66
491.046	6.23
491.48	6
491.914	6.38
492.348	5.9
492.781	5.86
493.215	5.62
493.648	4.52
494.082	4.37
494.515	4.51
494.948	5.33
495.382	4.07
495.815	4.55
496.248	5.02
496.681	4.16
497.114	3.88
497.547	4.21
497.98	4.74
498.413	6.09
498.846	6.68
499.279	5.54
499.711	4.44
500.144	4.43
500.577	5.12
501.009	4.57
501.442	5.37
501.874	6
502.306	5.68
502.739	6.91
503.171	6.23
503.603	6.05
504.036	6.96
504.468	7.65
504.9	8.15
505.332	7.4
505.764	7.62
506.196	7.76
506.627	7.54
507.059	7.67
507.491	6.02
507.923	6.26
508.354	6.43
508.786	6.03
509.217	5.42
509.649	5.27
510.08	5.57
510.512	6.13
510.943	5.81
511.374	5.82
511.805	5.84
512.237	5.6
512.668	4.69
513.099	4.1
513.53	4.34
513.961	5.05
514.391	4.96
514.822	5.9
515.253	6.34
515.684	6.6
516.114	6.85
516.545	6.41
516.975	6.61
517.406	6.7
517.836	6.76
518.267	6.58
518.697	6.88
519.127	6.72
519.558	5.58
519.988	4.47
520.418	3.91
520.848	2.94
521.278	2.83
521.708	18.15
522.138	18.84
522.567	18.22
522.997	18.51
523.427	17.51
523.857	17.53
524.286	17.67
524.716	18.22
525.145	18.87
525.575	19.74
526.004	19.44
526.433	4.72
526.863	4.59
527.292	5.74
527.721	5.74
528.15	6.18
528.579	6.5
529.008	6.17
529.437	4.98
529.866	4.22
530.295	3.25
530.724	4.27
531.152	4.52
531.581	5.3
532.01	4.82
532.438	4.75
532.867	4.25
533.295	4.34
533.723	4.68
534.152	5.29
534.58	5.66
535.008	6.34
535.436	6.57
535.865	6.02
536.293	4.16
536.721	4
537.149	4.06
537.576	4.79
538.004	4.95
538.432	4.31
538.86	4.85
539.287	4.44
539.715	4.67
540.143	4.22
540.57	4.63
540.998	5.21
541.425	6.79
541.852	6.43
542.28	5.61
542.707	5.4
543.134	5.92
543.561	5.5
543.988	5.63
544.415	5.27
544.842	5.1
545.269	4.81
545.696	5.41
546.123	4.62
546.549	5.25
546.976	5.96
547.403	6.15
547.829	5.47
548.256	5.35
548.682	5.62
549.108	6.23
549.535	5.89
549.961	5.23
550.387	4.81
550.813	5.61
551.24	5.12
551.666	4.46
552.092	3.97
552.518	4.46
552.943	5.21
553.369	5.57
553.795	5.29
554.221	6.25
554.646	6.9
555.072	7.78
555.498	6.15
555.923	5.74
556.349	6
556.774	6.12
557.199	5.92
557.625	5.41
558.05	4.85
558.475	4.59
558.9	4.2
559.325	4.77
559.75	4.78
560.175	4.97
560.6	5.02
561.025	4.95
561.449	5.33
561.874	5.13
562.299	5.17
562.723	5.21
563.148	5.55
563.572	5.25
563.997	4.56
564.421	3.4
564.846	2.82
565.27	2.66
565.694	2.64
566.118	2.3
566.542	3.32
566.966	3.86
567.39	3.96
567.814	3.96
568.238	4.35
568.662	3.75
569.086	4.46
569.509	4.77
569.933	5.98
570.357	5.9
570.78	5.43
571.204	5.63
571.627	5.48
572.05	5.33
572.474	6.03
572.897	5.86
573.32	7.22
573.743	6.58
574.166	7.13
574.589	6.44
575.012	6.66
575.435	6.88
575.858	6.62
576.281	6.67
576.704	6.56
577.126	5.47
577.549	5.19
577.972	3.89
578.394	4.43
578.817	5.79
579.239	5.78
579.661	5.8
580.084	6.88
580.506	6.59
580.928	6.08
581.35	5.89
581.772	6.17
582.194	6.63
582.616	6.75
583.038	5.72
583.46	4.2
583.882	4.12
584.303	3.4
584.725	2.32
585.147	5.38
585.568	5.77
585.99	6.66
586.411	6.87
586.833	6.79
587.254	7.12
587.675	7.95
588.096	7.95
588.518	8.46
588.939	9.43
589.36	10.29
589.781	6.77
590.202	8.35
590.623	7.92
591.043	7.29
591.464	7.4
591.885	7.34
592.305	6.81
592.726	6.84
593.147	6.49
593.567	6.33
593.987	5.72
594.408	5.88
594.828	3.94
595.248	4.11
595.669	5.14
596.089	4.62
596.509	4.83
596.929	5.06
597.349	5.28
597.769	4.99
598.189	4.8
598.608	5.25
599.028	4.83
599.448	4.52
599.867	4.21
600.287	2.96
600.706	3.35
601.126	3.52
601.545	4.07
601.965	3.88
602.384	4.37
602.803	3.96
603.222	3.32
603.641	3.2
604.061	3.92
604.48	3.88
604.898	4.14
605.317	3.68
605.736	3.7
606.155	3.64
606.574	3.51
606.992	3.44
607.411	4.16
607.829	4.17
608.248	4.02
608.666	3.11
609.085	3.66
609.503	3.59
609.921	4.07
610.339	3.76
610.758	3.19
611.176	3.65
611.594	3.86
612.012	3.88
612.43	4.89
612.847	5.34
613.265	6.69
613.683	6.81
614.101	7.59
614.518	7.15
614.936	7.2
615.353	8.16
615.771	7.86
616.188	7.47
616.606	6.9
617.023	6.13
617.44	6.36
617.857	5.27
618.274	4.99
618.691	4.99
619.108	4.93
619.525	4.3
619.942	4.47
620.359	4.17
620.776	4.23
621.192	5.13
621.609	5.69
622.026	5.85
622.442	5.77
622.859	5.02
623.275	4.73
623.691	4.95
624.108	5.54
624.524	5.15
624.94	5.88
625.356	5.58
625.772	4.69
626.188	4.14
626.604	3.43
627.02	3.53
627.436	4.59
627.852	5.84
628.268	6.55
628.683	6.53
629.099	5.88
629.514	5.26
629.93	5.97
630.345	5.85
630.761	6
631.176	6.44
631.591	8.26
632.007	8.18
632.422	6.67
632.837	5.97
633.252	6.8
633.667	7.18
634.082	7.8
634.497	7.8
634.911	9.51
635.326	9.35
635.741	9.45
636.155	7.96
636.57	8.59
636.984	8.75
637.399	9.18
637.813	8.76
638.228	8.66
638.642	8.13
639.056	8.33
639.47	7.04
639.884	7.87
640.298	7.72
640.712	8.53
641.126	8.29
641.54	8.19
641.954	6.52
642.368	6.42
642.781	8.49
643.195	8.56
643.609	8.77
644.022	8.68
644.436	7.87
644.849	7.49
645.262	7.06
645.676	6.02
646.089	6.17
646.502	8.04
646.915	7.62
647.328	6.02
647.741	6.45
648.154	5.98
648.567	7.44
648.98	8.05
649.393	8.58
649.805	8.98
650.218	9.01
650.631	9.41
651.043	9.4
651.456	9.52
651.868	9.4
652.28	8.96
652.693	8.54
653.105	7.81
653.517	7.2
653.929	6.86
654.341	7.29
654.753	7.84
655.165	7.75
655.577	7.55
655.989	8.51
656.401	7.68
656.813	8.77
657.224	9.21
657.636	8.47
658.047	8.91
658.459	8.96
658.87	7.48
659.282	7.04
659.693	7.75
660.104	8.03
660.515	7.55
660.926	7.32
661.338	5.96
661.749	5.36
662.159	5.97
662.57	4.99
662.981	6.1
663.392	6.24
663.803	6.12
664.213	5.09
664.624	4.64
665.035	3.63
665.445	3.62
665.855	5.03
666.266	6.29
666.676	6.34
667.086	6.6
667.497	6.18
667.907	6.41
668.317	6.37
668.727	8.48
669.137	7.85
669.547	8.33
669.956	8.67
670.366	7.92
670.776	7.2
671.186	7.87
671.595	8.2
672.005	7.68
672.414	8.22
672.824	8.87
673.233	7.05
673.642	7.87
674.052	8.25
674.461	9.55
674.87	9.68
675.279	10.58
675.688	8.58
676.097	9.56
676.506	10.17
676.915	9.17
677.323	9.36
677.732	9.32
678.141	8.63
678.549	8.55
678.958	7.16
679.366	6.48
679.775	5.37
680.183	7.12
680.592	6.27
681	5.63
681.408	6.58
681.816	6.44
682.224	6.85
682.632	8.88
683.04	9.82
683.448	10.26
683.856	11.94
684.264	12.5
684.671	12.48
685.079	12.62
685.487	13.37
685.894	12.79
686.302	11.97
686.709	11.48
687.116	10.05
687.524	9.99
687.931	11.74
688.338	11.64
688.745	10.97
689.152	9.63
689.559	10.37
689.966	10.63
690.373	10.84
690.78	11.47
691.187	12.28
691.593	12.61
692	11.06
692.407	10.46
692.813	11.67
693.22	12.93
693.626	11.82
694.032	12.12
694.439	12.25
694.845	12.55
695.251	12.34
695.657	11.98
696.063	10.54
696.469	11.45
696.875	10.3
697.281	8.77
697.687	8.06
698.093	9.24
698.498	9.24
698.904	8.69
699.31	8.17
699.715	9.98
700.12	9.23
700.526	10.78
700.931	10.67
701.337	11.77
701.742	12.42
702.147	12.46
702.552	13.2
702.957	12.04
703.362	12.29
703.767	11.76
704.172	10.34
704.577	9.93
704.981	9.1
705.386	9.51
705.791	8.97
706.195	7.88
706.6	8.55
707.004	7.58
707.408	7.62
707.813	8.01
708.217	9.22
708.621	8.85
709.025	9.4
709.43	10.64
709.834	10.12
710.237	9.99
710.641	10.63
711.045	10.28
711.449	11.42
711.853	13.76
712.256	13.26
712.66	12.63
713.064	12.57
713.467	13.58
713.87	12.89
714.274	12.96
714.677	13.99
715.08	14.48
715.484	15.08
715.887	16.9
716.29	14.63
716.693	15.07
717.096	17.34
717.499	19.05
717.901	18.78
718.304	18.81
718.707	19.6
719.109	18.57
719.512	16.74
719.915	17.91
720.317	16.12
720.719	14.99
721.122	15.25
721.524	14.59
721.926	16.98
722.328	17.03
722.731	17.6
723.133	17.28
723.535	16.94
723.937	17.61
724.338	18.29
724.74	19.46
725.142	54.15
725.544	56.4
725.945	64.05
726.347	61.37
726.748	61.78
727.15	61.74
727.551	64.44
727.952	63.93
728.354	64
728.755	61.52
729.156	59.77
729.557	25.82
729.958	22.53
730.359	14.19
730.76	14.12
731.161	12.96
731.562	11.72
731.962	9.16
732.363	9.53
732.763	8.72
733.164	7.44
733.564	7.53
733.965	9.32
734.365	9.89
734.766	10.38
735.166	10.56
735.566	10.57
735.966	11.14
736.366	11.63
736.766	11.63
737.166	12.07
737.566	12.42
737.966	12.11
738.365	12.36
738.765	13.65
739.165	13.56
739.564	12.26
739.964	12.25
740.363	11.6
740.763	10.78
741.162	11.71
741.561	11.63
741.96	12.66
742.36	11.97
742.759	11.38
743.158	9.81
743.557	9.71
743.955	9.89
744.354	10.05
744.753	9.82
745.152	10.95
745.55	9.23
745.949	7.91
746.348	7.27
746.746	6.98
747.144	8.49
747.543	7.73
747.941	7.2
748.339	7.06
748.737	7.38
749.136	8.34
749.534	5.87
749.932	7.98
750.33	8.63
750.727	8.64
751.125	10.45
751.523	9.64
751.921	12.05
752.318	12.97
752.716	15.03
753.113	15.26
753.511	14.63
753.908	16.81
754.305	19.34
754.703	20.43
755.1	20.98
755.497	20.72
755.894	20.63
756.291	19.06
756.688	19.62
757.085	17.97
757.482	19.64
757.878	23.05
758.275	24
758.672	20.65
759.068	19.88
759.465	18.6
759.861	20.02
760.258	19.61
760.654	22.25
761.05	23.85
761.447	23.59
761.843	20.35
762.239	19.16
762.635	16.46
763.031	13.5
763.427	13.78
763.822	15.95
764.218	13.64
764.614	14.52
765.01	11.34
