Data from N_1_DEC_ON_6N_Splice17_11-22-52-666.txt Node
Date: Sat Mar 14 11:22:52 EDT 2020
User: sa697716
Spectrometer: FLMS03696
Trigger mode: 0
Integration Time (sec): 3.180400E-1
Scans to average: 20
Electric dark correction enabled: true
Nonlinearity correction enabled: true
Boxcar width: 5
XAxis mode: Wavelengths
Number of Pixels in Spectrum: 2048
>>>>>Begin Spectral Data<<<<<
187.83	-55956.51
188.298	504.32
188.766	324.83
189.233	237.25
189.701	293.46
190.169	440.05
190.636	177.62
191.104	178.15
191.571	26.53
192.039	-30.41
192.506	-17.08
192.974	257.14
193.441	-456.79
193.908	40.61
194.375	-50.69
194.842	-26.92
195.31	-3.07
195.777	112.28
196.244	221.17
196.711	182.31
197.177	173.75
197.644	200.6
198.111	307.11
198.578	385.22
199.045	274.4
199.511	470.67
199.978	466.01
200.445	418.57
200.911	393.97
201.378	357.5
201.844	357.65
202.31	604.66
202.777	624.05
203.243	364.55
203.709	358.44
204.176	411.77
204.642	339.73
205.108	340.24
205.574	284.85
206.04	264.11
206.506	269.91
206.972	232.53
207.438	224.29
207.903	248.14
208.369	223.77
208.835	233.58
209.301	232.08
209.766	231.59
210.232	219.76
210.697	227.79
211.163	264.06
211.628	363.4
212.094	315.91
212.559	420.17
213.024	263.35
213.49	335.25
213.955	305.44
214.42	302.28
214.885	267.9
215.35	280.53
215.815	327.96
216.28	344.01
216.745	264.1
217.21	302.26
217.675	248.75
218.14	268.3
218.604	254.04
219.069	272.31
219.534	292.37
219.998	306
220.463	326.77
220.927	312.27
221.392	271
221.856	277.9
222.32	258.38
222.785	283.43
223.249	315.9
223.713	324.46
224.177	311.49
224.642	295.63
225.106	312.67
225.57	273.5
226.034	255.6
226.497	377.11
226.961	345.85
227.425	414.39
227.889	446.95
228.353	387.17
228.816	743.37
229.28	662.16
229.744	546.1
230.207	379.96
230.671	380.85
231.134	449.69
231.597	586.75
232.061	536.8
232.524	474.58
232.987	345.11
233.45	370.26
233.914	304.52
234.377	276.41
234.84	260.86
235.303	255.22
235.766	300.5
236.229	279.18
236.691	135.59
237.154	121.48
237.617	126.03
238.08	102.49
238.542	94.1
239.005	93.95
239.468	116.71
239.93	107.23
240.393	116.85
240.855	102.81
241.317	98.72
241.78	117.97
242.242	138.62
242.704	170.84
243.166	170.65
243.629	185.53
244.091	211.04
244.553	211.66
245.015	245.35
245.477	295.42
245.939	417.36
246.4	488.24
246.862	442.94
247.324	408.43
247.786	402.83
248.247	456.58
248.709	353.96
249.17	278.33
249.632	350.38
250.093	454.59
250.555	378.89
251.016	266.26
251.477	255.79
251.939	300.93
252.4	308.78
252.861	344
253.322	348.92
253.783	403.55
254.244	485.38
254.705	320.87
255.166	234.09
255.627	227.14
256.088	297.51
256.549	285
257.009	216.72
257.47	238.46
257.931	191.03
258.391	167.69
258.852	163.67
259.312	173.78
259.773	217.01
260.233	229.61
260.694	221.61
261.154	231.26
261.614	240.76
262.074	206.14
262.534	227.18
262.994	217.17
263.455	238.8
263.915	217.22
264.374	197.36
264.834	217.04
265.294	217.28
265.754	229.41
266.214	209.06
266.673	169.92
267.133	209.83
267.593	190.96
268.052	237.32
268.512	209.88
268.971	304.49
269.431	360.4
269.89	309.97
270.349	455.54
270.809	485.18
271.268	449.28
271.727	894.12
272.186	626.01
272.645	513.78
273.104	335.45
273.563	479.18
274.022	308.37
274.481	285.79
274.94	236.22
275.399	167.27
275.857	166.82
276.316	196.39
276.775	173
277.233	159.03
277.692	131.6
278.15	173.18
278.609	205.03
279.067	186.47
279.525	179.36
279.984	228.68
280.442	261.03
280.9	344.22
281.358	252.01
281.816	264.73
282.274	250.22
282.732	236.24
283.19	233.57
283.648	202.33
284.106	200.66
284.564	187.59
285.021	177.11
285.479	142.77
285.937	99.7
286.394	99.35
286.852	87.11
287.309	97.18
287.767	131.51
288.224	139.75
288.682	152.64
289.139	197.66
289.596	188.18
290.053	183.16
290.511	203.95
290.968	262.01
291.425	333.93
291.882	332.4
292.339	294.96
292.796	253.09
293.252	218.71
293.709	195.15
294.166	161.74
294.623	161
295.079	143.83
295.536	176.65
295.992	171.37
296.449	164.72
296.905	163.63
297.362	184.77
297.818	197.08
298.274	213.95
298.731	189.79
299.187	198.61
299.643	211.89
300.099	259.2
300.555	270.79
301.011	222.52
301.467	261.41
301.923	264.26
302.379	255.15
302.835	265.86
303.291	265.06
303.746	302.1
304.202	372.52
304.658	343.98
305.113	244.36
305.569	214.39
306.024	223.12
306.479	183.53
306.935	185.12
307.39	172.32
307.845	161.3
308.301	203.25
308.756	188.45
309.211	184.14
309.666	214.27
310.121	281.89
310.576	297.18
311.031	279.97
311.486	293.2
311.94	254.9
312.395	294.6
312.85	473.76
313.305	1014.05
313.759	10432.78
314.214	631.12
314.668	484.03
315.123	560.48
315.577	226.16
316.032	221.58
316.486	264.58
316.94	266.01
317.394	223.21
317.849	189.35
318.303	183.62
318.757	172.99
319.211	197.75
319.665	177.58
320.119	175.87
320.572	230.34
321.026	240.56
321.48	194.25
321.934	176.89
322.387	167.95
322.841	185.9
323.295	214.41
323.748	212.05
324.202	228.16
324.655	279.29
325.108	415.75
325.562	334.32
326.015	345.68
326.468	279.84
326.921	332.01
327.374	336.75
327.827	350.9
328.28	368.14
328.733	263.72
329.186	232.57
329.639	225.5
330.092	164.78
330.545	161.08
330.997	182.88
331.45	213.18
331.903	258.91
332.355	394.09
332.808	346.03
333.26	273.17
333.713	299.47
334.165	291.98
334.617	338.31
335.069	246.77
335.522	341.75
335.974	299.26
336.426	221.05
336.878	150.63
337.33	91.99
337.782	110.03
338.234	148.71
338.686	145.57
339.137	144.4
339.589	152.8
340.041	155.68
340.493	142.01
340.944	144.18
341.396	169.58
341.847	146.27
342.299	194.02
342.75	258.46
343.201	219.9
343.653	261.19
344.104	323.34
344.555	288.67
345.006	336.84
345.457	349.06
345.908	269.13
346.359	279.73
346.81	229.89
347.261	221.17
347.712	199.04
348.163	193.15
348.613	240.28
349.064	231.11
349.515	192.52
349.965	226.47
350.416	229.44
350.866	240.71
351.317	243.98
351.767	415.55
352.217	487.79
352.668	445.16
353.118	429.95
353.568	316.04
354.018	292.11
354.468	336.72
354.918	254.4
355.368	246.58
355.818	338.88
356.268	812.91
356.718	3432
357.168	1014.95
357.617	464.04
358.067	499.76
358.517	489.67
358.966	541.46
359.416	635.11
359.865	627.87
360.315	634.58
360.764	362.9
361.213	232.07
361.663	203.16
362.112	222.26
362.561	344.42
363.01	253.94
363.459	198.05
363.908	206.24
364.357	187.12
364.806	317.32
365.255	243.88
365.703	269.72
366.152	246.78
366.601	199.03
367.05	182.56
367.498	178.94
367.947	178.34
368.395	186.13
368.844	162.38
369.292	160.66
369.74	128.59
370.189	163.31
370.637	134.61
371.085	118.81
371.533	151.25
371.981	107.06
372.429	128.47
372.877	151.69
373.325	144.66
373.773	130.67
374.221	96.34
374.669	97.84
375.116	106.79
375.564	122.86
376.012	138.36
376.459	108.95
376.907	129.37
377.354	106.38
377.801	100.62
378.249	126.76
378.696	184.3
379.143	269.74
379.591	259.81
380.038	345.85
380.485	283.54
380.932	322.9
381.379	379.49
381.826	366.57
382.273	279.45
382.72	207.89
383.166	191.44
383.613	143.25
384.06	117.26
384.506	140.53
384.953	111.78
385.4	105.93
385.846	97.45
386.292	72.12
386.739	47.42
387.185	41.66
387.631	47.75
388.078	61.62
388.524	71.42
388.97	73.96
389.416	81.08
389.862	87.13
390.308	85.87
390.754	95.36
391.2	102.6
391.645	106.19
392.091	128.94
392.537	130.4
392.983	111.42
393.428	123.76
393.874	122.44
394.319	123.2
394.765	132.39
395.21	119.32
395.655	102.52
396.101	102.04
396.546	90.63
396.991	78.23
397.436	80.59
397.881	75.45
398.326	50.73
398.771	54.08
399.216	42.95
399.661	34.9
400.106	43.76
400.551	50.38
400.995	49.04
401.44	50.95
401.885	45.18
402.329	39.92
402.774	44.15
403.218	56.42
403.663	55.53
404.107	56.65
404.551	57.62
404.995	49.38
405.44	42.94
405.884	37.74
406.328	32.77
406.772	27.56
407.216	27.13
407.66	23.19
408.104	13.12
408.547	12.3
408.991	9.89
409.435	6.37
409.879	9.24
410.322	9.16
410.766	12.84
411.209	16.97
411.653	18.7
412.096	21.67
412.54	22.04
412.983	23.93
413.426	24.84
413.869	24.29
414.312	28.64
414.756	26.41
415.199	27.2
415.642	28.07
416.085	29.75
416.527	29.95
416.97	27.29
417.413	28.09
417.856	24.88
418.298	23.56
418.741	22.63
419.184	19.01
419.626	15.21
420.069	14.05
420.511	13.07
420.953	12.98
421.396	14.04
421.838	12.5
422.28	10.19
422.722	13.85
423.164	13.34
423.606	13.63
424.048	13.99
424.49	17.78
424.932	16.37
425.374	14.12
425.816	11.52
426.258	12.01
426.699	12.41
427.141	16.29
427.582	13.22
428.024	13.93
428.465	12.81
428.907	11.46
429.348	11.98
429.789	14.46
430.231	18.42
430.672	18.62
431.113	17.93
431.554	19.14
431.995	16.97
432.436	21.05
432.877	19.95
433.318	23.33
433.759	22.93
434.2	20.97
434.64	19.07
435.081	16.61
435.522	17.37
435.962	16.43
436.403	18.39
436.843	17.11
437.284	12.53
437.724	11.55
438.164	7.91
438.604	6.96
439.045	7.64
439.485	12.08
439.925	11.08
440.365	9.65
440.805	8.52
441.245	8.09
441.685	8.2
442.125	9.07
442.564	9.07
443.004	10.89
443.444	11.51
443.883	12.13
444.323	6.03
444.762	3.16
445.202	3.03
445.641	4.9
446.081	3.2
446.52	3.14
446.959	4.7
447.398	5.21
447.837	5.15
448.276	5.5
448.716	5.49
449.154	6.82
449.593	10.02
450.032	9.04
450.471	6.1
450.91	5.47
451.349	6.82
451.787	5.05
452.226	4.64
452.664	4.46
453.103	4
453.541	4.17
453.98	6.87
454.418	6.12
454.856	8.83
455.295	10.5
455.733	11.27
456.171	10.06
456.609	11.41
457.047	11.63
457.485	13.01
457.923	14.24
458.361	12.55
458.798	11.31
459.236	11.32
459.674	8.92
460.111	9.02
460.549	9.21
460.987	9.15
461.424	7.41
461.862	7.53
462.299	7
462.736	7.49
463.173	7.47
463.611	9.27
464.048	10.02
464.485	11.84
464.922	10.79
465.359	9.81
465.796	15.2
466.233	16.26
466.67	18.56
467.106	18.94
467.543	17.47
467.98	17.17
468.416	15.73
468.853	14.48
469.29	13.4
469.726	12.82
470.162	12.41
470.599	7.14
471.035	6.26
471.471	5.74
471.907	3.92
472.344	4.55
472.78	5.51
473.216	3.97
473.652	4.31
474.088	3.07
474.523	4.09
474.959	4.13
475.395	4.47
475.831	4.51
476.266	3.91
476.702	3.97
477.138	3.9
477.573	3.21
478.008	4.27
478.444	4.91
478.879	6.91
479.314	7.28
479.75	7.25
480.185	7.03
480.62	6.91
481.055	6.41
481.49	6.96
481.925	7.31
482.36	9.01
482.795	7.84
483.229	6.64
483.664	6.24
484.099	5.69
484.534	6.57
484.968	7.22
485.403	7.3
485.837	6.64
486.271	6.33
486.706	5.4
487.14	4.41
487.574	5.36
488.009	5.54
488.443	4.84
488.877	5.56
489.311	4.94
489.745	4.84
490.179	4.93
490.613	6.52
491.046	6.17
491.48	6.39
491.914	6.46
492.348	6.04
492.781	6.07
493.215	6.42
493.648	5.25
494.082	4.98
494.515	4.51
494.948	5.12
495.382	3.64
495.815	4.06
496.248	4.51
496.681	4.21
497.114	3.87
497.547	4.21
497.98	4.88
498.413	6.22
498.846	6.93
499.279	6.72
499.711	6.47
500.144	6.67
500.577	6.86
501.009	6.22
501.442	7.29
501.874	8.05
502.306	7.77
502.739	8.78
503.171	8.03
503.603	7.82
504.036	7.67
504.468	7.6
504.9	7.68
505.332	7.17
505.764	7.46
506.196	6.01
506.627	6.13
507.059	6.42
507.491	4.58
507.923	4.68
508.354	5.11
508.786	5.37
509.217	5.06
509.649	4.82
510.08	4.74
510.512	5.26
510.943	5.98
511.374	5.99
511.805	5.98
512.237	5.45
512.668	4.83
513.099	4.08
513.53	3.95
513.961	4.44
514.391	4.3
514.822	5.63
515.253	5.3
515.684	5.28
516.114	5.04
516.545	4.7
516.975	4.87
517.406	4.96
517.836	4.39
518.267	4.78
518.697	5.65
519.127	5.84
519.558	4.99
519.988	5.28
520.418	4.1
520.848	3.1
521.278	3.28
521.708	32.11
522.138	32.99
522.567	32.91
522.997	32.78
523.427	31.76
523.857	31.94
524.286	31.79
524.716	31.3
525.145	32.28
525.575	33.53
526.004	32.82
526.433	5.03
526.863	4.14
527.292	5.19
527.721	5.62
528.15	5.63
528.579	6.28
529.008	6.43
529.437	5.83
529.866	5.8
530.295	4.47
530.724	5.32
531.152	4.91
531.581	5.22
532.01	4.75
532.438	4.5
532.867	4.19
533.295	3.66
533.723	3.59
534.152	3.76
534.58	3.9
535.008	4.88
535.436	5.67
535.865	5.4
536.293	4.57
536.721	4.56
537.149	4.23
537.576	5.12
538.004	4.76
538.432	4.15
538.86	5.07
539.287	4.67
539.715	4.32
540.143	2.88
540.57	3.52
540.998	4.29
541.425	5.51
541.852	5.31
542.28	5.13
542.707	5.3
543.134	5.8
543.561	5.66
543.988	5.76
544.415	5.41
544.842	5.97
545.269	5.9
545.696	6.25
546.123	5.63
546.549	6.26
546.976	6.25
547.403	6.44
547.829	6.03
548.256	5.37
548.682	5.61
549.108	6.59
549.535	6.27
549.961	5.94
550.387	5.99
550.813	6.7
551.24	6.73
551.666	6.36
552.092	5.96
552.518	5.89
552.943	6.38
553.369	5.56
553.795	5.28
554.221	5.34
554.646	5.46
555.072	5.75
555.498	4.78
555.923	4.32
556.349	4.09
556.774	4.19
557.199	4.54
557.625	3.79
558.05	4.5
558.475	4.49
558.9	4.68
559.325	5.42
559.75	5.5
560.175	5.82
560.6	5.34
561.025	4.96
561.449	5.25
561.874	4.85
562.299	5.88
562.723	5.66
563.148	5.61
563.572	5.34
563.997	4.92
564.421	3.54
564.846	2.47
565.27	2.93
565.694	3.1
566.118	2.67
566.542	4.06
566.966	3.77
567.39	4.06
567.814	4.23
568.238	4.36
568.662	3.05
569.086	3.63
569.509	3.28
569.933	4.72
570.357	4.77
570.78	5.23
571.204	4.63
571.627	4.61
572.05	4.22
572.474	4.78
572.897	5.31
573.32	6.76
573.743	6.67
574.166	7.55
574.589	6.54
575.012	6.89
575.435	6.26
575.858	6.36
576.281	6.12
576.704	6.43
577.126	5.4
577.549	4.82
577.972	4.21
578.394	4.25
578.817	6.14
579.239	6.01
579.661	6.03
580.084	7.08
580.506	7.17
580.928	7.16
581.35	6.71
581.772	6.76
582.194	6.8
582.616	6.47
583.038	6.13
583.46	4.28
583.882	4.14
584.303	3.59
584.725	2.76
585.147	6.14
585.568	6.47
585.99	7.45
586.411	8.72
586.833	9.26
587.254	9.51
587.675	9.76
588.096	9.9
588.518	10.56
588.939	10.85
589.36	10.69
589.781	6.13
590.202	8.05
590.623	7.37
591.043	5.91
591.464	5.53
591.885	6.14
592.305	5.4
592.726	5.18
593.147	4.94
593.567	5.08
593.987	5.48
594.408	5.36
594.828	3.2
595.248	4.07
595.669	4.79
596.089	4.77
596.509	3.82
596.929	3.78
597.349	3.9
597.769	3.2
598.189	3.05
598.608	2.91
599.028	3.15
599.448	3.08
599.867	2.52
600.287	2.24
600.706	2.31
601.126	2.87
601.545	4.16
601.965	4.15
602.384	4.77
602.803	4.43
603.222	4.99
603.641	4.68
604.061	4.73
604.48	4.42
604.898	4.16
605.317	3.88
605.736	3.31
606.155	3.14
606.574	3.39
606.992	2.71
607.411	3.29
607.829	2.04
608.248	2.41
608.666	2.09
609.085	2.35
609.503	2.34
609.921	3.07
610.339	3.4
610.758	2.92
611.176	2.47
611.594	3.35
612.012	3.16
612.43	4.4
612.847	3.75
613.265	4.79
613.683	5
614.101	5.25
614.518	4.63
614.936	4.77
615.353	5.21
615.771	5.56
616.188	5.24
616.606	5.32
617.023	5.29
617.44	6
617.857	5.09
618.274	4.68
618.691	5.14
619.108	5.29
619.525	4.91
619.942	5.04
620.359	5.42
620.776	5.48
621.192	5.97
621.609	6.16
622.026	6.49
622.442	7.24
622.859	7.08
623.275	6.44
623.691	6.39
624.108	7.13
624.524	7.19
624.94	7.14
625.356	6.69
625.772	5.76
626.188	5.47
626.604	4.93
627.02	4.22
627.436	4.84
627.852	6.15
628.268	6.64
628.683	5.97
629.099	5.6
629.514	5.09
629.93	5.65
630.345	5.5
630.761	4.9
631.176	5.29
631.591	7.1
632.007	8
632.422	6.18
632.837	5.56
633.252	6.74
633.667	6.64
634.082	6.58
634.497	6.96
634.911	8.31
635.326	8.37
635.741	8.47
636.155	6.75
636.57	6.69
636.984	7.51
637.399	8.13
637.813	6.76
638.228	6.53
638.642	5.82
639.056	5.13
639.47	4.52
639.884	5.37
640.298	5.31
640.712	6.2
641.126	5.29
641.54	4.68
641.954	3.18
642.368	3.97
642.781	5.71
643.195	6.63
643.609	7.31
644.022	7.36
644.436	6.78
644.849	6.6
645.262	6.05
645.676	5.59
646.089	6.19
646.502	8.13
646.915	7.81
647.328	7.39
647.741	7.71
648.154	8.05
648.567	9.71
648.98	10.23
649.393	10.57
649.805	10.83
650.218	11.2
650.631	11.74
651.043	11.74
651.456	11.91
651.868	11.43
652.28	10.67
652.693	9.88
653.105	8.22
653.517	8.03
653.929	8.61
654.341	8.78
654.753	9.25
655.165	7.65
655.577	6.85
655.989	7.35
656.401	6.72
656.813	8.55
657.224	8.17
657.636	8.03
658.047	8.6
658.459	7.46
658.87	6.06
659.282	6.38
659.693	8.5
660.104	8.99
660.515	8.62
660.926	8.27
661.338	7.42
661.749	7
662.159	7.72
662.57	6.68
662.981	7.49
663.392	8.35
663.803	6.95
664.213	5.76
664.624	5.45
665.035	5.26
665.445	5.46
665.855	6.13
666.266	7.83
666.676	7.22
667.086	6.7
667.497	6.83
667.907	6.41
668.317	7.01
668.727	8.96
669.137	8.48
669.547	8.15
669.956	7.44
670.366	6.57
670.776	6.42
671.186	5.8
671.595	6.15
672.005	4.92
672.414	6.15
672.824	6.78
673.233	5.24
673.642	5.2
674.052	6.22
674.461	8.15
674.87	8.96
675.279	9.76
675.688	9.68
676.097	10.84
676.506	11.49
676.915	10.4
677.323	10.65
677.732	10.15
678.141	10.17
678.549	9.28
678.958	7.55
679.366	6.5
679.775	4.09
680.183	6.1
680.592	6
681	5.49
681.408	5.97
681.816	5.28
682.224	4.46
682.632	5.48
683.04	5.9
683.448	5.93
683.856	6.92
684.264	8.56
684.671	7.97
685.079	7.28
685.487	7.82
685.894	7.44
686.302	7.63
686.709	9.48
687.116	9.14
687.524	10.11
687.931	11.29
688.338	10.19
688.745	9.08
689.152	7.22
689.559	7.65
689.966	8.82
690.373	9.61
690.78	10.31
691.187	9.91
691.593	10.76
692	9.55
692.407	10.41
692.813	12.91
693.22	14.25
693.626	14.3
694.032	14.48
694.439	13.92
694.845	14.14
695.251	13.09
695.657	13.3
696.063	11
696.469	11.74
696.875	10.42
697.281	8.07
697.687	7.82
698.093	7.66
698.498	8.13
698.904	7.11
699.31	6.55
699.715	8.71
700.12	8.34
700.526	10.34
700.931	9.82
701.337	10.65
701.742	12.4
702.147	11.84
702.552	12.28
702.957	11.35
703.362	11.92
703.767	12.39
704.172	10.13
704.577	10.8
704.981	8.76
705.386	9.02
705.791	9.31
706.195	7.38
706.6	6.86
707.004	6.11
707.408	5.46
707.813	7.13
708.217	7.12
708.621	7.43
709.025	5.69
709.43	7.51
709.834	8.06
710.237	6.53
710.641	7.46
711.045	7.93
711.449	9.35
711.853	12.27
712.256	11.29
712.66	11.7
713.064	11.72
713.467	14.04
713.87	13.75
714.274	13.45
714.677	15.39
715.08	14.95
715.484	15.78
715.887	18.33
716.29	16.68
716.693	17.53
717.096	18.09
717.499	19.01
717.901	17.21
718.304	17.43
718.707	17.09
719.109	16.19
719.512	16.2
719.915	18.1
720.317	15.49
720.719	13.77
721.122	13.39
721.524	12.62
721.926	16.31
722.328	17.3
722.731	16.5
723.133	16.73
723.535	16.33
723.937	16.88
724.338	16.45
724.74	17.62
725.142	56.99
725.544	59.02
725.945	68.73
726.347	65.21
726.748	65.77
727.15	67.41
727.551	69.14
727.952	68.46
728.354	67.8
728.755	66.94
729.156	66.61
729.557	29.24
729.958	26.39
730.359	16.49
730.76	15.61
731.161	14.79
731.562	13.41
731.962	12.36
732.363	13.01
732.763	12.94
733.164	10.32
733.564	9.48
733.965	10.41
734.365	10.03
734.766	10.71
735.166	11.14
735.566	11.41
735.966	12.4
736.366	12.19
736.766	12
737.166	10.94
737.566	12.9
737.966	12.46
738.365	12.47
738.765	14.09
739.165	14.45
739.564	15.03
739.964	14.24
740.363	12.75
740.763	11.93
741.162	12.66
741.561	12.87
741.96	12.98
742.36	12.57
742.759	11.95
743.158	10.19
743.557	8.7
743.955	7.57
744.354	7.27
744.753	7.37
745.152	7.86
745.55	6.96
745.949	7.18
746.348	7.39
746.746	6.79
747.144	9.1
747.543	9.01
747.941	9.36
748.339	9.8
748.737	10.12
749.136	11.02
749.534	9.83
749.932	11.45
750.33	11.52
750.727	9.31
751.125	10.58
751.523	9.33
751.921	12.27
752.318	13.02
752.716	14.79
753.113	14.51
753.511	13.8
753.908	15.19
754.305	17.36
754.703	17.6
755.1	19.57
755.497	19.83
755.894	18.68
756.291	16.89
756.688	17.15
757.085	15.49
757.482	18.36
757.878	21.49
758.275	23.28
758.672	18.69
759.068	20.46
759.465	19.39
759.861	20.06
760.258	21.21
760.654	23.17
761.05	24.59
761.447	23.6
761.843	20.33
762.239	19.76
762.635	16.82
763.031	16.06
763.427	15.42
763.822	17.27
764.218	15.71
764.614	15.57
765.01	12.49
765.405	11.05
765.801	11.66
766.196	12.11
766.592	10.44
