Data from N_1_DIV_OH_2N_Splice17_11-29-42-247.txt Node
Date: Sat Mar 14 11:29:42 EDT 2020
User: sa697716
Spectrometer: FLMS03696
Trigger mode: 0
Integration Time (sec): 3.180400E-1
Scans to average: 20
Electric dark correction enabled: true
Nonlinearity correction enabled: true
Boxcar width: 5
XAxis mode: Wavelengths
Number of Pixels in Spectrum: 2048
>>>>>Begin Spectral Data<<<<<
187.83	-117465.56
188.298	991.24
188.766	559.26
189.233	478.45
189.701	689.84
190.169	1014.06
190.636	377.84
191.104	324.27
191.571	28.98
192.039	7.96
192.506	-15.07
192.974	325.21
193.441	-444.4
193.908	-64.88
194.375	-40.65
194.842	32.38
195.31	151.6
195.777	163.54
196.244	281.66
196.711	203.2
197.177	207.49
197.644	228.23
198.111	349.62
198.578	464.8
199.045	339.44
199.511	572.6
199.978	607.19
200.445	500.55
200.911	489.28
201.378	487.15
201.844	480.43
202.31	851.3
202.777	862.76
203.243	471.42
203.709	454.37
204.176	576.74
204.642	456.03
205.108	424.87
205.574	347.93
206.04	327.87
206.506	302.54
206.972	263.05
207.438	243.45
207.903	281.12
208.369	280.61
208.835	274.56
209.301	286.83
209.766	281.27
210.232	287.19
210.697	333.53
211.163	368.34
211.628	527.85
212.094	448.97
212.559	597.96
213.024	370.03
213.49	443.98
213.955	419.86
214.42	364.93
214.885	345.37
215.35	336.31
215.815	384.99
216.28	429.63
216.745	349.71
217.21	391.63
217.675	316.25
218.14	338.52
218.604	327.77
219.069	357.83
219.534	378.6
219.998	395.46
220.463	417.5
220.927	397.77
221.392	334.89
221.856	316.63
222.32	303.85
222.785	341.52
223.249	384.85
223.713	413.23
224.177	376.24
224.642	376.6
225.106	403.01
225.57	407.39
226.034	359.46
226.497	543.78
226.961	494.28
227.425	619.28
227.889	681.71
228.353	660.33
228.816	1226.15
229.28	1216.04
229.744	1034.79
230.207	667.02
230.671	654.26
231.134	911.96
231.597	1052.01
232.061	987.84
232.524	893.08
232.987	580.6
233.45	500.67
233.914	439.95
234.377	385.29
234.84	347.06
235.303	376.15
235.766	414.46
236.229	421.1
236.691	254.61
237.154	265.99
237.617	220.19
238.08	230.88
238.542	294.3
239.005	227.85
239.468	251.63
239.93	239.76
240.393	219.04
240.855	197.14
241.317	185.48
241.78	196.05
242.242	232.54
242.704	276.28
243.166	239.84
243.629	237.35
244.091	278.79
244.553	279.16
245.015	307.01
245.477	376.91
245.939	513.12
246.4	564.31
246.862	542.78
247.324	480.02
247.786	468.96
248.247	545.09
248.709	472.8
249.17	341.29
249.632	429.6
250.093	528.01
250.555	473.17
251.016	334.14
251.477	327.14
251.939	371.85
252.4	379.75
252.861	432.07
253.322	436.85
253.783	484.88
254.244	595.25
254.705	407.85
255.166	322.61
255.627	329.32
256.088	435.31
256.549	456.03
257.009	374.86
257.47	431.35
257.931	353.3
258.391	285.49
258.852	302.04
259.312	329.77
259.773	390.77
260.233	374.81
260.694	326.63
261.154	366.43
261.614	323.26
262.074	295.99
262.534	331.76
262.994	326.06
263.455	396.65
263.915	348.95
264.374	320.04
264.834	348.96
265.294	353.89
265.754	356.73
266.214	318.1
266.673	285.82
267.133	333.05
267.593	291.78
268.052	351.78
268.512	302.21
268.971	398.2
269.431	432.7
269.89	378.31
270.349	556.58
270.809	626.18
271.268	591.88
271.727	1187.25
272.186	778.97
272.645	587.98
273.104	351.12
273.563	500.09
274.022	312.54
274.481	313.88
274.94	260.31
275.399	199.95
275.857	205.06
276.316	237.14
276.775	223.98
277.233	229.77
277.692	253.06
278.15	326.37
278.609	380.68
279.067	341.86
279.525	323.44
279.984	390.43
280.442	443.54
280.9	548.19
281.358	376.8
281.816	377.47
282.274	355.36
282.732	342.58
283.19	346.52
283.648	289.47
284.106	326.74
284.564	300.18
285.021	292.24
285.479	234
285.937	169.1
286.394	171.54
286.852	170.62
287.309	187.83
287.767	207.92
288.224	209.39
288.682	219.73
289.139	248.82
289.596	252.79
290.053	251.05
290.511	286.17
290.968	359.99
291.425	449.78
291.882	382
292.339	345.4
292.796	314.34
293.252	285.26
293.709	257.32
294.166	233.14
294.623	240.82
295.079	216.44
295.536	236.67
295.992	228.2
296.449	225.04
296.905	241.02
297.362	264.42
297.818	271.92
298.274	281.15
298.731	267.29
299.187	261.81
299.643	278.22
300.099	354.85
300.555	384.13
301.011	339.47
301.467	381.42
301.923	410.32
302.379	377.96
302.835	370.25
303.291	387.61
303.746	429.09
304.202	501.34
304.658	507.73
305.113	359.27
305.569	372.89
306.024	361.38
306.479	287.91
306.935	267.58
307.39	248.13
307.845	230.36
308.301	254.62
308.756	257.86
309.211	273.12
309.666	273.1
310.121	372
310.576	352.61
311.031	343.01
311.486	368.58
311.94	336.45
312.395	467.66
312.85	868.55
313.305	3484.57
313.759	19330.25
314.214	1407.69
314.668	1135.09
315.123	918.24
315.577	355.04
316.032	336.65
316.486	429.7
316.94	379.24
317.394	295.74
317.849	232.58
318.303	215.95
318.757	215.44
319.211	234.42
319.665	217.93
320.119	219.86
320.572	273.61
321.026	262.77
321.48	231.73
321.934	230.14
322.387	222.03
322.841	266.19
323.295	297.43
323.748	304.49
324.202	314.63
324.655	352.8
325.108	537.35
325.562	409.18
326.015	471.11
326.468	335.59
326.921	393.58
327.374	389.24
327.827	412.17
328.28	411.71
328.733	295.61
329.186	260.22
329.639	251.98
330.092	205.79
330.545	201.96
330.997	218.9
331.45	270.33
331.903	325.69
332.355	493.4
332.808	456.38
333.26	375.88
333.713	407.9
334.165	397.56
334.617	494.37
335.069	307.06
335.522	493.37
335.974	502.03
336.426	363.17
336.878	191.76
337.33	140.83
337.782	123.95
338.234	177.54
338.686	203.15
339.137	259.45
339.589	286.39
340.041	276.15
340.493	261.64
340.944	272.97
341.396	306.85
341.847	288.26
342.299	345.01
342.75	462.44
343.201	365.68
343.653	414.5
344.104	453.57
344.555	351.29
345.006	492.98
345.457	448.35
345.908	335.22
346.359	338.53
346.81	268.64
347.261	246.44
347.712	220.93
348.163	233.8
348.613	286.17
349.064	285.05
349.515	239.2
349.965	279.02
350.416	289.64
350.866	326.04
351.317	334.11
351.767	570.74
352.217	756.37
352.668	676.19
353.118	665.73
353.568	523.79
354.018	468.53
354.468	514.06
354.918	349.65
355.368	321.55
355.818	421.14
356.268	1129.76
356.718	5136.73
357.168	1309.83
357.617	632.02
358.067	605.64
358.517	597.57
358.966	710.34
359.416	872.93
359.865	942.84
360.315	1020.04
360.764	527.06
361.213	313.12
361.663	235.96
362.112	283.49
362.561	384.82
363.01	321.37
363.459	283.5
363.908	248.48
364.357	263.47
364.806	404.8
365.255	295.75
365.703	284.04
366.152	279.28
366.601	268.57
367.05	240.78
367.498	253.12
367.947	245.42
368.395	242.75
368.844	233.7
369.292	208.78
369.74	163.15
370.189	223.62
370.637	243.5
371.085	218.87
371.533	241.48
371.981	167.9
372.429	163.85
372.877	182.01
373.325	153.57
373.773	147.25
374.221	121.1
374.669	143.69
375.116	120.03
375.564	139.9
376.012	153.07
376.459	133.99
376.907	173.74
377.354	190.62
377.801	184.91
378.249	232.58
378.696	294.54
379.143	403.85
379.591	449.92
380.038	879.07
380.485	664.29
380.932	669.57
381.379	771.95
381.826	653.36
382.273	491.51
382.72	413.02
383.166	405.25
383.613	279.97
384.06	252.85
384.506	272.3
384.953	198.57
385.4	178.95
385.846	153.06
386.292	112.86
386.739	84.4
387.185	57.06
387.631	67.1
388.078	87.44
388.524	88.64
388.97	90.36
389.416	71.89
389.862	70.11
390.308	70.74
390.754	85.96
391.2	92.35
391.645	97.15
392.091	133.32
392.537	131.51
392.983	112.43
393.428	129.37
393.874	124.24
394.319	151.83
394.765	161.72
395.21	167.12
395.655	142.75
396.101	137.69
396.546	132.91
396.991	110.86
397.436	103.76
397.881	97.95
398.326	82.83
398.771	89.95
399.216	70.8
399.661	65.18
400.106	65.79
400.551	77.07
400.995	74.04
401.44	73.2
401.885	72.66
402.329	75.25
402.774	79.43
403.218	83.44
403.663	80.79
404.107	88.38
404.551	90.82
404.995	84.76
405.44	77.97
405.884	76.03
406.328	69.31
406.772	68.21
407.216	61.1
407.66	53.69
408.104	44.68
408.547	38.93
408.991	35.95
409.435	30.54
409.879	32.83
410.322	36.64
410.766	36.94
411.209	41.51
411.653	41.65
412.096	44.25
412.54	43.7
412.983	44.61
413.426	49.37
413.869	49.55
414.312	52.39
414.756	49.56
415.199	45.98
415.642	48.23
416.085	48.19
416.527	45.97
416.97	42.37
417.413	43.29
417.856	41.45
418.298	39.24
418.741	35.12
419.184	31.13
419.626	26.43
420.069	26.72
420.511	24.04
420.953	24.13
421.396	25.4
421.838	28.86
422.28	30.07
422.722	33.89
423.164	32.78
423.606	34.7
424.048	36.03
424.49	39.04
424.932	38.63
425.374	38.86
425.816	36.9
426.258	36.29
426.699	35.73
427.141	36.9
427.582	34.59
428.024	35.25
428.465	32.46
428.907	32.66
429.348	30.56
429.789	32.21
430.231	34.36
430.672	36.28
431.113	35.93
431.554	33.97
431.995	30.82
432.436	34.19
432.877	34.22
433.318	39.4
433.759	40.09
434.2	42.25
434.64	40.77
435.081	39.88
435.522	38.12
435.962	37.33
436.403	39.59
436.843	39.27
437.284	37.33
437.724	35.17
438.164	32.28
438.604	31.04
439.045	31.22
439.485	32.69
439.925	32.34
440.365	31.3
440.805	30.69
441.245	29.66
441.685	30.41
442.125	28.41
442.564	29.3
443.004	28.09
443.444	27.09
443.883	26.53
444.323	23.18
444.762	20.12
445.202	19.79
445.641	22.04
446.081	19.43
446.52	18.8
446.959	19.92
447.398	19.79
447.837	21.08
448.276	20.47
448.716	21.49
449.154	20.08
449.593	21.16
450.032	21.27
450.471	18.24
450.91	19.69
451.349	20.84
451.787	20.36
452.226	19.34
452.664	18.83
453.103	18.87
453.541	17.68
453.98	20.97
454.418	22.32
454.856	23.2
455.295	24.34
455.733	25.07
456.171	24.11
456.609	24.65
457.047	25.57
457.485	27.14
457.923	28.5
458.361	27.84
458.798	26.99
459.236	26.15
459.674	25.52
460.111	25.01
460.549	25.06
460.987	24.72
461.424	23.8
461.862	24.09
462.299	23.42
462.736	23.88
463.173	24.06
463.611	26.21
464.048	27.35
464.485	27.81
464.922	27.61
465.359	26.16
465.796	32.45
466.233	34.23
466.67	36.39
467.106	38
467.543	37.46
467.98	36.62
468.416	34.3
468.853	32.7
469.29	31.65
469.726	31.48
470.162	31.55
470.599	26.28
471.035	24.41
471.471	22.13
471.907	19.17
472.344	18.44
472.78	19.29
473.216	18.38
473.652	18.49
474.088	17.69
474.523	17.96
474.959	17.31
475.395	17.62
475.831	18.49
476.266	18.88
476.702	19.36
477.138	19.41
477.573	19.27
478.008	20.11
478.444	21.67
478.879	23.53
479.314	23.79
479.75	24.15
480.185	23.95
480.62	23.44
481.055	23.47
481.49	23.7
481.925	23.91
482.36	25.55
482.795	24.7
483.229	23.43
483.664	22.83
484.099	22.69
484.534	22.86
484.968	22.68
485.403	21.81
485.837	20.6
486.271	20.79
486.706	20.17
487.14	18.58
487.574	19.07
488.009	19.06
488.443	18.65
488.877	18.83
489.311	18.8
489.745	19.08
490.179	19.45
490.613	21.09
491.046	20.16
491.48	20.23
491.914	20.31
492.348	20.44
492.781	20.46
493.215	20.72
493.648	20.12
494.082	19.53
494.515	19.65
494.948	20.35
495.382	19.17
495.815	19.68
496.248	20.54
496.681	20.2
497.114	19.5
497.547	19.87
497.98	20.76
498.413	22.14
498.846	22.86
499.279	21.8
499.711	21.4
500.144	20.99
500.577	21.62
501.009	20.89
501.442	21.63
501.874	22.3
502.306	21.64
502.739	23.09
503.171	22.61
503.603	22.28
504.036	22.39
504.468	22.71
504.9	22.95
505.332	22.69
505.764	23.02
506.196	22.77
506.627	22.91
507.059	22.9
507.491	20.24
507.923	19.98
508.354	20.52
508.786	20.79
509.217	20.32
509.649	20.56
510.08	20.21
510.512	20.44
510.943	20.43
511.374	20.2
511.805	20.77
512.237	20.73
512.668	19.87
513.099	19.29
513.53	19.58
513.961	20.18
514.391	20.12
514.822	21.48
515.253	21.7
515.684	21.77
516.114	21.92
516.545	21.67
516.975	21.75
517.406	21.78
517.836	21.5
518.267	21.49
518.697	21.77
519.127	21.41
519.558	20.09
519.988	19.52
520.418	19.2
520.848	18.92
521.278	18.35
521.708	36.86
522.138	37.62
522.567	37.39
522.997	37.18
523.427	36.42
523.857	36.94
524.286	37.44
524.716	38.02
525.145	38.89
525.575	39.77
526.004	40.03
526.433	22.12
526.863	21.63
527.292	22.83
527.721	23.69
528.15	23.77
528.579	23.91
529.008	23.77
529.437	22.76
529.866	22
530.295	20.99
530.724	22.11
531.152	22.13
531.581	22.95
532.01	22.63
532.438	21.38
532.867	20.95
533.295	21.58
533.723	21.63
534.152	22.18
534.58	22.8
535.008	23.09
535.436	23.32
535.865	23.59
536.293	22.85
536.721	22.3
537.149	23.03
537.576	23.85
538.004	23.54
538.432	23.05
538.86	23.45
539.287	22.62
539.715	22.87
540.143	21.8
540.57	21.65
540.998	22
541.425	23.37
541.852	22.95
542.28	22.96
542.707	22.54
543.134	22.76
543.561	22.83
543.988	23.46
544.415	22.86
544.842	22.57
545.269	22.39
545.696	23.19
546.123	22.52
546.549	22.63
546.976	22.39
547.403	22.58
547.829	22.47
548.256	22.01
548.682	22.12
549.108	23.2
549.535	23.38
549.961	23.31
550.387	22.49
550.813	23.63
551.24	24.17
551.666	23.42
552.092	23.4
552.518	23.2
552.943	23.98
553.369	23.39
553.795	23.26
554.221	23.56
554.646	23.31
555.072	24.39
555.498	22.8
555.923	22.39
556.349	23.37
556.774	22.89
557.199	23.13
557.625	21.96
558.05	22.47
558.475	21.8
558.9	21.29
559.325	21.85
559.75	21.4
560.175	21.78
560.6	21.22
561.025	20.89
561.449	21.18
561.874	21.03
562.299	21.88
562.723	21.75
563.148	21.47
563.572	21.42
563.997	20.95
564.421	19.56
564.846	19.29
565.27	19.77
565.694	19.89
566.118	19.31
566.542	19.94
566.966	19.65
567.39	19.87
567.814	20.41
568.238	21.15
568.662	20.99
569.086	21.66
569.509	21.05
569.933	22.27
570.357	21.95
570.78	22.66
571.204	23.12
571.627	22.85
572.05	22.32
572.474	23.18
572.897	23.21
573.32	23.87
573.743	23.88
574.166	24.76
574.589	23.61
575.012	23.84
575.435	23.83
575.858	23.55
576.281	23.88
576.704	23.71
577.126	22.81
577.549	22.36
577.972	22.19
578.394	22.3
578.817	24.47
579.239	24.31
579.661	24.49
580.084	25.07
580.506	25.34
580.928	24.69
581.35	24.74
581.772	24.69
582.194	24.7
582.616	24.25
583.038	23.63
583.46	20.97
583.882	21.11
584.303	19.85
584.725	18.83
585.147	21.96
585.568	23.06
585.99	23.42
586.411	24.41
586.833	24.56
587.254	25.1
587.675	25.42
588.096	25.3
588.518	25.18
588.939	26.14
589.36	26.87
589.781	21.52
590.202	22.78
590.623	22.84
591.043	21.42
591.464	21.14
591.885	21.17
592.305	20.38
592.726	20.54
593.147	20.57
593.567	20.37
593.987	20.11
594.408	20.82
594.828	18.52
595.248	19.14
595.669	19.63
596.089	19.57
596.509	18.83
596.929	18.62
597.349	19.09
597.769	18.9
598.189	18.73
598.608	17.91
599.028	17.75
599.448	17.94
599.867	17.03
600.287	16.31
600.706	16.72
601.126	17.27
601.545	18.67
601.965	18.35
602.384	18
602.803	17.89
603.222	18.63
603.641	18.61
604.061	19
604.48	19.15
604.898	19.26
605.317	18.53
605.736	18.2
606.155	18.05
606.574	17.74
606.992	17.87
607.411	18.26
607.829	16.85
608.248	16.67
608.666	15.69
609.085	15.86
609.503	16.26
609.921	16.88
610.339	16.78
610.758	16.23
611.176	16.48
611.594	17.22
612.012	17.21
612.43	18.58
612.847	18.44
613.265	19.59
613.683	19.77
614.101	19.79
614.518	18.92
614.936	18.83
615.353	19
615.771	19.14
616.188	18.85
616.606	18.55
617.023	18.71
617.44	19.14
617.857	17.79
618.274	17.08
618.691	17.4
619.108	18.31
619.525	18.14
619.942	18.4
620.359	18.58
620.776	18.42
621.192	19.24
621.609	19.3
622.026	19.98
622.442	20.61
622.859	20.27
623.275	19.43
623.691	18.61
624.108	19.16
624.524	19.11
624.94	18.03
625.356	17.78
625.772	17.27
626.188	16.47
626.604	15.54
627.02	15.22
627.436	16.48
627.852	18.24
628.268	18.97
628.683	18.53
629.099	18.03
629.514	18.6
629.93	18.67
630.345	18.53
630.761	17.81
631.176	17.85
631.591	19.73
632.007	19.28
632.422	17.59
632.837	16.74
633.252	17.85
633.667	18.11
634.082	17.66
634.497	17.81
634.911	18.74
635.326	19.36
635.741	19.55
636.155	18.62
636.57	18.96
636.984	20.04
637.399	21.39
637.813	20.48
638.228	20.33
638.642	20.76
639.056	21
639.47	19.81
639.884	20.28
640.298	19.91
640.712	19.93
641.126	18.93
641.54	17.61
641.954	15.02
642.368	14.98
642.781	17.73
643.195	17.7
643.609	18.2
644.022	18.76
644.436	18.19
644.849	18.64
645.262	18.17
645.676	17.65
646.089	17.93
646.502	20.34
646.915	19.58
647.328	17.42
647.741	17.76
648.154	17.38
648.567	19.48
648.98	19.57
649.393	19.41
649.805	19.67
650.218	20.17
650.631	20.94
651.043	20.39
651.456	21.05
651.868	21.29
652.28	20.75
652.693	19.94
653.105	17.94
653.517	18.21
653.929	18.4
654.341	18.91
654.753	20.02
655.165	19.23
655.577	18.88
655.989	19.08
656.401	18.21
656.813	19.56
657.224	19.13
657.636	18.41
658.047	19.13
658.459	18.68
658.87	16.94
659.282	16.89
659.693	17.53
660.104	18.93
660.515	18.1
660.926	17.49
661.338	16.61
661.749	16.78
662.159	18.08
662.57	16.23
662.981	16.76
663.392	17.4
663.803	16.22
664.213	15.56
664.624	14.39
665.035	14.75
665.445	14.91
665.855	15.8
666.266	16.3
666.676	15.34
667.086	15.89
667.497	16.16
667.907	15.68
668.317	15.69
668.727	18.21
669.137	17.73
669.547	17.99
669.956	17.94
670.366	16.59
670.776	17.87
671.186	18.16
671.595	18.9
672.005	17.75
672.414	18.85
672.824	19.74
673.233	16.81
673.642	16.98
674.052	17.48
674.461	18.72
674.87	18.97
675.279	18.72
675.688	17.78
676.097	18.44
676.506	18.94
676.915	18.3
677.323	18.74
677.732	19.54
678.141	19.66
678.549	19.26
678.958	17.44
679.366	17.07
679.775	16.02
680.183	17.89
680.592	17.31
681	17.56
681.408	17.57
681.816	16.96
682.224	16.54
682.632	17.89
683.04	17.66
683.448	18.23
683.856	19.6
684.264	20.65
684.671	19.4
685.079	18.61
685.487	17.44
685.894	17.75
686.302	17.26
686.709	16.95
687.116	16.34
687.524	17.21
687.931	18.88
688.338	18
688.745	16.76
689.152	16.37
689.559	18.09
689.966	20.77
690.373	21.7
690.78	23
691.187	23.87
691.593	24.06
692	23.32
692.407	23.63
692.813	25.8
693.22	27.41
693.626	26.36
694.032	25.71
694.439	24.43
694.845	23.63
695.251	22.19
695.657	22.97
696.063	22.25
696.469	22.54
696.875	21.98
697.281	19.74
697.687	17.76
698.093	18.63
698.498	19.97
698.904	18.32
699.31	19.39
699.715	21.48
700.12	21.41
700.526	21.95
700.931	21.94
701.337	21.74
701.742	23.56
702.147	24.31
702.552	24.91
702.957	22.14
703.362	23.93
703.767	23.07
704.172	22.06
704.577	21.3
704.981	20.53
705.386	21.31
705.791	21.92
706.195	20.7
706.6	21.01
707.004	19.88
707.408	20.74
707.813	21.18
708.217	20.58
708.621	20.52
709.025	19.59
709.43	20.68
709.834	20.22
710.237	19.71
710.641	19.73
711.045	20.02
711.449	21.75
711.853	24.92
712.256	24.48
712.66	25.03
713.064	25.8
713.467	27.69
713.87	28.2
714.274	28.9
714.677	29.42
715.08	31.04
715.484	32.19
715.887	34.76
716.29	33.08
716.693	35.06
717.096	36.31
717.499	35.63
717.901	34.27
718.304	33.22
718.707	32.48
719.109	31.48
719.512	29.88
719.915	30.49
720.317	28.42
720.719	27.74
721.122	26.11
721.524	26.14
721.926	29.98
722.328	31.48
722.731	31.36
723.133	31.26
723.535	32.21
723.937	33
724.338	34.34
724.74	35.2
725.142	77.91
725.544	81.5
725.945	91.41
726.347	88.56
726.748	88.21
727.15	89.5
727.551	93.62
727.952	92.34
728.354	89.54
728.755	87.19
729.156	85.03
729.557	42.13
729.958	38.35
730.359	28.4
730.76	27.97
731.161	27.1
731.562	24.6
731.962	20.12
732.363	20.68
732.763	21.46
733.164	20.08
733.564	21.03
733.965	22.53
734.365	23.18
734.766	24
735.166	22.48
735.566	24.01
735.966	25.3
736.366	27.08
736.766	26.66
737.166	26.94
737.566	27.31
737.966	27.55
738.365	27.84
738.765	28.07
739.165	27.19
739.564	27.59
739.964	25.9
740.363	25.49
740.763	24.22
741.162	25.26
741.561	24.65
741.96	25.21
742.36	22.92
742.759	22.53
743.158	22.04
743.557	21.01
743.955	21.73
744.354	21.88
744.753	20.48
745.152	20.56
745.55	19.1
745.949	19.5
746.348	19.42
746.746	19.33
747.144	21.52
747.543	21.1
747.941	21.42
748.339	21.17
748.737	21.72
749.136	24.22
749.534	23.99
749.932	26.17
750.33	26.63
750.727	25.76
