Data from N_1_DIV_WI_4N_Splice17_11-32-27-228.txt Node
Date: Sat Mar 14 11:32:27 EDT 2020
User: sa697716
Spectrometer: FLMS03696
Trigger mode: 0
Integration Time (sec): 3.180400E-1
Scans to average: 20
Electric dark correction enabled: true
Nonlinearity correction enabled: true
Boxcar width: 5
XAxis mode: Wavelengths
Number of Pixels in Spectrum: 2048
>>>>>Begin Spectral Data<<<<<
187.83	-123055.45
188.298	971.33
188.766	530.73
189.233	456.3
189.701	649.05
190.169	958.82
190.636	317.27
191.104	180.69
191.571	-30.27
192.039	-110.68
192.506	-107.89
192.974	345.46
193.441	-640.45
193.908	-294.64
194.375	-94.25
194.842	-40.5
195.31	-14.05
195.777	69.84
196.244	141.13
196.711	55.68
197.177	27.91
197.644	8.77
198.111	24.3
198.578	39.04
199.045	21.38
199.511	23.44
199.978	-30.26
200.445	11.02
200.911	-15.83
201.378	-87.5
201.844	-27.56
202.31	-52.71
202.777	-80.08
203.243	-38.28
203.709	-36.4
204.176	-22.81
204.642	-22.17
205.108	-9.23
205.574	-30.61
206.04	-48.42
206.506	-37.5
206.972	-57.16
207.438	-61.77
207.903	-65.14
208.369	-29.29
208.835	-27.28
209.301	-37.86
209.766	-67.87
210.232	-72.78
210.697	-86.83
211.163	-115.64
211.628	-230.49
212.094	-141.65
212.559	-96.76
213.024	-40.08
213.49	-52.79
213.955	-64.26
214.42	-88.18
214.885	-49.58
215.35	-51.82
215.815	22.03
216.28	25.68
216.745	35.92
217.21	50.56
217.675	8.43
218.14	18.63
218.604	13.7
219.069	21.63
219.534	58.89
219.998	48.49
220.463	69.61
220.927	-1.9
221.392	9.22
221.856	17.01
222.32	-35.9
222.785	-11.74
223.249	-60.66
223.713	-83.3
224.177	-71.12
224.642	-162.84
225.106	-237.29
225.57	-291.59
226.034	-154.3
226.497	-260.92
226.961	-182.27
227.425	-125.23
227.889	-216.16
228.353	-207.68
228.816	-486.54
229.28	-426.85
229.744	-309.37
230.207	-77.44
230.671	-40.39
231.134	-251.01
231.597	-225.66
232.061	-312.04
232.524	-400.72
232.987	-226.22
233.45	-141.64
233.914	-94.82
234.377	-153.6
234.84	-146.79
235.303	-230.46
235.766	-266.21
236.229	-199.19
236.691	-138.28
237.154	-152.93
237.617	-92.45
238.08	-104.76
238.542	-145.71
239.005	-107.19
239.468	-77.2
239.93	-71.74
240.393	-47.91
240.855	-46.11
241.317	-77.89
241.78	-106.03
242.242	-94.49
242.704	-78.27
243.166	-55.88
243.629	-29.28
244.091	-31.18
244.553	-52.64
245.015	-42.61
245.477	-89.46
245.939	-162.3
246.4	-132.05
246.862	-145.05
247.324	-151.88
247.786	-209.74
248.247	-326.12
248.709	-435.23
249.17	-303.16
249.632	-197.81
250.093	-183.48
250.555	-139.41
251.016	-33.93
251.477	-20.13
251.939	0.78
252.4	-15.12
252.861	-42.67
253.322	-12.42
253.783	-32.76
254.244	-69.53
254.705	-88.26
255.166	-124.08
255.627	-116.09
256.088	-170.74
256.549	-178.7
257.009	-174.16
257.47	-214.13
257.931	-178.01
258.391	-110.61
258.852	-93.84
259.312	-108.62
259.773	-164.41
260.233	-70.48
260.694	-44.25
261.154	-60.71
261.614	3.72
262.074	1.42
262.534	25.08
262.994	42.34
263.455	18.61
263.915	18.59
264.374	11.77
264.834	23.4
265.294	-8.58
265.754	5.84
266.214	8.85
266.673	-4
267.133	0.27
267.593	-32.32
268.052	-41.58
268.512	-36.12
268.971	16.38
269.431	42.47
269.89	44.16
270.349	67.19
270.809	74.4
271.268	69.64
271.727	-42.43
272.186	-32.96
272.645	-30.59
273.104	-63.35
273.563	-74.81
274.022	-186.92
274.481	-137.15
274.94	-104.18
275.399	-95.4
275.857	-152.85
276.316	-249.46
276.775	-210.23
277.233	-211.94
277.692	-164.47
278.15	-165.42
278.609	-160.28
279.067	-111.09
279.525	-85.72
279.984	-140.26
280.442	-169.98
280.9	-106.08
281.358	-42.47
281.816	-28.94
282.274	-44.98
282.732	-88.85
283.19	-105.53
283.648	-99.06
284.106	-109.02
284.564	-136.18
285.021	-108.89
285.479	-85.03
285.937	-105.3
286.394	-88.97
286.852	-99.52
287.309	-102.86
287.767	-69.41
288.224	-53.75
288.682	-70
289.139	-77.88
289.596	-56.47
290.053	-70.22
290.511	-92.1
290.968	-72.86
291.425	-98.27
291.882	-37.86
292.339	23.96
292.796	-3.44
293.252	-1.51
293.709	42.35
294.166	42.71
294.623	18.02
295.079	6.87
295.536	32.87
295.992	26.48
296.449	18.61
296.905	24.83
297.362	31.8
297.818	43.08
298.274	41.38
298.731	14.36
299.187	13.01
299.643	24.05
300.099	21.92
300.555	10.58
301.011	26.47
301.467	70.06
301.923	18.58
302.379	7.79
302.835	2.04
303.291	4.93
303.746	-2.98
304.202	-6.58
304.658	-9.16
305.113	23.24
305.569	18.35
306.024	-17.18
306.479	-79.58
306.935	-34.23
307.39	-87.27
307.845	-80.54
308.301	-47.74
308.756	-50.31
309.211	-46.33
309.666	-59.89
310.121	-61.85
310.576	-85.46
311.031	-109.41
311.486	-142.99
311.94	-169.49
312.395	-212.68
312.85	-547.67
313.305	-3721.38
313.759	-16203.74
314.214	-1135.94
314.668	-969.86
315.123	-723.35
315.577	-211.87
316.032	-182.55
316.486	-219.78
316.94	-169.19
317.394	-101.02
317.849	-55.82
318.303	-50.25
318.757	-37.67
319.211	-48.63
319.665	-30.49
320.119	-44.44
320.572	-90.06
321.026	-58.35
321.48	-30.3
321.934	-46.24
322.387	-55.33
322.841	-38.04
323.295	14.64
323.748	-40.15
324.202	-34.82
324.655	-19.61
325.108	28.45
325.562	49.83
326.015	43.22
326.468	28.99
326.921	62.71
327.374	101.88
327.827	97.31
328.28	41.01
328.733	69.79
329.186	70.96
329.639	71.55
330.092	48.81
330.545	49.27
330.997	65.19
331.45	94.04
331.903	125.98
332.355	147.67
332.808	114.71
333.26	104.07
333.713	131.89
334.165	106.77
334.617	78.78
335.069	-33.51
335.522	-140.79
335.974	-211.69
336.426	-275.59
336.878	-276.25
337.33	-120.71
337.782	-112.44
338.234	-97.33
338.686	-163.33
339.137	-208.62
339.589	-159.22
340.041	-68.59
340.493	-67.14
340.944	-72.74
341.396	-78.82
341.847	-28.36
342.299	16.82
342.75	56.3
343.201	-9.61
343.653	2.4
344.104	-9.74
344.555	-2.49
345.006	-83.81
345.457	36.69
345.908	39.77
346.359	77.04
346.81	46.4
347.261	-2.78
347.712	-32.93
348.163	-42.87
348.613	-13.07
349.064	-3.02
349.515	-6.01
349.965	11.19
350.416	-24.31
350.866	-30.46
351.317	-95.41
351.767	-161.38
352.217	-215.01
352.668	-118.55
353.118	-71.23
353.568	-164.66
354.018	-123.12
354.468	-116.46
354.918	-64.98
355.368	-54.88
355.818	-120.01
356.268	-405.79
356.718	-1202.46
357.168	-219.58
357.617	-163.67
358.067	-229.71
358.517	-224.31
358.966	-178.2
359.416	-56.64
359.865	2.58
360.315	-105.22
360.764	-11.1
361.213	-5.62
361.663	-53.76
362.112	-75.82
362.561	-80.52
363.01	-25.01
363.459	-29.95
363.908	-88.34
364.357	-85.6
364.806	-247.62
365.255	-151.22
365.703	-80.31
366.152	-64.14
366.601	-58.69
367.05	-15.62
367.498	-15.58
367.947	-34.79
368.395	-38.07
368.844	-16.5
369.292	-70.53
369.74	-22.33
370.189	-66.42
370.637	-121.95
371.085	-84.38
371.533	-94.3
371.981	-149.19
372.429	-147.55
372.877	-162.5
373.325	-121.76
373.773	-156.01
374.221	-154.66
374.669	-193.63
375.116	-149.86
375.564	-149.17
376.012	-188.29
376.459	-137.3
376.907	-166.32
377.354	-213.1
377.801	-160.55
378.249	-152.65
378.696	-177.78
379.143	-199.09
379.591	-282.47
380.038	-503.54
380.485	-315.26
380.932	-410.12
381.379	-277.27
381.826	-147.97
382.273	-117.8
382.72	-136.84
383.166	-144.45
383.613	-62.57
384.06	-52.38
384.506	-41.75
384.953	-25.99
385.4	-33.48
385.846	-22.85
386.292	-41.78
386.739	-48.08
387.185	-57.13
387.631	-60.46
388.078	-40.72
388.524	-63.3
388.97	-56.39
389.416	-46.62
389.862	-47.43
390.308	-47.41
390.754	-40.79
391.2	-48.73
391.645	-63.62
392.091	-26.29
392.537	-14.49
392.983	-37.59
393.428	0.01
393.874	-7.91
394.319	10.03
394.765	33.75
395.21	22.63
395.655	21.93
396.101	26.04
396.546	34.71
396.991	16.84
397.436	17.24
397.881	15.08
398.326	-4.74
398.771	7.8
399.216	-5.71
399.661	-11.81
400.106	-3.76
400.551	1.7
400.995	0.96
401.44	2.57
401.885	6.37
402.329	7.32
402.774	10.9
403.218	21.6
403.663	17.85
404.107	23.03
404.551	23.08
404.995	20.89
405.44	14.43
405.884	13.08
406.328	7.65
406.772	3.04
407.216	2.55
407.66	1.18
408.104	-8.46
408.547	-6.32
408.991	-7.95
409.435	-8.31
409.879	-4.95
410.322	-3.8
410.766	0.09
411.209	2.97
411.653	4.17
412.096	5.84
412.54	4.25
412.983	3.34
413.426	5.21
413.869	5.18
414.312	7.68
414.756	5.41
415.199	5.45
415.642	3.9
416.085	4.06
416.527	2.66
416.97	-1.44
417.413	1
417.856	0.96
418.298	-1.22
418.741	-3.41
419.184	-5.85
419.626	-11.55
420.069	-11.94
420.511	-9.8
420.953	-6.88
421.396	-5.43
421.838	-4.89
422.28	-5.86
422.722	-3.92
423.164	-5.49
423.606	-2.51
424.048	-3.54
424.49	1.35
424.932	0.11
425.374	-1.96
425.816	-6.17
426.258	-8.17
426.699	-7.8
427.141	-5.88
427.582	-9.37
428.024	-10.31
428.465	-12.78
428.907	-10.77
429.348	-11.43
429.789	-7.6
430.231	-5.55
430.672	-2.65
431.113	-1.12
431.554	-1.16
431.995	-3.57
432.436	0.14
432.877	2.01
433.318	5.24
433.759	1.32
434.2	0.59
434.64	-0.97
435.081	-2.28
435.522	-2.11
435.962	-2.78
436.403	0.08
436.843	-0.2
437.284	-2.2
437.724	-4.51
438.164	-8.59
438.604	-5.52
439.045	-3.88
439.485	-2.08
439.925	-2.63
440.365	-3.88
440.805	-4.5
441.245	-3.99
441.685	-3.09
442.125	-3.17
442.564	-3.34
443.004	-1.14
443.444	-3.25
443.883	-3.34
444.323	-5.9
444.762	-9.18
445.202	-10.89
445.641	-9.52
446.081	-13.15
446.52	-12.69
446.959	-10.66
447.398	-8.5
447.837	-8
448.276	-7.26
448.716	-6.02
449.154	-7.21
449.593	-4.75
450.032	-4.19
450.471	-6.19
450.91	-7.11
451.349	-5.24
451.787	-6.29
452.226	-6.81
452.664	-7.36
453.103	-5.97
453.541	-7.57
453.98	-5.63
454.418	-4.21
454.856	-1.13
455.295	-0.28
455.733	1.88
456.171	1.15
456.609	2.22
457.047	2.86
457.485	4.38
457.923	4.9
458.361	3.77
458.798	3.72
459.236	2.26
459.674	-0.08
460.111	1.58
460.549	2.49
460.987	0.72
461.424	-0.36
461.862	0.22
462.299	0.2
462.736	1.26
463.173	2.11
463.611	4.35
464.048	5.07
464.485	6.34
464.922	5.13
465.359	4.39
465.796	11.92
466.233	13.45
466.67	14.34
467.106	15.4
467.543	13.36
467.98	12.88
468.416	10.86
468.853	10
469.29	9.6
469.726	8.81
470.162	8.32
470.599	2.46
471.035	0.51
471.471	-0.71
471.907	-3.47
472.344	-3.54
472.78	-3.17
473.216	-3.51
473.652	-2.68
474.088	-3.76
474.523	-2.52
474.959	-2.59
475.395	-2.25
475.831	-1.02
476.266	-1.26
476.702	-0.7
477.138	0.23
477.573	0.16
478.008	-0.21
478.444	-0.02
478.879	1.47
479.314	1.05
479.75	0.94
480.185	0.51
480.62	-0.25
481.055	-0.42
481.49	0.92
481.925	0.64
482.36	2.8
482.795	2.44
483.229	1.71
483.664	1.24
484.099	1.99
484.534	2.64
484.968	3.81
485.403	3.96
485.837	3.69
486.271	2.38
486.706	1.83
487.14	0.19
487.574	0.34
488.009	0.85
488.443	0.22
488.877	0.5
489.311	-0.76
489.745	-1.53
490.179	-1.39
490.613	0.5
491.046	-0.07
491.48	-0.36
491.914	-0.42
492.348	-0.49
492.781	-0.5
493.215	-0.6
493.648	-1.42
494.082	-1.02
494.515	-0.83
494.948	-0.33
495.382	-2.09
495.815	-1.34
496.248	-0.54
496.681	-0.87
497.114	-1.18
497.547	-1.49
497.98	0.01
498.413	1.28
498.846	1.7
499.279	1.36
499.711	0.82
500.144	0.93
500.577	1.43
501.009	0.75
501.442	2.05
501.874	3.09
502.306	3.17
502.739	4.76
503.171	3.91
503.603	3.8
504.036	3.24
504.468	3.61
504.9	3.76
505.332	2.85
505.764	3.49
506.196	2.56
506.627	2.73
507.059	2.95
507.491	0.06
507.923	0.15
508.354	0.89
508.786	1.77
509.217	1.9
509.649	2.12
510.08	2.35
510.512	3.04
510.943	3.26
511.374	2.95
511.805	2.71
512.237	2.68
512.668	2.38
513.099	0.72
513.53	0.06
513.961	0.2
514.391	-0.36
514.822	0.85
515.253	0.11
515.684	0.24
516.114	0.25
516.545	0.49
516.975	0.69
517.406	0.24
517.836	0.72
518.267	1.19
518.697	1.71
519.127	1.88
519.558	0.94
519.988	0.66
520.418	-0.05
520.848	-0.68
521.278	-0.81
521.708	18.16
522.138	19.03
522.567	18.5
522.997	17.99
523.427	17.06
523.857	16.85
524.286	16.69
524.716	17.26
525.145	17.78
525.575	18.45
526.004	18.16
526.433	-0.34
526.863	-0.54
527.292	0.87
527.721	2.08
528.15	1.94
528.579	2.51
529.008	2.54
529.437	1.45
529.866	0.93
530.295	-0.16
530.724	0.45
531.152	0.21
531.581	0.26
532.01	0.07
532.438	-1.21
532.867	-1.58
533.295	-1.53
533.723	-1.44
534.152	-0.93
534.58	-0.81
535.008	-0.01
535.436	0.69
535.865	0.9
536.293	0.29
536.721	-0.78
537.149	-0.25
537.576	0.87
538.004	0.88
538.432	0.58
538.86	0.99
539.287	1.07
539.715	0.82
540.143	0.01
540.57	0.21
540.998	0.08
541.425	2.66
541.852	2.51
542.28	1.71
542.707	1.79
543.134	1.73
543.561	1.82
543.988	2.17
544.415	1.76
544.842	1.17
545.269	0.91
545.696	1.99
546.123	0.64
546.549	1.44
546.976	1.91
547.403	1.61
547.829	1.07
548.256	0.3
548.682	-0.18
549.108	1.08
549.535	1.24
549.961	0.59
550.387	-0.41
550.813	0.49
551.24	-0.13
551.666	-0.63
552.092	-1.07
552.518	-0.74
552.943	0.06
553.369	-0.36
553.795	-0.97
554.221	-0.65
554.646	-0.11
555.072	1.5
555.498	0.17
555.923	-0.45
556.349	-0.69
556.774	-0.83
557.199	-0.76
557.625	-1.79
558.05	-1.23
558.475	-1.34
558.9	-1.1
559.325	-0.51
559.75	-1.34
560.175	-1.49
560.6	-1.47
561.025	-1.78
561.449	-1.19
561.874	-1.48
562.299	-0.41
562.723	-0.44
563.148	-0.64
563.572	-1.5
563.997	-2.26
564.421	-3.27
564.846	-3.55
565.27	-2.65
565.694	-2.3
566.118	-2.7
566.542	-1.89
566.966	-2.35
567.39	-2.14
567.814	-1.48
568.238	-0.72
568.662	-0.86
569.086	-0.01
569.509	-0.37
569.933	0.73
570.357	0.85
570.78	1.02
571.204	1.36
571.627	1.6
572.05	1.56
572.474	2.16
572.897	2
573.32	3.06
573.743	2.52
574.166	4.05
574.589	2.7
575.012	2.55
575.435	2.56
575.858	1.98
576.281	1.78
576.704	1.07
577.126	-0
577.549	-0.73
577.972	-1.72
578.394	-1.45
578.817	-0.32
579.239	-0.6
579.661	-0.2
580.084	0.54
580.506	1.19
580.928	0.99
581.35	1.75
581.772	1.72
582.194	2.34
582.616	1.89
583.038	1.24
583.46	-0.8
583.882	-1.02
584.303	-1.87
584.725	-2.92
585.147	0.42
585.568	0.41
585.99	0.33
586.411	1.16
586.833	1.38
587.254	2.39
587.675	2.72
588.096	3.16
588.518	3.93
588.939	4.62
589.36	5.18
589.781	0.7
590.202	3
590.623	2.96
591.043	1.79
591.464	1.61
591.885	1.48
592.305	0.75
592.726	0.18
593.147	-0.58
593.567	-0.73
593.987	-1.14
594.408	-1.65
594.828	-3.96
595.248	-4
595.669	-2.75
596.089	-2.73
596.509	-2.86
596.929	-2.79
597.349	-2.3
597.769	-1.14
598.189	-0.95
598.608	-0.92
599.028	-0.47
599.448	-0.53
599.867	-0.36
600.287	-1.3
600.706	-0.95
601.126	-0.61
601.545	0.43
601.965	0.22
602.384	-0.39
602.803	-0.67
603.222	-0.16
603.641	-0.45
604.061	0.24
604.48	0.1
604.898	0.19
605.317	-0.12
605.736	-0.48
606.155	-0.12
606.574	-0.2
606.992	-0.43
607.411	0.14
607.829	-0.82
608.248	-0.97
608.666	-1.31
609.085	-0.91
609.503	-0.48
609.921	-0.16
610.339	0.13
610.758	-1.16
611.176	-1.06
611.594	-0.53
612.012	-0.93
612.43	0.04
612.847	0.21
613.265	1.08
613.683	0.59
614.101	0.42
614.518	0.02
614.936	-0.06
615.353	1.11
615.771	1.85
616.188	1.51
616.606	1.56
617.023	1.69
617.44	2.51
617.857	1.16
618.274	1.1
618.691	1.72
619.108	1.54
619.525	1.66
619.942	1.43
620.359	0.93
620.776	0.96
621.192	1.38
621.609	1.53
622.026	1.29
622.442	2.03
622.859	1.99
623.275	1.23
623.691	1.48
624.108	1.49
624.524	0.85
624.94	0.9
625.356	0.92
625.772	0.1
626.188	-0.62
626.604	-0.48
627.02	-1.71
627.436	-1.59
627.852	-0.52
628.268	-0.42
628.683	-0.57
629.099	0.11
629.514	0.15
629.93	-0.37
630.345	-0.52
630.761	-0.46
631.176	-1.09
631.591	1.19
632.007	1.78
632.422	0.55
632.837	0.36
633.252	0.7
633.667	0.66
634.082	-0.09
634.497	0.65
634.911	2.34
635.326	2.41
635.741	3.38
636.155	1.91
636.57	2.23
636.984	2.73
637.399	3.82
637.813	3.21
638.228	2.58
638.642	2.89
639.056	3.16
639.47	2.1
639.884	2.5
640.298	1.99
640.712	2.87
641.126	2.65
641.54	1.96
641.954	-0.19
642.368	0.08
642.781	3.33
643.195	3.32
643.609	2.84
644.022	2.93
644.436	2.21
644.849	1.72
645.262	0.61
645.676	-0.06
646.089	0.3
646.502	1
646.915	0.63
647.328	-0.8
647.741	-0.02
648.154	0.01
648.567	2.46
648.98	2.99
649.393	2.73
649.805	2.5
650.218	2.23
650.631	2.07
651.043	2.37
651.456	2.83
651.868	1.75
652.28	-0.27
652.693	-0.74
653.105	-3.08
653.517	-3.97
653.929	-3.22
654.341	-1.93
654.753	-1.08
655.165	-0.89
655.577	-0.69
655.989	-1.26
656.401	-2.32
656.813	0.53
657.224	0.88
657.636	0.46
658.047	1.96
658.459	1.72
658.87	-0.22
659.282	-0.76
659.693	0.2
660.104	0.56
660.515	0.95
660.926	1.09
661.338	0.02
661.749	-1.12
662.159	-0.23
662.57	-1.86
662.981	-2.22
663.392	-0.99
663.803	-0.59
664.213	-1.06
664.624	-1.2
665.035	-2.51
665.445	-3.01
665.855	-2.35
666.266	-0.67
666.676	-1.5
667.086	-1.08
667.497	-0.16
667.907	-0.59
668.317	-0.84
668.727	1.14
669.137	-0.59
669.547	0.09
669.956	0.19
670.366	-0.65
670.776	-0.68
671.186	-0.13
671.595	0.27
672.005	-0.77
672.414	-0.35
672.824	0.24
673.233	-2.72
673.642	-1.87
674.052	-0.84
674.461	0.16
674.87	0.26
675.279	0.49
675.688	-1.09
676.097	-0.21
676.506	0.17
676.915	-0.94
677.323	-1.18
677.732	-0.51
678.141	-0.57
678.549	-1.88
678.958	-2.98
679.366	-2.84
679.775	-3.87
680.183	-1.62
680.592	-1.58
681	-1.12
681.408	-0.15
681.816	-0.68
682.224	-1.56
682.632	0.35
683.04	0.68
683.448	1.17
683.856	1.27
684.264	1.95
684.671	0.33
685.079	-1.19
685.487	-2.14
685.894	-2.75
686.302	-3.7
686.709	-1.95
687.116	-3.68
687.524	-3.32
687.931	-2.49
688.338	-2.76
688.745	-4.24
689.152	-4.17
689.559	-3.63
689.966	-1.6
690.373	-0.33
690.78	1.26
691.187	0.19
691.593	1.05
692	1.12
692.407	1.26
692.813	4.08
693.22	5.62
693.626	4.72
694.032	4.77
694.439	3.02
694.845	1.75
695.251	0.5
695.657	1.43
696.063	0.29
696.469	0.78
696.875	0.82
697.281	-1.21
697.687	-2.39
698.093	-1.28
698.498	-1.61
698.904	-1.48
699.31	-1.29
699.715	1.24
700.12	-0.48
700.526	-0.01
700.931	-1.79
701.337	-1.43
701.742	-1.14
702.147	-0.71
702.552	-0.06
702.957	-0.53
703.362	-0.89
703.767	-1.04
704.172	-3.53
704.577	-2.65
704.981	-4.35
705.386	-2.67
705.791	-2.57
706.195	-4.15
706.6	-4.05
707.004	-6.44
707.408	-6.24
707.813	-4.42
708.217	-3.62
708.621	-3.64
709.025	-4.07
709.43	-1.25
709.834	-1.56
710.237	-2.93
710.641	-2.21
711.045	-1.7
711.449	0.3
711.853	3.87
712.256	2.58
712.66	2.41
713.064	3
713.467	4.36
713.87	3.76
714.274	4.08
714.677	5.42
715.08	6.1
715.484	6.48
715.887	9.83
716.29	6.05
716.693	6.57
717.096	7.42
717.499	8.16
717.901	6.23
718.304	5.61
718.707	4.61
719.109	4.25
719.512	3.28
719.915	4.87
720.317	1.9
720.719	1.24
721.122	1.51
721.524	1.15
721.926	4.52
722.328	5.14
722.731	5.09
723.133	5.57
723.535	4.72
723.937	4.6
724.338	4.4
724.74	4.35
725.142	47.9
725.544	50.48
725.945	61.42
726.347	57.94
726.748	58.41
727.15	59
727.551	62.74
727.952	60.7
728.354	60.03
728.755	59.29
729.156	57.84
729.557	16.02
729.958	12.1
730.359	1.47
730.76	1.5
731.161	1.65
731.562	-0.15
731.962	-4.49
732.363	-2.74
732.763	-2.47
733.164	-5.03
733.564	-4.04
733.965	-2.98
734.365	-1.57
734.766	-1.1
735.166	-0.93
735.566	0.73
735.966	2.32
736.366	3.41
736.766	3.71
737.166	3.41
737.566	4.56
737.966	3.77
738.365	3.19
738.765	4.09
739.165	3.78
739.564	2.28
739.964	-0.46
740.363	-0.63
740.763	-1.88
741.162	-0.17
741.561	-0.77
741.96	-0.35
742.36	-0.77
742.759	0.26
743.158	-2.08
743.557	-3.03
743.955	-2.92
744.354	-2.63
744.753	-4.44
745.152	-3.45
745.55	-5.78
745.949	-5.58
746.348	-5.53
746.746	-5.52
747.144	-3.5
747.543	-3.01
747.941	-3.62
748.339	-2.26
748.737	-0.76
749.136	0.84
749.534	-0.18
749.932	1.67
750.33	2.06
750.727	0.6
751.125	1.68
751.523	-0.51
751.921	2.37
752.318	3.37
752.716	4.16
753.113	3.04
753.511	3.29
753.908	4.35
754.305	7.28
754.703	7.54
755.1	8.49
755.497	7.97
755.894	7.06
756.291	4.65
756.688	5.05
757.085	3.79
757.482	4.57
757.878	5.99
758.275	6.4
758.672	-1.65
759.068	-2.31
759.465	-4.09
759.861	-5.44
760.258	-6.91
760.654	-8.64
