Data from N_1_DIV_IL_4N_Splice17_11-16-14-929.txt Node
Date: Sat Mar 14 11:16:14 EDT 2020
User: sa697716
Spectrometer: FLMS03696
Trigger mode: 0
Integration Time (sec): 3.180400E-1
Scans to average: 20
Electric dark correction enabled: true
Nonlinearity correction enabled: true
Boxcar width: 5
XAxis mode: Wavelengths
Number of Pixels in Spectrum: 2048
>>>>>Begin Spectral Data<<<<<
187.83	-114610.59
188.298	931.89
188.766	454.28
189.233	405.74
189.701	557.44
190.169	688.12
190.636	291.49
191.104	309.16
191.571	83.96
192.039	18.54
192.506	27.17
192.974	82.2
193.441	-142.47
193.908	-6.9
194.375	38.75
194.842	72.28
195.31	87.43
195.777	101.35
196.244	209.54
196.711	170.69
197.177	175.88
197.644	167.58
198.111	239.79
198.578	348.87
199.045	249.75
199.511	346.06
199.978	380.32
200.445	315.64
200.911	360.59
201.378	346.1
201.844	325.01
202.31	512.5
202.777	552.28
203.243	331.8
203.709	306.21
204.176	363.87
204.642	323.93
205.108	289.06
205.574	243.72
206.04	192.7
206.506	183.21
206.972	143.37
207.438	130.9
207.903	146.01
208.369	142.82
208.835	143.32
209.301	149.14
209.766	129.76
210.232	124.81
210.697	137.26
211.163	173.6
211.628	248.32
212.094	262.08
212.559	379.64
213.024	243.27
213.49	297.64
213.955	293.46
214.42	274.84
214.885	276.31
215.35	283.56
215.815	321.34
216.28	345.39
216.745	274.85
217.21	296.08
217.675	226.58
218.14	242.14
218.604	232.32
219.069	238.3
219.534	255.21
219.998	249.97
220.463	253.8
220.927	212.88
221.392	175.98
221.856	165.2
222.32	152.68
222.785	207.67
223.249	234.88
223.713	248.9
224.177	229.26
224.642	226.68
225.106	223.31
225.57	217.56
226.034	214.35
226.497	300.53
226.961	289.43
227.425	331.78
227.889	310.03
228.353	248.19
228.816	396.27
229.28	444.69
229.744	348.5
230.207	333.4
230.671	374.57
231.134	483.19
231.597	555.68
232.061	470.76
232.524	416.56
232.987	307.16
233.45	313.8
233.914	262.17
234.377	216.84
234.84	200.31
235.303	209.95
235.766	196.91
236.229	206.97
236.691	139.61
237.154	151.18
237.617	141.16
238.08	126.44
238.542	133.16
239.005	115.96
239.468	129.06
239.93	117.37
240.393	98.99
240.855	86.87
241.317	76.1
241.78	62.47
242.242	89.34
242.704	122.99
243.166	115.42
243.629	127.87
244.091	152.65
244.553	148.57
245.015	163.61
245.477	190.82
245.939	297.15
246.4	332.54
246.862	333.23
247.324	301.19
247.786	250.88
248.247	297.14
248.709	189.66
249.17	155.57
249.632	222.4
250.093	321.54
250.555	300.85
251.016	196.03
251.477	201.15
251.939	237.87
252.4	246.49
252.861	298.19
253.322	295.83
253.783	351.14
254.244	408.44
254.705	280.68
255.166	207.05
255.627	176.13
256.088	247.29
256.549	278.91
257.009	183.04
257.47	197.73
257.931	140.31
258.391	105.35
258.852	106.87
259.312	127.48
259.773	168.45
260.233	189.82
260.694	184.98
261.154	200.76
261.614	177.12
262.074	169.61
262.534	186.27
262.994	185.29
263.455	222.5
263.915	196.21
264.374	179.56
264.834	189.92
265.294	175.19
265.754	179.36
266.214	162.12
266.673	136.51
267.133	159.26
267.593	136.99
268.052	172.97
268.512	159.29
268.971	231.11
269.431	243.97
269.89	210.83
270.349	316.38
270.809	358.27
271.268	322.12
271.727	648.19
272.186	467.17
272.645	388.52
273.104	243.23
273.563	307.01
274.022	172.27
274.481	168.67
274.94	150.26
275.399	113.66
275.857	111.96
276.316	137.57
276.775	108.11
277.233	105.4
277.692	85.45
278.15	123.49
278.609	188.44
279.067	197.77
279.525	203.73
279.984	212.52
280.442	230.08
280.9	279.94
281.358	187.76
281.816	213.98
282.274	204.28
282.732	195.69
283.19	166.79
283.648	131.71
284.106	125.4
284.564	121.37
285.021	155.83
285.479	125.55
285.937	86.13
286.394	95.12
286.852	78.16
287.309	79.81
287.767	108.83
288.224	123.37
288.682	113.76
289.139	130.36
289.596	123.51
290.053	104.78
290.511	122.01
290.968	165.61
291.425	195.2
291.882	216.38
292.339	206.74
292.796	171.62
293.252	161.27
293.709	150.91
294.166	147.52
294.623	140.64
295.079	129.22
295.536	149.72
295.992	151.25
296.449	146.53
296.905	159.33
297.362	163.19
297.818	172.55
298.274	189.1
298.731	189.56
299.187	178.17
299.643	199.31
300.099	249.46
300.555	259.56
301.011	223.94
301.467	249.75
301.923	234.88
302.379	220.13
302.835	206.82
303.291	184.34
303.746	190.25
304.202	230.71
304.658	218.22
305.113	166.2
305.569	157.99
306.024	132.43
306.479	78.74
306.935	105.17
307.39	92.81
307.845	98.12
308.301	120.73
308.756	107.24
309.211	121.65
309.666	130.71
310.121	154.3
310.576	152.92
311.031	132.04
311.486	143.41
311.94	96.38
312.395	133.89
312.85	124.34
313.305	-243.36
313.759	2933.2
314.214	103.12
314.668	93.13
315.123	180.69
315.577	82.82
316.032	125.84
316.486	177.29
316.94	165.35
317.394	136.54
317.849	127.77
318.303	130.98
318.757	132.81
319.211	149.23
319.665	133.11
320.119	126.21
320.572	175.2
321.026	200.92
321.48	156.49
321.934	141.36
322.387	138.28
322.841	172.16
323.295	187.8
323.748	185.74
324.202	200.55
324.655	248.06
325.108	381.25
325.562	297.76
326.015	286.56
326.468	240.68
326.921	292.27
327.374	295.3
327.827	313.3
328.28	344.86
328.733	244.59
329.186	214.5
329.639	185.4
330.092	141.62
330.545	132.23
330.997	142.55
331.45	161
331.903	213.01
332.355	286.73
332.808	272.87
333.26	205.38
333.713	213.08
334.165	196.65
334.617	260.35
335.069	158.29
335.522	214.92
335.974	231.94
336.426	188.26
336.878	26.6
337.33	71.07
337.782	33.66
338.234	80.37
338.686	86.06
339.137	115.32
339.589	101.11
340.041	139.86
340.493	100.34
340.944	94.62
341.396	102.92
341.847	131.23
342.299	152.81
342.75	229.05
343.201	148.5
343.653	167.49
344.104	164.4
344.555	148.02
345.006	132.05
345.457	194.97
345.908	139.36
346.359	148.39
346.81	132.86
347.261	123.92
347.712	115.51
348.163	135.84
348.613	191.1
349.064	194.5
349.515	169.54
349.965	194.23
350.416	216.41
350.866	247.69
351.317	238.82
351.767	384.93
352.217	454.46
352.668	371.56
353.118	311.5
353.568	193.99
354.018	197.82
354.468	241.4
354.918	187.75
355.368	165.88
355.818	194.21
356.268	494.7
356.718	1952.94
357.168	584.4
357.617	283.51
358.067	343.38
358.517	318.99
358.966	401.81
359.416	548.57
359.865	587.24
360.315	557.94
360.764	325.1
361.213	226.77
361.663	188.87
362.112	182.74
362.561	301.83
363.01	233.56
363.459	219.13
363.908	172.9
364.357	133.73
364.806	183.61
365.255	159.93
365.703	177.75
366.152	165.12
366.601	160.85
367.05	165.97
367.498	161.24
367.947	140.84
368.395	123.9
368.844	128.79
369.292	104.5
369.74	105.69
370.189	127.42
370.637	96.13
371.085	61.05
371.533	74.3
371.981	44.77
372.429	72.36
372.877	102.64
373.325	125.29
373.773	93.5
374.221	87.55
374.669	72.77
375.116	85.82
375.564	109.23
376.012	120.82
376.459	95.16
376.907	107.12
377.354	69.98
377.801	74.61
378.249	78.29
378.696	99.25
379.143	176.21
379.591	194.53
380.038	228.3
380.485	129.63
380.932	155.02
381.379	179.5
381.826	201.51
382.273	177.87
382.72	131.75
383.166	133.5
383.613	108.54
384.06	94.65
384.506	101.64
384.953	89.01
385.4	85.48
385.846	79.15
386.292	59.87
386.739	45.71
387.185	31.24
387.631	33.44
388.078	52.07
388.524	58.28
388.97	59.35
389.416	55.94
389.862	61.26
390.308	68.9
390.754	70.53
391.2	74.63
391.645	70.78
392.091	99.26
392.537	101.07
392.983	79.84
393.428	90.29
393.874	74.96
394.319	83.05
394.765	91.27
395.21	89.41
395.655	86.59
396.101	84.64
396.546	82.81
396.991	59.17
397.436	55.2
397.881	54.16
398.326	41.68
398.771	57.7
399.216	50.92
399.661	43.05
400.106	47.89
400.551	55.23
400.995	51.94
401.44	48.75
401.885	50.8
402.329	52.74
402.774	51.3
403.218	60.9
403.663	54.95
404.107	55.98
404.551	57.95
404.995	51.36
405.44	42.32
405.884	41.37
406.328	35.48
406.772	32.29
407.216	31.13
407.66	27.01
408.104	17.04
408.547	14.02
408.991	11.82
409.435	9
409.879	11.89
410.322	12.92
410.766	12.51
411.209	17.04
411.653	17.67
412.096	17.81
412.54	17.79
412.983	18.42
413.426	20.38
413.869	19.79
414.312	22.16
414.756	19.52
415.199	20.24
415.642	21.94
416.085	20.87
416.527	18.65
416.97	17.74
417.413	18.49
417.856	18.22
418.298	17.65
418.741	16.1
419.184	13.78
419.626	8.79
420.069	8.48
420.511	8.44
420.953	10.65
421.396	12.19
421.838	10.52
422.28	11
422.722	10.16
423.164	10.08
423.606	12.41
424.048	13.15
424.49	17.88
424.932	16.71
425.374	14.15
425.816	11.81
426.258	10.65
426.699	12.34
427.141	14.45
427.582	14.72
428.024	12.16
428.465	9
428.907	6.02
429.348	5.69
429.789	6.73
430.231	10.48
430.672	10.92
431.113	11.88
431.554	11.13
431.995	8.32
432.436	10.03
432.877	12.02
433.318	13.38
433.759	13.82
434.2	12.09
434.64	10.54
435.081	8.48
435.522	7.84
435.962	8.33
436.403	10.06
436.843	9.07
437.284	6.71
437.724	4.66
438.164	0.6
438.604	0.81
439.045	3.51
439.485	5.54
439.925	5.2
440.365	5.13
440.805	4.08
441.245	4.02
441.685	4.51
442.125	4.26
442.564	4.66
443.004	7.72
443.444	8.15
443.883	6.8
444.323	4.48
444.762	1.74
445.202	0.23
445.641	1.62
446.081	0.36
446.52	2.37
446.959	3.81
447.398	5.71
447.837	5.4
448.276	4.79
448.716	6.28
449.154	6.12
449.593	8.66
450.032	9.66
450.471	7.1
450.91	6.97
451.349	6.01
451.787	4.88
452.226	3.21
452.664	3.04
453.103	1.77
453.541	-0.57
453.98	2.02
454.418	1.09
454.856	3.81
455.295	4.76
455.733	5.27
456.171	4.76
456.609	5.82
457.047	6.58
457.485	8.11
457.923	10.43
458.361	10.5
458.798	9.38
459.236	10.54
459.674	8.16
460.111	8.95
460.549	9.08
460.987	8.19
461.424	7.16
461.862	8.04
462.299	7.4
462.736	7.93
463.173	7.78
463.611	9.8
464.048	9.67
464.485	10.58
464.922	9.57
465.359	7.8
465.796	13.18
466.233	15.03
466.67	15.29
467.106	16.95
467.543	16.44
467.98	16.16
468.416	14.25
468.853	13
469.29	12.15
469.726	12.11
470.162	12.84
470.599	8.14
471.035	7.54
471.471	6.04
471.907	3.42
472.344	3.22
472.78	3.21
473.216	2.26
473.652	2.69
474.088	2.02
474.523	1.97
474.959	1.47
475.395	2.44
475.831	1.78
476.266	2.53
476.702	2.77
477.138	2.21
477.573	1.99
478.008	2.72
478.444	4.03
478.879	5.61
479.314	5.48
479.75	5.78
480.185	4.95
480.62	4.7
481.055	4.18
481.49	4.64
481.925	4.7
482.36	6.41
482.795	5.29
483.229	4.28
483.664	3.61
484.099	4.28
484.534	4.66
484.968	5.78
485.403	6.09
485.837	5.64
486.271	4.96
486.706	4.53
487.14	3.64
487.574	4.33
488.009	3.92
488.443	3.8
488.877	4.15
489.311	3.45
489.745	2.85
490.179	2.74
490.613	4
491.046	3.63
491.48	3.6
491.914	3.1
492.348	2.9
492.781	3.16
493.215	3.35
493.648	2.02
494.082	2.1
494.515	2.52
494.948	2.56
495.382	1.15
495.815	1.75
496.248	1.99
496.681	1.69
497.114	0.9
497.547	0.74
497.98	1.27
498.413	2.93
498.846	3.42
499.279	2.12
499.711	1.9
500.144	2.45
500.577	3.11
501.009	3.22
501.442	4.19
501.874	5.27
502.306	5.47
502.739	6.95
503.171	6.36
503.603	5.95
504.036	6.6
504.468	7.35
504.9	7.33
505.332	6.82
505.764	7.1
506.196	6.94
506.627	6.73
507.059	6.77
507.491	4.51
507.923	4.56
508.354	4.94
508.786	4.73
509.217	3.46
509.649	3.34
510.08	2.94
510.512	3.35
510.943	3.3
511.374	3.96
511.805	4.02
512.237	4
512.668	3.53
513.099	2.64
513.53	2.86
513.961	4.4
514.391	4.1
514.822	5.36
515.253	5.58
515.684	5.82
516.114	5.21
516.545	4.99
516.975	5.1
517.406	5.15
517.836	5.24
518.267	4.99
518.697	4.87
519.127	5.24
519.558	4.34
519.988	3.36
520.418	2.08
520.848	1.3
521.278	1.17
521.708	16.6
522.138	16.62
522.567	16.2
522.997	16.13
523.427	15.27
523.857	15
524.286	14.77
524.716	15.03
525.145	16.39
525.575	17.54
526.004	16.73
526.433	1.44
526.863	1.09
527.292	2.05
527.721	2.84
528.15	2.66
528.579	3.14
529.008	3.21
529.437	2.74
529.866	2.18
530.295	1.6
530.724	2.39
531.152	2.58
531.581	3.49
532.01	3.85
532.438	2.94
532.867	2.86
533.295	2.87
533.723	2.89
534.152	2.95
534.58	3.11
535.008	3.01
535.436	4.12
535.865	3.88
536.293	2.99
536.721	1.89
537.149	1.99
537.576	2.6
538.004	2.81
538.432	2.17
538.86	2.75
539.287	2.35
539.715	2.65
540.143	1.62
540.57	1.93
540.998	1.76
541.425	3.43
541.852	3.64
542.28	3.6
542.707	2.9
543.134	3.95
543.561	4.21
543.988	4.59
544.415	3.87
544.842	3.98
545.269	3.72
545.696	4.48
546.123	4.06
546.549	4.12
546.976	3.97
547.403	3.98
547.829	3.02
548.256	2.24
548.682	1.97
549.108	3
549.535	2.88
549.961	2.65
550.387	2.07
550.813	2.44
551.24	2.51
551.666	2.75
552.092	3.07
552.518	3.7
552.943	4.54
553.369	4.59
553.795	4.36
554.221	4.51
554.646	4.7
555.072	5.95
555.498	4.74
555.923	3.89
556.349	3.71
556.774	3.22
557.199	2.44
557.625	1.84
558.05	1.78
558.475	1.88
558.9	1.98
559.325	2.42
559.75	1.77
560.175	1.94
560.6	2.47
561.025	1.97
561.449	2.37
561.874	2.38
562.299	2.66
562.723	2.93
563.148	2.55
563.572	1.85
563.997	1.54
564.421	0.98
564.846	0.92
565.27	1.05
565.694	1.03
566.118	0.86
566.542	1.67
566.966	2.06
567.39	1.82
567.814	2.29
568.238	2.9
568.662	2.54
569.086	2.75
569.509	2.1
569.933	3.16
570.357	3.45
570.78	3.66
571.204	4.33
571.627	4.11
572.05	4.36
572.474	4.98
572.897	4.78
573.32	5.53
573.743	5.47
574.166	6.31
574.589	5.07
575.012	4.8
575.435	3.91
575.858	2.95
576.281	2.71
576.704	2.36
577.126	1.47
577.549	1.27
577.972	0.53
578.394	0.48
578.817	1.5
579.239	1.91
579.661	2.16
580.084	3.7
580.506	4.49
580.928	4.08
581.35	4.62
581.772	4.76
582.194	5.21
582.616	4.73
583.038	4.52
583.46	3.44
583.882	3.42
584.303	3.25
584.725	2.33
585.147	4.44
585.568	4.59
585.99	4.53
586.411	4.49
586.833	4.91
587.254	5.67
587.675	5.55
588.096	5.45
588.518	5.4
588.939	5.37
589.36	5.86
589.781	2.82
590.202	4.37
590.623	4.37
591.043	3.61
591.464	3.08
591.885	3.15
592.305	2.58
592.726	2.43
593.147	2.53
593.567	2.95
593.987	2.95
594.408	2.51
594.828	0.93
595.248	0.98
595.669	2.43
596.089	2.29
596.509	2
596.929	2.29
597.349	2.5
597.769	2.45
598.189	2.42
598.608	2.48
599.028	2.68
599.448	2.44
599.867	2.53
600.287	1.16
600.706	1.52
601.126	1.83
601.545	2.75
601.965	2.74
602.384	2.75
602.803	2.34
603.222	2.39
603.641	2.26
604.061	2.9
604.48	2.47
604.898	3.24
605.317	2.89
605.736	3.01
606.155	3.09
606.574	3.03
606.992	2.96
607.411	3.58
607.829	2.82
608.248	2.76
608.666	2.19
609.085	2.67
609.503	2.07
609.921	2.42
610.339	2.27
610.758	1.51
611.176	1.36
611.594	1.91
612.012	1.56
612.43	2.65
612.847	2.85
613.265	3.79
613.683	3.6
614.101	4.01
614.518	3.45
614.936	3.28
615.353	4.01
615.771	4.85
616.188	4.84
616.606	5.24
617.023	5.07
617.44	5.54
617.857	4.62
618.274	3.8
618.691	3.92
619.108	4.04
619.525	3.98
619.942	4.04
620.359	3.55
620.776	3.26
621.192	3.64
621.609	3.69
622.026	3.71
622.442	3.8
622.859	3.89
623.275	4.01
623.691	4.22
624.108	4.74
624.524	4.41
624.94	4.72
625.356	4.56
625.772	4.08
626.188	3.63
626.604	3.27
627.02	3.47
627.436	4.07
627.852	4.26
628.268	4.86
628.683	4.23
629.099	3.86
629.514	3.04
629.93	3.01
630.345	2.63
630.761	1.31
631.176	1.07
631.591	2.63
632.007	2.9
632.422	2.11
632.837	0.99
633.252	1.75
633.667	2.19
634.082	2.67
634.497	3.22
634.911	4.93
635.326	6.2
635.741	6.68
636.155	5.79
636.57	6.01
636.984	6.12
637.399	7
637.813	6.71
638.228	5.97
638.642	5.9
639.056	5.19
639.47	3.94
639.884	4.07
640.298	3.78
640.712	3.88
641.126	3.64
641.54	3.24
641.954	2.09
642.368	2.17
642.781	4.97
643.195	5.52
643.609	6.09
644.022	6.32
644.436	6.41
644.849	6.87
645.262	6.26
645.676	5.67
646.089	6.52
646.502	7.62
646.915	7.09
647.328	5.82
647.741	5.52
648.154	5.91
648.567	7.17
648.98	7.39
649.393	7.1
649.805	7.43
650.218	7.68
650.631	8.21
651.043	8.58
651.456	8.86
651.868	7.93
652.28	7.13
652.693	6.13
653.105	4.75
653.517	3.71
653.929	3.54
654.341	3.67
654.753	4.55
655.165	3.24
655.577	2.84
655.989	3.1
656.401	3.13
656.813	4.62
657.224	4.69
657.636	4.34
658.047	5.61
658.459	5.43
658.87	3.96
659.282	3.8
659.693	4.96
660.104	5.31
660.515	5.28
660.926	5.14
661.338	4.86
661.749	4.27
662.159	5.22
662.57	4.06
662.981	4.56
663.392	5.09
663.803	4.32
664.213	4.56
664.624	4.3
665.035	3.67
665.445	3.48
665.855	3.9
666.266	4.82
666.676	3.92
667.086	4.15
667.497	4.42
667.907	5.52
668.317	6.21
668.727	8.01
669.137	7.35
669.547	7.85
669.956	6.89
670.366	5.84
670.776	5.66
671.186	5.49
671.595	5.72
672.005	4.26
672.414	4.14
672.824	4.49
673.233	1.65
673.642	1.97
674.052	1.66
674.461	3.52
674.87	3.71
675.279	4.53
675.688	3.98
676.097	4.64
676.506	5.56
676.915	4.26
677.323	3.99
677.732	4.1
678.141	4.24
678.549	4.73
678.958	3.67
679.366	3.42
679.775	2.65
680.183	4.37
680.592	4.19
681	4.41
681.408	5.33
681.816	5.47
682.224	5.52
682.632	6.76
683.04	6.66
683.448	6.77
683.856	7.34
684.264	7.94
684.671	6.7
685.079	5.76
685.487	5.75
685.894	5.39
686.302	4.47
686.709	5.67
687.116	4.62
687.524	5.78
687.931	7.48
688.338	7.82
688.745	7.51
689.152	7.62
689.559	8.22
689.966	9.64
690.373	10.07
690.78	10.98
691.187	10.52
691.593	11.07
692	9.8
692.407	9.4
692.813	10.52
693.22	10.88
693.626	10.32
694.032	10.9
694.439	10.21
694.845	9.8
695.251	8.35
695.657	8.43
696.063	6.36
696.469	6.92
696.875	7.55
697.281	6.34
697.687	5.47
698.093	4.99
698.498	5.28
698.904	4.19
699.31	3.9
699.715	5.42
700.12	5.2
700.526	6.7
700.931	5.81
701.337	5.46
701.742	6.52
702.147	7.15
702.552	8.74
702.957	7.11
703.362	7.67
703.767	7.96
704.172	7.19
704.577	6.14
704.981	4.97
705.386	5.02
705.791	4.57
706.195	3.16
706.6	2.72
707.004	1.41
707.408	1.47
707.813	2.17
708.217	3.01
708.621	3.25
709.025	3.03
709.43	5.04
709.834	5.57
710.237	5.32
710.641	6.44
711.045	7.44
711.449	9.41
711.853	12.57
712.256	11.68
712.66	12.06
713.064	12.04
713.467	13.09
713.87	12.3
714.274	12.54
714.677	13.69
715.08	13.48
715.484	13.13
715.887	14.66
716.29	12.77
716.693	13.5
717.096	13.44
717.499	13.35
717.901	13.25
718.304	13.29
718.707	12.74
719.109	11.62
719.512	9.78
719.915	10.84
720.317	9.68
720.719	7.36
721.122	7.08
721.524	7.41
721.926	11.81
722.328	12.52
722.731	11.97
723.133	12.34
723.535	11.83
723.937	13.12
724.338	13.85
724.74	12.82
725.142	47.85
725.544	50.75
725.945	57.47
726.347	54.09
726.748	53.81
727.15	54.95
727.551	58.06
727.952	57.1
728.354	56.07
728.755	55.06
729.156	54.47
729.557	21.31
729.958	18.21
730.359	10.48
730.76	9.41
731.161	8.43
731.562	7.35
731.962	4.36
732.363	5.54
732.763	6.42
733.164	4.89
733.564	5.37
733.965	7.14
734.365	7.39
734.766	8.34
735.166	8.88
735.566	10.62
735.966	11.03
736.366	11.31
736.766	10.97
737.166	9.98
737.566	10.19
737.966	9.76
738.365	8.62
738.765	10.49
739.165	9.83
739.564	10.2
739.964	8.73
740.363	8.62
740.763	7.65
741.162	9.07
741.561	9.92
741.96	10.67
742.36	10.06
742.759	10.09
743.158	7.89
743.557	7.73
743.955	7.24
744.354	7.37
744.753	6.17
745.152	7.52
745.55	5.75
745.949	5.55
746.348	5.65
746.746	4.96
747.144	7.15
747.543	6.5
747.941	5.15
748.339	5.22
748.737	5.59
749.136	6.41
749.534	4.31
749.932	5.65
750.33	5.67
750.727	5.06
751.125	6.36
751.523	4.77
751.921	7.28
752.318	8.99
752.716	10.14
753.113	10.46
753.511	10.11
753.908	12.01
754.305	14.54
754.703	15.06
755.1	15.82
755.497	15.53
755.894	15.53
756.291	14.54
756.688	15.36
757.085	14.65
757.482	15.83
757.878	19.15
758.275	20.27
758.672	17.58
759.068	16.77
759.465	16.39
759.861	19.14
760.258	19.19
760.654	17.53
761.05	17.02
761.447	16.64
761.843	15.12
762.239	14.15
762.635	10.13
763.031	6.7
763.427	8.32
763.822	8.7
764.218	5.98
764.614	6.85
765.01	6.83
765.405	6.33
765.801	6.43
766.196	5.46
766.592	4.27
766.987	5.86
767.382	7.21
767.778	6.74
768.173	6.69
768.568	6.99
768.963	7.56
769.358	7.59
769.753	8.03
770.148	8.02
770.542	7.98
770.937	8.66
