Data from N_1_HIR_WI_4N_Splice17_11-39-44-771.txt Node
Date: Sat Mar 14 11:39:44 EDT 2020
User: sa697716
Spectrometer: FLMS03696
Trigger mode: 0
Integration Time (sec): 3.180400E-1
Scans to average: 20
Electric dark correction enabled: true
Nonlinearity correction enabled: true
Boxcar width: 5
XAxis mode: Wavelengths
Number of Pixels in Spectrum: 2048
>>>>>Begin Spectral Data<<<<<
187.83	-51048.37
188.298	527.86
188.766	361.69
189.233	328.54
189.701	403.14
190.169	622.38
190.636	215.06
191.104	176.14
191.571	0.9
192.039	-76.94
192.506	-114.28
192.974	153.35
193.441	-414.33
193.908	-48.62
194.375	0.86
194.842	6.9
195.31	57.92
195.777	102.33
196.244	188.42
196.711	125.69
197.177	84.34
197.644	48.85
198.111	44.83
198.578	71.94
199.045	22.26
199.511	21.54
199.978	-63.3
200.445	-29.85
200.911	-74.36
201.378	-167.46
201.844	-136.12
202.31	-244.81
202.777	-293.37
203.243	-169.22
203.709	-147.18
204.176	-135.64
204.642	-101.73
205.108	-48.89
205.574	-49.54
206.04	-57.48
206.506	-44.06
206.972	-75.29
207.438	-87.88
207.903	-67.97
208.369	-27.98
208.835	-22.68
209.301	-23.41
209.766	-35.97
210.232	-47.15
210.697	-73.05
211.163	-120.37
211.628	-217.51
212.094	-111.19
212.559	-16.61
213.024	-35.5
213.49	-26.43
213.955	-56.83
214.42	-107.3
214.885	-101.97
215.35	-80.91
215.815	14.41
216.28	61.81
216.745	47.07
217.21	69.18
217.675	27.75
218.14	41.22
218.604	15.02
219.069	32.44
219.534	90.15
219.998	83.54
220.463	81.28
220.927	-4.16
221.392	-22.54
221.856	2.09
222.32	-80.67
222.785	-87.4
223.249	-131.31
223.713	-126.15
224.177	-115.44
224.642	-257.56
225.106	-339.13
225.57	-362.61
226.034	-179.79
226.497	-275.6
226.961	-162.54
227.425	-84.85
227.889	-136.22
228.353	-110.47
228.816	-284.41
229.28	-283.85
229.744	-229.23
230.207	-38.99
230.671	-47.08
231.134	-243.96
231.597	-151.18
232.061	-298.64
232.524	-397.47
232.987	-225.42
233.45	-160.14
233.914	-146.1
234.377	-183.64
234.84	-157.51
235.303	-210.45
235.766	-247.49
236.229	-234.76
236.691	-204.54
237.154	-243.06
237.617	-138.91
238.08	-161.94
238.542	-208.36
239.005	-126.79
239.468	-115.24
239.93	-112.86
240.393	-104.05
240.855	-82.76
241.317	-99.61
241.78	-139.49
242.242	-132.77
242.704	-119.58
243.166	-104.75
243.629	-66.35
244.091	-87.73
244.553	-92.7
245.015	-86.42
245.477	-127.19
245.939	-208.62
246.4	-184.17
246.862	-146.22
247.324	-147.73
247.786	-211.15
248.247	-288.09
248.709	-435.05
249.17	-301.89
249.632	-211.1
250.093	-160.15
250.555	-149.28
251.016	-47.34
251.477	-41.42
251.939	-35.81
252.4	-43.43
252.861	-93.75
253.322	-49.84
253.783	-87.45
254.244	-151.75
254.705	-171.66
255.166	-215.24
255.627	-197.91
256.088	-288.54
256.549	-291.81
257.009	-237.46
257.47	-272.44
257.931	-202.79
258.391	-153.06
258.852	-148.58
259.312	-150.13
259.773	-196.68
260.233	-100.61
260.694	-48.45
261.154	-59.35
261.614	-0.63
262.074	-13.4
262.534	7.61
262.994	13.07
263.455	-9.84
263.915	22.63
264.374	22.23
264.834	33.55
265.294	-7.2
265.754	-7.99
266.214	-22.1
266.673	-49.15
267.133	-69.89
267.593	-100.14
268.052	-114.18
268.512	-114.68
268.971	-68.07
269.431	-51.99
269.89	-50.23
270.349	-25.43
270.809	-3.91
271.268	21.16
271.727	-36.93
272.186	35.13
272.645	52.85
273.104	0.07
273.563	28.77
274.022	-104.54
274.481	-77.95
274.94	-56.85
275.399	-47.79
275.857	-107.52
276.316	-184.05
276.775	-164.35
277.233	-179.49
277.692	-149.36
278.15	-140.57
278.609	-96.23
279.067	-82.72
279.525	-64.04
279.984	-96.95
280.442	-157.21
280.9	-55.37
281.358	-20.49
281.816	-9.05
282.274	-7.76
282.732	-48.01
283.19	-77.84
283.648	-86.83
284.106	-95.4
284.564	-117.68
285.021	-79.54
285.479	-57.54
285.937	-94.97
286.394	-57.35
286.852	-81.53
287.309	-94.29
287.767	-51.26
288.224	-26
288.682	-32.86
289.139	-15.82
289.596	-3.67
290.053	-23.15
290.511	-42.14
290.968	-31.78
291.425	-99.29
291.882	7.05
292.339	35.65
292.796	-23.29
293.252	-36.29
293.709	-0.95
294.166	-10.59
294.623	-32.74
295.079	-57.13
295.536	-32.75
295.992	-23.2
296.449	-29.44
296.905	-19.72
297.362	-9.04
297.818	-2.62
298.274	10.78
298.731	-13.72
299.187	-31.02
299.643	-15.88
300.099	-4.17
300.555	-11.82
301.011	-2.68
301.467	52.74
301.923	-24.89
302.379	-19.01
302.835	-11.86
303.291	-17.46
303.746	-23.06
304.202	-18.35
304.658	-66.25
305.113	-26.59
305.569	-29.51
306.024	-54.35
306.479	-87.83
306.935	-45.28
307.39	-98.72
307.845	-108.58
308.301	-96.67
308.756	-102.78
309.211	-78.78
309.666	-87.89
310.121	-77.69
310.576	-98.46
311.031	-124.93
311.486	-202.14
311.94	-245.32
312.395	-324.08
312.85	-677.67
313.305	-4227.01
313.759	-18009.29
314.214	-1350.12
314.668	-930.81
315.123	-782.43
315.577	-235.81
316.032	-174.05
316.486	-200.12
316.94	-67.91
317.394	-12.01
317.849	14.15
318.303	7.62
318.757	3.06
319.211	-0.28
319.665	9.32
320.119	2.47
320.572	-15.24
321.026	13.19
321.48	11.41
321.934	-34.85
322.387	-60.88
322.841	-52.76
323.295	7.8
323.748	-25.83
324.202	-23.51
324.655	-27.82
325.108	19.68
325.562	9.74
326.015	-15.1
326.468	5.42
326.921	18.48
327.374	72.83
327.827	77.63
328.28	62.87
328.733	70.27
329.186	64.38
329.639	44.2
330.092	24.39
330.545	31.75
330.997	44.81
331.45	80.74
331.903	108.73
332.355	117.97
332.808	88.86
333.26	67.9
333.713	81.52
334.165	69.21
334.617	40.54
335.069	-41.87
335.522	-100.05
335.974	-144.31
336.426	-274.98
336.878	-262.63
337.33	-106.16
337.782	-122.09
338.234	-117.26
338.686	-172.42
339.137	-210.65
339.589	-164.76
340.041	-66.61
340.493	-52.9
340.944	-58.28
341.396	-44.94
341.847	18.21
342.299	18.4
342.75	80.92
343.201	3.32
343.653	21.49
344.104	12.52
344.555	22.12
345.006	-81.72
345.457	37.04
345.908	12.43
346.359	40.06
346.81	13.58
347.261	4.72
347.712	-36.4
348.163	-36.3
348.613	21.64
349.064	24.67
349.515	18.3
349.965	28.7
350.416	-37.49
350.866	-47.28
351.317	-103.36
351.767	-187.66
352.217	-256.81
352.668	-116.29
353.118	-104
353.568	-268.1
354.018	-161.83
354.468	-168.29
354.918	-67.18
355.368	-35.67
355.818	-58.96
356.268	-347.8
356.718	-986.68
357.168	-179.45
357.617	-158.68
358.067	-198.01
358.517	-200.83
358.966	-239.12
359.416	-93.86
359.865	-210.45
360.315	-372.05
360.764	-111.26
361.213	-13.01
361.663	-61.11
362.112	-133.26
362.561	-217.49
363.01	-127.82
363.459	-82.75
363.908	-134.87
364.357	-113.19
364.806	-233.32
365.255	-155.34
365.703	-137.91
366.152	-139.99
366.601	-87.89
367.05	-19.46
367.498	-11.44
367.947	-56.44
368.395	-65.74
368.844	-40.97
369.292	-102.28
369.74	-35.81
370.189	-64.62
370.637	-119.34
371.085	-123.93
371.533	-156.26
371.981	-188.84
372.429	-127.46
372.877	-119.54
373.325	-87.36
373.773	-121.45
374.221	-101.56
374.669	-157.13
375.116	-127.94
375.564	-111.23
376.012	-128.6
376.459	-111.21
376.907	-133.74
377.354	-186.44
377.801	-117.18
378.249	-131.2
378.696	-164.72
379.143	-222.77
379.591	-236.12
380.038	-429.61
380.485	-222.53
380.932	-208.34
381.379	-80.7
381.826	24.48
382.273	-17.38
382.72	-72.61
383.166	-47.1
383.613	-3.52
384.06	-9.22
384.506	-6.48
384.953	6.57
385.4	-27.96
385.846	-30.24
386.292	-48.78
386.739	-61.02
387.185	-60.31
387.631	-57.42
388.078	-47.49
388.524	-55.74
388.97	-38.52
389.416	-20.06
389.862	-25.6
390.308	-15.04
390.754	-6.52
391.2	-7.56
391.645	-15.47
392.091	14.4
392.537	21.15
392.983	7.05
393.428	37.2
393.874	34.33
394.319	43.31
394.765	60.06
395.21	58.09
395.655	57.81
396.101	56.11
396.546	57.11
396.991	30.5
397.436	33.04
397.881	21.01
398.326	-1.68
398.771	8.52
399.216	-4.46
399.661	-8.75
400.106	-2
400.551	1.79
400.995	3.5
401.44	4.43
401.885	8.03
402.329	10.35
402.774	18.64
403.218	31.8
403.663	27.4
404.107	32.21
404.551	35.94
404.995	28.15
405.44	19.66
405.884	18.59
406.328	10.85
406.772	5.56
407.216	2.77
407.66	0.83
408.104	-10.07
408.547	-9.3
408.991	-9.93
409.435	-14.94
409.879	-11.1
410.322	-7.39
410.766	-7.05
411.209	-0.95
411.653	2.17
412.096	4.43
412.54	3.31
412.983	3.46
413.426	4.05
413.869	0.14
414.312	6.17
414.756	4.87
415.199	3.57
415.642	7.23
416.085	5.59
416.527	3.72
416.97	1.84
417.413	1.39
417.856	1.22
418.298	1.92
418.741	1.74
419.184	-3.1
419.626	-7.36
420.069	-7.57
420.511	-9.65
420.953	-5.32
421.396	-2.68
421.838	-4.23
422.28	-3.94
422.722	-0.7
423.164	-4.86
423.606	-2.77
424.048	-1.47
424.49	1.17
424.932	2.56
425.374	1.46
425.816	-2.32
426.258	-3.47
426.699	-1.93
427.141	3.48
427.582	0.12
428.024	1.94
428.465	-0.29
428.907	-0.19
429.348	-1.47
429.789	0.46
430.231	3.61
430.672	4.05
431.113	4.5
431.554	4.5
431.995	1.44
432.436	4.01
432.877	4.83
433.318	9.52
433.759	7.43
434.2	9.21
434.64	6.46
435.081	6.91
435.522	8.08
435.962	7.63
436.403	9.9
436.843	7.78
437.284	7.74
437.724	5.08
438.164	-1.02
438.604	-0.43
439.045	1.43
439.485	3.63
439.925	0.56
440.365	-0.1
440.805	-2.1
441.245	-2.25
441.685	-2.06
442.125	-4.86
442.564	-4.74
443.004	-1.86
443.444	-0.79
443.883	-2.04
444.323	-5.58
444.762	-9.53
445.202	-10.53
445.641	-7.6
446.081	-10.5
446.52	-10.23
446.959	-9.29
447.398	-6.57
447.837	-5.87
448.276	-7.06
448.716	-5.68
449.154	-6.19
449.593	-2.09
450.032	-2.29
450.471	-4.35
450.91	-4.87
451.349	-2.33
451.787	-2.43
452.226	-4.35
452.664	-6.22
453.103	-6.83
453.541	-8.68
453.98	-5.41
454.418	-5.28
454.856	-3.49
455.295	-3.09
455.733	-2.16
456.171	-3.69
456.609	-1.15
457.047	-0.21
457.485	2.6
457.923	4.22
458.361	2.93
458.798	1.69
459.236	2.46
459.674	0.89
460.111	2.29
460.549	3.5
460.987	1.76
461.424	0.49
461.862	0.59
462.299	0.25
462.736	2.06
463.173	3.69
463.611	7.15
464.048	7.72
464.485	9.19
464.922	7.88
465.359	6.16
465.796	14.47
466.233	15.6
466.67	17.37
467.106	17.77
467.543	16.05
467.98	14.29
468.416	11.44
468.853	9.77
469.29	8.71
469.726	8.2
470.162	8.05
470.599	2.01
471.035	0.14
471.471	-1.41
471.907	-3.05
472.344	-3.11
472.78	-2.32
473.216	-3.5
473.652	-3.3
474.088	-3.87
474.523	-3.32
474.959	-3.14
475.395	-3.05
475.831	-2.64
476.266	-2.34
476.702	-3.16
477.138	-3.36
477.573	-2.8
478.008	-1.97
478.444	-1.43
478.879	0.36
479.314	0.57
479.75	1.17
480.185	0.6
480.62	0.22
481.055	0.13
481.49	1.39
481.925	1.82
482.36	3.92
482.795	2.78
483.229	1.83
483.664	0.8
484.099	0.7
484.534	1.19
484.968	2.34
485.403	2.99
485.837	1.86
486.271	1.34
486.706	1.3
487.14	-0.34
487.574	0.67
488.009	1.31
488.443	1.04
488.877	1.72
489.311	1.04
489.745	0.86
490.179	0.76
490.613	3.17
491.046	2.89
491.48	2.7
491.914	2.62
492.348	2.46
492.781	2.49
493.215	2.55
493.648	1.59
494.082	0.91
494.515	1.18
494.948	1.74
495.382	0.12
495.815	0.37
496.248	0.83
496.681	0.25
497.114	-0.03
497.547	0.33
497.98	1.17
498.413	2.5
498.846	3.52
499.279	2.56
499.711	2.03
500.144	1.88
500.577	3.23
501.009	1.96
501.442	3.51
501.874	4.11
502.306	3.71
502.739	5.54
503.171	5.12
503.603	5.3
504.036	4.75
504.468	4.78
504.9	4.73
505.332	3.67
505.764	4.76
506.196	3.78
506.627	3.83
507.059	3.9
507.491	1.11
507.923	1.27
508.354	0.9
508.786	1.33
509.217	1.45
509.649	1.62
510.08	1.2
510.512	1.79
510.943	2.29
511.374	2.35
511.805	1.94
512.237	2.13
512.668	0.93
513.099	0.26
513.53	0.3
513.961	0.34
514.391	0.35
514.822	2.15
515.253	1.69
515.684	1.2
516.114	0.95
516.545	1.53
516.975	1.41
517.406	2.13
517.836	2.13
518.267	2.9
518.697	3.48
519.127	3.5
519.558	2.33
519.988	2.02
520.418	1.51
520.848	0.53
521.278	0.01
521.708	31.14
522.138	32
522.567	31.88
522.997	31.69
523.427	31.31
523.857	31.75
524.286	31.73
524.716	32.18
525.145	32.89
525.575	33.99
526.004	33.71
526.433	3.44
526.863	1.65
527.292	2.85
527.721	3.07
528.15	2.53
528.579	2.67
529.008	2.9
529.437	1.81
529.866	1.68
530.295	0.74
530.724	1.74
531.152	1.87
531.581	2.92
532.01	2.72
532.438	2.23
532.867	1.75
533.295	1.64
533.723	1.36
534.152	1.83
534.58	2.02
535.008	2.46
535.436	3
535.865	2.07
536.293	1.07
536.721	0.49
537.149	0.7
537.576	1.97
538.004	2.25
538.432	1.53
538.86	2.09
539.287	1.76
539.715	1.91
540.143	0.73
540.57	1.61
540.998	1.95
541.425	3.5
541.852	3.4
542.28	2.75
542.707	2.09
543.134	2.64
543.561	2.3
543.988	2.18
544.415	1.71
544.842	1.67
545.269	1.26
545.696	1.9
546.123	1.1
546.549	1.26
546.976	1.51
547.403	1.85
547.829	1.21
548.256	0.96
548.682	0.91
549.108	2.02
549.535	1.96
549.961	1.84
550.387	1.59
550.813	2.66
551.24	2.31
551.666	1.93
552.092	1.68
552.518	1.89
552.943	2.78
553.369	2.49
553.795	1.98
554.221	2.17
554.646	2.42
555.072	3.44
555.498	1.87
555.923	1.6
556.349	1.78
556.774	1.89
557.199	1.47
557.625	-0.03
558.05	0.75
558.475	0.51
558.9	0.78
559.325	0.82
559.75	0.74
560.175	1.01
560.6	0.73
561.025	-0.04
561.449	-0.47
561.874	-0.85
562.299	0.09
562.723	-0.13
563.148	0.12
563.572	-0.43
563.997	-0.39
564.421	-1.89
564.846	-2.71
565.27	-2.28
565.694	-1.5
566.118	-1.45
566.542	0.31
566.966	0.23
567.39	0.04
567.814	0.3
568.238	0.76
568.662	0.19
569.086	1.17
569.509	1.27
569.933	2.87
570.357	2.41
570.78	2.54
571.204	2.81
571.627	2.77
572.05	2.83
572.474	3.73
572.897	3.88
573.32	5.32
573.743	4.35
574.166	5.32
574.589	3.9
575.012	4.07
575.435	3.23
575.858	2.81
576.281	2.44
576.704	1.99
577.126	1.29
577.549	0.56
577.972	-1.1
578.394	-0.67
578.817	1.14
579.239	1.62
579.661	1.95
580.084	4.01
580.506	4.43
580.928	4.94
581.35	4.82
581.772	4.74
582.194	5.09
582.616	5.17
583.038	4.71
583.46	2.76
583.882	2.41
584.303	1.33
584.725	-0.05
585.147	3.75
585.568	4.25
585.99	4.99
586.411	5.08
586.833	5.5
587.254	6.1
587.675	5.86
588.096	5.56
588.518	5.73
588.939	6.44
589.36	6.89
589.781	1.84
590.202	3.66
590.623	3.74
591.043	2.66
591.464	2.15
591.885	2.2
592.305	2.08
592.726	1.89
593.147	2.01
593.567	2.28
593.987	2.3
594.408	1.71
594.828	-1.59
595.248	-0.89
595.669	0.02
596.089	0.13
596.509	-0.54
596.929	-0.49
597.349	-0.35
597.769	-0.58
598.189	-0.63
598.608	-0.99
599.028	-0.83
599.448	-0.77
599.867	-1.12
600.287	-1.12
600.706	-0.45
601.126	0.06
601.545	1.07
601.965	1.21
602.384	1.07
602.803	0.67
603.222	1.23
603.641	1.21
604.061	2.46
604.48	2.2
604.898	1.74
605.317	1.1
605.736	1.72
606.155	2.26
606.574	1.82
606.992	1.89
607.411	2.11
607.829	1.08
608.248	1.26
608.666	-0.03
609.085	-0.2
609.503	-0.79
609.921	-0.05
610.339	-0.66
610.758	-1.88
611.176	-1.4
611.594	-0.8
612.012	-0.77
612.43	0.56
612.847	0.6
613.265	2.06
613.683	1.68
614.101	2.4
614.518	1.52
614.936	2.09
615.353	3.17
615.771	3.42
616.188	3.29
616.606	3.42
617.023	3.18
617.44	3.03
617.857	1.94
618.274	2.24
618.691	2.76
619.108	2.66
619.525	1.85
619.942	1.39
620.359	1.22
620.776	1.29
621.192	2.28
621.609	2.2
622.026	2.4
622.442	2.74
622.859	2.45
623.275	1.85
623.691	1.75
624.108	1.73
624.524	1.43
624.94	0.74
625.356	-0.08
625.772	-1.06
626.188	-1.58
626.604	-1.59
627.02	-2.05
627.436	-1.64
627.852	-0.37
628.268	0.25
628.683	0.11
629.099	0.3
629.514	0.58
629.93	0.95
630.345	0.78
630.761	0.47
631.176	0.68
631.591	2.41
632.007	2.12
632.422	0.43
632.837	0.24
633.252	1.54
633.667	1.41
634.082	1.89
634.497	2.54
634.911	4.56
635.326	4.75
635.741	4.64
636.155	3.94
636.57	5.17
636.984	5.64
637.399	6.61
637.813	5.5
638.228	5.22
638.642	4.84
639.056	4.57
639.47	3.1
639.884	3.77
640.298	3.99
640.712	4.81
641.126	4.78
641.54	4.12
641.954	1.41
642.368	1.63
642.781	4.84
643.195	4.73
643.609	4.75
644.022	4.32
644.436	3
644.849	2.39
645.262	1.13
645.676	-0.34
646.089	0.01
646.502	2.79
646.915	2.46
647.328	0.56
647.741	1.29
648.154	0.83
648.567	3.07
648.98	3.66
649.393	3.52
649.805	2.95
650.218	2.68
650.631	3.49
651.043	3.15
651.456	3.49
651.868	3.31
652.28	2.22
652.693	1.49
653.105	-0.45
653.517	-0.42
653.929	-0.41
654.341	0.59
654.753	1.69
655.165	0.68
655.577	-0.28
655.989	-1.02
656.401	-2.66
656.813	-0.77
657.224	-0.05
657.636	-0.85
658.047	0.47
658.459	1.4
658.87	0.01
659.282	-0.32
659.693	1.44
660.104	1.75
660.515	2.16
660.926	2.51
661.338	1.02
661.749	0.13
662.159	1.59
662.57	-0.49
662.981	-1.28
663.392	-0.63
663.803	-1.32
664.213	-2.92
664.624	-3.41
665.035	-3.98
665.445	-4.42
665.855	-3.69
666.266	-1.98
666.676	-1.96
667.086	-1.8
667.497	-1.18
667.907	-1.56
668.317	-0.91
668.727	2.02
669.137	1.56
669.547	2.22
669.956	1.77
670.366	1.43
670.776	1.18
671.186	-0.38
671.595	0.99
672.005	0.22
672.414	0.78
672.824	1.47
673.233	-1.62
673.642	-1.09
674.052	-1.31
674.461	1.22
674.87	1.19
675.279	1.6
675.688	0.77
676.097	1.74
676.506	2.22
676.915	1.4
677.323	1.63
677.732	2.11
678.141	1.87
678.549	2.15
678.958	0.13
679.366	-0.48
679.775	-1.7
680.183	0.41
680.592	-1.66
681	-0.97
681.408	-0.11
681.816	-1.19
682.224	-1.8
682.632	-0.47
683.04	-0.09
683.448	-0.22
683.856	1.02
684.264	2.06
684.671	0.17
685.079	0.63
685.487	-0.84
685.894	-1.81
686.302	-3.11
686.709	-2.99
687.116	-4.05
687.524	-3.61
687.931	-1.92
688.338	-1.24
688.745	-2.38
689.152	-1.17
689.559	-0.95
689.966	1.05
690.373	1.89
690.78	3.87
691.187	4.1
691.593	4.22
692	2.89
692.407	2.61
692.813	4.46
693.22	4.95
693.626	3.82
694.032	5.17
694.439	4.89
694.845	4.41
695.251	3.37
695.657	3.58
696.063	2.51
696.469	2.04
696.875	1.76
697.281	-0.6
697.687	-1.47
698.093	-1.52
698.498	-2.61
698.904	-4.14
699.31	-4.71
699.715	-1.54
700.12	-2.21
700.526	-1.01
700.931	-0.82
701.337	1.25
701.742	1.73
702.147	1.83
702.552	3.63
702.957	2.08
703.362	2.66
703.767	2.95
704.172	0.09
704.577	0.32
704.981	-1.01
705.386	-0.31
705.791	-1.82
706.195	-3.75
706.6	-2.97
707.004	-5.31
707.408	-5.29
707.813	-4.37
708.217	-3.19
708.621	-3.3
709.025	-3.68
709.43	-1.92
709.834	-1.09
710.237	-1.26
710.641	0.39
711.045	0.74
711.449	3.48
711.853	7.93
712.256	7.64
712.66	6.89
713.064	7.76
713.467	9.67
713.87	9.63
714.274	9.1
714.677	9.96
715.08	9.55
715.484	9.92
715.887	12.17
716.29	8.48
716.693	9.41
717.096	10.99
717.499	11.14
717.901	9.1
718.304	8.89
718.707	8.17
719.109	6.92
719.512	6.66
719.915	8.18
720.317	5.61
720.719	5.64
721.122	5.51
721.524	5.01
721.926	8.99
722.328	10.36
722.731	10.39
723.133	11.15
723.535	11.04
723.937	12
724.338	12.34
724.74	13.76
725.142	61.28
725.544	63.26
725.945	76.19
726.347	73.49
726.748	72.95
727.15	73.22
727.551	76.25
727.952	75.84
728.354	74.69
728.755	73.43
729.156	69.93
729.557	23.78
729.958	20.92
730.359	8.2
730.76	6.19
731.161	6.2
731.562	5.04
731.962	1.89
732.363	1.19
732.763	1.04
733.164	-1.55
733.564	0.83
733.965	1.05
734.365	1.18
734.766	1.22
735.166	0.33
735.566	1
735.966	1.73
736.366	1.61
736.766	2.52
737.166	1.73
737.566	2.68
737.966	2.06
738.365	2.78
738.765	3.68
739.165	3.65
739.564	5.17
739.964	3.66
740.363	3.23
740.763	2.32
741.162	3.25
741.561	3.55
741.96	4.42
742.36	4.18
742.759	3.98
743.158	1.76
743.557	1.23
743.955	0.8
744.354	1.15
744.753	0.7
745.152	2.18
745.55	1.09
745.949	1.04
746.348	1.18
746.746	-0.52
747.144	1.19
747.543	0.98
747.941	0.31
748.339	0.56
748.737	1.58
749.136	2.47
749.534	0.28
749.932	1.16
750.33	1.29
750.727	0.22
751.125	1.87
751.523	0.68
751.921	4.36
752.318	5.8
752.716	6.57
753.113	5.82
753.511	5.72
753.908	7.6
754.305	12.02
754.703	12.56
755.1	14.08
755.497	14.06
755.894	13.02
756.291	10.2
756.688	9.91
757.085	8.53
757.482	9.18
757.878	10.27
758.275	10.79
758.672	2.97
759.068	1.94
759.465	0.4
759.861	-2.07
760.258	-4.22
760.654	-3.5
761.05	-0.46
761.447	-0.42
761.843	1.49
762.239	0.93
762.635	-1.72
763.031	-2.19
763.427	-0.02
763.822	-0.26
764.218	-0.3
764.614	1.31
