Data from N_1_DEC_CT_2N_Splice17_11-34-44-993.txt Node
Date: Sat Mar 14 11:34:44 EDT 2020
User: sa697716
Spectrometer: FLMS03696
Trigger mode: 0
Integration Time (sec): 3.180400E-1
Scans to average: 20
Electric dark correction enabled: true
Nonlinearity correction enabled: true
Boxcar width: 5
XAxis mode: Wavelengths
Number of Pixels in Spectrum: 2048
>>>>>Begin Spectral Data<<<<<
187.83	-141109.66
188.298	1065.6
188.766	599.38
189.233	558.85
189.701	668.9
190.169	914.58
190.636	367.08
191.104	286.87
191.571	81.91
192.039	-21.77
192.506	-46.73
192.974	172.88
193.441	-505.22
193.908	-67.68
194.375	24.85
194.842	-11.37
195.31	37.03
195.777	121.17
196.244	211.45
196.711	147.66
197.177	123.45
197.644	98.77
198.111	112.69
198.578	141.18
199.045	92.69
199.511	103.34
199.978	50.43
200.445	34.65
200.911	13.4
201.378	-69.59
201.844	-44.12
202.31	-87.94
202.777	-116.49
203.243	-52.53
203.709	-42.14
204.176	-69.62
204.642	-59.62
205.108	-30.66
205.574	-37.39
206.04	-54.91
206.506	-50.96
206.972	-64.57
207.438	-81.12
207.903	-90.45
208.369	-57.6
208.835	-42.68
209.301	-37.61
209.766	-59.61
210.232	-63.76
210.697	-85.85
211.163	-135.36
211.628	-228.89
212.094	-148.83
212.559	-110.21
213.024	-62.43
213.49	-65.09
213.955	-74.35
214.42	-113.49
214.885	-66.7
215.35	-56.23
215.815	23.96
216.28	46.66
216.745	45.66
217.21	63.82
217.675	29.54
218.14	34.55
218.604	20.17
219.069	23.23
219.534	58.81
219.998	37.68
220.463	32.82
220.927	-41.26
221.392	-50.25
221.856	-32.84
222.32	-105.11
222.785	-103.12
223.249	-140.36
223.713	-169.5
224.177	-152.9
224.642	-255.03
225.106	-307.09
225.57	-352.59
226.034	-199.17
226.497	-268.61
226.961	-193.36
227.425	-155.64
227.889	-196.11
228.353	-210.04
228.816	-465.98
229.28	-438.6
229.744	-302.64
230.207	-135.07
230.671	-128.71
231.134	-351.17
231.597	-367.7
232.061	-505.23
232.524	-565.99
232.987	-367.7
233.45	-291.31
233.914	-248.61
234.377	-280.24
234.84	-270.77
235.303	-338.45
235.766	-369.22
236.229	-360.33
236.691	-247.06
237.154	-265.78
237.617	-161.17
238.08	-187.94
238.542	-228.05
239.005	-153.09
239.468	-137.37
239.93	-119.61
240.393	-109.08
240.855	-85.26
241.317	-92.83
241.78	-125.41
242.242	-120.73
242.704	-112.93
243.166	-73.74
243.629	-36.74
244.091	-48.88
244.553	-47.14
245.015	-49.08
245.477	-65.82
245.939	-149.89
246.4	-122.18
246.862	-119.25
247.324	-106.03
247.786	-148.35
248.247	-251.9
248.709	-427.71
249.17	-264.02
249.632	-194
250.093	-198.18
250.555	-183.21
251.016	-46.91
251.477	-48.53
251.939	-41.51
252.4	-44.89
252.861	-85.95
253.322	-57.94
253.783	-71.54
254.244	-138.61
254.705	-167.66
255.166	-195.71
255.627	-195.11
256.088	-295.85
256.549	-336.47
257.009	-293.32
257.47	-397.61
257.931	-317.84
258.391	-233.12
258.852	-229.48
259.312	-245.55
259.773	-321.33
260.233	-190.93
260.694	-138.69
261.154	-166.26
261.614	-67.26
262.074	-56.74
262.534	-38.64
262.994	-25.36
263.455	-41.91
263.915	-12.67
264.374	-0.94
264.834	8.51
265.294	-12.35
265.754	10.61
266.214	14.46
266.673	-16.11
267.133	-37.94
267.593	-60.18
268.052	-54.67
268.512	-59.63
268.971	-15.3
269.431	-13.83
269.89	-10.32
270.349	-34.31
270.809	-46.53
271.268	-45
271.727	-201.22
272.186	-125
272.645	-58.62
273.104	-112.62
273.563	-184.72
274.022	-224.92
274.481	-166.79
274.94	-123.19
275.399	-104.57
275.857	-164.35
276.316	-256.46
276.775	-215.36
277.233	-203.01
277.692	-162.73
278.15	-147.65
278.609	-89.61
279.067	-89.61
279.525	-84.4
279.984	-137.89
280.442	-150.09
280.9	-32.71
281.358	-22.98
281.816	-22.07
282.274	-36.93
282.732	-86.19
283.19	-98.33
283.648	-125.9
284.106	-146.44
284.564	-165.44
285.021	-127.37
285.479	-99.11
285.937	-124.74
286.394	-90.43
286.852	-101.36
287.309	-96.55
287.767	-61.72
288.224	-54.32
288.682	-59.79
289.139	-51.99
289.596	-34.86
290.053	-62.61
290.511	-88.7
290.968	-113.63
291.425	-210.1
291.882	-115.19
292.339	-94.76
292.796	-124.13
293.252	-101.6
293.709	-40.65
294.166	-35.38
294.623	-61.82
295.079	-60.09
295.536	-33.02
295.992	-4.32
296.449	12.47
296.905	11.7
297.362	47.26
297.818	33.89
298.274	42.56
298.731	20.28
299.187	26.74
299.643	46.5
300.099	63.55
300.555	48.32
301.011	52.42
301.467	104.11
301.923	53.79
302.379	30.05
302.835	50.24
303.291	47.61
303.746	40.82
304.202	28.79
304.658	-9.06
305.113	19.7
305.569	31.74
306.024	-20.84
306.479	-74.9
306.935	-18.7
307.39	-53.68
307.845	-53.44
308.301	-50.99
308.756	-71.15
309.211	-51.61
309.666	-61.58
310.121	-79.62
310.576	-106.5
311.031	-115.35
311.486	-187.67
311.94	-226.08
312.395	-320.37
312.85	-627.3
313.305	-3763.57
313.759	-13143.1
314.214	-1153.79
314.668	-786.5
315.123	-590.6
315.577	-191.97
316.032	-145.61
316.486	-145.24
316.94	-67.17
317.394	-34.51
317.849	-27.08
318.303	-28.76
318.757	-18.59
319.211	-5.95
319.665	-4.85
320.119	-16.05
320.572	-51.22
321.026	-37.01
321.48	-37.54
321.934	-64.74
322.387	-66.2
322.841	-54.64
323.295	4.93
323.748	-59.89
324.202	-59.03
324.655	-77.2
325.108	-53.57
325.562	2.19
326.015	-21.46
326.468	1.1
326.921	10.02
327.374	32.08
327.827	47.84
328.28	12.57
328.733	50.77
329.186	52.41
329.639	54.79
330.092	36.04
330.545	42.41
330.997	55.71
331.45	84.7
331.903	107.36
332.355	150.38
332.808	118.24
333.26	98.82
333.713	84.21
334.165	77.36
334.617	57.22
335.069	-27.5
335.522	-179.01
335.974	-223.3
336.426	-318.61
336.878	-296.35
337.33	-135.8
337.782	-142.6
338.234	-159.16
338.686	-208.71
339.137	-283.86
339.589	-217.87
340.041	-146.64
340.493	-113.24
340.944	-112.17
341.396	-105.58
341.847	-46.1
342.299	-16.5
342.75	31.26
343.201	-20.11
343.653	-31.24
344.104	-76.68
344.555	-75.25
345.006	-150.26
345.457	-29.62
345.908	-49.66
346.359	-20.82
346.81	-25.89
347.261	-75.21
347.712	-106.75
348.163	-124.29
348.613	-68.67
349.064	-41.16
349.515	-51.03
349.965	-28.4
350.416	-74.1
350.866	-88.82
351.317	-144.63
351.767	-285.34
352.217	-327.75
352.668	-239.24
353.118	-219.18
353.568	-326.06
354.018	-225.63
354.468	-222.34
354.918	-134.27
355.368	-127.4
355.818	-161.28
356.268	-551.11
356.718	-1646.08
357.168	-375.32
357.617	-228.75
358.067	-268.4
358.517	-223.03
358.966	-247.02
359.416	-139.38
359.865	-218.61
360.315	-271.78
360.764	-123.47
361.213	-43.63
361.663	-92.98
362.112	-152.47
362.561	-282.5
363.01	-204.05
363.459	-183.52
363.908	-227.35
364.357	-181.89
364.806	-388
365.255	-281.12
365.703	-232.39
366.152	-254.6
366.601	-185.2
367.05	-106.93
367.498	-71.12
367.947	-79.94
368.395	-81.64
368.844	-44.69
369.292	-101.34
369.74	-29.45
370.189	-40.56
370.637	-52.13
371.085	1.36
371.533	9.04
371.981	-37.47
372.429	-31.4
372.877	-24.82
373.325	-18.24
373.773	-57.15
374.221	-79.51
374.669	-129.74
375.116	-133
375.564	-149.91
376.012	-230.35
376.459	-178.74
376.907	-224.53
377.354	-304.2
377.801	-256.21
378.249	-264.64
378.696	-358.09
379.143	-354.39
379.591	-403.61
380.038	-710.55
380.485	-448.27
380.932	-419.71
381.379	-344.18
381.826	-203.57
382.273	-133.34
382.72	-161.01
383.166	-161.41
383.613	-94.3
384.06	-94.47
384.506	-111.22
384.953	-59.47
385.4	-71.01
385.846	-59.4
386.292	-72.53
386.739	-82.61
387.185	-93.35
387.631	-96.8
388.078	-83.01
388.524	-90.75
388.97	-69.13
389.416	-47.14
389.862	-60.1
390.308	-51.52
390.754	-47.5
391.2	-50.4
391.645	-56.02
392.091	-13.46
392.537	2.6
392.983	-15.08
393.428	20.57
393.874	6.73
394.319	15.06
394.765	39.52
395.21	27.54
395.655	16.74
396.101	9.64
396.546	13.22
396.991	-9.36
397.436	-12.79
397.881	-7.16
398.326	-26.8
398.771	-15.49
399.216	-16.19
399.661	-17.08
400.106	-10.67
400.551	-6.79
400.995	1.25
401.44	3.47
401.885	4.69
402.329	6.91
402.774	10.75
403.218	22.13
403.663	18.67
404.107	19.33
404.551	21.08
404.995	18.58
405.44	18.22
405.884	14.8
406.328	9
406.772	5.88
407.216	7.29
407.66	1.02
408.104	-8.52
408.547	-8.36
408.991	-8.34
409.435	-11.46
409.879	-7.92
410.322	-7.67
410.766	-5.79
411.209	-0.12
411.653	2.11
412.096	3.67
412.54	2.6
412.983	3.21
413.426	6.65
413.869	4.78
414.312	8.62
414.756	6.67
415.199	5.31
415.642	6.48
416.085	5.9
416.527	4.18
416.97	0.56
417.413	3.47
417.856	2.27
418.298	0.35
418.741	-2
419.184	-5.46
419.626	-11.13
420.069	-10.81
420.511	-11.48
420.953	-8.99
421.396	-8.41
421.838	-9.07
422.28	-9
422.722	-6.26
423.164	-6.74
423.606	-5.52
424.048	-5.06
424.49	0.26
424.932	-1.78
425.374	-2.39
425.816	-6.59
426.258	-7.57
426.699	-6.19
427.141	-4.93
427.582	-8.95
428.024	-9.68
428.465	-10.23
428.907	-12.51
429.348	-15.51
429.789	-11.11
430.231	-9.08
430.672	-7.74
431.113	-6.79
431.554	-4.48
431.995	-5.44
432.436	-2.23
432.877	-1.33
433.318	1.65
433.759	1.7
434.2	3.17
434.64	1.76
435.081	2.06
435.522	2.54
435.962	3.29
436.403	4.38
436.843	1.46
437.284	-1.8
437.724	-4.97
438.164	-9.93
438.604	-9.38
439.045	-8.49
439.485	-6.5
439.925	-8.28
440.365	-7.99
440.805	-8.56
441.245	-7.78
441.685	-6.83
442.125	-6.24
442.564	-3.62
443.004	-0.8
443.444	-0.65
443.883	0.3
444.323	-2.98
444.762	-5.94
445.202	-8.04
445.641	-6.99
446.081	-10.4
446.52	-8.28
446.959	-7.52
447.398	-6.58
447.837	-6.7
448.276	-6.38
448.716	-6.85
449.154	-7.64
449.593	-4.91
450.032	-3.95
450.471	-5.12
450.91	-5.34
451.349	-4.07
451.787	-4.03
452.226	-6.1
452.664	-6.47
453.103	-7.75
453.541	-8.22
453.98	-4.73
454.418	-3.05
454.856	-1.11
455.295	-1.39
455.733	-0.78
456.171	-2.06
456.609	0.59
457.047	1.46
457.485	3.56
457.923	5.81
458.361	5
458.798	3.13
459.236	0.7
459.674	-1.41
460.111	-0.91
460.549	-0.4
460.987	-1.63
461.424	-2.97
461.862	-3.93
462.299	-4.11
462.736	-3.05
463.173	-2.62
463.611	0.73
464.048	2.65
464.485	3.18
464.922	2.51
465.359	2.28
465.796	9.73
466.233	10.38
466.67	13
467.106	14.13
467.543	11.55
467.98	10.45
468.416	7.87
468.853	6.15
469.29	5.85
469.726	6.08
470.162	6.08
470.599	-0.09
471.035	-1.6
471.471	-2.7
471.907	-5.01
472.344	-4.63
472.78	-3.61
473.216	-3.6
473.652	-3.01
474.088	-3.2
474.523	-2.27
474.959	-3.03
475.395	-3.03
475.831	-2.46
476.266	-2.12
476.702	-2.78
477.138	-2.08
477.573	-2.47
478.008	-2.53
478.444	-1.83
478.879	-0.43
479.314	-0.04
479.75	0.48
480.185	0.39
480.62	0.09
481.055	-0.16
481.49	0.89
481.925	0.86
482.36	2.75
482.795	2.25
483.229	1.57
483.664	0.91
484.099	0.14
484.534	0.62
484.968	1.51
485.403	1.42
485.837	0.59
486.271	0.57
486.706	0.75
487.14	-1.03
487.574	-0.63
488.009	-0.54
488.443	-0.84
488.877	0.49
489.311	-0.5
489.745	-0.57
490.179	-0.68
490.613	1.4
491.046	1
491.48	0.68
491.914	1.44
492.348	1.17
492.781	1.6
493.215	1.76
493.648	-0.24
494.082	-0.14
494.515	-0.07
494.948	0.7
495.382	-1.19
495.815	-1.01
496.248	-0.83
496.681	-1.5
497.114	-1.93
497.547	-2.22
497.98	-1.41
498.413	0.23
498.846	0.85
499.279	0.44
499.711	-0.33
500.144	-0.27
500.577	0.61
501.009	0.49
501.442	1.9
501.874	2.91
502.306	2.86
502.739	4.8
503.171	4.46
503.603	4.42
504.036	4.23
504.468	4.78
504.9	5.11
505.332	4.05
505.764	4.35
506.196	3.26
506.627	3.01
507.059	3.08
507.491	-0.13
507.923	-0.08
508.354	0.4
508.786	0.44
509.217	0.13
509.649	-0.09
510.08	-0.24
510.512	0.18
510.943	0.65
511.374	0.98
511.805	0.57
512.237	0.55
512.668	0.08
513.099	-0.97
513.53	-1.19
513.961	-0.94
514.391	-1.2
514.822	0.25
515.253	-0.1
515.684	-0.61
516.114	-0.9
516.545	-0.1
516.975	0.52
517.406	0.21
517.836	-0.08
518.267	0.77
518.697	1.23
519.127	1.4
519.558	0.6
519.988	-0.08
520.418	-0.19
520.848	-0.97
521.278	-1.9
521.708	17.87
522.138	18.55
522.567	18.13
522.997	17.16
523.427	16.69
523.857	17.23
524.286	17.13
524.716	17.96
525.145	18.54
525.575	19.44
526.004	19.52
526.433	-0.13
526.863	-0.95
527.292	0.65
527.721	1.51
528.15	1.21
528.579	1.13
529.008	1.25
529.437	-0.15
529.866	-1.15
530.295	-1.81
530.724	-1.18
531.152	-1.16
531.581	-0.21
532.01	-0.87
532.438	-1.7
532.867	-1.9
533.295	-1.81
533.723	-1.88
534.152	-1.53
534.58	-0.64
535.008	0.03
535.436	0.7
535.865	0.72
536.293	-0.21
536.721	-0.56
537.149	-0.2
537.576	0.63
538.004	0.55
538.432	0.23
538.86	1.3
539.287	1.18
539.715	0.86
540.143	-0.25
540.57	0.01
540.998	0.14
541.425	1.86
541.852	1.75
542.28	1.45
542.707	1.42
543.134	1.14
543.561	0.57
543.988	0.24
544.415	-0.38
544.842	-0.54
545.269	-0.73
545.696	-0.16
546.123	-0.51
546.549	0.19
546.976	0.3
547.403	0.54
547.829	0.23
548.256	-0.03
548.682	-0.1
549.108	1.25
549.535	1.46
549.961	1.34
550.387	0.71
550.813	0.9
551.24	0.13
551.666	-0.62
552.092	-0.78
552.518	-0.67
552.943	0.18
553.369	0.2
553.795	-0.6
554.221	-0.47
554.646	-0.87
555.072	0.41
555.498	-0.95
555.923	-1.31
556.349	-1
556.774	-1.4
557.199	-1.45
557.625	-2.78
558.05	-2.14
558.475	-2.33
558.9	-2.55
559.325	-1.2
559.75	-1.18
560.175	-0.86
560.6	-1
561.025	-1.43
561.449	-1.45
561.874	-1.38
562.299	-0.66
562.723	-1.4
563.148	-1.22
563.572	-1.22
563.997	-2.31
564.421	-3.28
564.846	-3.47
565.27	-2.8
565.694	-2.19
566.118	-1.72
566.542	-0.91
566.966	-0.56
567.39	-0.02
567.814	0.67
568.238	0.75
568.662	0.56
569.086	0.87
569.509	-0.16
569.933	1.25
570.357	0.68
570.78	0.52
571.204	0.92
571.627	0.71
572.05	0.61
572.474	0.75
572.897	1.1
573.32	2.29
573.743	1.67
574.166	3.09
574.589	1.51
575.012	2.12
575.435	1.57
575.858	1.55
576.281	1.56
576.704	1.02
577.126	-0.07
577.549	-0.95
577.972	-2.16
578.394	-1.89
578.817	-0.18
579.239	-0.12
579.661	0.12
580.084	1.91
580.506	1.71
580.928	1.19
581.35	1.54
581.772	1.64
582.194	2.49
582.616	2.38
583.038	2.04
583.46	0.16
583.882	0.53
584.303	-0.79
584.725	-1.94
585.147	2
585.568	2.5
585.99	2.61
586.411	3.49
586.833	3.8
587.254	4.55
587.675	4.09
588.096	3.84
588.518	3.81
588.939	4.05
589.36	3.28
589.781	-2.16
590.202	0.33
590.623	0.25
591.043	-1.1
591.464	-1.56
591.885	-1.48
592.305	-1.33
592.726	-0.69
593.147	-0.8
593.567	0.44
593.987	1.04
594.408	1.15
594.828	-1.74
595.248	-1.32
595.669	-0.07
596.089	-0.23
596.509	-0.25
596.929	-0.15
597.349	-0.52
597.769	-0.77
598.189	-1.28
598.608	-1.41
599.028	-0.94
599.448	-0.45
599.867	-0.47
600.287	-1
600.706	-0.87
601.126	-0.53
601.545	0.36
601.965	0.29
602.384	0.52
602.803	0.1
603.222	0.62
603.641	0.51
604.061	0.74
604.48	0.46
604.898	0.59
605.317	0.41
605.736	-0.06
606.155	0.43
606.574	0.45
606.992	0.27
607.411	0.53
607.829	-0.91
608.248	-1.19
608.666	-1.61
609.085	-1.38
609.503	-1.47
609.921	-0.56
610.339	-0.85
610.758	-1.92
611.176	-1.98
611.594	-1.45
612.012	-1.57
612.43	-0.28
612.847	0.11
613.265	0.91
613.683	1.25
614.101	1.42
614.518	0.91
614.936	1.26
615.353	2.27
615.771	2.52
616.188	2.13
616.606	2.32
617.023	2.54
617.44	2.44
617.857	1.15
618.274	0.13
618.691	0.18
619.108	0.11
619.525	-0.68
619.942	-1.33
620.359	-1.3
620.776	-1.12
621.192	-0.37
621.609	0
622.026	0.26
622.442	0.83
622.859	0.55
623.275	0.19
623.691	-0.5
624.108	0.35
624.524	-0.28
624.94	-0.2
625.356	-0.19
625.772	-0.95
626.188	-1.64
626.604	-1.84
627.02	-2.18
627.436	-1.07
627.852	0.29
628.268	1.02
628.683	0.41
629.099	0.39
629.514	0.1
629.93	-0.43
630.345	-0.19
630.761	-0.43
631.176	-0.6
631.591	1.47
632.007	1.8
632.422	0.25
632.837	-0.59
633.252	0.61
633.667	1.04
634.082	0.8
634.497	1.63
634.911	2.94
635.326	3.07
635.741	3.41
636.155	2.02
636.57	2.19
636.984	3.2
637.399	4.94
637.813	4.04
638.228	3.84
638.642	4.24
639.056	3.67
639.47	2.64
639.884	2.02
640.298	1.78
640.712	2.53
641.126	2.31
641.54	1.01
641.954	-1.22
642.368	-0.44
642.781	1.91
643.195	1.53
643.609	1.85
644.022	1.85
644.436	1.92
644.849	0.95
645.262	-0.6
645.676	-1.51
646.089	-1.01
646.502	0.67
646.915	-0.41
647.328	-1.99
647.741	-1.96
648.154	-2.01
648.567	-0.2
648.98	0.38
649.393	1.56
649.805	1.8
650.218	2.14
650.631	2.44
651.043	2.14
651.456	2.57
651.868	2.49
652.28	2.26
652.693	0.89
653.105	-0.76
653.517	-1.52
653.929	-1.46
654.341	-0.2
654.753	0.21
655.165	-0.3
655.577	-0.8
655.989	-0.86
656.401	-1.83
656.813	-0.7
657.224	0.24
657.636	-0.31
658.047	0.93
658.459	1
658.87	-1.33
659.282	-1.95
659.693	-0.98
660.104	0.07
660.515	-0.06
660.926	-0.72
661.338	-1.68
661.749	-2.16
662.159	-1.47
662.57	-2.31
662.981	-2.53
663.392	-1.56
663.803	-1.55
664.213	-2.39
664.624	-3.36
665.035	-3.06
665.445	-2.89
665.855	-2.07
666.266	-1.12
666.676	-1.4
667.086	-1.46
667.497	-1.02
667.907	-0.44
668.317	-0.28
668.727	3
669.137	2.32
669.547	2.5
669.956	1.94
670.366	1.27
670.776	1.32
671.186	0.44
671.595	0.26
672.005	-1.15
672.414	-0.86
672.824	-0.03
673.233	-3.8
673.642	-2.96
674.052	-3.03
674.461	-1.74
674.87	-1.44
675.279	-0.09
675.688	-0.7
676.097	0.67
676.506	1.42
676.915	0.66
677.323	0.72
677.732	1.39
678.141	0.04
678.549	-0.75
678.958	-1.97
679.366	-2.64
679.775	-4.79
680.183	-2.41
680.592	-3.47
681	-3.55
681.408	-3.66
681.816	-5.2
682.224	-5.92
682.632	-3.27
683.04	-2.91
683.448	-2.52
683.856	-1.65
684.264	-0.89
684.671	-1.88
685.079	-2.59
685.487	-3.31
685.894	-3.32
686.302	-4.05
686.709	-3.42
687.116	-4.49
687.524	-3.81
687.931	-1.97
688.338	-1.48
688.745	-2.15
689.152	-3.47
689.559	-2.43
689.966	-0.08
690.373	0.5
690.78	2.1
691.187	1.27
691.593	1.52
692	1.33
692.407	1.34
692.813	3.24
693.22	4.75
693.626	3.83
694.032	4
694.439	3.8
694.845	3.48
695.251	2.64
695.657	3.68
696.063	1.83
696.469	1.58
696.875	1.08
697.281	-0.97
697.687	-3.08
698.093	-1.55
698.498	-1.87
698.904	-3.54
699.31	-3.3
699.715	-0.73
700.12	-1.21
700.526	0.37
700.931	-0.57
701.337	0.19
701.742	0.96
702.147	1.31
702.552	1.17
702.957	-0.37
703.362	-0.24
703.767	-0.23
704.172	-2.76
704.577	-3.18
704.981	-4.18
705.386	-3.23
705.791	-2.96
706.195	-4.29
706.6	-3.51
707.004	-4.25
707.408	-3.19
707.813	-1.91
708.217	-1.49
708.621	-1.39
709.025	-1.98
709.43	-0.41
709.834	-0.41
710.237	-1.42
710.641	-0.76
711.045	-0.62
711.449	0.37
711.853	3.29
712.256	1.76
712.66	1.19
713.064	1.15
713.467	3.37
713.87	2.77
714.274	3.3
714.677	4.09
715.08	3.6
715.484	3.74
715.887	5.94
716.29	2.3
716.693	4.42
717.096	4.71
717.499	5.55
717.901	4.21
718.304	3.58
718.707	2.85
719.109	2.16
719.512	2.1
719.915	4.28
720.317	2.73
720.719	2.58
721.122	0.78
721.524	1.07
721.926	5.33
722.328	5.51
722.731	5.79
723.133	5.05
723.535	3.31
723.937	3.23
724.338	3.32
724.74	4.84
725.142	51.51
725.544	54.68
725.945	65.4
726.347	61.93
726.748	61.82
727.15	63.04
727.551	67.14
727.952	67.31
728.354	67.28
728.755	66.18
729.156	63.39
729.557	18.2
729.958	16.04
730.359	5.66
730.76	4.14
731.161	4.55
731.562	2.16
731.962	-1.32
732.363	-1.06
732.763	-1.93
733.164	-5.01
733.564	-3.65
733.965	-1.8
734.365	-1.38
734.766	-1.49
735.166	-0.85
735.566	-0.25
735.966	1.21
736.366	2.03
736.766	2.67
737.166	2.29
737.566	4.09
737.966	3.25
738.365	2.18
738.765	1.97
739.165	1.28
739.564	0.64
739.964	-1.12
740.363	-2.48
740.763	-3.45
741.162	-2.47
741.561	-2.35
741.96	-3.2
742.36	-3.5
742.759	-3.08
743.158	-4.08
743.557	-4
743.955	-4.2
744.354	-3.06
744.753	-3.66
745.152	-2.5
745.55	-4.92
745.949	-4.32
746.348	-3.16
746.746	-4.4
747.144	-2.87
747.543	-3.41
747.941	-3.59
748.339	-3.32
748.737	-3.51
749.136	-2.19
749.534	-3.72
749.932	-0.66
750.33	-1.78
750.727	-2.87
751.125	-1.03
751.523	-2.05
751.921	1
752.318	2.07
752.716	3.87
753.113	4.04
753.511	3.66
753.908	3.52
754.305	6.87
754.703	8.15
755.1	9.28
755.497	8.9
755.894	7.75
756.291	5.97
756.688	5.26
757.085	3.39
757.482	4.21
757.878	6.94
758.275	9.11
758.672	1.23
