Data from N_1_DEC_VA_2N_Splice17_11-18-43-349.txt Node
Date: Sat Mar 14 11:18:43 EDT 2020
User: sa697716
Spectrometer: FLMS03696
Trigger mode: 0
Integration Time (sec): 3.180400E-1
Scans to average: 20
Electric dark correction enabled: true
Nonlinearity correction enabled: true
Boxcar width: 5
XAxis mode: Wavelengths
Number of Pixels in Spectrum: 2048
>>>>>Begin Spectral Data<<<<<
187.83	-81372.23
188.298	616.79
188.766	345.09
189.233	300.35
189.701	438.63
190.169	626.67
190.636	280.25
191.104	262.49
191.571	68.12
192.039	-6.28
192.506	-16.27
192.974	400.68
193.441	-504.06
193.908	-204.57
194.375	-88.17
194.842	-14.68
195.31	-0.49
195.777	93.7
196.244	169.09
196.711	124.42
197.177	141.95
197.644	160.1
198.111	282.24
198.578	348.53
199.045	260.34
199.511	397.49
199.978	411.09
200.445	363.4
200.911	377.08
201.378	385.46
201.844	390.14
202.31	590.24
202.777	652.92
203.243	377.18
203.709	351.71
204.176	417.5
204.642	357.08
205.108	335.42
205.574	287.17
206.04	243.47
206.506	212.53
206.972	186.35
207.438	183.3
207.903	199.46
208.369	171.88
208.835	191.85
209.301	197.26
209.766	199.14
210.232	194.41
210.697	213.9
211.163	265.6
211.628	403.2
212.094	360.86
212.559	480.61
213.024	299.59
213.49	409.28
213.955	375.86
214.42	355.78
214.885	333.23
215.35	314.08
215.815	334.68
216.28	349.46
216.745	276.58
217.21	289.39
217.675	231.39
218.14	241.47
218.604	218.24
219.069	212.42
219.534	225.08
219.998	235.85
220.463	254.81
220.927	243.97
221.392	214.48
221.856	218.78
222.32	225.95
222.785	288.68
223.249	345.57
223.713	359.54
224.177	363.36
224.642	402.52
225.106	410.17
225.57	410.89
226.034	337.68
226.497	467.77
226.961	439.35
227.425	493.6
227.889	464.91
228.353	422.79
228.816	867.59
229.28	862.64
229.744	722.69
230.207	516.94
230.671	507.99
231.134	694.94
231.597	872.9
232.061	750.23
232.524	690.14
232.987	487.42
233.45	486.69
233.914	416.46
234.377	336.48
234.84	306.37
235.303	291.27
235.766	331.73
236.229	350.97
236.691	190.49
237.154	196.43
237.617	164.37
238.08	154.84
238.542	154.63
239.005	116.85
239.468	147.43
239.93	130.18
240.393	145.84
240.855	132.06
241.317	117.46
241.78	138.84
242.242	161.41
242.704	201.16
243.166	186.83
243.629	189.99
244.091	218.27
244.553	218.64
245.015	242.25
245.477	273.15
245.939	382.76
246.4	441.72
246.862	403.98
247.324	382.58
247.786	361.8
248.247	428.87
248.709	348.7
249.17	270.46
249.632	346.72
250.093	448.16
250.555	417.96
251.016	276.91
251.477	267.25
251.939	295.6
252.4	287.36
252.861	335.07
253.322	337.63
253.783	384.32
254.244	469.66
254.705	308.77
255.166	206.75
255.627	173.3
256.088	239.74
256.549	242.6
257.009	202.02
257.47	249.48
257.931	170.88
258.391	123.2
258.852	129.84
259.312	134.62
259.773	154.43
260.233	206.06
260.694	195.9
261.154	210.76
261.614	215.6
262.074	190.74
262.534	208.58
262.994	218.88
263.455	266
263.915	243.77
264.374	232.06
264.834	256.81
265.294	257.12
265.754	267.92
266.214	251.62
266.673	212.46
267.133	250.06
267.593	231.91
268.052	263.23
268.512	229.82
268.971	291.47
269.431	295.96
269.89	254.65
270.349	379.08
270.809	452.91
271.268	388.86
271.727	704.75
272.186	482.36
272.645	360.21
273.104	252.72
273.563	360.34
274.022	237.34
274.481	231.99
274.94	196.98
275.399	133.98
275.857	126.01
276.316	140.54
276.775	148.13
277.233	152.63
277.692	163.31
278.15	202.43
278.609	249.21
279.067	234.06
279.525	240.3
279.984	298.85
280.442	373.77
280.9	418.1
281.358	295.48
281.816	280.74
282.274	262.54
282.732	249.86
283.19	239.03
283.648	200.64
284.106	192.68
284.564	200.86
285.021	195.32
285.479	145.29
285.937	99.2
286.394	103.78
286.852	103.15
287.309	112.89
287.767	135.87
288.224	146.2
288.682	147.02
289.139	176.25
289.596	154.8
290.053	146.69
290.511	163.89
290.968	231.36
291.425	284.24
291.882	288.68
292.339	279.14
292.796	246.2
293.252	214.95
293.709	187.69
294.166	160.73
294.623	170.61
295.079	151.84
295.536	178.64
295.992	163.34
296.449	162.97
296.905	173.49
297.362	174.8
297.818	168.06
298.274	175.4
298.731	175.74
299.187	182.81
299.643	189.31
300.099	238.49
300.555	259.77
301.011	208.57
301.467	260.67
301.923	244.38
302.379	236.53
302.835	243.16
303.291	245.25
303.746	275.93
304.202	349.13
304.658	330.53
305.113	248.22
305.569	242.58
306.024	266.01
306.479	188.29
306.935	183.57
307.39	176
307.845	171.1
308.301	176.31
308.756	159.22
309.211	166.6
309.666	168.68
310.121	218.13
310.576	193.78
311.031	182.63
311.486	201.65
311.94	193.18
312.395	259.39
312.85	462.63
313.305	1907.8
313.759	13783.71
314.214	869.24
314.668	779.92
315.123	676.08
315.577	307.33
316.032	273.21
316.486	306.2
316.94	272.79
317.394	205.04
317.849	166.4
318.303	153.21
318.757	135.14
319.211	153.34
319.665	149.85
320.119	151.37
320.572	191.15
321.026	199.76
321.48	176.36
321.934	170.21
322.387	155.43
322.841	167.08
323.295	185.62
323.748	182.64
324.202	185.7
324.655	211.51
325.108	343.96
325.562	264.44
326.015	292.73
326.468	255.86
326.921	284.87
327.374	316.84
327.827	339.67
328.28	367.88
328.733	273.84
329.186	249.98
329.639	239.69
330.092	188.32
330.545	197.03
330.997	203.69
331.45	239.76
331.903	299.73
332.355	460.38
332.808	444.36
333.26	360.85
333.713	422.99
334.165	430.61
334.617	539.62
335.069	399.62
335.522	606.33
335.974	705.01
336.426	536.71
336.878	296.24
337.33	178.28
337.782	187.75
338.234	257.25
338.686	248.49
339.137	275.09
339.589	285.59
340.041	244.62
340.493	201.56
340.944	205.65
341.396	216.3
341.847	222.31
342.299	257.82
342.75	325.65
343.201	246.61
343.653	274.62
344.104	323.6
344.555	251.08
345.006	310.62
345.457	333.8
345.908	228
346.359	252.54
346.81	202.36
347.261	190.46
347.712	179.36
348.163	191.42
348.613	243.73
349.064	225.79
349.515	187.28
349.965	223.49
350.416	238.37
350.866	269.27
351.317	282.87
351.767	445.48
352.217	565.84
352.668	478.89
353.118	434.24
353.568	330.04
354.018	299.1
354.468	347.37
354.918	247.99
355.368	210.47
355.818	274.95
356.268	588.74
356.718	2803.16
357.168	787.68
357.617	358.63
358.067	395.1
358.517	356.29
358.966	430.7
359.416	508.71
359.865	552.17
360.315	525.82
360.764	281.7
361.213	201.16
361.663	148.79
362.112	146.6
362.561	239.7
363.01	179.52
363.459	182.33
363.908	150.67
364.357	145.29
364.806	236.08
365.255	189.04
365.703	187.36
366.152	184.86
366.601	150.04
367.05	153.11
367.498	143
367.947	153.81
368.395	155.58
368.844	165.14
369.292	169.88
369.74	131.1
370.189	181.59
370.637	215.99
371.085	198.83
371.533	257.46
371.981	213.4
372.429	222.24
372.877	241.84
373.325	218.69
373.773	202.28
374.221	155.28
374.669	180.57
375.116	174.57
375.564	182.17
376.012	178.54
376.459	163.18
376.907	187.39
377.354	200.19
377.801	206.34
378.249	244.78
378.696	287.93
379.143	444.21
379.591	439.08
380.038	679.39
380.485	498.16
380.932	523.55
381.379	546.5
381.826	461.72
382.273	326.9
382.72	266.93
383.166	270.33
383.613	187.06
384.06	162.51
384.506	178.22
384.953	142.57
385.4	122.61
385.846	108.59
386.292	83.31
386.739	78.16
387.185	60.84
387.631	60.16
388.078	60.05
388.524	58.05
388.97	61.03
389.416	61.15
389.862	61.25
390.308	65.4
390.754	69.27
391.2	78.5
391.645	69.7
392.091	107.25
392.537	109.61
392.983	90.65
393.428	115.23
393.874	107.44
394.319	121.31
394.765	133.4
395.21	137.23
395.655	131.51
396.101	127.25
396.546	119.82
396.991	102.71
397.436	93.43
397.881	98.3
398.326	81.06
398.771	82.67
399.216	65.37
399.661	55.06
400.106	60.83
400.551	65.65
400.995	56.17
401.44	53.84
401.885	47.2
402.329	46.96
402.774	46.55
403.218	54.52
403.663	53.08
404.107	56.1
404.551	56.12
404.995	49.88
405.44	45.04
405.884	46.69
406.328	42.82
406.772	43.77
407.216	42.22
407.66	36.39
408.104	27.51
408.547	26.04
408.991	25.19
409.435	23.76
409.879	25.24
410.322	25.74
410.766	25.46
411.209	26.47
411.653	26.61
412.096	25.8
412.54	24.44
412.983	23.42
413.426	24.37
413.869	22.43
414.312	24.56
414.756	21.32
415.199	19.36
415.642	20.38
416.085	21
416.527	18.97
416.97	17.13
417.413	18.75
417.856	16.99
418.298	16.61
418.741	16.27
419.184	12.68
419.626	8.94
420.069	9.37
420.511	9.27
420.953	10.83
421.396	11.87
421.838	11.43
422.28	11.76
422.722	16.67
423.164	14.4
423.606	14.66
424.048	14.68
424.49	17.15
424.932	16.4
425.374	15.52
425.816	13.79
426.258	14.05
426.699	18.36
427.141	19.71
427.582	16.39
428.024	15.61
428.465	12.63
428.907	12.67
429.348	12.23
429.789	13.83
430.231	14.7
430.672	13.61
431.113	12.94
431.554	11.97
431.995	10.27
432.436	13.08
432.877	14.58
433.318	17.36
433.759	14.91
434.2	14.23
434.64	12.07
435.081	12.21
435.522	12.77
435.962	11.3
436.403	10.77
436.843	9.69
437.284	7.18
437.724	5.22
438.164	2.43
438.604	4.03
439.045	5.82
439.485	9.24
439.925	9.21
440.365	9.25
440.805	9.55
441.245	10.79
441.685	11.2
442.125	10.87
442.564	10.94
443.004	11.52
443.444	10.76
443.883	10.67
444.323	7.53
444.762	3.19
445.202	1.84
445.641	2.98
446.081	0.43
446.52	0.9
446.959	1.92
447.398	3.57
447.837	4.79
448.276	5.68
448.716	6.6
449.154	5.3
449.593	8.36
450.032	8.1
450.471	6.24
450.91	5.77
451.349	6.48
451.787	6.08
452.226	5.62
452.664	4.57
453.103	4.17
453.541	2.28
453.98	5.09
454.418	5.24
454.856	7.31
455.295	8.44
455.733	9.07
456.171	7.7
456.609	8.3
457.047	8.55
457.485	10.14
457.923	11.35
458.361	10.95
458.798	10.26
459.236	9.97
459.674	8.31
460.111	8.74
460.549	8.95
460.987	8.93
461.424	7.99
461.862	7.89
462.299	7.84
462.736	8.41
463.173	8.18
463.611	10.94
464.048	12.04
464.485	13.3
464.922	12.83
465.359	11.25
465.796	17.5
466.233	18.65
466.67	19.77
467.106	20.64
467.543	18.97
467.98	19.16
468.416	16.44
468.853	15.13
469.29	14.46
469.726	13.69
470.162	14.09
470.599	8.39
471.035	6.83
471.471	6.95
471.907	5.51
472.344	5.15
472.78	5.28
473.216	4.65
473.652	3.91
474.088	2.88
474.523	3.22
474.959	2.87
475.395	3.35
475.831	4.02
476.266	2.93
476.702	2.43
477.138	3.02
477.573	2.63
478.008	3.17
478.444	4.24
478.879	5.82
479.314	6.27
479.75	6.62
480.185	6.63
480.62	6.27
481.055	6.56
481.49	7.16
481.925	7.54
482.36	9.2
482.795	8.44
483.229	7.73
483.664	7.13
484.099	6.72
484.534	7.11
484.968	7.16
485.403	7.56
485.837	6.9
486.271	6.47
486.706	6.04
487.14	5.39
487.574	5.72
488.009	5.02
488.443	4.58
488.877	4.92
489.311	4.27
489.745	4.31
490.179	4
490.613	5.06
491.046	4.6
491.48	4.41
491.914	3.79
492.348	4.31
492.781	5.15
493.215	5.55
493.648	4.61
494.082	5.51
494.515	5.45
494.948	6.18
495.382	5.28
495.815	5.89
496.248	6.21
496.681	6.6
497.114	5.51
497.547	5.38
497.98	5.68
498.413	7.36
498.846	6.32
499.279	5.86
499.711	4.9
500.144	4.9
500.577	5.66
501.009	4.98
501.442	5.13
501.874	5.28
502.306	5.03
502.739	6.57
503.171	5.93
503.603	6.42
504.036	6.61
504.468	7.02
504.9	7.07
505.332	6.06
505.764	6.44
506.196	6.54
506.627	7.09
507.059	7.4
507.491	5.45
507.923	5.28
508.354	5.76
508.786	6.16
509.217	6.44
509.649	6.05
510.08	5.84
510.512	6.28
510.943	6.18
511.374	5.94
511.805	5.46
512.237	5.09
512.668	4.77
513.099	3.75
513.53	3.21
513.961	3.21
514.391	3.72
514.822	4.87
515.253	4.96
515.684	5.26
516.114	5.02
516.545	5.3
516.975	6.14
517.406	6.1
517.836	5.97
518.267	6.14
518.697	6.48
519.127	6.38
519.558	5.41
519.988	4.7
520.418	3.55
520.848	2.97
521.278	2.81
521.708	18.27
522.138	18.41
522.567	17.97
522.997	17.66
523.427	17.09
523.857	16.91
524.286	17.6
524.716	18.17
525.145	19.07
525.575	20.07
526.004	19.51
526.433	3.7
526.863	3.28
527.292	4.68
527.721	4.98
528.15	4.55
528.579	4.61
529.008	4.42
529.437	3.35
529.866	2.5
530.295	2.13
530.724	3.14
531.152	3.71
531.581	4.81
532.01	4.29
532.438	3.8
532.867	3.87
533.295	4.04
533.723	3.47
534.152	4.35
534.58	5.09
535.008	5.45
535.436	6.21
535.865	5.65
536.293	4.96
536.721	4.94
537.149	5.47
537.576	6.17
538.004	6.25
538.432	5.92
538.86	6.27
539.287	5.86
539.715	5.99
540.143	4.95
540.57	5.19
540.998	4.94
541.425	5.94
541.852	5.97
542.28	5.42
542.707	5.13
543.134	5.84
543.561	5.68
543.988	6.03
544.415	5.49
544.842	5.18
545.269	5.18
545.696	5.55
546.123	5.17
546.549	5.17
546.976	5.43
547.403	5.79
547.829	5.21
548.256	4.36
548.682	4.31
549.108	4.62
549.535	4.99
549.961	5.33
550.387	4.97
550.813	5.72
551.24	5.88
551.666	5.6
552.092	5.22
552.518	5.12
552.943	6.12
553.369	5.76
553.795	6.05
554.221	5.56
554.646	4.71
555.072	5.59
555.498	4.34
555.923	3.62
556.349	3.29
556.774	3.12
557.199	3.33
557.625	2.53
558.05	2.52
558.475	1.95
558.9	2.61
559.325	3.31
559.75	3.27
560.175	3.34
560.6	3.22
561.025	3.06
561.449	3.37
561.874	2.83
562.299	3.63
562.723	3.77
563.148	3.64
563.572	3.9
563.997	4.16
564.421	3.38
564.846	2.75
565.27	3.08
565.694	3.2
566.118	2.59
566.542	3.61
566.966	3.19
567.39	3.01
567.814	3.93
568.238	3.18
568.662	2.51
569.086	2.66
569.509	2.4
569.933	3.79
570.357	4.59
570.78	5.23
571.204	5.83
571.627	5.76
572.05	6.02
572.474	6.05
572.897	6.51
573.32	7.15
573.743	6.92
574.166	7.94
574.589	6.68
575.012	5.98
575.435	5.44
575.858	4.74
576.281	5
576.704	4.69
577.126	3.79
577.549	3.1
577.972	2.42
578.394	2.66
578.817	3.92
579.239	3.97
579.661	4.13
580.084	5.41
580.506	5.38
580.928	5.2
581.35	5.28
581.772	5.5
582.194	5.6
582.616	5.17
583.038	4
583.46	2.81
583.882	3.02
584.303	2.71
584.725	1.89
585.147	5.18
585.568	5.3
585.99	6.13
586.411	6.46
586.833	7.35
587.254	7.98
587.675	8.79
588.096	8.56
588.518	9.11
588.939	9.6
589.36	9.83
589.781	5.88
590.202	7.56
590.623	7.55
591.043	6.92
591.464	6.52
591.885	6.96
592.305	7.24
592.726	6.82
593.147	5.92
593.567	5.86
593.987	5.25
594.408	5.08
594.828	3.17
595.248	2.99
595.669	4.2
596.089	4.39
596.509	3.86
596.929	3.33
597.349	3.9
597.769	3.82
598.189	3.66
598.608	4.03
599.028	4.64
599.448	4.61
599.867	4.21
600.287	3.6
600.706	3.9
601.126	4.05
601.545	4.72
601.965	4.81
602.384	4.39
602.803	4.39
603.222	4.57
603.641	4.28
604.061	4.74
604.48	4.49
604.898	4.21
605.317	3.37
605.736	3.44
606.155	3.97
606.574	3.7
606.992	3.98
607.411	4.44
607.829	3.78
608.248	3.69
608.666	3.28
609.085	3.55
609.503	3.44
609.921	3.68
610.339	3.91
610.758	2.8
611.176	2.56
611.594	3.24
612.012	3.02
612.43	3.89
612.847	4.17
613.265	4.71
613.683	4.7
614.101	4.97
614.518	4.69
614.936	3.92
615.353	4.72
615.771	5.18
616.188	5.03
616.606	4.5
617.023	4.19
617.44	3.87
617.857	2.62
618.274	2.68
618.691	2.99
619.108	3.56
619.525	3.91
619.942	3.73
620.359	3.43
620.776	3.13
621.192	4.2
621.609	4.69
622.026	4.68
622.442	5.45
622.859	4.77
623.275	4.06
623.691	3.91
624.108	3.86
624.524	3.79
624.94	4.3
625.356	3.8
625.772	3.24
626.188	2.47
626.604	2.8
627.02	2.93
627.436	3.77
627.852	4.89
628.268	5.4
628.683	5.53
629.099	5.17
629.514	4.44
629.93	5.29
630.345	5.28
630.761	5.47
631.176	5.04
631.591	6.02
632.007	6.43
632.422	5.73
632.837	4.87
633.252	5.95
633.667	6.21
634.082	6.91
634.497	7.3
634.911	8.12
635.326	8.06
635.741	8.65
636.155	7.58
636.57	7.89
636.984	7.59
637.399	8.99
637.813	8.07
638.228	7.75
638.642	6.7
639.056	5.98
639.47	4.81
639.884	5.17
640.298	5.51
640.712	6.18
641.126	5.99
641.54	6.3
641.954	4.45
642.368	4.3
642.781	6.8
643.195	7.79
643.609	8.24
644.022	8.64
644.436	8.24
644.849	6.26
645.262	5.94
645.676	5.19
646.089	5.22
646.502	6.96
646.915	6.86
647.328	5.65
647.741	5.75
648.154	5.73
648.567	7.19
648.98	7.73
649.393	8.79
649.805	8.72
650.218	8.63
650.631	9.41
651.043	8.79
651.456	8.79
651.868	8.32
652.28	7.03
652.693	6.05
653.105	5.43
653.517	5.04
653.929	5.3
654.341	5.83
654.753	6.72
655.165	5.46
655.577	5.78
655.989	5.96
656.401	5.32
656.813	7.45
657.224	7.92
657.636	6.71
658.047	6.68
658.459	7.22
658.87	5.32
659.282	4.86
659.693	5.33
660.104	5.22
660.515	5.1
660.926	4.83
661.338	3.79
661.749	3.13
662.159	4.04
662.57	3.4
662.981	3.07
663.392	3.97
663.803	3.55
664.213	4.7
664.624	4.56
665.035	4.04
665.445	4.22
665.855	4.83
666.266	6.04
666.676	6.19
667.086	5.99
667.497	6.53
667.907	7.09
668.317	7.43
668.727	8.13
669.137	7.01
669.547	7.6
669.956	7.24
670.366	6.49
670.776	6.67
671.186	6.13
671.595	7.23
672.005	6.4
672.414	6.56
672.824	7
673.233	5.08
673.642	5.63
674.052	5.72
674.461	7.09
674.87	7.81
675.279	8.54
675.688	7.27
676.097	8.28
676.506	8.92
676.915	8.16
677.323	7.65
677.732	8.26
678.141	8.25
678.549	8.02
678.958	7.18
679.366	5.17
679.775	3.74
680.183	6.07
680.592	4.92
681	5.34
681.408	5.71
681.816	6.21
682.224	5.54
682.632	6.95
683.04	6.58
683.448	6.78
683.856	8.73
684.264	8.86
684.671	7.84
685.079	7.68
685.487	6.45
685.894	6.28
686.302	5.55
686.709	6.4
687.116	5.5
687.524	7.04
687.931	7.7
688.338	7.77
688.745	8.05
689.152	8.15
689.559	8.79
689.966	10.24
690.373	10.28
690.78	11.68
691.187	11.97
691.593	12.64
692	12.1
692.407	12.24
692.813	14.04
693.22	14.52
693.626	12.48
694.032	12.27
694.439	11.89
694.845	12.86
695.251	11.82
695.657	11.63
696.063	10.25
696.469	10.09
696.875	9.48
697.281	7.58
697.687	6.92
698.093	8.52
698.498	8.4
698.904	7.76
699.31	6.94
699.715	7.95
700.12	7.72
700.526	9.28
700.931	9.21
701.337	9.46
701.742	10.52
702.147	10.56
702.552	11.21
702.957	11.2
703.362	11.35
703.767	10.99
704.172	10.06
704.577	9.84
704.981	7.92
705.386	7.94
705.791	8.13
706.195	6.76
706.6	6.74
707.004	5.15
707.408	4.46
707.813	4.91
708.217	5.71
708.621	5.5
709.025	4.83
709.43	6.8
709.834	6.4
710.237	5.76
710.641	6.34
711.045	7.32
711.449	8.92
711.853	11.8
712.256	11.41
712.66	11.6
713.064	12.22
713.467	13.57
713.87	12.89
714.274	14.57
714.677	16.21
715.08	17
715.484	17.04
715.887	19.19
716.29	17.43
716.693	17.73
717.096	18.32
717.499	18.19
717.901	16.76
718.304	15.98
718.707	14.7
719.109	13.98
719.512	12.96
719.915	15.52
720.317	13.51
720.719	12.35
721.122	12.57
721.524	11.93
721.926	15.87
722.328	17.17
722.731	17.39
723.133	17.45
723.535	16.24
723.937	16.51
724.338	16.03
724.74	15.62
725.142	53.07
725.544	56.41
725.945	64.39
726.347	60.72
726.748	60.67
727.15	63.26
727.551	65.84
727.952	64.99
728.354	64.07
728.755	63
729.156	63.11
729.557	26.58
729.958	23.08
730.359	15.56
730.76	15.05
731.161	14.37
731.562	11.36
731.962	9.24
732.363	9.67
732.763	9.77
733.164	8.22
733.564	8.28
733.965	9.74
734.365	9.94
734.766	9.98
735.166	10.26
735.566	12.01
735.966	13.38
736.366	13.29
736.766	13.96
737.166	13.37
737.566	14.52
737.966	14.11
738.365	13.4
738.765	14.61
739.165	14.73
739.564	14.64
739.964	12.96
740.363	12.39
740.763	12.11
741.162	13.42
741.561	13.57
741.96	13.09
742.36	11.96
742.759	12.7
743.158	10.68
743.557	10.36
743.955	10.76
744.354	11.14
744.753	10.18
745.152	10.51
745.55	8.35
745.949	8.92
746.348	9.32
746.746	8.76
747.144	10.66
747.543	10.44
747.941	9.45
748.339	8.24
748.737	8.47
749.136	9.53
749.534	7.98
749.932	10.13
750.33	9.53
750.727	8.05
751.125	9.67
751.523	7.36
751.921	9.87
752.318	10.32
752.716	12.12
753.113	11.76
753.511	11.17
753.908	12.16
754.305	14.33
754.703	14.54
755.1	15.55
755.497	15.69
755.894	16.76
756.291	15.76
756.688	17.07
757.085	15.89
757.482	16.76
757.878	20.22
758.275	23.8
758.672	19.4
759.068	21.18
759.465	21.03
759.861	19.62
760.258	17.89
760.654	18.85
761.05	21.72
761.447	21.69
761.843	19.91
762.239	17.68
762.635	11.78
763.031	9.65
763.427	9.11
763.822	10.48
764.218	10.54
764.614	10.58
765.01	6.93
765.405	4.83
765.801	6.03
766.196	5.37
766.592	3.2
766.987	5.03
767.382	6.56
767.778	6.89
