Data from N_1_DEC_VA_2N_Splice17_11-18-19-595.txt Node
Date: Sat Mar 14 11:18:19 EDT 2020
User: sa697716
Spectrometer: FLMS03696
Trigger mode: 0
Integration Time (sec): 3.180400E-1
Scans to average: 20
Electric dark correction enabled: true
Nonlinearity correction enabled: true
Boxcar width: 5
XAxis mode: Wavelengths
Number of Pixels in Spectrum: 2048
>>>>>Begin Spectral Data<<<<<
187.83	-60108.99
188.298	581.67
188.766	446.03
189.233	393.77
189.701	541.85
190.169	609.73
190.636	266.69
191.104	296.63
191.571	90.37
192.039	23.68
192.506	13.17
192.974	172.5
193.441	-109.3
193.908	241.4
194.375	98.31
194.842	131.13
195.31	58.39
195.777	102.58
196.244	222.58
196.711	196.31
197.177	230.05
197.644	254.02
198.111	360.12
198.578	490.04
199.045	384.14
199.511	613.96
199.978	696.96
200.445	618.06
200.911	667.94
201.378	692.09
201.844	642.33
202.31	1059.78
202.777	1083.23
203.243	616.66
203.709	596.48
204.176	722.87
204.642	618.75
205.108	587.86
205.574	487.68
206.04	442.35
206.506	415.13
206.972	385.15
207.438	356.98
207.903	396.6
208.369	376.01
208.835	369.96
209.301	378.64
209.766	378.53
210.232	367.44
210.697	440.34
211.163	514.11
211.628	737.19
212.094	634.38
212.559	822.14
213.024	542.55
213.49	651.37
213.955	633.11
214.42	603.75
214.885	541.76
215.35	518.4
215.815	519.73
216.28	544.41
216.745	429.76
217.21	447.01
217.675	363.67
218.14	367.29
218.604	368.71
219.069	386.86
219.534	387.22
219.998	389.52
220.463	423.18
220.927	424.39
221.392	373.17
221.856	367.35
222.32	385.22
222.785	464.44
223.249	550.2
223.713	568.28
224.177	520.13
224.642	597.61
225.106	684.1
225.57	696.23
226.034	543.37
226.497	802.05
226.961	743.61
227.425	878.19
227.889	895.3
228.353	833.02
228.816	1565.84
229.28	1519.85
229.744	1232.43
230.207	822.26
230.671	821.05
231.134	1171.85
231.597	1330.59
232.061	1219.9
232.524	1123.39
232.987	823.92
233.45	802.66
233.914	697.6
234.377	669.8
234.84	620.7
235.303	685.28
235.766	714.62
236.229	754.18
236.691	460.47
237.154	490.86
237.617	388.26
238.08	350.61
238.542	361.76
239.005	288.52
239.468	294.86
239.93	265.24
240.393	242.26
240.855	214.51
241.317	206.74
241.78	235.23
242.242	251.26
242.704	273.35
243.166	254.58
243.629	263.77
244.091	280.77
244.553	288.7
245.015	322.59
245.477	396.54
245.939	589.72
246.4	625.66
246.862	579.09
247.324	560.76
247.786	586.68
248.247	734.62
248.709	617.9
249.17	483.29
249.632	517.64
250.093	621.76
250.555	557.11
251.016	352.81
251.477	339.78
251.939	369.49
252.4	370.17
252.861	431.29
253.322	428.02
253.783	496.61
254.244	638.04
254.705	482.9
255.166	403.21
255.627	380.35
256.088	533.58
256.549	570.33
257.009	520.03
257.47	626.78
257.931	517.13
258.391	382.2
258.852	398.55
259.312	419.64
259.773	487.32
260.233	454.99
260.694	408.99
261.154	444.86
261.614	399.75
262.074	335.46
262.534	349.98
262.994	340.05
263.455	438.81
263.915	391.99
264.374	361.89
264.834	401.14
265.294	412.61
265.754	408.66
266.214	383.18
266.673	344.18
267.133	433.47
267.593	409.91
268.052	471.91
268.512	385.97
268.971	497.78
269.431	536.14
269.89	482.03
270.349	724.69
270.809	823.31
271.268	724.86
271.727	1487.86
272.186	1003.84
272.645	800.54
273.104	559.4
273.563	818.95
274.022	577.44
274.481	508.96
274.94	390.8
275.399	290.72
275.857	323.5
276.316	422.27
276.775	364.41
277.233	335.09
277.692	307.85
278.15	382.08
278.609	425.96
279.067	407.92
279.525	397.5
279.984	483.94
280.442	605.23
280.9	656.68
281.358	433.09
281.816	440.04
282.274	454.87
282.732	448.26
283.19	427.62
283.648	355.63
284.106	364.45
284.564	372.15
285.021	377.71
285.479	265.47
285.937	219.98
286.394	218.9
286.852	219.25
287.309	229.58
287.767	256.18
288.224	270.35
288.682	292.58
289.139	340.21
289.596	315.97
290.053	318.26
290.511	376.78
290.968	479.89
291.425	629.52
291.882	566.81
292.339	488.88
292.796	439.28
293.252	403.72
293.709	358.12
294.166	326.42
294.623	355.62
295.079	326.64
295.536	349.74
295.992	315.7
296.449	308.92
296.905	319.78
297.362	336.69
297.818	346.88
298.274	357.69
298.731	344.3
299.187	317.64
299.643	325.62
300.099	416.7
300.555	461.63
301.011	377.22
301.467	405.4
301.923	419.86
302.379	404.88
302.835	406.73
303.291	397.61
303.746	444.96
304.202	553.33
304.658	568.96
305.113	383.78
305.569	376.46
306.024	406.43
306.479	327.9
306.935	307.98
307.39	300.3
307.845	286.12
308.301	323.36
308.756	316.66
309.211	323.64
309.666	334.11
310.121	428.98
310.576	436.48
311.031	406.43
311.486	474.61
311.94	446.97
312.395	588.98
312.85	1108.38
313.305	4617.57
313.759	27388.14
314.214	1969.11
314.668	1623.43
315.123	1393.03
315.577	532.6
316.032	517.85
316.486	641.6
316.94	545.1
317.394	401.78
317.849	325.39
318.303	306.83
318.757	291.15
319.211	315.45
319.665	281.78
320.119	287.96
320.572	382.56
321.026	381.65
321.48	325.27
321.934	333.89
322.387	340.28
322.841	362.73
323.295	364.62
323.748	377.09
324.202	403.65
324.655	483.56
325.108	698.55
325.562	504.25
326.015	563.87
326.468	435.08
326.921	502.07
327.374	478.03
327.827	522.34
328.28	582.92
328.733	424.94
329.186	381.56
329.639	362.96
330.092	300.6
330.545	304.47
330.997	319.92
331.45	372.54
331.903	448.94
332.355	743.43
332.808	689.36
333.26	546.07
333.713	566.88
334.165	545.52
334.617	681.19
335.069	501.56
335.522	811.59
335.974	863.79
336.426	726.4
336.878	443.48
337.33	244.56
337.782	250.16
338.234	346.49
338.686	435.7
339.137	511.06
339.589	480.72
340.041	418.91
340.493	376.87
340.944	392.62
341.396	392.71
341.847	359.21
342.299	443.65
342.75	554.36
343.201	468.92
343.653	523.75
344.104	610.77
344.555	517.25
345.006	747.69
345.457	606.93
345.908	467.13
346.359	474.11
346.81	389.76
347.261	382.31
347.712	358.57
348.163	351.95
348.613	392.05
349.064	387.6
349.515	318.17
349.965	332.58
350.416	380.86
350.866	416.67
351.317	456.56
351.767	748.41
352.217	917.02
352.668	771.89
353.118	726.67
353.568	601.4
354.018	529.91
354.468	604.4
354.918	451.29
355.368	429.4
355.818	603.34
356.268	1650.84
356.718	7094.96
357.168	1885.44
357.617	940.06
358.067	1060.49
358.517	1030.4
358.966	1215.78
359.416	1380.85
359.865	1456.73
360.315	1513.48
360.764	676.65
361.213	425.63
361.663	369.25
362.112	433
362.561	656.63
363.01	478.67
363.459	397.72
363.908	385.73
364.357	354.82
364.806	579.06
365.255	435.64
365.703	448.99
366.152	426.88
366.601	363.87
367.05	329.31
367.498	327.26
367.947	340.22
368.395	361.74
368.844	335.77
369.292	372.27
369.74	273.16
370.189	382.72
370.637	436.49
371.085	375.48
371.533	439.01
371.981	349.74
372.429	374.97
372.877	396.78
373.325	361.28
373.773	351.83
374.221	300.34
374.669	365.46
375.116	340.5
375.564	348.05
376.012	371.45
376.459	339.95
376.907	428.83
377.354	471.52
377.801	471.22
378.249	516.45
378.696	649.71
379.143	840.43
379.591	842.26
380.038	1293.1
380.485	917.18
380.932	1020.37
381.379	966.17
381.826	780.43
382.273	558.59
382.72	480.19
383.166	464.88
383.613	326.84
384.06	296.34
384.506	352.82
384.953	279.54
385.4	288.92
385.846	248.35
386.292	229.04
386.739	218.72
387.185	218.7
387.631	222.14
388.078	249.54
388.524	283.8
388.97	281.08
389.416	259.74
389.862	288.37
390.308	275.21
390.754	312.19
391.2	367.66
391.645	399.01
392.091	439.02
392.537	471.22
392.983	484.84
393.428	517.68
393.874	569.49
394.319	632.93
394.765	679.48
395.21	780.91
395.655	809.75
396.101	832.82
396.546	822.37
396.991	893.69
397.436	899.15
397.881	947.4
398.326	974.89
398.771	1017.79
399.216	959.3
399.661	926
400.106	983.25
400.551	1068.94
400.995	1013.94
401.44	1054.17
401.885	1033.29
402.329	1083.74
402.774	1077.77
403.218	1077.31
403.663	1070.46
404.107	1137.48
404.551	1186.66
404.995	1131.83
405.44	1129.12
405.884	1185.75
406.328	1185.5
406.772	1212.97
407.216	1141.26
407.66	1141.68
408.104	1131.11
408.547	1104.19
408.991	1105.6
409.435	1094.31
409.879	1106.54
410.322	1121.05
410.766	1112.43
411.209	1089.93
411.653	1080.08
412.096	1090.44
412.54	1119.58
412.983	1134.57
413.426	1155.66
413.869	1176.22
414.312	1174.5
414.756	1152.46
415.199	1117.8
415.642	1101.38
416.085	1114.15
416.527	1121.99
416.97	1149.9
417.413	1102.18
417.856	1099.93
418.298	1096.42
418.741	1088.99
419.184	1088.27
419.626	1134.82
420.069	1139.29
420.511	1149.28
420.953	1133.69
421.396	1131.22
421.838	1111.51
422.28	1142.77
422.722	1157.16
423.164	1188.5
423.606	1186.05
424.048	1205.67
424.49	1161.36
424.932	1167.05
425.374	1164.22
425.816	1190.42
426.258	1207.37
426.699	1205.49
427.141	1165.52
427.582	1163.71
428.024	1144.98
428.465	1141.33
428.907	1122.7
429.348	1131.39
429.789	1150.18
430.231	1138.36
430.672	1167.64
431.113	1161.5
431.554	1181.48
431.995	1205.11
432.436	1209.5
432.877	1223.88
433.318	1235.02
433.759	1254.27
434.2	1271.03
434.64	1272.26
435.081	1294.91
435.522	1247.54
435.962	1227.49
436.403	1222.91
436.843	1256.65
437.284	1247.47
437.724	1229.99
438.164	1247.61
438.604	1236.79
439.045	1199.8
439.485	1164.94
439.925	1159.37
440.365	1150.2
440.805	1149.73
441.245	1143.44
441.685	1108.25
442.125	1107.03
442.564	1117.75
443.004	1093.29
443.444	1091.75
443.883	1099.86
444.323	1101.63
444.762	1112.83
445.202	1134.17
445.641	1158.22
446.081	1162.3
446.52	1179.91
446.959	1178.56
447.398	1162.17
447.837	1164.27
448.276	1155.71
448.716	1175.05
449.154	1187.16
449.593	1155.26
450.032	1148.01
450.471	1127.65
450.91	1127.4
451.349	1120.86
451.787	1112.01
452.226	1120.63
452.664	1112.77
453.103	1109.6
453.541	1105.54
453.98	1100.72
454.418	1110.61
454.856	1090.01
455.295	1085.33
455.733	1087.99
456.171	1091.16
456.609	1086.26
457.047	1085.32
457.485	1095.81
457.923	1094.23
458.361	1077.44
458.798	1082.44
459.236	1079.14
459.674	1092.15
460.111	1101.17
460.549	1094.72
460.987	1094.39
461.424	1097.95
461.862	1095.27
462.299	1084.14
462.736	1085.58
463.173	1093.35
463.611	1080.24
464.048	1081.07
464.485	1093.49
464.922	1089.93
465.359	1093.09
465.796	1077.55
466.233	1078.43
466.67	1076.7
467.106	1080.49
467.543	1081.61
467.98	1079.92
468.416	1070.12
468.853	1077.33
469.29	1059.47
469.726	1058.7
470.162	1040.17
470.599	1048.77
471.035	1051.25
471.471	1038.8
471.907	1047.27
472.344	1050.63
472.78	1057.94
473.216	1075.58
473.652	1064.85
474.088	1066.6
474.523	1067.14
474.959	1082.16
475.395	1074.28
475.831	1066.43
476.266	1073.39
476.702	1070.74
477.138	1057.74
477.573	1054.44
478.008	1049.99
478.444	1053.56
478.879	1059.7
479.314	1060.82
479.75	1055.34
480.185	1056.77
480.62	1061.58
481.055	1059.65
481.49	1058.26
481.925	1061.79
482.36	1059.75
482.795	1066.92
483.229	1070.84
483.664	1069.49
484.099	1055.28
484.534	1055.3
484.968	1051.3
485.403	1043.71
485.837	1033.72
486.271	1024.74
486.706	1024.4
487.14	1018.02
487.574	1008.19
488.009	1005.28
488.443	999.81
488.877	1006.41
489.311	1007.59
489.745	1015.27
490.179	1019.54
490.613	1031.43
491.046	1035.7
491.48	1037.44
491.914	1033.41
492.348	1035.13
492.781	1037.21
493.215	1036.81
493.648	1040.09
494.082	1045.25
494.515	1040.17
494.948	1044.65
495.382	1045.58
495.815	1044.63
496.248	1043.41
496.681	1052.23
497.114	1059.46
497.547	1061.96
497.98	1066.65
498.413	1058.17
498.846	1057.08
499.279	1057.86
499.711	1055.31
500.144	1049.56
500.577	1049.83
501.009	1051.85
501.442	1052.4
501.874	1044.92
502.306	1041.04
502.739	1042.89
503.171	1057.93
503.603	1056.44
504.036	1060.35
504.468	1056.43
504.9	1057.92
505.332	1057.62
505.764	1054.51
506.196	1054.32
506.627	1060.01
507.059	1062.71
507.491	1061.8
507.923	1046.18
508.354	1050.52
508.786	1050.52
509.217	1058.37
509.649	1061.21
510.08	1066.65
510.512	1067.76
510.943	1065.61
511.374	1060.07
511.805	1064.51
512.237	1067.17
512.668	1080.94
513.099	1084.88
513.53	1083.67
513.961	1074.77
514.391	1078.07
514.822	1081.5
515.253	1088.21
515.684	1088.37
516.114	1093.34
516.545	1091.98
516.975	1097.45
517.406	1097.3
517.836	1089.94
518.267	1091.28
518.697	1102.77
519.127	1103.34
519.558	1105.24
519.988	1103.33
520.418	1107.81
520.848	1115.88
521.278	1117.85
521.708	1108.9
522.138	1110.85
522.567	1123.89
522.997	1129.37
523.427	1125.14
523.857	1122.18
524.286	1116.6
524.716	1116.77
525.145	1119.56
525.575	1118.35
526.004	1118.98
526.433	1117.64
526.863	1109.55
527.292	1097.4
527.721	1099.51
528.15	1104.64
528.579	1106.63
529.008	1111.33
529.437	1120.55
529.866	1121.41
530.295	1123.84
530.724	1121.22
531.152	1129.75
531.581	1132.23
532.01	1136.38
532.438	1134.48
532.867	1137.02
533.295	1140.97
533.723	1139.63
534.152	1134.55
534.58	1132.41
535.008	1119.78
535.436	1118.91
535.865	1119.13
536.293	1121.35
536.721	1123.62
537.149	1128.7
537.576	1120.92
538.004	1121.71
538.432	1120.36
538.86	1116.56
539.287	1116.6
539.715	1120.85
540.143	1119.13
540.57	1116.54
540.998	1115.77
541.425	1105.98
541.852	1097.94
542.28	1101.14
542.707	1095.3
543.134	1091.67
543.561	1091.69
543.988	1089.25
544.415	1090.84
544.842	1089.76
545.269	1086.86
545.696	1089.07
546.123	1097.54
546.549	1093.73
546.976	1088.37
547.403	1089.8
547.829	1092.65
548.256	1095.78
548.682	1096.48
549.108	1093.98
549.535	1096.35
549.961	1099.29
550.387	1092.66
550.813	1091.22
551.24	1097.31
551.666	1099.9
552.092	1096.18
552.518	1092.91
552.943	1090.07
553.369	1093.91
553.795	1097.08
554.221	1097.59
554.646	1094.63
555.072	1099.08
555.498	1098.27
555.923	1098.23
556.349	1100.98
556.774	1100.66
557.199	1098.3
557.625	1099.79
558.05	1094.91
558.475	1100.2
558.9	1097.42
559.325	1092.36
559.75	1089.17
560.175	1086.47
560.6	1084.98
561.025	1085.85
561.449	1088.53
561.874	1092.21
562.299	1092.09
562.723	1093.19
563.148	1085.41
563.572	1086.54
563.997	1090.12
564.421	1093.05
564.846	1091.49
565.27	1091.47
565.694	1088.02
566.118	1091.56
566.542	1093.19
566.966	1088.96
567.39	1085.41
567.814	1076.82
568.238	1074.66
568.662	1077.22
569.086	1077.8
569.509	1083.76
569.933	1077.41
570.357	1076.11
570.78	1068.45
571.204	1064.69
571.627	1062.36
572.05	1066.44
572.474	1071.78
572.897	1068.79
573.32	1067.83
573.743	1065.91
574.166	1057.8
574.589	1060.08
575.012	1057.71
575.435	1058.53
575.858	1055.68
576.281	1052.07
576.704	1046.49
577.126	1044.4
577.549	1044.44
577.972	1044.24
578.394	1042.54
578.817	1044.01
579.239	1038.73
579.661	1038.68
580.084	1035.11
580.506	1034.31
580.928	1038.37
581.35	1037.52
581.772	1039.52
582.194	1034.24
582.616	1028.92
583.038	1021.97
583.46	1017.18
583.882	1017.09
584.303	1019.8
584.725	1018.39
585.147	1015.28
585.568	1016.15
585.99	1014.56
586.411	1008.61
586.833	1009.27
587.254	1004.33
587.675	1009.43
588.096	1013.78
588.518	1005.89
588.939	991.59
589.36	988.04
589.781	985.02
590.202	973.03
590.623	975.94
591.043	983.46
591.464	981.87
591.885	983.79
592.305	983.32
592.726	976.72
593.147	981.97
593.567	983.28
593.987	981.39
594.408	979.66
594.828	980.29
595.248	978.85
595.669	968.19
596.089	966.56
596.509	965.53
596.929	958.25
597.349	961.98
597.769	955.5
598.189	950.5
598.608	952.24
599.028	953.48
599.448	953.25
599.867	944.95
600.287	943.52
600.706	941.89
601.126	937.24
601.545	939.03
601.965	938.83
602.384	937.55
602.803	941.9
603.222	939.56
603.641	937.38
604.061	935.9
604.48	934.11
604.898	939.96
605.317	944.03
605.736	944.85
606.155	941.91
606.574	935.09
606.992	937.84
607.411	933.91
607.829	928.43
608.248	926.43
608.666	924.56
609.085	924.4
609.503	918.94
609.921	914.61
610.339	915.85
610.758	915.7
611.176	913.65
611.594	908.47
612.012	906.95
612.43	909.57
612.847	913.67
613.265	914.97
613.683	917.25
614.101	918.24
614.518	916.61
614.936	911.17
615.353	904.03
615.771	902.87
616.188	905.52
616.606	905.93
617.023	904.56
617.44	898.19
617.857	897.03
618.274	894.19
618.691	891.92
619.108	887.28
619.525	884.69
619.942	888.08
620.359	889.97
620.776	884.24
621.192	879.31
621.609	874.64
622.026	875.59
622.442	875.66
622.859	874.94
623.275	867.34
623.691	868.5
624.108	872.81
624.524	878.97
624.94	875.67
625.356	880.13
625.772	886.72
626.188	891.59
626.604	888.97
627.02	883.63
627.436	880.53
627.852	883.23
628.268	888.45
628.683	880.39
629.099	873.82
629.514	870.03
629.93	872.57
630.345	875.35
630.761	873
631.176	877.22
631.591	875.59
632.007	873.3
632.422	873.9
632.837	868.61
633.252	869.83
633.667	865.14
634.082	861.92
634.497	855.53
634.911	846.22
635.326	847.71
635.741	840.35
636.155	837.5
636.57	841.97
636.984	843.78
637.399	847.53
637.813	851.03
638.228	854.95
638.642	861.41
639.056	858.81
639.47	861.69
639.884	860.34
640.298	859.56
640.712	863.78
641.126	859.57
641.54	860.29
641.954	863.61
642.368	859.84
642.781	859.17
643.195	850.86
643.609	854.41
644.022	853.07
644.436	852.38
644.849	846.13
645.262	837.87
645.676	840.12
646.089	837.19
646.502	825.88
646.915	823.16
647.328	814.5
647.741	815.93
648.154	810.54
648.567	811.49
648.98	805.25
649.393	810.39
649.805	812.52
650.218	812.07
650.631	805.33
651.043	805.17
651.456	804.82
651.868	805.62
652.28	819.02
652.693	824.92
653.105	824.38
653.517	823.6
653.929	816.29
654.341	816.44
654.753	805.24
655.165	807.94
655.577	807.65
655.989	806.28
656.401	804.96
656.813	784.07
657.224	779.89
657.636	772.34
658.047	774.58
658.459	772.69
658.87	777.56
659.282	778.21
659.693	769.96
660.104	764.93
660.515	760.52
660.926	766.77
661.338	770.92
661.749	771.82
662.159	768.93
662.57	770.7
662.981	773.31
663.392	772.75
663.803	781.38
664.213	783.92
664.624	784.93
665.035	793
665.445	783.94
665.855	780.94
666.266	776.68
666.676	777.87
667.086	771.24
667.497	771.8
667.907	766.32
668.317	758.66
668.727	754.21
669.137	755.87
669.547	752.16
669.956	753.82
670.366	755.57
670.776	756.24
671.186	758.54
671.595	761.37
672.005	763.61
672.414	761.18
672.824	757.02
673.233	762.55
673.642	761.13
674.052	761.93
674.461	761.31
674.87	762.88
675.279	756.19
675.688	754.4
676.097	750.95
676.506	743.78
676.915	753.94
677.323	752.64
677.732	746.15
678.141	742.97
678.549	729.78
678.958	725.36
679.366	720.41
679.775	720.52
680.183	723.6
680.592	724.27
681	722.69
681.408	710.07
681.816	709.99
682.224	709.47
682.632	707.36
683.04	720.71
683.448	723.88
683.856	726.98
684.264	728.92
684.671	726.32
685.079	727.27
685.487	730.86
685.894	743.68
686.302	746.7
686.709	743.51
687.116	742.92
687.524	737.83
687.931	735.12
688.338	732.94
688.745	730.88
689.152	730.83
689.559	733.42
689.966	733.36
690.373	721.28
690.78	716.61
691.187	720.6
691.593	718.5
692	711.42
692.407	711.19
692.813	716.93
693.22	718.15
693.626	719.81
694.032	718.65
694.439	727.18
694.845	729.77
695.251	737.91
695.657	742.07
696.063	755.56
696.469	761.57
696.875	764.99
697.281	757.6
697.687	752.45
698.093	745.19
698.498	746.94
698.904	743.67
699.31	749.06
699.715	749.5
700.12	759.28
700.526	751.07
700.931	756.64
701.337	759.28
701.742	758.9
702.147	770.76
702.552	770.13
702.957	775.53
703.362	773.97
703.767	774.7
704.172	778.79
704.577	762.73
704.981	766.28
705.386	763.72
705.791	755.84
706.195	765.13
706.6	761.33
707.004	772.02
707.408	761.51
707.813	762.14
708.217	755.24
708.621	749.06
709.025	763.22
709.43	759.81
709.834	766.81
710.237	774.96
710.641	766.97
711.045	766.26
711.449	760.63
711.853	761.64
712.256	762.89
712.66	762.5
713.064	767.94
713.467	765.28
713.87	770.1
714.274	759.72
714.677	759.47
715.08	764.04
715.484	767.57
715.887	774.95
716.29	775.7
716.693	779.13
717.096	786.61
