Data from N_1_DIV_PA_2N_Splice17_11-11-08-761.txt Node
Date: Sat Mar 14 11:11:08 EDT 2020
User: sa697716
Spectrometer: FLMS03696
Trigger mode: 0
Integration Time (sec): 3.180400E-1
Scans to average: 20
Electric dark correction enabled: true
Nonlinearity correction enabled: true
Boxcar width: 5
XAxis mode: Wavelengths
Number of Pixels in Spectrum: 2048
>>>>>Begin Spectral Data<<<<<
187.83	-40146.67
188.298	440.51
188.766	293.64
189.233	284.59
189.701	436.4
190.169	490.91
190.636	211.76
191.104	239.99
191.571	45.54
192.039	3.38
192.506	-25.82
192.974	201.63
193.441	-221.44
193.908	20
194.375	67.51
194.842	111.05
195.31	119.28
195.777	112.56
196.244	206.22
196.711	134.87
197.177	136.47
197.644	135.43
198.111	197.07
198.578	268.94
199.045	206.21
199.511	294.42
199.978	307.92
200.445	266.7
200.911	293.69
201.378	284.04
201.844	297.31
202.31	449.79
202.777	498.03
203.243	309.28
203.709	305.78
204.176	376
204.642	317.95
205.108	309.52
205.574	284.14
206.04	242.88
206.506	235.5
206.972	201.16
207.438	206.76
207.903	226.76
208.369	217.23
208.835	217.04
209.301	212.05
209.766	222.81
210.232	200.65
210.697	200.7
211.163	247.64
211.628	349.87
212.094	344.84
212.559	415.53
213.024	287.11
213.49	331.43
213.955	308.82
214.42	304.21
214.885	267.75
215.35	278.37
215.815	306.44
216.28	318.2
216.745	258.37
217.21	274.32
217.675	220.84
218.14	216.81
218.604	217.68
219.069	245.36
219.534	259.98
219.998	265.14
220.463	299.98
220.927	303.45
221.392	280.26
221.856	244.21
222.32	235.29
222.785	298.4
223.249	338.58
223.713	333.35
224.177	295.62
224.642	293.75
225.106	321.91
225.57	297.64
226.034	242.79
226.497	322.07
226.961	367.27
227.425	476.62
227.889	465.73
228.353	498.88
228.816	1031.65
229.28	915.34
229.744	793.9
230.207	567.5
230.671	543.71
231.134	743.65
231.597	881.09
232.061	809.19
232.524	687.28
232.987	510.73
233.45	453.27
233.914	368.43
234.377	353.44
234.84	310.18
235.303	292.9
235.766	350.89
236.229	356.81
236.691	209.12
237.154	238.02
237.617	200.14
238.08	177.91
238.542	172.58
239.005	147.44
239.468	166.88
239.93	163.41
240.393	159.97
240.855	141.42
241.317	141.87
241.78	140.56
242.242	122.79
242.704	148.54
243.166	143.4
243.629	155.25
244.091	176.67
244.553	178.26
245.015	212.32
245.477	253.73
245.939	347.5
246.4	392.64
246.862	408.79
247.324	409.42
247.786	418.61
248.247	475.94
248.709	436.44
249.17	324.98
249.632	374.15
250.093	437.88
250.555	373.27
251.016	267.2
251.477	252.27
251.939	280.88
252.4	275.32
252.861	299.42
253.322	324.62
253.783	333.19
254.244	397.28
254.705	269.76
255.166	176.04
255.627	169.89
256.088	186.54
256.549	184.91
257.009	145.76
257.47	210.65
257.931	167.44
258.391	140.03
258.852	163.26
259.312	162.19
259.773	188.19
260.233	227
260.694	225.76
261.154	247.57
261.614	255.37
262.074	230.82
262.534	231.69
262.994	238.42
263.455	271.95
263.915	243.53
264.374	226.34
264.834	263.41
265.294	261.72
265.754	269.11
266.214	259.8
266.673	206.05
267.133	248.55
267.593	240.01
268.052	250.77
268.512	211
268.971	275.04
269.431	337.3
269.89	254.47
270.349	392.75
270.809	437.11
271.268	402.11
271.727	847.57
272.186	536.02
272.645	416.96
273.104	302.96
273.563	452.76
274.022	307.22
274.481	282.2
274.94	246.97
275.399	169.63
275.857	163.66
276.316	185.71
276.775	162.67
277.233	171.62
277.692	153.84
278.15	215.68
278.609	247.73
279.067	234.13
279.525	208.11
279.984	242.28
280.442	308.83
280.9	376.47
281.358	262.34
281.816	258.25
282.274	259.17
282.732	250.19
283.19	217.96
283.648	172.41
284.106	176.19
284.564	176.27
285.021	163.66
285.479	127.97
285.937	90.27
286.394	97.43
286.852	88.9
287.309	82.72
287.767	108.78
288.224	119.56
288.682	124.19
289.139	156.2
289.596	158.51
290.053	163.89
290.511	174.23
290.968	247.79
291.425	306.78
291.882	286.63
292.339	268.01
292.796	228.83
293.252	204.17
293.709	190.53
294.166	159.67
294.623	154.77
295.079	145.52
295.536	162.25
295.992	143.38
296.449	144.3
296.905	163.77
297.362	174.37
297.818	187.58
298.274	200.09
298.731	198.13
299.187	198.49
299.643	211.1
300.099	247.54
300.555	266.44
301.011	222.69
301.467	255.72
301.923	262.29
302.379	251.06
302.835	246.32
303.291	237.46
303.746	276.44
304.202	354.15
304.658	350.31
305.113	268.86
305.569	269.9
306.024	274.83
306.479	210.1
306.935	206.37
307.39	198.26
307.845	202.33
308.301	227.35
308.756	198.69
309.211	205.91
309.666	204.02
310.121	277.4
310.576	270.68
311.031	251.18
311.486	269.5
311.94	227.53
312.395	317.28
312.85	521.34
313.305	1816.88
313.759	11545.89
314.214	775.34
314.668	674.79
315.123	597.75
315.577	258.53
316.032	256.91
316.486	314.36
316.94	296.31
317.394	222.06
317.849	189.82
318.303	174.51
318.757	181.25
319.211	190.98
319.665	180.82
320.119	165.53
320.572	223.05
321.026	219.39
321.48	183.59
321.934	164.64
322.387	155.99
322.841	169.66
323.295	197.82
323.748	190.03
324.202	217.07
324.655	250.38
325.108	372.83
325.562	277.75
326.015	304.81
326.468	262.98
326.921	323.55
327.374	328.14
327.827	342.6
328.28	361.39
328.733	251.04
329.186	214.74
329.639	207.32
330.092	178.82
330.545	169.23
330.997	182.4
331.45	215.24
331.903	248.5
332.355	349.61
332.808	333.42
333.26	276.37
333.713	324.95
334.165	307.33
334.617	389.08
335.069	252.36
335.522	395.07
335.974	409.73
336.426	319.68
336.878	166.84
337.33	137.99
337.782	140.6
338.234	182.41
338.686	183.65
339.137	241.59
339.589	244.29
340.041	244.39
340.493	204.37
340.944	221.38
341.396	214.59
341.847	242.6
342.299	290.75
342.75	358.08
343.201	306.14
343.653	348.48
344.104	377.43
344.555	281.09
345.006	331.18
345.457	340.35
345.908	257.93
346.359	266.09
346.81	198.92
347.261	173.51
347.712	164.04
348.163	171.74
348.613	234.12
349.064	209.04
349.515	205.69
349.965	241.03
350.416	259.34
350.866	269.04
351.317	286.6
351.767	418.92
352.217	497.57
352.668	422.11
353.118	401.46
353.568	241.33
354.018	254.08
354.468	268.13
354.918	196.23
355.368	160.23
355.818	220.57
356.268	579.43
356.718	2980.56
357.168	977.58
357.617	482.73
358.067	458.89
358.517	474.05
358.966	599.69
359.416	659.53
359.865	679.7
360.315	781.64
360.764	403.14
361.213	233.39
361.663	172.4
362.112	159.94
362.561	226.31
363.01	165.84
363.459	129.12
363.908	102.48
364.357	107.47
364.806	164.91
365.255	149.04
365.703	166.47
366.152	180.84
366.601	161.35
367.05	151.57
367.498	151.6
367.947	170.04
368.395	187.09
368.844	180.21
369.292	174.74
369.74	143.67
370.189	186.04
370.637	185.9
371.085	131.01
371.533	138.18
371.981	110.05
372.429	144.04
372.877	143.37
373.325	119.69
373.773	88.79
374.221	84.63
374.669	89.34
375.116	82.55
375.564	85.91
376.012	118.69
376.459	142.79
376.907	174.85
377.354	153.67
377.801	163.19
378.249	221.41
378.696	278.97
379.143	322.56
379.591	365.32
380.038	533.13
380.485	359.09
380.932	387.77
381.379	358.82
381.826	337.69
382.273	246.87
382.72	218.02
383.166	195.64
383.613	155.21
384.06	152.02
384.506	156.93
384.953	125.94
385.4	137.77
385.846	122.36
386.292	111.78
386.739	81.9
387.185	71.04
387.631	61.35
388.078	67.73
388.524	68.68
388.97	65.75
389.416	56.58
389.862	73.17
390.308	63.14
390.754	60.62
391.2	56.19
391.645	60.67
392.091	91.39
392.537	96.93
392.983	95.11
393.428	110.82
393.874	111.76
394.319	129.34
394.765	134.72
395.21	137.74
395.655	130.24
396.101	130.85
396.546	121.36
396.991	98.7
397.436	93.58
397.881	81.99
398.326	69.14
398.771	72
399.216	57.61
399.661	45.14
400.106	46.39
400.551	51.17
400.995	47.26
401.44	45.93
401.885	50.73
402.329	50.24
402.774	53.38
403.218	59.39
403.663	55.48
404.107	56.48
404.551	62.03
404.995	59.55
405.44	56.69
405.884	50.41
406.328	44.47
406.772	35.06
407.216	34.29
407.66	30.29
408.104	21.65
408.547	20.81
408.991	19.92
409.435	16.01
409.879	17.78
410.322	15.54
410.766	18.73
411.209	23.2
411.653	25.86
412.096	25.84
412.54	24.8
412.983	25.08
413.426	25.54
413.869	24.7
414.312	26.7
414.756	23.11
415.199	23.54
415.642	26.24
416.085	25.13
416.527	24.71
416.97	23.12
417.413	24.86
417.856	23.86
418.298	24.41
418.741	21.56
419.184	17.67
419.626	14.64
420.069	13.91
420.511	11.61
420.953	14.62
421.396	16.54
421.838	15.74
422.28	14.7
422.722	15.7
423.164	13.63
423.606	16.92
424.048	16.1
424.49	19.89
424.932	19.47
425.374	16.91
425.816	13.12
426.258	10.73
426.699	10.99
427.141	12.45
427.582	12.19
428.024	14.01
428.465	12.05
428.907	13.07
429.348	12.59
429.789	15.04
430.231	20.48
430.672	21.37
431.113	20.52
431.554	21.87
431.995	20.24
432.436	21.35
432.877	19.79
433.318	22.22
433.759	21.48
434.2	21
434.64	19.04
435.081	18.04
435.522	18.47
435.962	19.07
436.403	20.12
436.843	17.43
437.284	16.17
437.724	15.46
438.164	11.38
438.604	12.11
439.045	10.32
439.485	11.99
439.925	9.27
440.365	8.63
440.805	8.82
441.245	8.69
441.685	9.84
442.125	8.95
442.564	8.54
443.004	10.75
443.444	10.21
443.883	11.76
444.323	8.33
444.762	6.92
445.202	5.97
445.641	7.13
446.081	5.36
446.52	5.85
446.959	6.42
447.398	8.32
447.837	7.26
448.276	8.51
448.716	10.54
449.154	10.72
449.593	13.02
450.032	13.1
450.471	10.53
450.91	9.55
451.349	11.24
451.787	10.69
452.226	9.17
452.664	8.59
453.103	7.61
453.541	5.58
453.98	8.75
454.418	8.51
454.856	10.33
455.295	11.09
455.733	11.59
456.171	10.88
456.609	13.21
457.047	14.45
457.485	17.06
457.923	18.27
458.361	17.59
458.798	15.43
459.236	14.87
459.674	13.63
460.111	14.07
460.549	14
460.987	12.75
461.424	10.89
461.862	10.41
462.299	10.25
462.736	10.48
463.173	10.49
463.611	13.13
464.048	13.82
464.485	14.19
464.922	13.45
465.359	13.46
465.796	19.37
466.233	20.31
466.67	21.92
467.106	22.18
467.543	20.92
467.98	20.3
468.416	18.82
468.853	17.56
469.29	17.05
469.726	16.27
470.162	15.87
470.599	11.88
471.035	10.64
471.471	9.84
471.907	8.17
472.344	8.26
472.78	8.91
473.216	8.26
473.652	8.91
474.088	9.92
474.523	10.78
474.959	10.38
475.395	9.96
475.831	9.61
476.266	8.52
476.702	8.8
477.138	8.41
477.573	8.33
478.008	8.36
478.444	9.52
478.879	9.33
479.314	9.59
479.75	10.04
480.185	10.04
480.62	9.21
481.055	9.2
481.49	8.96
481.925	9.44
482.36	10.65
482.795	9.8
483.229	7.95
483.664	7.31
484.099	7.62
484.534	8.61
484.968	9.28
485.403	10.06
485.837	9.56
486.271	9.33
486.706	9.19
487.14	7.62
487.574	8.2
488.009	8.36
488.443	7.71
488.877	7.38
489.311	6.28
489.745	5.84
490.179	6.08
490.613	7.38
491.046	6.89
491.48	6.39
491.914	7.18
492.348	7.26
492.781	7.92
493.215	8.41
493.648	7.77
494.082	7.72
494.515	7.43
494.948	7.85
495.382	6.58
495.815	7.4
496.248	7.86
496.681	7.05
497.114	6.6
497.547	6.5
497.98	7.12
498.413	8.22
498.846	9.03
499.279	8.83
499.711	8.26
500.144	9.07
500.577	9.39
501.009	9.31
501.442	10.8
501.874	11.22
502.306	10.64
502.739	12.18
503.171	12.37
503.603	12.32
504.036	12.38
504.468	12.73
504.9	12.19
505.332	11.81
505.764	12.08
506.196	11.25
506.627	11.87
507.059	12.04
507.491	10.03
507.923	9.58
508.354	9.78
508.786	9.83
509.217	9.36
509.649	9.74
510.08	9.49
510.512	9.92
510.943	10.17
511.374	10.36
511.805	10.58
512.237	10.39
512.668	10.07
513.099	9.4
513.53	9.47
513.961	10.24
514.391	10.25
514.822	11.55
515.253	11.85
515.684	12.17
516.114	11.55
516.545	11.82
516.975	12.16
517.406	11.9
517.836	11.65
518.267	12.2
518.697	12.95
519.127	12.34
519.558	11.64
519.988	10.83
520.418	10.05
520.848	9.82
521.278	9.74
521.708	23.93
522.138	24.57
522.567	24.02
522.997	23.76
523.427	23.11
523.857	23.92
524.286	24.15
524.716	24.81
525.145	25.71
525.575	26.19
526.004	26.03
526.433	12.35
526.863	11.47
527.292	13
527.721	13.22
528.15	13.18
528.579	13.85
529.008	14.01
529.437	12.87
529.866	12.6
530.295	12.3
530.724	12.56
531.152	12.62
531.581	14.09
532.01	14.04
532.438	14.05
532.867	14.08
533.295	13.69
533.723	13.68
534.152	14.64
534.58	14.69
535.008	15.01
535.436	16.06
535.865	15.9
536.293	14.94
536.721	14.52
537.149	14.29
537.576	14.92
538.004	15.14
538.432	14.61
538.86	14.96
539.287	14.98
539.715	14.62
540.143	13.78
540.57	14.13
540.998	15.06
541.425	16.38
541.852	16.39
542.28	16.17
542.707	16.1
543.134	16.17
543.561	16.16
543.988	16.34
544.415	16.41
544.842	16.06
545.269	16.24
545.696	16.02
546.123	15.61
546.549	15.39
546.976	15.26
547.403	14.93
547.829	14.84
548.256	14.6
548.682	14.27
549.108	14.84
549.535	15.25
549.961	14.87
550.387	14.84
550.813	15.38
551.24	16.41
551.666	15.82
552.092	16.1
552.518	16.39
552.943	16.66
553.369	16.37
553.795	16.51
554.221	16.48
554.646	16.69
555.072	16.9
555.498	15.85
555.923	14.87
556.349	15.4
556.774	15.43
557.199	15.23
557.625	14.66
558.05	15.31
558.475	15.07
558.9	14.7
559.325	15.15
559.75	14.79
560.175	14.63
560.6	14.58
561.025	13.75
561.449	13.59
561.874	13.34
562.299	13.88
562.723	13.62
563.148	13.37
563.572	12.98
563.997	12.56
564.421	12.13
564.846	11.89
565.27	12.43
565.694	13.37
566.118	13.34
566.542	14.22
566.966	14.12
567.39	14.4
567.814	14.95
568.238	15.39
568.662	14.73
569.086	14.99
569.509	14.61
569.933	14.82
570.357	14.15
570.78	13.83
571.204	13.38
571.627	13.14
572.05	13
572.474	13.3
572.897	13.81
573.32	14.82
573.743	14.94
574.166	16.01
574.589	15.38
575.012	15.51
575.435	15.42
575.858	15.78
576.281	15.58
576.704	14.89
577.126	14.12
577.549	13.45
577.972	12.65
578.394	12.42
578.817	13.38
579.239	13.5
579.661	13.62
580.084	14.58
580.506	14.41
580.928	14.25
581.35	14.67
581.772	14.25
582.194	14.56
582.616	14.05
583.038	13.48
583.46	12.31
583.882	12.14
584.303	11.21
584.725	10.48
585.147	13.42
585.568	13.64
585.99	14.04
586.411	14.87
586.833	15.53
587.254	16.67
587.675	16.92
588.096	16.21
588.518	15.93
588.939	16.18
589.36	16.54
589.781	12.62
590.202	14.1
590.623	13.79
591.043	12.95
591.464	11.95
591.885	11.94
592.305	11.63
592.726	11.78
593.147	12.45
593.567	13.44
593.987	12.77
594.408	12.82
594.828	10.57
595.248	10.97
595.669	11.35
596.089	11.28
596.509	10.05
596.929	10.07
597.349	10.13
597.769	10.14
598.189	9.52
598.608	9.49
599.028	9.21
599.448	9.56
599.867	9.07
600.287	9.15
600.706	9.09
601.126	9.69
601.545	10.26
601.965	9.88
602.384	9.7
602.803	9.61
603.222	10.03
603.641	10.53
604.061	11.06
604.48	11.03
604.898	10.66
605.317	10.45
605.736	10.52
606.155	10.5
606.574	10.7
606.992	10.19
607.411	9.91
607.829	9.17
608.248	8.34
608.666	8.1
609.085	8.09
609.503	7.98
609.921	8.66
610.339	8.31
610.758	7.7
611.176	8.05
611.594	8.5
612.012	8.99
612.43	9.38
612.847	9.94
613.265	10.19
613.683	10.23
614.101	10.91
614.518	10.15
614.936	10.31
615.353	10.91
615.771	11.21
616.188	11.15
616.606	11.54
617.023	11.65
617.44	12.05
617.857	11.43
618.274	11.12
618.691	10.7
619.108	11.17
619.525	11.06
619.942	11.35
620.359	10.44
620.776	10.87
621.192	11.13
621.609	12.14
622.026	11.38
622.442	11.11
622.859	10.99
623.275	10.49
623.691	10.12
624.108	10.05
624.524	9.43
624.94	9.8
625.356	9.31
625.772	8.17
626.188	6.69
626.604	7.24
627.02	7.7
627.436	8.16
627.852	8.87
628.268	9.68
628.683	9.73
629.099	9.79
629.514	9.02
629.93	8.85
630.345	8.86
630.761	8.31
631.176	8.04
631.591	8.59
632.007	8.86
632.422	7.99
632.837	6.96
633.252	7.48
633.667	7.95
634.082	9.11
634.497	9.63
634.911	10.4
635.326	10.78
635.741	10.88
636.155	10.29
636.57	10.69
636.984	11.12
637.399	12.18
637.813	12.22
638.228	11.27
638.642	10.65
639.056	10.22
639.47	9.99
639.884	10.52
640.298	10.67
640.712	11.46
641.126	10.6
641.54	10.28
641.954	8.1
642.368	7.32
642.781	9.73
643.195	9.94
643.609	10.64
644.022	10.3
644.436	9.65
644.849	9.2
645.262	8.63
645.676	8.61
646.089	8.92
646.502	10.72
646.915	10.73
647.328	9.88
647.741	10.35
648.154	10.1
648.567	11.94
648.98	12.11
649.393	12.36
649.805	11.52
650.218	10.79
650.631	11.02
651.043	10.81
651.456	11.12
651.868	10.56
652.28	9.4
652.693	9.02
653.105	7.45
653.517	7.82
653.929	7.66
654.341	8.51
654.753	10.01
655.165	9.43
655.577	9.35
655.989	8.96
656.401	8.88
656.813	10.49
657.224	10.67
657.636	10.41
658.047	10.77
658.459	10.71
658.87	9.75
659.282	9.23
659.693	9.86
660.104	10.05
660.515	9.74
660.926	8.92
661.338	8
661.749	6.95
662.159	7.64
662.57	6.94
662.981	6.87
663.392	7.17
663.803	6.8
664.213	6.64
664.624	6.14
665.035	6.61
665.445	6.49
665.855	6.83
666.266	8.49
666.676	7.56
667.086	7.32
667.497	7.61
667.907	7.84
668.317	7.69
668.727	9.13
669.137	9.01
669.547	8.6
669.956	8.8
670.366	8.3
670.776	7.14
671.186	7.28
671.595	7.47
672.005	6.92
672.414	7.87
672.824	8.31
673.233	7.13
673.642	7.12
674.052	6.81
674.461	7.08
674.87	7.16
675.279	8.93
675.688	7.88
676.097	8.36
676.506	8.24
676.915	7.12
677.323	7.53
677.732	6.8
678.141	6.76
678.549	7.85
678.958	7.39
679.366	7.16
679.775	5.61
680.183	7.8
680.592	7.93
681	8.07
681.408	9.11
681.816	8.29
682.224	8.1
682.632	9.36
683.04	9.78
683.448	9.6
683.856	10.51
684.264	10.54
684.671	9.87
685.079	8.93
685.487	9.25
685.894	8.2
686.302	7.43
686.709	8.55
687.116	8.59
687.524	9.22
687.931	10.46
688.338	10.29
688.745	10.77
689.152	10.14
689.559	10.96
689.966	12.54
690.373	12.84
690.78	15.04
691.187	15.45
691.593	15.33
692	14.28
692.407	15.58
692.813	16.87
693.22	17.5
693.626	17.78
694.032	18.01
694.439	17.84
694.845	18.57
695.251	17.6
695.657	18.17
696.063	16.78
696.469	17.29
696.875	16.09
697.281	14.56
697.687	13.53
698.093	13.8
698.498	14.59
698.904	13.81
699.31	13.58
699.715	15.92
700.12	15.09
700.526	16.54
700.931	16.07
701.337	17
701.742	18.59
702.147	19.87
702.552	19.97
702.957	19.2
703.362	19.87
703.767	19.17
704.172	18
704.577	19.05
704.981	18.43
705.386	19.43
705.791	19.31
706.195	18.34
706.6	18.25
707.004	17.39
707.408	17.19
707.813	17.89
708.217	18.78
708.621	18.61
709.025	17.83
709.43	18.86
709.834	18.76
710.237	18.66
710.641	19.37
711.045	19.56
711.449	21.04
711.853	23.6
712.256	23.24
712.66	23.86
713.064	24.52
713.467	25.19
713.87	24.94
714.274	25.31
714.677	26.59
715.08	27.19
715.484	28
715.887	30.14
716.29	27.97
716.693	29.14
717.096	29.22
717.499	28.69
717.901	27.88
718.304	28.99
718.707	29.13
719.109	28.13
719.512	26.92
719.915	28.03
720.317	26.49
720.719	26.03
721.122	25.62
721.524	26.07
721.926	29.91
722.328	30.98
722.731	30.37
723.133	30.4
723.535	29.72
723.937	30.35
724.338	30.1
724.74	31.67
725.142	65.26
725.544	68.01
725.945	75.71
726.347	72.86
726.748	73.71
727.15	75.18
727.551	76.64
727.952	76.51
728.354	76.3
728.755	75.87
729.156	74.17
729.557	42.44
729.958	38.88
730.359	31.41
730.76	30.54
731.161	29.34
731.562	28.15
731.962	26.37
732.363	26.03
732.763	27.08
733.164	25.42
733.564	25.74
733.965	26.66
734.365	28.06
734.766	28.56
735.166	28.8
735.566	30.23
735.966	31.3
736.366	32.2
736.766	33.17
737.166	31.84
737.566	32.37
737.966	32.21
738.365	32.92
738.765	33.27
739.165	32.42
739.564	32.5
739.964	31.52
740.363	29.77
740.763	28.88
741.162	29.56
741.561	29.33
741.96	30.18
742.36	29.19
742.759	27.95
743.158	26.33
743.557	25.71
743.955	25.48
744.354	25.01
744.753	24.93
745.152	25.01
745.55	23.77
745.949	24.34
746.348	24.04
746.746	23.91
747.144	26.31
747.543	26.19
747.941	26.64
748.339	26.88
748.737	27.45
749.136	28.4
749.534	27.52
749.932	29.14
750.33	28.21
750.727	27.6
751.125	28.71
751.523	27.1
751.921	29.88
752.318	30.47
752.716	30.79
753.113	31.29
753.511	31.09
753.908	32.51
754.305	34.24
754.703	35.13
755.1	35.69
755.497	35.55
755.894	34.8
756.291	32.84
756.688	33.61
757.085	33.83
