Data from N_1_DIV_IL_4N_Splice17_11-16-32-737.txt Node
Date: Sat Mar 14 11:16:32 EDT 2020
User: sa697716
Spectrometer: FLMS03696
Trigger mode: 0
Integration Time (sec): 3.180400E-1
Scans to average: 20
Electric dark correction enabled: true
Nonlinearity correction enabled: true
Boxcar width: 5
XAxis mode: Wavelengths
Number of Pixels in Spectrum: 2048
>>>>>Begin Spectral Data<<<<<
187.83	-151774.8
188.298	1157.77
188.766	642.42
189.233	580.87
189.701	721.95
190.169	991.12
190.636	371.05
191.104	232.49
191.571	45.51
192.039	20.77
192.506	-24.92
192.974	305.53
193.441	-279.77
193.908	12.54
194.375	-3.63
194.842	9.02
195.31	91.95
195.777	133.82
196.244	215.29
196.711	186.72
197.177	193.1
197.644	190.8
198.111	336.17
198.578	400.65
199.045	298.39
199.511	464.23
199.978	486.87
200.445	388.55
200.911	400.21
201.378	377.13
201.844	357.62
202.31	576.11
202.777	634.16
203.243	341.95
203.709	311.76
204.176	397.03
204.642	325.27
205.108	303.64
205.574	247.49
206.04	212.1
206.506	211.07
206.972	194.89
207.438	183.13
207.903	189.63
208.369	185.1
208.835	193.53
209.301	176.38
209.766	173.3
210.232	170.44
210.697	193.72
211.163	229.86
211.628	309.43
212.094	263.77
212.559	379.23
213.024	254.98
213.49	305.23
213.955	283.53
214.42	258.84
214.885	241.85
215.35	222.78
215.815	271.58
216.28	278.04
216.745	216.43
217.21	233.46
217.675	176.93
218.14	188.49
218.604	173.42
219.069	191.04
219.534	216.06
219.998	225.32
220.463	264.09
220.927	239.89
221.392	202.95
221.856	205.13
222.32	194.58
222.785	227.66
223.249	271.69
223.713	285.34
224.177	279.35
224.642	303.63
225.106	335.63
225.57	290.26
226.034	236.93
226.497	379.58
226.961	353.61
227.425	440.41
227.889	434.78
228.353	403.01
228.816	739.49
229.28	669.41
229.744	512.97
230.207	371.52
230.671	380.78
231.134	520.76
231.597	577.15
232.061	535.6
232.524	494.54
232.987	358.57
233.45	313.4
233.914	280.83
234.377	234.58
234.84	210.63
235.303	199.05
235.766	221.9
236.229	258.45
236.691	162.25
237.154	160.71
237.617	138.54
238.08	126.44
238.542	151.3
239.005	117.8
239.468	128.51
239.93	126.69
240.393	125.56
240.855	110.76
241.317	94.82
241.78	94.55
242.242	118.12
242.704	161.39
243.166	160.08
243.629	153.93
244.091	175.41
244.553	196.4
245.015	226.63
245.477	272.59
245.939	366.12
246.4	393.53
246.862	367.19
247.324	325.92
247.786	296.49
248.247	288.29
248.709	255.77
249.17	214.34
249.632	288.69
250.093	345.7
250.555	292.24
251.016	230.05
251.477	223.78
251.939	247.99
252.4	248.96
252.861	282.07
253.322	293.33
253.783	304.38
254.244	380.09
254.705	242.39
255.166	178.32
255.627	167.2
256.088	194.56
256.549	189.65
257.009	170.89
257.47	183.65
257.931	118.13
258.391	89.85
258.852	105.98
259.312	96.93
259.773	94.61
260.233	151.31
260.694	164.98
261.154	186.67
261.614	195.66
262.074	176.23
262.534	189.43
262.994	200.65
263.455	242.52
263.915	213.47
264.374	188.72
264.834	207.83
265.294	203.23
265.754	213.16
266.214	199.8
266.673	177.93
267.133	199.56
267.593	200.45
268.052	237.22
268.512	211.63
268.971	295.6
269.431	357.02
269.89	307.62
270.349	455.62
270.809	478.85
271.268	440.01
271.727	892.52
272.186	607.63
272.645	437.92
273.104	280.02
273.563	394.02
274.022	234.84
274.481	214.21
274.94	180.62
275.399	110.63
275.857	108.1
276.316	109.34
276.775	92.23
277.233	99.1
277.692	110.7
278.15	156.93
278.609	212
279.067	210.18
279.525	206.21
279.984	255.54
280.442	347.13
280.9	385.69
281.358	259.04
281.816	254.13
282.274	244.51
282.732	236.71
283.19	207.23
283.648	161.96
284.106	148.22
284.564	144.98
285.021	174.97
285.479	120.01
285.937	77.23
286.394	90.78
286.852	75.37
287.309	73.81
287.767	100.21
288.224	117.63
288.682	117.64
289.139	161.2
289.596	166.04
290.053	130.72
290.511	136.15
290.968	203.98
291.425	237.48
291.882	236.26
292.339	214.13
292.796	175.53
293.252	140.06
293.709	153
294.166	127.42
294.623	105.06
295.079	112.48
295.536	140.37
295.992	132.37
296.449	127.71
296.905	149.89
297.362	159.75
297.818	168.51
298.274	181.79
298.731	153.1
299.187	143.31
299.643	152.54
300.099	180.53
300.555	211.14
301.011	179.53
301.467	217.71
301.923	200.68
302.379	212.6
302.835	218.63
303.291	223.46
303.746	262.29
304.202	321.64
304.658	330.09
305.113	233.97
305.569	223.74
306.024	229.74
306.479	159.49
306.935	156.71
307.39	135.95
307.845	116.57
308.301	145.17
308.756	120.34
309.211	144.93
309.666	156.65
310.121	230.97
310.576	193.06
311.031	165.85
311.486	194.92
311.94	171.76
312.395	181.58
312.85	246.66
313.305	311.29
313.759	6815.03
314.214	457.78
314.668	353.41
315.123	277.97
315.577	155.36
316.032	151.7
316.486	214.45
316.94	206.74
317.394	176.37
317.849	155.64
318.303	150.28
318.757	130.19
319.211	136.45
319.665	115.67
320.119	116.9
320.572	147.34
321.026	167.95
321.48	129.78
321.934	122.11
322.387	119.49
322.841	136.52
323.295	156.78
323.748	160.4
324.202	176.14
324.655	237.07
325.108	349.37
325.562	300.44
326.015	328.31
326.468	265.74
326.921	318.73
327.374	348.6
327.827	375.45
328.28	394.55
328.733	286.14
329.186	253.18
329.639	235.59
330.092	192.09
330.545	166.37
330.997	175.83
331.45	206.09
331.903	242.56
332.355	341.32
332.808	334.75
333.26	307.79
333.713	341.28
334.165	312.7
334.617	380.62
335.069	273.52
335.522	439.68
335.974	484.33
336.426	420.3
336.878	264.69
337.33	153.85
337.782	134.52
338.234	153.25
338.686	130.34
339.137	180.69
339.589	186.84
340.041	170.49
340.493	160.32
340.944	138.37
341.396	124.59
341.847	133.76
342.299	173.76
342.75	264.96
343.201	211.85
343.653	252.16
344.104	299.62
344.555	232.66
345.006	247.5
345.457	249.71
345.908	214.97
346.359	251.09
346.81	188.8
347.261	192.93
347.712	148.22
348.163	164.39
348.613	209.26
349.064	199.47
349.515	163.49
349.965	200.32
350.416	189.81
350.866	194.45
351.317	180.12
351.767	302.62
352.217	334.96
352.668	263.61
353.118	231.16
353.568	152.99
354.018	160.94
354.468	186.45
354.918	149.83
355.368	165.45
355.818	234.62
356.268	530.71
356.718	2267.73
357.168	649.31
357.617	414.83
358.067	446.36
358.517	420.79
358.966	444.78
359.416	667.07
359.865	738.93
360.315	746.65
360.764	359.76
361.213	228.94
361.663	205.42
362.112	210.72
362.561	266.55
363.01	204.68
363.459	174.29
363.908	161.3
364.357	138.74
364.806	158.07
365.255	132.58
365.703	154.72
366.152	151.11
366.601	115.92
367.05	124.03
367.498	132.01
367.947	127.26
368.395	117.37
368.844	136.45
369.292	105.44
369.74	96.12
370.189	129.97
370.637	110.15
371.085	99.69
371.533	141.64
371.981	94.88
372.429	116.9
372.877	136.1
373.325	130.78
373.773	104.86
374.221	94.6
374.669	100.13
375.116	103.14
375.564	133.42
376.012	128.85
376.459	120.17
376.907	152.66
377.354	136.86
377.801	120.09
378.249	180.72
378.696	204.88
379.143	285.78
379.591	304.77
380.038	375.42
380.485	252.53
380.932	259.87
381.379	235.29
381.826	285.56
382.273	231.71
382.72	209.08
383.166	204.06
383.613	158.37
384.06	150.86
384.506	165.28
384.953	136.46
385.4	126.11
385.846	131.88
386.292	107.17
386.739	79.7
387.185	68.09
387.631	64.25
388.078	68.53
388.524	54.98
388.97	56.58
389.416	60.21
389.862	72.67
390.308	79.5
390.754	70.93
391.2	81.34
391.645	76.83
392.091	104.99
392.537	108.29
392.983	96.31
393.428	121.8
393.874	118.24
394.319	122.62
394.765	128.05
395.21	118.33
395.655	113.18
396.101	105.53
396.546	102.05
396.991	78.4
397.436	76.43
397.881	67.17
398.326	47.67
398.771	49.91
399.216	39.36
399.661	27.98
400.106	33.53
400.551	40.06
400.995	38.81
401.44	38.47
401.885	34.83
402.329	33.92
402.774	39.65
403.218	48.27
403.663	42.12
404.107	43.91
404.551	46.07
404.995	40.56
405.44	33.96
405.884	32.29
406.328	25.76
406.772	23.66
407.216	22.48
407.66	15.05
408.104	6.06
408.547	7.76
408.991	8.69
409.435	8.92
409.879	11.81
410.322	12.7
410.766	14.32
411.209	19.09
411.653	20.63
412.096	21.14
412.54	20.4
412.983	22.4
413.426	24.67
413.869	21.19
414.312	20.89
414.756	17.39
415.199	17.6
415.642	18.57
416.085	19.29
416.527	18.91
416.97	17.52
417.413	20.3
417.856	19.78
418.298	19.28
418.741	20.14
419.184	18.52
419.626	16.43
420.069	15.91
420.511	16.37
420.953	17.55
421.396	16.77
421.838	16.24
422.28	15.8
422.722	18.22
423.164	16.2
423.606	16.16
424.048	15.88
424.49	20.07
424.932	18.25
425.374	17.34
425.816	14.08
426.258	16.04
426.699	17.14
427.141	21.22
427.582	17.74
428.024	15.52
428.465	13.46
428.907	13.4
429.348	11.19
429.789	12.76
430.231	13.74
430.672	14.2
431.113	13.9
431.554	13.76
431.995	9.01
432.436	10.83
432.877	13.18
433.318	14.96
433.759	12.57
434.2	10.88
434.64	10.05
435.081	9.92
435.522	10.65
435.962	10.3
436.403	10.77
436.843	10.12
437.284	8.19
437.724	7.25
438.164	6.15
438.604	9.06
439.045	11.29
439.485	12.71
439.925	11.84
440.365	11.78
440.805	12.53
441.245	13.77
441.685	14.82
442.125	13.69
442.564	13.49
443.004	13.52
443.444	13.16
443.883	13.41
444.323	11.4
444.762	10.27
445.202	7.49
445.641	6.63
446.081	2.91
446.52	2.83
446.959	5.66
447.398	6.77
447.837	6.61
448.276	6.43
448.716	6.15
449.154	4.36
449.593	6.31
450.032	7.42
450.471	6.16
450.91	6.18
451.349	6.86
451.787	5.47
452.226	5.14
452.664	4.52
453.103	3.89
453.541	2.64
453.98	5.59
454.418	4.07
454.856	5.11
455.295	5.65
455.733	6.56
456.171	5.75
456.609	7.64
457.047	7.2
457.485	8.92
457.923	9.47
458.361	8.98
458.798	8.31
459.236	7.69
459.674	7.37
460.111	7.7
460.549	7.64
460.987	7.9
461.424	6.53
461.862	6.42
462.299	6.19
462.736	7.54
463.173	7.83
463.611	9.5
464.048	10.57
464.485	10.45
464.922	10.08
465.359	10.09
465.796	15.02
466.233	15.75
466.67	17.86
467.106	18.51
467.543	16.02
467.98	16.22
468.416	14.83
468.853	13.84
469.29	12.48
469.726	11.39
470.162	10.66
470.599	6.3
471.035	4.81
471.471	3.11
471.907	2.17
472.344	2.2
472.78	1.91
473.216	1.39
473.652	2.59
474.088	3.06
474.523	3.77
474.959	3.59
475.395	3.27
475.831	3.93
476.266	4.48
476.702	3.6
477.138	4.61
477.573	4.96
478.008	4.96
478.444	5.28
478.879	6.3
479.314	6.39
479.75	6.22
480.185	5.66
480.62	4.93
481.055	4.74
481.49	5.28
481.925	5.32
482.36	6.5
482.795	5.68
483.229	4.48
483.664	3.76
484.099	4.02
484.534	4.9
484.968	5.17
485.403	4.87
485.837	3.8
486.271	3.18
486.706	2.33
487.14	1.06
487.574	2.03
488.009	1.85
488.443	1.93
488.877	2.21
489.311	1.1
489.745	1.71
490.179	2.44
490.613	4.05
491.046	4.12
491.48	4.59
491.914	5.64
492.348	4.97
492.781	5.22
493.215	5.14
493.648	4.47
494.082	4.55
494.515	4.38
494.948	5.21
495.382	4.06
495.815	4.46
496.248	4.62
496.681	3.58
497.114	3.51
497.547	3.72
497.98	4.33
498.413	5.65
498.846	6.72
499.279	6.15
499.711	4.97
500.144	4.98
500.577	5.41
501.009	4.87
501.442	5.53
501.874	6.16
502.306	6.12
502.739	7.36
503.171	6.77
503.603	6.62
504.036	6.65
504.468	7.26
504.9	7.48
505.332	6.85
505.764	7.12
506.196	7.15
506.627	6.88
507.059	6.49
507.491	4.39
507.923	3.75
508.354	3.76
508.786	3.46
509.217	3.4
509.649	3.43
510.08	3.04
510.512	3.34
510.943	3.45
511.374	3.88
511.805	4.16
512.237	4.06
512.668	4.37
513.099	3.76
513.53	4.35
513.961	4.92
514.391	4.59
514.822	6.1
515.253	6.22
515.684	5.98
516.114	5.93
516.545	5.97
516.975	6.26
517.406	5.7
517.836	5.13
518.267	5.47
518.697	5.54
519.127	5.71
519.558	4.45
519.988	3.86
520.418	3.36
520.848	2.47
521.278	1.83
521.708	17.79
522.138	17.99
522.567	17.75
522.997	17.18
523.427	16.37
523.857	16
524.286	16.68
524.716	16.97
525.145	17.72
525.575	18.51
526.004	18.57
526.433	2.85
526.863	2.91
527.292	4.74
527.721	5.18
528.15	4.87
528.579	5.21
529.008	4.98
529.437	4.25
529.866	3.76
530.295	3.06
530.724	3.65
531.152	3.89
531.581	5.03
532.01	4.31
532.438	4.07
532.867	4.3
533.295	4.55
533.723	4.71
534.152	5.14
534.58	5.43
535.008	6.29
535.436	6.44
535.865	6.45
536.293	5.04
536.721	4.35
537.149	4.4
537.576	5.05
538.004	5.07
538.432	4.51
538.86	4.8
539.287	4.35
539.715	3.79
540.143	3.38
540.57	3.58
540.998	3.96
541.425	5.93
541.852	5.81
542.28	5.06
542.707	5.22
543.134	5.5
543.561	5.39
543.988	5.64
544.415	5.09
544.842	4.91
545.269	4.54
545.696	4.49
546.123	3.79
546.549	4
546.976	4.28
547.403	4.1
547.829	3.29
548.256	2.9
548.682	2.7
549.108	3.45
549.535	3.79
549.961	3.83
550.387	3.98
550.813	4.58
551.24	4.64
551.666	4.31
552.092	4.15
552.518	4.55
552.943	5.78
553.369	5.68
553.795	5.76
554.221	5.94
554.646	6.28
555.072	7.11
555.498	5.85
555.923	5.48
556.349	5.78
556.774	5.75
557.199	5.35
557.625	4.3
558.05	4.62
558.475	4.38
558.9	4.28
559.325	4.28
559.75	3.79
560.175	4.22
560.6	4.02
561.025	3.43
561.449	3.51
561.874	3.8
562.299	4.44
562.723	4.02
563.148	4.5
563.572	3.95
563.997	3.35
564.421	2.43
564.846	1.52
565.27	1.61
565.694	2.45
566.118	2.36
566.542	3.22
566.966	3.1
567.39	3.38
567.814	3.64
568.238	4.44
568.662	4.15
569.086	4.8
569.509	4.95
569.933	5.87
570.357	5.59
570.78	5.2
571.204	5.54
571.627	5.48
572.05	5.36
572.474	5.98
572.897	5.58
573.32	6.51
573.743	6.11
574.166	6.89
574.589	6.26
575.012	5.91
575.435	5.74
575.858	5.17
576.281	5.1
576.704	4.97
577.126	3.51
577.549	3.12
577.972	2.42
578.394	2.08
578.817	3.31
579.239	3.14
579.661	3.44
580.084	5.35
580.506	5.4
580.928	5.09
581.35	5.24
581.772	5.22
582.194	5.61
582.616	5.28
583.038	5.44
583.46	3.6
583.882	3.96
584.303	3.15
584.725	1.67
585.147	4.48
585.568	4.75
585.99	5.23
586.411	6.21
586.833	6.64
587.254	7.15
587.675	7.19
588.096	6.87
588.518	6.81
588.939	7.49
589.36	8.4
589.781	4.74
590.202	6.66
590.623	6.27
591.043	5.15
591.464	4.91
591.885	5.46
592.305	5.35
592.726	5.14
593.147	4.82
593.567	4.6
593.987	3.99
594.408	3.82
594.828	1.82
595.248	2.23
595.669	3.03
596.089	2.56
596.509	1.89
596.929	1.91
597.349	2.54
597.769	2.66
598.189	2.52
598.608	2.77
599.028	3.22
599.448	3.1
599.867	3.12
600.287	2.86
600.706	3.33
601.126	3.68
601.545	4.39
601.965	4.05
602.384	3.87
602.803	3.95
603.222	3.73
603.641	3.46
604.061	3.84
604.48	3.37
604.898	3.04
605.317	2.59
605.736	2.6
606.155	2.75
606.574	2.84
606.992	2.9
607.411	2.94
607.829	2.52
608.248	2.77
608.666	1.68
609.085	1.77
609.503	1.9
609.921	2.59
610.339	2.38
610.758	1.54
611.176	1.51
611.594	2.21
612.012	2.54
612.43	3.39
612.847	2.89
613.265	4.68
613.683	4.82
614.101	5.18
614.518	4.64
614.936	4.72
615.353	5.61
615.771	6.28
616.188	5.61
616.606	5.61
617.023	5.78
617.44	6.04
617.857	5.23
618.274	5.42
618.691	5.41
619.108	5.54
619.525	5.5
619.942	5.33
620.359	4.88
620.776	5.56
621.192	6.13
621.609	6.16
622.026	7.01
622.442	6.06
622.859	5.13
623.275	4.82
623.691	4.6
624.108	4.67
624.524	4.44
624.94	4.58
625.356	4.03
625.772	3
626.188	2.54
626.604	2.39
627.02	3.06
627.436	3.91
627.852	5.17
628.268	5.93
628.683	5.69
629.099	5.67
629.514	5.14
629.93	4.95
630.345	5.11
630.761	4.76
631.176	4.21
631.591	5.93
632.007	6.04
632.422	4.6
632.837	3.78
633.252	5.46
633.667	5.91
634.082	6.69
634.497	7.22
634.911	8.52
635.326	8.96
635.741	8.88
636.155	7.8
636.57	8.36
636.984	8.52
637.399	8.78
637.813	7.24
638.228	6.97
638.642	6.12
639.056	5.31
639.47	4.25
639.884	4.01
640.298	4.43
640.712	4.5
641.126	4.24
641.54	4.33
641.954	3.27
642.368	3.98
642.781	5.27
643.195	5.88
643.609	6.99
644.022	6.84
644.436	6.62
644.849	6.06
645.262	5.66
645.676	4.61
646.089	4.21
646.502	5.62
646.915	4.94
647.328	3.86
647.741	3.9
648.154	3.93
648.567	5.94
648.98	6.64
649.393	6.94
649.805	7.42
650.218	7.59
650.631	8.42
651.043	8.31
651.456	8.82
651.868	8.82
652.28	8.58
652.693	7.15
653.105	5.46
653.517	4.84
653.929	4.9
654.341	4.06
654.753	5.21
655.165	5.09
655.577	5.11
655.989	4.75
656.401	4.45
656.813	5.46
657.224	6.31
657.636	6.26
658.047	6.91
658.459	7.54
658.87	7.27
659.282	6.75
659.693	7.09
660.104	7.62
660.515	7.31
660.926	6.79
661.338	6.2
661.749	5.24
662.159	5.67
662.57	4.94
662.981	4.58
663.392	4.84
663.803	4.39
664.213	3.9
664.624	2.74
665.035	2.02
665.445	2.03
665.855	2.82
666.266	4.12
666.676	3.59
667.086	3.27
667.497	3.68
667.907	3.89
668.317	3.84
668.727	6.2
669.137	6.36
669.547	7.13
669.956	6.84
670.366	6.46
670.776	6.22
671.186	6.24
671.595	6.34
672.005	5.38
672.414	5.59
672.824	6.51
673.233	4.29
673.642	4.14
674.052	4.54
674.461	5.69
674.87	5.75
675.279	6.65
675.688	5.75
676.097	6.77
676.506	7.21
676.915	6.77
677.323	5.87
677.732	6.59
678.141	7.1
678.549	7.2
678.958	5.55
679.366	4.92
679.775	3.7
680.183	5.88
680.592	5.8
681	5.57
681.408	6.55
681.816	7.02
682.224	5.66
682.632	6.92
683.04	6.67
683.448	7.34
683.856	8.65
684.264	9.8
684.671	8.56
685.079	7.65
685.487	8.48
685.894	7.14
686.302	6.66
686.709	7.58
687.116	6.31
687.524	7.42
687.931	9.41
688.338	8.63
688.745	6.57
689.152	6.72
689.559	7.8
689.966	9.02
690.373	9.43
690.78	11.02
691.187	12.01
691.593	13.59
692	12.26
692.407	12.24
692.813	13.96
693.22	15.54
693.626	14.69
694.032	14.36
694.439	13.04
694.845	13.27
695.251	12.48
695.657	11.67
696.063	9.68
696.469	10.04
696.875	8.98
697.281	7.71
697.687	7.52
698.093	8.9
698.498	9.29
698.904	8.64
699.31	8.98
699.715	10.22
700.12	10
700.526	10.65
700.931	9.8
701.337	10.85
701.742	11.2
702.147	10.99
702.552	10.15
702.957	9
703.362	10.09
703.767	9.58
704.172	7.98
704.577	8.35
704.981	7.09
705.386	8.35
705.791	7.96
706.195	6.69
706.6	5.7
707.004	5.07
707.408	5.42
707.813	5.13
708.217	5.86
708.621	6.2
709.025	4.92
709.43	7.14
709.834	7.04
710.237	6.41
710.641	7.12
711.045	8.78
711.449	9.83
711.853	13.26
712.256	12.76
712.66	11.74
713.064	11.66
713.467	13.1
713.87	12.57
714.274	12.56
714.677	13.92
715.08	14.59
715.484	14.63
715.887	17.39
716.29	13.69
716.693	14.56
717.096	16.44
717.499	16.62
717.901	15.78
718.304	15.84
718.707	15.41
719.109	13.9
719.512	12.68
719.915	15.03
720.317	13
720.719	12.84
721.122	12.89
721.524	12.9
721.926	16.78
722.328	16.95
722.731	15.42
723.133	16.05
723.535	16.33
723.937	17.01
724.338	16.86
724.74	17.44
725.142	54.13
725.544	55.57
725.945	63.33
726.347	59.36
726.748	59.38
727.15	60.82
727.551	63.02
727.952	62.31
728.354	60.44
728.755	58.76
729.156	57.15
729.557	21.5
729.958	19.51
730.359	11.56
730.76	11.12
731.161	10.81
731.562	9.48
731.962	7.41
732.363	8.07
732.763	8.81
733.164	7.52
733.564	7.59
733.965	8.21
734.365	8.72
734.766	9.58
735.166	10.41
735.566	12.28
735.966	13.74
736.366	14.25
736.766	14.49
737.166	13.88
737.566	13.89
737.966	13.51
738.365	14.13
738.765	14.75
739.165	13.74
739.564	12.7
739.964	10.59
740.363	9.18
740.763	8.06
741.162	8.62
741.561	9.3
741.96	9.59
742.36	9.91
742.759	9.56
743.158	7.72
743.557	8.23
743.955	9.08
744.354	9.16
744.753	9.93
745.152	10.68
745.55	8.63
745.949	8.77
746.348	9.46
746.746	7.97
747.144	9.48
747.543	9.66
747.941	7.73
748.339	6.78
748.737	8.06
749.136	7.62
749.534	5.78
749.932	8.58
750.33	7.55
750.727	6.22
751.125	7.82
751.523	6.54
751.921	9.64
752.318	11.81
752.716	14.26
753.113	13.57
753.511	13.26
753.908	15.36
754.305	17
754.703	18.28
755.1	19.76
755.497	19.66
755.894	19.59
756.291	17.9
756.688	18.05
757.085	16
757.482	17.79
757.878	20.02
758.275	20.86
758.672	16.6
759.068	16.85
759.465	16.3
759.861	15.83
760.258	13.26
760.654	10.25
761.05	12.15
761.447	12.39
761.843	11.28
762.239	11.49
762.635	8.82
763.031	8.18
763.427	7.86
763.822	9.41
764.218	9.48
764.614	10.54
765.01	10.56
765.405	7.4
765.801	8.1
766.196	7.46
766.592	7
766.987	7.02
767.382	6.55
767.778	5.78
768.173	4.54
