Data from N_1_DEC_CT_2N_Splice17_11-34-21-246.txt Node
Date: Sat Mar 14 11:34:21 EDT 2020
User: sa697716
Spectrometer: FLMS03696
Trigger mode: 0
Integration Time (sec): 3.180400E-1
Scans to average: 20
Electric dark correction enabled: true
Nonlinearity correction enabled: true
Boxcar width: 5
XAxis mode: Wavelengths
Number of Pixels in Spectrum: 2048
>>>>>Begin Spectral Data<<<<<
187.83	-151017.69
188.298	1177.68
188.766	642.44
189.233	575.08
189.701	741.75
190.169	1044.72
190.636	384.81
191.104	274.7
191.571	-28.92
192.039	-96.31
192.506	-184.29
192.974	209.6
193.441	-331.31
193.908	-266.33
194.375	-64.26
194.842	-53.74
195.31	-25.81
195.777	64.69
196.244	278.93
196.711	530.36
197.177	749.93
197.644	1162.06
198.111	2061.48
198.578	2913.89
199.045	2389.06
199.511	3906.81
199.978	4550.85
200.445	3846.19
200.911	4271.12
201.378	4812.36
201.844	4268.31
202.31	7275.67
202.777	7459.2
203.243	4113.2
203.709	3892.28
204.176	4580.14
204.642	3757.32
205.108	3493.68
205.574	2836.22
206.04	2616.96
206.506	2443
206.972	2315.56
207.438	2216.02
207.903	2524.2
208.369	2184.5
208.835	2156.79
209.301	2231.84
209.766	2265.37
210.232	2220.78
210.697	2719.35
211.163	3309.24
211.628	4941.62
212.094	4086.68
212.559	4895.15
213.024	2972.43
213.49	3571.29
213.955	3444.42
214.42	3372.12
214.885	3086.34
215.35	2892.6
215.815	2692.01
216.28	2772.34
216.745	2180.69
217.21	2251.21
217.675	1958.87
218.14	2055.78
218.604	2118.59
219.069	2217.9
219.534	2120.29
219.998	2259.09
220.463	2516.11
220.927	2812.03
221.392	2421.71
221.856	2267.88
222.32	2625.14
222.785	3034.23
223.249	3576.54
223.713	3754.12
224.177	3542.6
224.642	4305.66
225.106	5047.41
225.57	5266.18
226.034	3807.18
226.497	5593.38
226.961	4894.2
227.425	5575.36
227.889	5970.8
228.353	5773.21
228.816	11579.21
229.28	10852.8
229.744	8855.46
230.207	5279.9
230.671	5060.28
231.134	8069.23
231.597	9101.43
232.061	8842.9
232.524	8342.88
232.987	5645.95
233.45	4979.1
233.914	4376.54
234.377	4350.23
234.84	3907
235.303	4491.49
235.766	4939.04
236.229	5055.92
236.691	3131.86
237.154	3466.45
237.617	2605.6
238.08	2630.99
238.542	3074.56
239.005	2193.88
239.468	2190.84
239.93	2061.62
240.393	1886.95
240.855	1662.35
241.317	1676.28
241.78	2034.35
242.242	2094.75
242.704	2257.41
243.166	1963.57
243.629	1796.45
244.091	2057.09
244.553	2227.74
245.015	2383.9
245.477	3049.31
245.939	4393.82
246.4	4647.77
246.862	4492.04
247.324	4221.84
247.786	4670.61
248.247	6069.06
248.709	6110.33
249.17	4579.23
249.632	4355.39
250.093	5073.6
250.555	4359.38
251.016	2683.58
251.477	2545.7
251.939	2742.67
252.4	2857.6
252.861	3369.21
253.322	3176.25
253.783	3775.45
254.244	4863.84
254.705	3801.04
255.166	3343.43
255.627	3282.34
256.088	4637.81
256.549	4934.5
257.009	4214.74
257.47	5159.62
257.931	4183.48
258.391	3117.24
258.852	3214.43
259.312	3348.4
259.773	4051.39
260.233	3429.73
260.694	2871.95
261.154	3197.32
261.614	2574.26
262.074	2270.03
262.534	2323.36
262.994	2183.32
263.455	2842.14
263.915	2359.32
264.374	2179.72
264.834	2366.98
265.294	2564.73
265.754	2652.85
266.214	2485.64
266.673	2275.38
267.133	2847.31
267.593	2786.45
268.052	3355.21
268.512	2885.75
268.971	3511.22
269.431	3841.21
269.89	3434.04
270.349	5144.97
270.809	5706.97
271.268	5105.58
271.727	11334.07
272.186	7321.57
272.645	5487.51
273.104	3934.61
273.563	5680.09
274.022	4401.5
274.481	3794.63
274.94	2943.6
275.399	2189.02
275.857	2523.61
276.316	3419.71
276.775	3072.01
277.233	3068.82
277.692	2919.64
278.15	3368.17
278.609	3547.75
279.067	3314.78
279.525	3113.94
279.984	4041.15
280.442	4947.21
280.9	5001.66
281.358	3358.73
281.816	3179.83
282.274	3125.61
282.732	3249.13
283.19	3281.91
283.648	2861.24
284.106	3083.74
284.564	3147.65
285.021	2965.11
285.479	2231.82
285.937	2034.68
286.394	1821
286.852	1874.56
287.309	2008.91
287.767	1985.63
288.224	1924.19
288.682	2101.77
289.139	2324.36
289.596	2151.75
290.053	2219.81
290.511	2750
290.968	3339.08
291.425	4456.94
291.882	3749.99
292.339	3235.68
292.796	3133.29
293.252	2916.9
293.709	2339.01
294.166	2087.46
294.623	2275.33
295.079	2168.26
295.536	2204.98
295.992	1991.43
296.449	1954.66
296.905	2030.35
297.362	1959.66
297.818	2060.97
298.274	2139.3
298.731	2153.53
299.187	2132.62
299.643	2287.7
300.099	2787.88
300.555	3055.54
301.011	2595.92
301.467	2567.42
301.923	2980.73
302.379	2931.69
302.835	2921.27
303.291	2941.92
303.746	3376.79
304.202	4289.98
304.658	4359.35
305.113	2956.4
305.569	2928.25
306.024	3089.8
306.479	2922.82
306.935	2513.75
307.39	2756.59
307.845	2556.74
308.301	2607.85
308.756	2560.87
309.211	2496.83
309.666	2566.75
310.121	3242.77
310.576	3310.29
311.031	3328.27
311.486	3853.23
311.94	3842.5
312.395	5150.09
312.85	9737.43
313.305	47993.73
313.759	254455.02
314.214	18660.25
314.668	15022.64
315.123	12806.71
315.577	4670.85
316.032	4192.27
316.486	5234.65
316.94	4180.99
317.394	2933.41
317.849	2296.15
318.303	2170.51
318.757	2051.63
319.211	2250.44
319.665	1969.86
320.119	1975.58
320.572	2803.68
321.026	2630.14
321.48	2200.16
321.934	2387.16
322.387	2388.09
322.841	2584.83
323.295	2347.94
323.748	2670.46
324.202	2714.83
324.655	3266.79
325.108	4618.07
325.562	3273.26
326.015	3867.37
326.468	2946.85
326.921	3316.99
327.374	3134.96
327.827	3308.41
328.28	3748.4
328.733	2551.91
329.186	2269.67
329.639	2177.94
330.092	1839.51
330.545	1780.7
330.997	1829.68
331.45	2022.24
331.903	2414.47
332.355	4149.02
332.808	4004.76
333.26	3349.51
333.713	3665.75
334.165	3729.3
334.617	4998.07
335.069	4033.24
335.522	7305.97
335.974	8080.11
336.426	7445.13
336.878	5128.8
337.33	2629.14
337.782	2583.5
338.234	3278.81
338.686	3912.56
339.137	4614.19
339.589	4337.95
340.041	3439.92
340.493	2952.18
340.944	3033.92
341.396	3257.14
341.847	2767.76
342.299	3287.28
342.75	4064.42
343.201	3517.03
343.653	4026.9
344.104	4950.97
344.555	3911.33
345.006	5955.92
345.457	4609.98
345.908	3635.72
346.359	3425.36
346.81	2756.43
347.261	2887.11
347.712	2811.1
348.163	3005.45
348.613	3075.49
349.064	2892.04
349.515	2527.26
349.965	2633.07
350.416	3157.49
350.866	3472.54
351.317	3894.34
351.767	6476.47
352.217	8125.11
352.668	6763.09
353.118	6173.22
353.568	5925.73
354.018	4681.88
354.468	4990.76
354.918	3587.46
355.368	3151.88
355.818	4446.71
356.268	12735.83
356.718	54011.96
357.168	13727.73
357.617	6945.26
358.067	7791.66
358.517	7320.23
358.966	8693.27
359.416	9822.75
359.865	10675.69
360.315	12689.64
360.764	5988.91
361.213	3400.65
361.663	3224.15
362.112	3959.63
362.561	6371.76
363.01	4816.9
363.459	4097.31
363.908	4412.61
364.357	3787.85
364.806	6376.54
365.255	4393.6
365.703	4084.88
366.152	4150.88
366.601	3366.8
367.05	2758.9
367.498	2543.5
367.947	2653.6
368.395	2759.53
368.844	2473.22
369.292	2966.47
369.74	2091.52
370.189	3198.32
370.637	3754.09
371.085	3230.92
371.533	3963.34
371.981	3822.17
372.429	3672.81
372.877	3848.03
373.325	3225.99
373.773	3270.76
374.221	2916.24
374.669	3578.64
375.116	3119.95
375.564	3135.58
376.012	3513.51
376.459	2896.74
376.907	3448.75
377.354	4148.46
377.801	3920.02
378.249	4569.88
378.696	5884.05
379.143	7168.42
379.591	7763.99
380.038	13129.29
380.485	9603.56
380.932	10507.63
381.379	9820.28
381.826	7442.37
382.273	5395.11
382.72	4793.64
383.166	4753.55
383.613	3179.53
384.06	2954.36
384.506	3535.49
384.953	2721.01
385.4	2862.27
385.846	2645.08
386.292	2739.52
386.739	2862.73
387.185	3057.07
387.631	3331.04
388.078	3554.81
388.524	4124.74
388.97	4115.53
389.416	3639.69
389.862	4061.71
390.308	4037.34
390.754	4346.78
391.2	5089.59
391.645	5688.98
392.091	5948.34
392.537	6222.12
392.983	6641.21
393.428	6874.98
393.874	7794.98
394.319	8494.07
394.765	8944.66
395.21	10322.43
395.655	10814.74
396.101	11194.85
396.546	11081.06
396.991	12255.12
397.436	12446.18
397.881	13181.8
398.326	13766.45
398.771	14216.46
399.216	13503.63
399.661	13055.04
400.106	13785.43
400.551	14860
400.995	13966.16
401.44	14375.91
401.885	13969.95
402.329	14538.02
402.774	14293.65
403.218	14100.29
403.663	13943.16
404.107	14693.7
404.551	15201.6
404.995	14395.66
405.44	14365.19
405.884	15068.72
406.328	15043.94
406.772	15406.83
407.216	14417.87
407.66	14399.25
408.104	14252.15
408.547	13818.42
408.991	13787.22
409.435	13638.42
409.879	13724.17
410.322	13803.51
410.766	13590.1
411.209	13203.6
411.653	13025.72
412.096	13072.99
412.54	13395.72
412.983	13547.77
413.426	13787.9
413.869	14028.94
414.312	13971.39
414.756	13713.94
415.199	13317.06
415.642	13127.5
416.085	13327.58
416.527	13406.12
416.97	13794.72
417.413	13197.7
417.856	13197.01
418.298	13155.43
418.741	13118.53
419.184	13144.42
419.626	13757.52
420.069	13796.65
420.511	13921.41
420.953	13689.96
421.396	13652.76
421.838	13423.45
422.28	13831.2
422.722	13988.19
423.164	14386.64
423.606	14325.9
424.048	14533.58
424.49	13957.46
424.932	14065.99
425.374	14044.29
425.816	14380.8
426.258	14589.93
426.699	14552.56
427.141	14015.32
427.582	13991.92
428.024	13764.79
428.465	13734.28
428.907	13543.67
429.348	13643.38
429.789	13842.33
430.231	13682.39
430.672	14042.47
431.113	13987.3
431.554	14240.51
431.995	14534.06
432.436	14582.4
432.877	14764.75
433.318	14850.12
433.759	15090.45
434.2	15299.11
434.64	15339.76
435.081	15609.41
435.522	15033.27
435.962	14783.92
436.403	14682.97
436.843	15146.01
437.284	15065.53
437.724	14867.51
438.164	15137.62
438.604	14954.95
439.045	14520.3
439.485	14089.46
439.925	14042.83
440.365	13938.97
440.805	13951.89
441.245	13931.2
441.685	13515.98
442.125	13529.55
442.564	13686.06
443.004	13402.48
443.444	13440.51
443.883	13547.97
444.323	13622.29
444.762	13829.37
445.202	14141.22
445.641	14446.43
446.081	14526.64
446.52	14762.63
446.959	14738.57
447.398	14517.62
447.837	14538.13
448.276	14454.25
448.716	14711.92
449.154	14912.68
449.593	14505.21
450.032	14424.27
450.471	14215.43
450.91	14230.5
451.349	14138.56
451.787	14062.64
452.226	14235.1
452.664	14174.99
453.103	14140.53
453.541	14117.36
453.98	14006.01
454.418	14123.41
454.856	13857.38
455.295	13790.47
455.733	13821.95
456.171	13873.88
456.609	13810.73
457.047	13768.57
457.485	13881.39
457.923	13846.12
458.361	13639.95
458.798	13703.86
459.236	13679.72
459.674	13850.22
460.111	13957.19
460.549	13868.28
460.987	13895.41
461.424	13933.35
461.862	13916.05
462.299	13776.24
462.736	13798.96
463.173	13892.61
463.611	13703.94
464.048	13689.65
464.485	13844.61
464.922	13815.39
465.359	13873.7
465.796	13589.28
466.233	13587.52
466.67	13521.72
467.106	13569.91
467.543	13589.79
467.98	13565.15
468.416	13446.26
468.853	13549.7
469.29	13318.27
469.726	13310.19
470.162	13077.11
470.599	13224.1
471.035	13259.22
471.471	13102.06
471.907	13206.38
472.344	13232.33
472.78	13311.01
473.216	13541.2
473.652	13389.07
474.088	13395.29
474.523	13364.6
474.959	13518.17
475.395	13408.02
475.831	13301.97
476.266	13371.8
476.702	13328.85
477.138	13159.12
477.573	13108.61
478.008	13028.19
478.444	13036.35
478.879	13069.24
479.314	13060.32
479.75	12980.64
480.185	12977.81
480.62	13016.79
481.055	12981.92
481.49	12938.19
481.925	12970.48
482.36	12930.75
482.795	13049.37
483.229	13140.37
483.664	13155.29
484.099	12992.03
484.534	12987.1
484.968	12932.14
485.403	12830.07
485.837	12707.85
486.271	12588.67
486.706	12549.2
487.14	12448.22
487.574	12274.88
488.009	12203.42
488.443	12115.49
488.877	12185.15
489.311	12184
489.745	12263.36
490.179	12303.67
490.613	12418.99
491.046	12463.49
491.48	12486.09
491.914	12426.58
492.348	12451.75
492.781	12462.63
493.215	12457.3
493.648	12480.33
494.082	12545.21
494.515	12501.99
494.948	12565.35
495.382	12612.52
495.815	12611.91
496.248	12615.42
496.681	12752.66
497.114	12863.66
497.547	12921.82
497.98	12995.28
498.413	12933.05
498.846	12951.28
499.279	12984.53
499.711	12967.12
500.144	12905.7
500.577	12938.89
501.009	13004.37
501.442	13024.76
501.874	12926.74
502.306	12892.8
502.739	12899.83
503.171	13084.9
503.603	13060.98
504.036	13110.8
504.468	13082.64
504.9	13135.9
505.332	13141.2
505.764	13095.32
506.196	13099.68
506.627	13189.26
507.059	13239.62
507.491	13273.45
507.923	13086.4
508.354	13149.79
508.786	13158.78
509.217	13262.34
509.649	13316.1
510.08	13418.73
510.512	13458.04
510.943	13480.87
511.374	13454.81
511.805	13540.61
512.237	13618.79
512.668	13853.19
513.099	13987.84
513.53	14074.97
513.961	14058.25
514.391	14175.59
514.822	14279.75
515.253	14448.5
515.684	14505.74
516.114	14620.3
516.545	14639.94
516.975	14719.03
517.406	14708.98
517.836	14572.13
518.267	14497.64
518.697	14546.76
519.127	14465.15
519.558	14412.7
519.988	14312.36
520.418	14274.52
520.848	14284.83
521.278	14202.87
521.708	13798.25
522.138	13755.75
522.567	13874.86
522.997	13933.44
523.427	13909.8
523.857	13888.31
524.286	13829.86
524.716	13816.66
525.145	13830
525.575	13792.71
526.004	13796.66
526.433	13969.86
526.863	13863.29
527.292	13666.59
527.721	13619.96
528.15	13596.85
528.579	13531.14
529.008	13549.93
529.437	13665.94
529.866	13705.96
530.295	13768.73
530.724	13779.29
531.152	13913.61
531.581	13942.75
532.01	14020.69
532.438	14026.34
532.867	14083.22
533.295	14170.74
533.723	14165.61
534.152	14098.57
534.58	14049.8
535.008	13890.91
535.436	13866.26
535.865	13895.18
536.293	13980.52
536.721	14069.56
537.149	14224.14
537.576	14208.84
538.004	14287.34
538.432	14336.44
538.86	14311.9
539.287	14363.55
539.715	14459.97
540.143	14498.97
540.57	14483.08
540.998	14477.23
541.425	14303.63
541.852	14182.94
542.28	14204.97
542.707	14119.21
543.134	14040.96
543.561	14037.66
543.988	14009.9
544.415	14044.25
544.842	14035.67
545.269	14006.03
545.696	14039.73
546.123	14190.6
546.549	14137.63
546.976	14060.99
547.403	14079.58
547.829	14128.05
548.256	14182.92
548.682	14182.88
549.108	14148.61
549.535	14177.85
549.961	14224.34
550.387	14150.11
550.813	14120.53
551.24	14199.18
551.666	14236.99
552.092	14184.84
552.518	14163
552.943	14126.02
553.369	14217.76
553.795	14290.54
554.221	14309.32
554.646	14303.48
555.072	14383.3
555.498	14444.68
555.923	14526.71
556.349	14651.8
556.774	14729.87
557.199	14743.88
557.625	14822.4
558.05	14774.26
558.475	14864.47
558.9	14863.28
559.325	14800.08
559.75	14770.51
560.175	14731.89
560.6	14698.77
561.025	14691.9
561.449	14710.17
561.874	14757.93
562.299	14774.94
562.723	14836.54
563.148	14745.23
563.572	14772.64
563.997	14849.58
564.421	14887.26
564.846	14880.54
565.27	14882.27
565.694	14848.78
566.118	14910.16
566.542	14940.12
566.966	14865.02
567.39	14792.98
567.814	14680.86
568.238	14661.17
568.662	14689.83
569.086	14702.03
569.509	14772.55
569.933	14658.39
570.357	14634.15
570.78	14507.59
571.204	14439.51
571.627	14418.49
572.05	14481.9
572.474	14557.93
572.897	14553.68
573.32	14585.75
573.743	14625.66
574.166	14569.76
574.589	14697.35
575.012	14744.62
575.435	14869.05
575.858	14924.28
576.281	14963.77
576.704	14963.3
577.126	15003.02
577.549	15033.29
577.972	15087.49
578.394	15113.67
578.817	15154.76
579.239	15110.15
579.661	15105.46
580.084	15052.9
580.506	15046.89
580.928	15119.96
581.35	15117.9
581.772	15161.74
582.194	15109.49
582.616	15050.37
583.038	14983.2
583.46	14961.56
583.882	14980.08
584.303	15078.15
584.725	15091.75
585.147	15066.34
585.568	15142.93
585.99	15203.23
586.411	15201.17
586.833	15292.28
587.254	15272.48
587.675	15393.1
588.096	15501.55
588.518	15433.99
588.939	15251.6
589.36	15221.69
589.781	15207.6
590.202	14942.47
590.623	14932.36
591.043	14993.01
591.464	14918.99
591.885	14910
592.305	14872.48
592.726	14749.94
593.147	14767.59
593.567	14721.08
593.987	14645.07
594.408	14583.84
594.828	14585.71
595.248	14491.42
595.669	14269.67
596.089	14182.27
596.509	14109.48
596.929	13944.06
597.349	13911.54
597.769	13772.2
598.189	13658.08
598.608	13619.47
599.028	13581.4
599.448	13538.56
599.867	13386.22
600.287	13326.54
600.706	13251.73
601.126	13122.06
601.545	13082.13
601.965	13055.51
602.384	12995.42
602.803	13018.08
603.222	12964.34
603.641	12908.69
604.061	12865.67
604.48	12833.04
604.898	12907.47
605.317	12960.47
605.736	12986.65
606.155	12956.78
606.574	12874.47
606.992	12928.62
607.411	12887.54
607.829	12835.49
608.248	12821.06
608.666	12825.64
609.085	12833.76
609.503	12771.2
609.921	12726.03
610.339	12764.61
610.758	12790.8
611.176	12770.67
611.594	12707.73
612.012	12706.57
612.43	12746.55
612.847	12826.29
613.265	12829.39
613.683	12885.61
614.101	12916.74
614.518	12916.1
614.936	12852.41
615.353	12738.7
615.771	12740.87
616.188	12775.73
616.606	12774.45
617.023	12749.74
617.44	12653.04
617.857	12655.2
618.274	12620.9
618.691	12589.74
619.108	12521.92
619.525	12481.54
619.942	12553.86
620.359	12579.13
620.776	12529.17
621.192	12470.29
621.609	12424.48
622.026	12455.01
622.442	12472.05
622.859	12479.93
623.275	12395.3
623.691	12431.07
624.108	12516.71
624.524	12633.58
624.94	12599.93
625.356	12665.52
625.772	12776.56
626.188	12874.29
626.604	12868.23
627.02	12808.52
627.436	12761.18
627.852	12789.66
628.268	12872.68
628.683	12766.62
629.099	12673.29
629.514	12641.38
629.93	12681.66
630.345	12727.07
630.761	12704.03
631.176	12754.26
631.591	12700.16
632.007	12661.22
632.422	12681.71
632.837	12605.6
633.252	12601.64
633.667	12535.98
634.082	12478.22
634.497	12385.68
634.911	12218.03
635.326	12226.45
635.741	12101.66
636.155	12062.25
636.57	12103.21
636.984	12135.56
637.399	12173.05
637.813	12223.13
638.228	12253.48
638.642	12339.76
639.056	12287.33
639.47	12349.59
639.884	12309.03
640.298	12297.44
640.712	12333.31
641.126	12275.54
641.54	12258.46
641.954	12305.59
642.368	12233.74
642.781	12178.08
643.195	12041.65
643.609	12081.69
644.022	12055.52
644.436	12039.26
644.849	11937.94
645.262	11843.08
645.676	11884.25
646.089	11835.08
646.502	11652.84
646.915	11618.93
647.328	11490.07
647.741	11501.76
648.154	11399.36
648.567	11369.61
648.98	11257.92
649.393	11306.56
649.805	11308.24
650.218	11272.44
650.631	11143.28
651.043	11127.23
651.456	11085.86
651.868	11109.68
652.28	11292.73
652.693	11393.04
653.105	11400.77
653.517	11404.71
653.929	11315.23
654.341	11306.03
654.753	11125.28
655.165	11182.17
655.577	11163.14
655.989	11144.74
656.401	11114.4
656.813	10778.43
657.224	10684.13
657.636	10547.35
658.047	10514.35
658.459	10459.42
658.87	10517.01
659.282	10513.33
659.693	10354.74
660.104	10258.58
660.515	10169.72
660.926	10207.74
661.338	10249.13
661.749	10238.33
662.159	10161.98
662.57	10175.78
662.981	10161.76
663.392	10098.69
663.803	10177.41
664.213	10189.9
664.624	10173.44
665.035	10245.63
665.445	10108.09
665.855	10029.12
666.266	9929.11
666.676	9920.96
667.086	9820.2
667.497	9806.05
667.907	9727.41
668.317	9606.94
668.727	9503.66
669.137	9510.27
669.547	9456
669.956	9475.41
670.366	9478.35
670.776	9474.93
671.186	9497.26
671.595	9498.98
672.005	9523.29
672.414	9471.12
672.824	9408.68
673.233	9480.62
673.642	9466.93
674.052	9458.68
674.461	9424.86
674.87	9446.07
675.279	9359.89
675.688	9355.44
676.097	9313.96
676.506	9225.17
676.915	9363.4
677.323	9352.73
677.732	9286.85
678.141	9239.9
678.549	9083.45
678.958	9048.19
679.366	9002.91
679.775	9040.14
680.183	9067.82
680.592	9096.76
681	9104.16
681.408	8964.19
681.816	8989.75
682.224	9023.93
682.632	9031.94
683.04	9248.13
683.448	9352.92
683.856	9449.34
