Data from N_1_HIR_IL_4N_Splice17_11-27-25-718.txt Node
Date: Sat Mar 14 11:27:25 EDT 2020
User: sa697716
Spectrometer: FLMS03696
Trigger mode: 0
Integration Time (sec): 3.180400E-1
Scans to average: 20
Electric dark correction enabled: true
Nonlinearity correction enabled: true
Boxcar width: 5
XAxis mode: Wavelengths
Number of Pixels in Spectrum: 2048
>>>>>Begin Spectral Data<<<<<
187.83	-178756.86
188.298	1277.59
188.766	663.13
189.233	545.56
189.701	684.4
190.169	1058.23
190.636	444.84
191.104	358.46
191.571	53.3
192.039	14.47
192.506	4.05
192.974	374.18
193.441	-763.1
193.908	-388.41
194.375	-144.57
194.842	-128.72
195.31	-5.49
195.777	130.67
196.244	241.51
196.711	186.33
197.177	182.67
197.644	207.15
198.111	330.91
198.578	471.17
199.045	375.2
199.511	538.12
199.978	546.09
200.445	434.18
200.911	450.43
201.378	498.53
201.844	487.81
202.31	804.09
202.777	839.73
203.243	463.78
203.709	426.44
204.176	496.75
204.642	431.49
205.108	426.34
205.574	356.92
206.04	316.28
206.506	275.63
206.972	231.76
207.438	223.27
207.903	243.67
208.369	240.97
208.835	253.29
209.301	258.75
209.766	262.35
210.232	238.44
210.697	286.46
211.163	331.29
211.628	481.19
212.094	470.45
212.559	652.89
213.024	422.54
213.49	486.26
213.955	451.4
214.42	420.14
214.885	399.1
215.35	398.42
215.815	423.05
216.28	449.36
216.745	365.18
217.21	388.05
217.675	302.08
218.14	314.12
218.604	319.2
219.069	340.47
219.534	352.09
219.998	352.06
220.463	388.2
220.927	365.5
221.392	317.57
221.856	297.51
222.32	293.53
222.785	354.75
223.249	409.57
223.713	436.63
224.177	415.27
224.642	452.54
225.106	505.45
225.57	493.72
226.034	417.93
226.497	585.53
226.961	548.74
227.425	638.76
227.889	649.48
228.353	627.28
228.816	1167
229.28	1057.63
229.744	903.65
230.207	641.4
230.671	634.56
231.134	871.95
231.597	1105.62
232.061	1012.89
232.524	966.38
232.987	666.49
233.45	598.74
233.914	519.41
234.377	478.17
234.84	420.49
235.303	420.12
235.766	474.86
236.229	491.01
236.691	256.38
237.154	260.63
237.617	197.31
238.08	198.04
238.542	206.93
239.005	158.8
239.468	180.83
239.93	168.3
240.393	161.61
240.855	146.37
241.317	139.8
241.78	152.38
242.242	166.7
242.704	214.01
243.166	197.62
243.629	217.71
244.091	251.51
244.553	279.74
245.015	308.96
245.477	388.06
245.939	522.46
246.4	550.58
246.862	561.12
247.324	531.39
247.786	505.05
248.247	619.24
248.709	465.36
249.17	363.82
249.632	399.74
250.093	483.64
250.555	407.37
251.016	288.52
251.477	291.75
251.939	307.07
252.4	294.2
252.861	348.02
253.322	337.44
253.783	386.47
254.244	469.94
254.705	321.16
255.166	266.45
255.627	275.65
256.088	385.84
256.549	417.45
257.009	366.36
257.47	509.51
257.931	417.75
258.391	329.8
258.852	354.08
259.312	389.86
259.773	454.11
260.233	424.06
260.694	348.81
261.154	379.3
261.614	330.03
262.074	286.39
262.534	283.22
262.994	286.16
263.455	365.19
263.915	321.09
264.374	293.48
264.834	326.64
265.294	316.97
265.754	341.02
266.214	297.13
266.673	269.1
267.133	328.52
267.593	312.84
268.052	337.86
268.512	262
268.971	356.74
269.431	363.66
269.89	303.11
270.349	461.46
270.809	512.11
271.268	488.99
271.727	968.62
272.186	668.44
272.645	514.37
273.104	367.85
273.563	538
274.022	346.65
274.481	348.49
274.94	293.73
275.399	200.8
275.857	208.45
276.316	264.88
276.775	250.49
277.233	241.83
277.692	260.26
278.15	304.4
278.609	341.66
279.067	334.92
279.525	317.79
279.984	362.41
280.442	457.89
280.9	533.95
281.358	369.4
281.816	355.74
282.274	356.56
282.732	328.96
283.19	324.16
283.648	273.68
284.106	278.07
284.564	263.04
285.021	282.44
285.479	219.83
285.937	168.55
286.394	157.14
286.852	151.22
287.309	166.53
287.767	194.6
288.224	210.05
288.682	231.73
289.139	273.72
289.596	244.82
290.053	240.39
290.511	290.23
290.968	363.77
291.425	461.37
291.882	436.8
292.339	377.9
292.796	331.19
293.252	291.4
293.709	259.46
294.166	222.49
294.623	256.37
295.079	246.15
295.536	257.12
295.992	241.25
296.449	229.98
296.905	237.64
297.362	254.73
297.818	269.2
298.274	284.76
298.731	261.38
299.187	257.45
299.643	266.31
300.099	324.98
300.555	359.59
301.011	331.09
301.467	385.16
301.923	378.98
302.379	339.46
302.835	328.8
303.291	330.87
303.746	373.54
304.202	456.75
304.658	467.99
305.113	325.93
305.569	327.54
306.024	302.79
306.479	239.66
306.935	257.06
307.39	276.64
307.845	265.12
308.301	277.25
308.756	286.69
309.211	301.2
309.666	293.79
310.121	382.31
310.576	352.14
311.031	329.97
311.486	365.35
311.94	308.56
312.395	381.1
312.85	650.76
313.305	2631.89
313.759	15907.89
314.214	1083.38
314.668	951.82
315.123	727.33
315.577	335.57
316.032	319.24
316.486	382.29
316.94	364.79
317.394	277.21
317.849	213.28
318.303	193.53
318.757	183.79
319.211	208.01
319.665	186.53
320.119	194.36
320.572	246.67
321.026	249.54
321.48	208.71
321.934	201.55
322.387	195.01
322.841	238.99
323.295	261.95
323.748	270.54
324.202	273.38
324.655	330.64
325.108	525.83
325.562	386.67
326.015	442.79
326.468	370.34
326.921	438.58
327.374	434.01
327.827	458.34
328.28	523.36
328.733	367.01
329.186	325.31
329.639	309.45
330.092	245.13
330.545	244.75
330.997	254.19
331.45	271.97
331.903	320.41
332.355	482.99
332.808	448.66
333.26	330.5
333.713	361.58
334.165	359.35
334.617	424.68
335.069	294.8
335.522	493.9
335.974	551.2
336.426	488.26
336.878	282.73
337.33	178.49
337.782	172.53
338.234	238.24
338.686	258.13
339.137	295.14
339.589	305.72
340.041	275.78
340.493	234.75
340.944	232
341.396	257.99
341.847	250.65
342.299	320.65
342.75	421.66
343.201	339.08
343.653	385.83
344.104	435.99
344.555	354.28
345.006	472.41
345.457	411.43
345.908	321.12
346.359	320.38
346.81	251
347.261	242.3
347.712	194.62
348.163	215.62
348.613	274.66
349.064	272.51
349.515	247.44
349.965	280.48
350.416	316.47
350.866	333.94
351.317	316.59
351.767	501.87
352.217	627.08
352.668	578.15
353.118	566.13
353.568	454.25
354.018	415.71
354.468	439.21
354.918	333.33
355.368	296.4
355.818	394.32
356.268	1119.28
356.718	5560.82
357.168	1422.24
357.617	700
358.067	682.6
358.517	636.09
358.966	740.66
359.416	919.53
359.865	968.75
360.315	1094.15
360.764	578.4
361.213	342.12
361.663	255.02
362.112	288.47
362.561	477.36
363.01	387.05
363.459	331.82
363.908	329.86
364.357	295.6
364.806	439.61
365.255	309.84
365.703	275.98
366.152	297.12
366.601	252.43
367.05	247.76
367.498	234.64
367.947	240.18
368.395	229.5
368.844	208.9
369.292	186.87
369.74	146.34
370.189	199.77
370.637	230.58
371.085	194.44
371.533	222.04
371.981	153.89
372.429	164.41
372.877	162.75
373.325	168.55
373.773	144.59
374.221	119.37
374.669	128.03
375.116	122.58
375.564	132.65
376.012	118.73
376.459	112.73
376.907	131.93
377.354	134.35
377.801	164.05
378.249	190.04
378.696	265.34
379.143	369.1
379.591	418.34
380.038	672.51
380.485	503.18
380.932	581.84
381.379	654.34
381.826	562.53
382.273	407.37
382.72	303.89
383.166	288.08
383.613	209.83
384.06	202.37
384.506	224.11
384.953	172.27
385.4	163.3
385.846	136.9
386.292	117.19
386.739	92.92
387.185	78.34
387.631	85.68
388.078	107.44
388.524	102.8
388.97	97.84
389.416	84.11
389.862	92.7
390.308	90.91
390.754	107.67
391.2	106.04
391.645	107.5
392.091	137.53
392.537	144.36
392.983	129.92
393.428	152.7
393.874	146.65
394.319	164.78
394.765	162.27
395.21	163.07
395.655	151.84
396.101	154.79
396.546	149.11
396.991	130.5
397.436	112.42
397.881	106.46
398.326	82.57
398.771	84.79
399.216	69.01
399.661	58.39
400.106	59.33
400.551	62.81
400.995	57.57
401.44	54.83
401.885	52.32
402.329	56.55
402.774	52.69
403.218	62.91
403.663	63.64
404.107	67.08
404.551	72.09
404.995	66.46
405.44	58.04
405.884	54.99
406.328	49.83
406.772	48.71
407.216	43.98
407.66	41.55
408.104	29.36
408.547	25.33
408.991	24.85
409.435	20.17
409.879	23.65
410.322	26.65
410.766	25.76
411.209	29.44
411.653	30.08
412.096	32.31
412.54	32.48
412.983	35.48
413.426	37.28
413.869	34.65
414.312	38.82
414.756	34.85
415.199	31.09
415.642	33.18
416.085	31.68
416.527	29.95
416.97	27.38
417.413	26.96
417.856	22.69
418.298	21.79
418.741	19.07
419.184	14.46
419.626	10.24
420.069	11.02
420.511	11.15
420.953	14.48
421.396	13.63
421.838	13.67
422.28	14.2
422.722	18.39
423.164	16.75
423.606	19.53
424.048	20.48
424.49	23.77
424.932	23.22
425.374	20.8
425.816	15.95
426.258	17.11
426.699	17.73
427.141	19.37
427.582	17.06
428.024	15.98
428.465	12.33
428.907	11.98
429.348	11.56
429.789	12.66
430.231	15.23
430.672	17.11
431.113	17.31
431.554	16.82
431.995	15.89
432.436	19.01
432.877	21.05
433.318	25.04
433.759	24.18
434.2	22.67
434.64	21.35
435.081	20.88
435.522	19.95
435.962	19.11
436.403	20.04
436.843	16.35
437.284	14.59
437.724	12.57
438.164	8.78
438.604	10.29
439.045	13.02
439.485	16.5
439.925	16.03
440.365	15.22
440.805	14.97
441.245	15.44
441.685	17.38
442.125	17.49
442.564	16.65
443.004	18.17
443.444	17.81
443.883	18.18
444.323	15.01
444.762	10.49
445.202	10.1
445.641	12.16
446.081	9.11
446.52	8.37
446.959	8.34
447.398	10.34
447.837	9.39
448.276	8.61
448.716	8.61
449.154	6.94
449.593	10.08
450.032	10.71
450.471	7.32
450.91	7.36
451.349	9.08
451.787	7.71
452.226	6.21
452.664	7.19
453.103	6.32
453.541	4.63
453.98	6.75
454.418	7.81
454.856	8.86
455.295	9.16
455.733	10.77
456.171	9.59
456.609	10.74
457.047	11.11
457.485	12.23
457.923	14.12
458.361	13.61
458.798	13.8
459.236	12.94
459.674	11.5
460.111	11.58
460.549	11.3
460.987	9.93
461.424	7.7
461.862	7.48
462.299	6.68
462.736	7.11
463.173	7.62
463.611	9.77
464.048	10.64
464.485	11.96
464.922	12.15
465.359	10.85
465.796	17.84
466.233	20.52
466.67	22.66
467.106	24.58
467.543	23.16
467.98	22.01
468.416	20.12
468.853	18.14
469.29	17.87
469.726	17.22
470.162	17.26
470.599	12.24
471.035	10.51
471.471	9.14
471.907	6.39
472.344	6.07
472.78	6.52
473.216	5.12
473.652	5.61
474.088	4.28
474.523	4.84
474.959	4.33
475.395	3.74
475.831	3.93
476.266	3.67
476.702	3.62
477.138	3.45
477.573	3.31
478.008	4.28
478.444	6
478.879	6.93
479.314	6.85
479.75	7.23
480.185	7.32
480.62	7.34
481.055	7.49
481.49	8.47
481.925	9.22
482.36	10.79
482.795	9.61
483.229	7.75
483.664	7.76
484.099	7.81
484.534	8.47
484.968	9.5
485.403	9.1
485.837	7.96
486.271	7.55
486.706	7.24
487.14	6.05
487.574	6.84
488.009	6.75
488.443	5.67
488.877	6.66
489.311	6.1
489.745	5.87
490.179	5.89
490.613	8.1
491.046	7.23
491.48	7.38
491.914	7.58
492.348	7.29
492.781	7.57
493.215	8.79
493.648	7.38
494.082	6.86
494.515	6.67
494.948	7.11
495.382	5.52
495.815	6.08
496.248	5.8
496.681	5.06
497.114	4.42
497.547	5.04
497.98	5.32
498.413	6.82
498.846	7.62
499.279	6.8
499.711	6.04
500.144	6.14
500.577	6.57
501.009	6.06
501.442	7.17
501.874	8.29
502.306	7.67
502.739	8.49
503.171	7.44
503.603	7.35
504.036	7.31
504.468	7.84
504.9	7.8
505.332	7.29
505.764	8.07
506.196	7.5
506.627	7.16
507.059	7.47
507.491	5.25
507.923	5.57
508.354	6.03
508.786	6.41
509.217	6.36
509.649	6.47
510.08	6.26
510.512	6.38
510.943	6.37
511.374	6.14
511.805	5.58
512.237	5.76
512.668	5.17
513.099	3.75
513.53	3.83
513.961	4.17
514.391	3.74
514.822	4.92
515.253	5.39
515.684	6.03
516.114	6.72
516.545	7.28
516.975	7.3
517.406	7.23
517.836	7.42
518.267	6.96
518.697	7.12
519.127	6.63
519.558	5.54
519.988	4.9
520.418	3.7
520.848	2.55
521.278	2
521.708	29.4
522.138	29.92
522.567	29.78
522.997	29.75
523.427	29.46
523.857	30
524.286	30.21
524.716	30
525.145	30.49
525.575	31.38
526.004	30.87
526.433	4
526.863	3.48
527.292	4.42
527.721	5.08
528.15	4.9
528.579	5.11
529.008	5.17
529.437	4.18
529.866	3.75
530.295	2.56
530.724	3.48
531.152	3.37
531.581	3.83
532.01	3.85
532.438	3.43
532.867	3.44
533.295	3.92
533.723	3.67
534.152	4.52
534.58	5.2
535.008	5.96
535.436	7.01
535.865	7.04
536.293	6.62
536.721	5.86
537.149	5.6
537.576	6.31
538.004	6.17
538.432	5.71
538.86	5.91
539.287	5.72
539.715	5.73
540.143	4.71
540.57	5.02
540.998	5.06
541.425	6.55
541.852	6.61
542.28	6.33
542.707	6.07
543.134	6.45
543.561	6.39
543.988	6.17
544.415	5.84
544.842	5.07
545.269	5.36
545.696	5.59
546.123	5.67
546.549	6.26
546.976	5.32
547.403	5.08
547.829	4.64
548.256	4.24
548.682	4.49
549.108	5.22
549.535	5.49
549.961	4.97
550.387	5.17
550.813	5.52
551.24	5.26
551.666	5.62
552.092	5.9
552.518	6.25
552.943	6.82
553.369	6.66
553.795	6.43
554.221	6.73
554.646	6.96
555.072	7.8
555.498	6.54
555.923	6.32
556.349	6.68
556.774	6.45
557.199	6.18
557.625	5.94
558.05	6.12
558.475	6.21
558.9	6.46
559.325	6.4
559.75	5.45
560.175	5.06
560.6	4.79
561.025	4.16
561.449	4.07
561.874	4.14
562.299	4.32
562.723	4.41
563.148	4.21
563.572	3.4
563.997	3.13
564.421	2.56
564.846	1.95
565.27	2.11
565.694	2.09
566.118	2.35
566.542	3.05
566.966	3.4
567.39	3.34
567.814	4.02
568.238	4.55
568.662	4.19
569.086	4.73
569.509	5.12
569.933	6.87
570.357	7.04
570.78	6.69
571.204	7.29
571.627	6.56
572.05	6.53
572.474	7.08
572.897	7.33
573.32	8.18
573.743	7.62
574.166	8.15
574.589	6.47
575.012	6.71
575.435	6.34
575.858	5.87
576.281	6.72
576.704	6.2
577.126	5.13
577.549	4.47
577.972	4.05
578.394	4.46
578.817	6.02
579.239	6.12
579.661	6.26
580.084	7.76
580.506	7.61
580.928	6.55
581.35	6.6
581.772	6.58
582.194	7.34
582.616	7.17
583.038	7.05
583.46	5.46
583.882	5.54
584.303	4.62
584.725	3.43
585.147	7.56
585.568	8.45
585.99	9.16
586.411	9.5
586.833	9.58
587.254	10.03
587.675	9.55
588.096	9.52
588.518	9.53
588.939	10.03
589.36	10.9
589.781	6.16
590.202	8.16
590.623	8.02
591.043	7.17
591.464	7.4
591.885	7.49
592.305	7.41
592.726	7.1
593.147	7.28
593.567	7.23
593.987	6.96
594.408	6.35
594.828	3.57
595.248	4.18
595.669	5.19
596.089	4.71
596.509	4
596.929	3.68
597.349	3.88
597.769	3.77
598.189	3.73
598.608	3.71
599.028	4.27
599.448	4.24
599.867	3.7
600.287	3.32
600.706	3.6
601.126	4.25
601.545	5.26
601.965	4.9
602.384	4.92
602.803	5.25
603.222	5.58
603.641	5.2
604.061	5.94
604.48	5.69
604.898	5.5
605.317	5.3
605.736	5.09
606.155	5.5
606.574	6.16
606.992	6.05
607.411	6.09
607.829	4.78
608.248	4.72
608.666	4.11
609.085	4.72
609.503	4.52
609.921	4.35
610.339	4.27
610.758	3.13
611.176	3.04
611.594	3.83
612.012	4.25
612.43	5.76
612.847	6.1
613.265	6.99
613.683	6.86
614.101	7.03
614.518	6.94
614.936	6.62
615.353	7.45
615.771	7.24
616.188	6.84
616.606	6.56
617.023	6.54
617.44	6.59
617.857	5.72
618.274	4.95
618.691	5.12
619.108	4.94
619.525	5.05
619.942	4.7
620.359	4.7
620.776	4.66
621.192	5.13
621.609	5.18
622.026	5.67
622.442	5.91
622.859	5.86
623.275	5.69
623.691	5.96
624.108	6.64
624.524	7.04
624.94	7.42
625.356	6.66
625.772	5.24
626.188	4.55
626.604	3.94
627.02	3.8
627.436	4.34
627.852	5.45
628.268	5.8
628.683	5.04
629.099	4.65
629.514	4.1
629.93	4.28
630.345	4.67
630.761	4.15
631.176	4.26
631.591	5.94
632.007	6.07
632.422	4.83
632.837	4.24
633.252	5.23
633.667	5.24
634.082	5.4
634.497	5.96
634.911	7.68
635.326	8.61
635.741	8.88
636.155	7.56
636.57	8.52
636.984	9.13
637.399	10.39
637.813	9.42
638.228	9.71
638.642	10.03
639.056	10.09
639.47	8.96
639.884	8.82
640.298	9.04
640.712	9.75
641.126	8.79
641.54	8.19
641.954	6.25
642.368	6.63
642.781	8.54
643.195	8.89
643.609	9.05
644.022	9.31
644.436	8.54
644.849	7.79
645.262	7.42
645.676	6.93
646.089	6.72
646.502	8.52
646.915	8.29
647.328	7.3
647.741	7.29
648.154	7.19
648.567	9.25
648.98	10.31
649.393	10.51
649.805	10.54
650.218	10.71
650.631	11.37
651.043	10.82
651.456	11.16
651.868	10.74
652.28	9.19
652.693	8.92
653.105	6.85
653.517	5.92
653.929	5.57
654.341	5.77
654.753	6.23
655.165	6.29
655.577	5.53
655.989	6
656.401	5.49
656.813	6.93
657.224	6.53
657.636	6.01
658.047	7.37
658.459	7.83
658.87	6.4
659.282	6.59
659.693	7.17
660.104	8.48
660.515	7.58
660.926	7.02
661.338	6.8
661.749	6.27
662.159	7.22
662.57	5.72
662.981	5.77
663.392	6.44
663.803	6.29
664.213	4.96
664.624	4.37
665.035	4.45
665.445	4.43
665.855	5.92
666.266	7.39
666.676	7.02
667.086	7.05
667.497	7.51
667.907	7.7
668.317	7.15
668.727	10.83
669.137	10.27
669.547	10.34
669.956	9.65
670.366	8.33
670.776	8.87
671.186	9.04
671.595	9.43
672.005	8.74
672.414	9.33
672.824	10.5
673.233	8
673.642	8.8
674.052	8.54
674.461	10.36
674.87	10.71
675.279	11.51
675.688	9.59
676.097	10.89
676.506	10.79
676.915	9.77
677.323	9.09
677.732	8.72
678.141	8.14
678.549	8.77
678.958	7.67
679.366	6.91
679.775	4.83
680.183	7.24
680.592	7.23
681	7.34
681.408	8.15
681.816	8.75
682.224	8.8
682.632	10.11
683.04	10.26
683.448	10.74
683.856	11.38
684.264	12.39
684.671	10.96
685.079	10.08
685.487	9.81
685.894	8.92
686.302	7.55
686.709	8.4
687.116	7.73
687.524	7.62
687.931	8.81
688.338	10.42
688.745	10.05
689.152	10.88
689.559	11.94
689.966	14.14
690.373	15.44
690.78	16.79
691.187	16.51
691.593	16.56
692	15.98
692.407	15.85
692.813	16.98
693.22	17.7
693.626	16.62
694.032	16.24
694.439	15.36
694.845	15.12
695.251	14.01
695.657	13.98
696.063	12.67
696.469	13.59
696.875	12.6
697.281	10.65
697.687	9.55
698.093	9.51
698.498	9.15
698.904	8.39
699.31	8.02
699.715	10.59
700.12	9.76
700.526	10.27
700.931	9.34
701.337	10.77
701.742	11.46
702.147	11.42
702.552	12.52
702.957	11.54
703.362	12.21
703.767	12.14
704.172	9.59
704.577	9.23
704.981	9.28
705.386	10.16
705.791	9.64
706.195	8.31
706.6	8.68
707.004	7.49
707.408	8.02
707.813	9.09
708.217	10.14
708.621	10.43
709.025	10.11
709.43	11.97
709.834	11.77
710.237	11.45
710.641	12.56
711.045	13.54
711.449	14.63
711.853	17.59
712.256	15.67
712.66	14.66
713.064	14.91
713.467	16.95
713.87	15.54
714.274	16.63
714.677	17.57
715.08	17.75
715.484	17.97
715.887	20.58
716.29	17.8
716.693	18.52
717.096	19.26
717.499	20.22
717.901	18.25
718.304	17.44
718.707	16.38
719.109	16.17
719.512	14.87
719.915	15.25
720.317	13.9
720.719	12.95
721.122	13.84
721.524	13.73
721.926	16.84
722.328	18.31
722.731	18.4
723.133	17.04
723.535	15.96
723.937	16.74
724.338	17.77
724.74	17.99
725.142	59.68
725.544	62.28
725.945	72.88
726.347	69.16
726.748	68.98
727.15	70.28
727.551	74.69
727.952	74.25
728.354	73.97
728.755	72.05
729.156	71.34
729.557	31.11
729.958	28.13
730.359	17.9
730.76	18
731.161	18.14
731.562	17.14
731.962	13.76
732.363	13.83
732.763	13.06
733.164	12.03
733.564	11.93
733.965	12.98
734.365	13.31
734.766	13.53
735.166	13.4
735.566	14.74
735.966	15.44
736.366	15.13
736.766	15.25
737.166	14.79
737.566	14.9
737.966	14.8
738.365	15.06
738.765	15.95
739.165	15.82
739.564	15.02
739.964	12.29
740.363	10.63
740.763	10.25
741.162	10.63
741.561	10.25
741.96	10.83
742.36	9.11
742.759	9.06
743.158	7.17
743.557	6.5
743.955	6.5
744.354	6.83
744.753	6.81
745.152	8.35
745.55	7.14
745.949	7.62
746.348	7.91
746.746	7.6
747.144	9.47
747.543	9.32
747.941	9.34
748.339	10.31
748.737	12.16
749.136	13.42
749.534	11.86
749.932	14.87
750.33	15
750.727	13.88
751.125	15.9
751.523	14.66
751.921	17.68
752.318	19.11
752.716	20.59
753.113	19.37
753.511	18.86
753.908	19.74
754.305	21.62
754.703	21.7
755.1	22.59
755.497	22.39
755.894	21.26
756.291	19.25
756.688	19.11
757.085	17.63
757.482	19.7
757.878	22.76
758.275	24.4
758.672	18.19
759.068	17.98
759.465	18.76
759.861	18.29
760.258	21
760.654	23.53
761.05	24.11
761.447	23.23
761.843	19.88
762.239	19.03
762.635	16.46
763.031	15.37
763.427	15.73
763.822	15.82
764.218	14.73
764.614	12.39
765.01	9.2
