Data from N_1_HIR_IL_4N_Splice17_11-27-34-643.txt Node
Date: Sat Mar 14 11:27:34 EDT 2020
User: sa697716
Spectrometer: FLMS03696
Trigger mode: 0
Integration Time (sec): 3.180400E-1
Scans to average: 20
Electric dark correction enabled: true
Nonlinearity correction enabled: true
Boxcar width: 5
XAxis mode: Wavelengths
Number of Pixels in Spectrum: 2048
>>>>>Begin Spectral Data<<<<<
187.83	-143997.34
188.298	1143.59
188.766	662.89
189.233	644.56
189.701	880.29
190.169	1240.91
190.636	505.71
191.104	381.5
191.571	55.5
192.039	24.38
192.506	93.13
192.974	392.1
193.441	-442.98
193.908	-186.15
194.375	29.42
194.842	88.82
195.31	108.84
195.777	149.58
196.244	219.8
196.711	143.3
197.177	156.49
197.644	176.67
198.111	264.94
198.578	329.93
199.045	282.96
199.511	399.18
199.978	395.78
200.445	365.63
200.911	392.25
201.378	385.42
201.844	384.6
202.31	640.76
202.777	650.92
203.243	343.21
203.709	324.34
204.176	368.05
204.642	305.42
205.108	292.65
205.574	245.08
206.04	182.4
206.506	175
206.972	153.4
207.438	155.87
207.903	175.95
208.369	186.61
208.835	190.56
209.301	206.86
209.766	214.59
210.232	206.83
210.697	235.35
211.163	293.82
211.628	409.86
212.094	336.98
212.559	480.59
213.024	296.04
213.49	361.53
213.955	358.42
214.42	318.69
214.885	280.7
215.35	289.11
215.815	327.11
216.28	333.98
216.745	271.16
217.21	316.43
217.675	235.26
218.14	267.25
218.604	241.28
219.069	254.27
219.534	278.47
219.998	292.62
220.463	307.87
220.927	257.78
221.392	238.84
221.856	233.61
222.32	212.95
222.785	263.23
223.249	282.66
223.713	324.97
224.177	311.09
224.642	311.73
225.106	340.71
225.57	376.93
226.034	333.81
226.497	488.89
226.961	462.28
227.425	556.2
227.889	569.66
228.353	541.89
228.816	974.95
229.28	942.14
229.744	786.72
230.207	532.08
230.671	491.83
231.134	695.62
231.597	776.19
232.061	670.92
232.524	574.17
232.987	448.49
233.45	413.81
233.914	378.16
234.377	318.28
234.84	286.92
235.303	301.88
235.766	323.57
236.229	364.37
236.691	234.35
237.154	238.57
237.617	201.42
238.08	158.21
238.542	170.59
239.005	143.91
239.468	160.2
239.93	156.63
240.393	150.11
240.855	130.31
241.317	120.37
241.78	107.53
242.242	136.85
242.704	177.32
243.166	181.11
243.629	182.71
244.091	199.88
244.553	213.85
245.015	237.53
245.477	278.3
245.939	384.93
246.4	405.84
246.862	422.98
247.324	399.03
247.786	385.21
248.247	432.11
248.709	351.24
249.17	273.86
249.632	315.34
250.093	412.36
250.555	381.58
251.016	273.09
251.477	275.97
251.939	291.4
252.4	284.66
252.861	322.33
253.322	318.72
253.783	347.53
254.244	416.09
254.705	298.12
255.166	212.19
255.627	196.92
256.088	283.67
256.549	303.19
257.009	284.07
257.47	321.35
257.931	255.95
258.391	207.48
258.852	245.46
259.312	266.41
259.773	296.78
260.233	287.95
260.694	258.69
261.154	267.58
261.614	231
262.074	203.45
262.534	218.07
262.994	223.13
263.455	265.71
263.915	240.85
264.374	218.78
264.834	247.41
265.294	245
265.754	259.97
266.214	246.03
266.673	229.69
267.133	273.6
267.593	250.52
268.052	304.84
268.512	252.95
268.971	343.44
269.431	368.51
269.89	309.04
270.349	476.47
270.809	544.49
271.268	497.2
271.727	981.25
272.186	634.09
272.645	506.84
273.104	311.16
273.563	498.54
274.022	292.76
274.481	279.4
274.94	238.63
275.399	161.87
275.857	144.15
276.316	174.04
276.775	151.45
277.233	146.96
277.692	165.1
278.15	235.87
278.609	273.33
279.067	256.65
279.525	252.71
279.984	298.85
280.442	390.96
280.9	470.47
281.358	319.35
281.816	297.58
282.274	291.69
282.732	261.89
283.19	238.24
283.648	182.45
284.106	188.18
284.564	179.86
285.021	184.48
285.479	133.11
285.937	97.26
286.394	94.75
286.852	99.2
287.309	115.86
287.767	148.27
288.224	153.12
288.682	156.92
289.139	205.79
289.596	183.24
290.053	172.75
290.511	186.97
290.968	233.29
291.425	321.37
291.882	329.53
292.339	284.04
292.796	245.83
293.252	215.45
293.709	212.44
294.166	171.08
294.623	186.8
295.079	188.19
295.536	223.62
295.992	208.02
296.449	198.19
296.905	200.38
297.362	218.87
297.818	238.05
298.274	255.67
298.731	233.68
299.187	238.53
299.643	257.08
300.099	304.69
300.555	328.5
301.011	310.4
301.467	349.1
301.923	360.65
302.379	340.26
302.835	319.9
303.291	331.78
303.746	376.36
304.202	469.95
304.658	461.56
305.113	314.57
305.569	305.97
306.024	262.54
306.479	174.37
306.935	179.54
307.39	173.99
307.845	176.58
308.301	199.72
308.756	201.38
309.211	207.25
309.666	211.87
310.121	292.42
310.576	278.53
311.031	278.58
311.486	306.01
311.94	282.65
312.395	365.13
312.85	571.84
313.305	1493.04
313.759	11005.49
314.214	828.37
314.668	699.18
315.123	676.63
315.577	281.04
316.032	279.59
316.486	360.37
316.94	306.41
317.394	234.9
317.849	208.82
318.303	195.9
318.757	192.74
319.211	196.72
319.665	178.19
320.119	169.89
320.572	224.09
321.026	218.89
321.48	181.4
321.934	166.73
322.387	160.22
322.841	163.97
323.295	200.73
323.748	183.44
324.202	215.49
324.655	257.64
325.108	401.6
325.562	276.51
326.015	319.66
326.468	281.05
326.921	356.54
327.374	379.05
327.827	422.42
328.28	447.39
328.733	308.98
329.186	258.91
329.639	263.76
330.092	209.17
330.545	221.86
330.997	230.5
331.45	269.18
331.903	324.63
332.355	472.61
332.808	427.09
333.26	357.62
333.713	393.43
334.165	397.74
334.617	468.98
335.069	333.58
335.522	538.1
335.974	617.72
336.426	483.08
336.878	246.29
337.33	148.79
337.782	163.94
338.234	233.83
338.686	268.1
339.137	306.15
339.589	288.62
340.041	274.89
340.493	238.35
340.944	220.74
341.396	251.74
341.847	257.36
342.299	329.56
342.75	402.27
343.201	311.08
343.653	339.49
344.104	379.76
344.555	299.83
345.006	350.46
345.457	356.76
345.908	276.99
346.359	266.32
346.81	207.84
347.261	183.05
347.712	164.36
348.163	155.03
348.613	207.73
349.064	202.63
349.515	187.53
349.965	215.01
350.416	190.37
350.866	185.09
351.317	154.83
351.767	238.21
352.217	286.73
352.668	251.64
353.118	273.55
353.568	150.22
354.018	177.62
354.468	205.73
354.918	168.35
355.368	168.05
355.818	241.42
356.268	708.82
356.718	3561.24
357.168	1081.92
357.617	517.02
358.067	526.66
358.517	553.1
358.966	625.76
359.416	768.38
359.865	760.15
360.315	866.38
360.764	444.46
361.213	279.43
361.663	220.16
362.112	213.06
362.561	316.26
363.01	257.13
363.459	194.55
363.908	169.23
364.357	147.73
364.806	226.44
365.255	127.69
365.703	148.76
366.152	99.58
366.601	88.42
367.05	83.44
367.498	99.75
367.947	92.76
368.395	107.86
368.844	105.34
369.292	77.6
369.74	71.25
370.189	114.56
370.637	141.99
371.085	139.9
371.533	200
371.981	175.89
372.429	171.76
372.877	182.85
373.325	164.82
373.773	163.92
374.221	146.97
374.669	175.5
375.116	152.32
375.564	125.54
376.012	139.04
376.459	104.18
376.907	134.45
377.354	133.9
377.801	146.15
378.249	167.09
378.696	218
379.143	290.04
379.591	345.94
380.038	534.64
380.485	415.41
380.932	420.12
381.379	390.37
381.826	335.88
382.273	207.25
382.72	152.98
383.166	161
383.613	121.87
384.06	119.46
384.506	109.42
384.953	89.09
385.4	77.41
385.846	61.64
386.292	49.35
386.739	38.53
387.185	33.38
387.631	38.21
388.078	51.31
388.524	43.42
388.97	45.4
389.416	47.39
389.862	54.67
390.308	55.48
390.754	62.35
391.2	71.55
391.645	66.56
392.091	107.68
392.537	109.33
392.983	92.58
393.428	118.2
393.874	110.51
394.319	133.8
394.765	142.45
395.21	134.88
395.655	129.53
396.101	119.79
396.546	116.6
396.991	97.81
397.436	89.46
397.881	81.15
398.326	55.66
398.771	63.57
399.216	43.14
399.661	34.63
400.106	44.18
400.551	48.01
400.995	45.93
401.44	44.3
401.885	42.83
402.329	41.67
402.774	42.2
403.218	55.91
403.663	52.92
404.107	58.04
404.551	63.92
404.995	54.41
405.44	47.49
405.884	44.03
406.328	38.37
406.772	32.48
407.216	32.19
407.66	30.17
408.104	17.84
408.547	13.01
408.991	11.22
409.435	4.11
409.879	9.51
410.322	12.42
410.766	16.2
411.209	20.89
411.653	21.6
412.096	23.26
412.54	21.84
412.983	25.04
413.426	29.19
413.869	27.09
414.312	32.13
414.756	28.04
415.199	26.2
415.642	27.34
416.085	24.21
416.527	24.58
416.97	24.09
417.413	26.45
417.856	24.27
418.298	22.94
418.741	21.74
419.184	18.65
419.626	15.64
420.069	15.89
420.511	14.2
420.953	18.57
421.396	16.98
421.838	14.16
422.28	14.17
422.722	16.14
423.164	14.52
423.606	15.49
424.048	15.22
424.49	17.87
424.932	17.13
425.374	14.14
425.816	9.85
426.258	10.77
426.699	11.53
427.141	15.2
427.582	12.68
428.024	12.92
428.465	12.11
428.907	11.14
429.348	9.39
429.789	11.14
430.231	14.37
430.672	16.2
431.113	16.21
431.554	17.32
431.995	14.89
432.436	17.55
432.877	17.39
433.318	18.37
433.759	16.19
434.2	17.3
434.64	16.32
435.081	16.51
435.522	17.86
435.962	18.25
436.403	19.02
436.843	14.76
437.284	12.33
437.724	9.84
438.164	5.89
438.604	7.89
439.045	9.53
439.485	12.64
439.925	10.47
440.365	8.25
440.805	7.72
441.245	8.89
441.685	10.44
442.125	9.59
442.564	10.38
443.004	14.02
443.444	13.42
443.883	12.09
444.323	8.04
444.762	6.32
445.202	4.76
445.641	6.17
446.081	3.08
446.52	3.69
446.959	4.66
447.398	6.27
447.837	5.05
448.276	5.9
448.716	7.57
449.154	6.75
449.593	9.31
450.032	9.74
450.471	7.87
450.91	7.57
451.349	7.47
451.787	7.73
452.226	7.34
452.664	7.41
453.103	6.12
453.541	4.32
453.98	6.97
454.418	5.97
454.856	7.93
455.295	7.42
455.733	7.61
456.171	7.94
456.609	8.59
457.047	8.48
457.485	9.55
457.923	11.73
458.361	11.9
458.798	11.16
459.236	10.81
459.674	9.2
460.111	9.63
460.549	10.25
460.987	8.57
461.424	6.4
461.862	6.7
462.299	6
462.736	6.45
463.173	5.39
463.611	7.28
464.048	8.16
464.485	9.45
464.922	9.33
465.359	8.38
465.796	14.98
466.233	16.75
466.67	18.78
467.106	19.77
467.543	17.65
467.98	18.01
468.416	16.11
468.853	15.58
469.29	14.35
469.726	14.11
470.162	13.85
470.599	8.94
471.035	7.8
471.471	6.34
471.907	4.26
472.344	4.4
472.78	4.61
473.216	3.94
473.652	3.74
474.088	3.55
474.523	3.89
474.959	3.36
475.395	2.35
475.831	3.07
476.266	3.3
476.702	2.81
477.138	2.83
477.573	2.88
478.008	3
478.444	4.04
478.879	5.32
479.314	5.44
479.75	6.37
480.185	6.96
480.62	5.82
481.055	5.16
481.49	6.81
481.925	6.84
482.36	7.93
482.795	7.77
483.229	6.63
483.664	5.71
484.099	5.49
484.534	5.74
484.968	6.05
485.403	6.68
485.837	6.12
486.271	5.57
486.706	4.88
487.14	3.8
487.574	4.33
488.009	4.17
488.443	3.6
488.877	4.12
489.311	3.39
489.745	3.25
490.179	3.23
490.613	4.33
491.046	3.96
491.48	4.41
491.914	4.6
492.348	3.91
492.781	3.89
493.215	4.26
493.648	3.35
494.082	2.95
494.515	3.29
494.948	3.98
495.382	2.82
495.815	3.51
496.248	3.9
496.681	3.33
497.114	2.93
497.547	3.66
497.98	4.31
498.413	5.85
498.846	6.7
499.279	6.43
499.711	6.11
500.144	6.52
500.577	6.72
501.009	6.15
501.442	7.13
501.874	7.99
502.306	7.12
502.739	8.8
503.171	8.74
503.603	8.73
504.036	8.77
504.468	8.47
504.9	8.34
505.332	7.58
505.764	7.96
506.196	7.54
506.627	7.16
507.059	7.1
507.491	4.71
507.923	4.42
508.354	4.76
508.786	3.96
509.217	4.05
509.649	4.1
510.08	3.81
510.512	4.25
510.943	4.45
511.374	4.83
511.805	4.89
512.237	4.41
512.668	3.34
513.099	2.14
513.53	2.61
513.961	2.78
514.391	2.67
514.822	4.33
515.253	4.1
515.684	3.81
516.114	3.52
516.545	4.37
516.975	4.91
517.406	5.14
517.836	5.1
518.267	5.03
518.697	6.08
519.127	6.32
519.558	4.76
519.988	4.85
520.418	4.43
520.848	3.8
521.278	2.92
521.708	20.65
522.138	20.94
522.567	20.85
522.997	20.96
523.427	19.7
523.857	19.7
524.286	20.17
524.716	19.49
525.145	20.1
525.575	20.94
526.004	20.7
526.433	3.66
526.863	3.36
527.292	4.72
527.721	5.09
528.15	4.94
528.579	5.1
529.008	4.99
529.437	4.46
529.866	3.99
530.295	3.19
530.724	3.98
531.152	3.76
531.581	4.59
532.01	3.78
532.438	3.13
532.867	2.94
533.295	2.84
533.723	2.66
534.152	3.38
534.58	3.58
535.008	4.35
535.436	4.97
535.865	4.58
536.293	3.72
536.721	3.64
537.149	3.82
537.576	4.73
538.004	4.88
538.432	4.71
538.86	5.39
539.287	5.32
539.715	5.34
540.143	4.35
540.57	5.05
540.998	5.35
541.425	6.34
541.852	6.59
542.28	6.1
542.707	5.77
543.134	6.02
543.561	5.78
543.988	6.1
544.415	5.28
544.842	5.69
545.269	5.45
545.696	5.64
546.123	5.68
546.549	5.69
546.976	6.02
547.403	5.73
547.829	5.5
548.256	5.04
548.682	4.66
549.108	6.22
549.535	5.48
549.961	5.03
550.387	4.92
550.813	5.71
551.24	5.84
551.666	4.94
552.092	5.1
552.518	5.18
552.943	5.5
553.369	5.29
553.795	4.48
554.221	5.53
554.646	5.54
555.072	5.88
555.498	3.84
555.923	2.99
556.349	3.93
556.774	3.77
557.199	3.22
557.625	2.51
558.05	3.35
558.475	3.08
558.9	2.82
559.325	3.11
559.75	3.33
560.175	3.64
560.6	3.55
561.025	2.58
561.449	2.52
561.874	2.44
562.299	3.67
562.723	2.54
563.148	2.58
563.572	2.02
563.997	1.93
564.421	0.86
564.846	0.58
565.27	1.25
565.694	1.39
566.118	1.53
566.542	3.18
566.966	2.85
567.39	3.13
567.814	3.37
568.238	3.69
568.662	3.07
569.086	3.53
569.509	3.37
569.933	4.29
570.357	4.86
570.78	5.21
571.204	5.64
571.627	5.02
572.05	5.57
572.474	6.27
572.897	6.25
573.32	7.4
573.743	6.97
574.166	7.97
574.589	6.96
575.012	6.66
575.435	6.1
575.858	5.06
576.281	5.72
576.704	5.11
577.126	3.77
577.549	3.6
577.972	2.85
578.394	3.55
578.817	4.52
579.239	4.37
579.661	4.55
580.084	5.81
580.506	6.33
580.928	5.46
581.35	5.8
581.772	6.28
582.194	7.01
582.616	6.49
583.038	5.89
583.46	4.65
583.882	5.28
584.303	4.1
584.725	3.15
585.147	6.26
585.568	6.84
585.99	6.96
586.411	7.31
586.833	6.64
587.254	7.19
587.675	6.31
588.096	6.27
588.518	5.82
588.939	6.93
589.36	7.35
589.781	2.64
590.202	4.77
590.623	4.38
591.043	3.64
591.464	3.64
591.885	3.8
592.305	4.57
592.726	4.06
593.147	4.14
593.567	4.06
593.987	3.49
594.408	3.14
594.828	0.62
595.248	1.78
595.669	2.99
596.089	2.47
596.509	2.18
596.929	1.81
597.349	2.38
597.769	2.65
598.189	3.22
598.608	3.5
599.028	4.06
599.448	4.31
599.867	3.85
600.287	2.9
600.706	3.97
601.126	4.41
601.545	5.11
601.965	4.64
602.384	4.15
602.803	3.34
603.222	3.64
603.641	3.24
604.061	3.72
604.48	3.24
604.898	3.34
605.317	2.98
605.736	2.84
606.155	2.97
606.574	2.78
606.992	2.8
607.411	3.38
607.829	2.34
608.248	2.96
608.666	2.1
609.085	2.47
609.503	2.96
609.921	3.45
610.339	3.47
610.758	2.76
611.176	2.87
611.594	3.17
612.012	3.15
612.43	4.69
612.847	4.49
613.265	5.34
613.683	4.74
614.101	4.81
614.518	3.73
614.936	3.83
615.353	4.75
615.771	5.09
616.188	5.11
616.606	4.86
617.023	4.36
617.44	4.24
617.857	3.34
618.274	3.56
618.691	3.42
619.108	4.05
619.525	3.68
619.942	3.57
620.359	3.29
620.776	3.48
621.192	4.12
621.609	4.37
622.026	4.54
622.442	5.64
622.859	5.34
623.275	5.05
623.691	4.55
624.108	5.41
624.524	5.4
624.94	5.4
625.356	4.94
625.772	4.52
626.188	3.7
626.604	3.99
627.02	3.37
627.436	4.18
627.852	5.28
628.268	5.42
628.683	4.71
629.099	3.91
629.514	4.14
629.93	4.4
630.345	4.16
630.761	4
631.176	3.42
631.591	5.38
632.007	5.02
632.422	3.57
632.837	3.07
633.252	4.27
633.667	4.59
634.082	4.91
634.497	4.9
634.911	6.31
635.326	6.7
635.741	7.76
636.155	6.29
636.57	7.29
636.984	7.86
637.399	9.37
637.813	8.14
638.228	7.94
638.642	7.83
639.056	7.89
639.47	6.98
639.884	7.13
640.298	6.14
640.712	6.33
641.126	6.36
641.54	5.6
641.954	3.48
642.368	4.13
642.781	6.7
643.195	6.98
643.609	7.19
644.022	7.38
644.436	6.91
644.849	7.01
645.262	6.58
645.676	5.42
646.089	6.56
646.502	8.57
646.915	7.65
647.328	6.52
647.741	6.49
648.154	6.3
648.567	7.71
648.98	8.88
649.393	9.19
649.805	9.58
650.218	9.26
650.631	9.25
651.043	8.6
651.456	9.43
651.868	8.9
652.28	7.93
652.693	7.14
653.105	5.15
653.517	3.87
653.929	3.48
654.341	3.57
654.753	4.61
655.165	3.97
655.577	4.24
655.989	3.78
656.401	2.15
656.813	4.44
657.224	5.14
657.636	5.3
658.047	6.55
658.459	6.69
658.87	5.38
659.282	5.32
659.693	5.11
660.104	5.83
660.515	6.32
660.926	6.49
661.338	5.46
661.749	4.54
662.159	5.34
662.57	4.36
662.981	4.67
663.392	5.3
663.803	4.73
664.213	5.19
664.624	4.56
665.035	3.08
665.445	4.17
665.855	4.85
666.266	6.48
666.676	5.92
667.086	5.67
667.497	6.37
667.907	6.55
668.317	6.99
668.727	9.37
669.137	7.79
669.547	8.38
669.956	7.37
670.366	6.74
670.776	6.6
671.186	6.69
671.595	6.99
672.005	5.41
672.414	5.44
672.824	6.07
673.233	3.11
673.642	4.22
674.052	4.34
674.461	6.47
674.87	6.43
675.279	7.01
675.688	5.95
676.097	7.39
676.506	8.61
676.915	7.94
677.323	7.64
677.732	8.82
678.141	9.03
678.549	8.63
678.958	6.71
679.366	6.58
679.775	4.33
680.183	6.48
680.592	5.54
681	5.29
681.408	6.13
681.816	5.81
682.224	5.1
682.632	6.49
683.04	6.72
683.448	6.93
683.856	8.05
684.264	10.52
684.671	8.62
685.079	8.03
685.487	7.57
685.894	7.42
686.302	6.55
686.709	7.6
687.116	6.85
687.524	7.82
687.931	10.2
688.338	9.14
688.745	7.17
689.152	6.97
689.559	8.24
689.966	10.23
690.373	10.23
690.78	11.36
691.187	10.65
691.593	11.32
692	12.01
692.407	11.3
692.813	13.61
693.22	14.8
693.626	14.9
694.032	15.18
694.439	14.24
694.845	14.1
695.251	13.09
695.657	14.11
696.063	12.33
696.469	11.31
696.875	9.72
697.281	8.03
697.687	7.75
698.093	7.66
698.498	7.55
698.904	6.43
699.31	5.69
699.715	8.65
700.12	6.97
700.526	7.98
700.931	7.45
701.337	8.98
701.742	9.42
702.147	9.09
702.552	9.79
702.957	7.86
703.362	8.24
703.767	8.2
704.172	6.53
704.577	7.22
704.981	5.39
705.386	6.13
705.791	6.07
706.195	4.56
706.6	5.4
707.004	3.58
707.408	3.86
707.813	4.55
708.217	5.77
708.621	5.09
709.025	4.75
709.43	7.31
709.834	6.94
710.237	7.11
710.641	7.62
711.045	8.48
711.449	10.19
711.853	12.98
712.256	12.77
712.66	12.8
713.064	13.4
713.467	14.23
713.87	13.08
714.274	14.37
714.677	14.83
715.08	15.56
715.484	14.6
715.887	17.43
716.29	15.31
716.693	16.05
717.096	17.03
717.499	17.66
717.901	16.56
718.304	16.63
718.707	15.98
719.109	14.96
719.512	14.02
719.915	16.04
720.317	15.32
720.719	13.96
721.122	13.33
721.524	12.73
721.926	16.14
722.328	17.62
722.731	17.59
723.133	16.86
723.535	17.49
723.937	18.39
724.338	19.27
724.74	18.66
725.142	61.06
725.544	64.61
725.945	74.47
726.347	70.11
726.748	70.25
727.15	71.22
727.551	74.4
727.952	72.27
728.354	69.93
728.755	68.58
729.156	67.01
729.557	25.92
729.958	22.78
730.359	12.39
730.76	13.11
731.161	11.58
731.562	10.13
731.962	7.48
732.363	8.82
732.763	10.16
733.164	7.69
733.564	8.17
733.965	10.51
734.365	10.19
734.766	10.55
735.166	9.83
735.566	11.51
735.966	12.04
736.366	11.6
736.766	11.01
737.166	10.78
737.566	11.47
737.966	10.91
738.365	10.14
738.765	11.01
739.165	11.07
739.564	11.12
739.964	9.94
740.363	8.92
740.763	8.55
741.162	10.3
741.561	10.13
741.96	10.82
742.36	10.64
742.759	10.88
743.158	9.87
743.557	9.94
743.955	9.69
744.354	9.29
744.753	9.3
745.152	10.61
745.55	8.58
745.949	8.72
746.348	8.71
746.746	8.23
747.144	9.84
747.543	9.89
747.941	9.36
748.339	10.1
748.737	11.17
749.136	12.73
749.534	10.78
749.932	12.6
750.33	12.4
750.727	11.46
751.125	12.15
751.523	10.81
751.921	12.33
752.318	12.98
752.716	13.76
753.113	13.2
753.511	12.07
753.908	13.32
754.305	16.4
754.703	16.36
755.1	17.48
755.497	17.69
755.894	17.02
756.291	16.27
756.688	17.17
757.085	16.42
757.482	18.41
757.878	23.01
758.275	25.75
758.672	18.69
759.068	19.69
759.465	20.32
759.861	21.03
760.258	20.84
760.654	21.7
761.05	22.53
761.447	20.96
761.843	18.88
762.239	16.02
762.635	13.36
763.031	13.53
763.427	13.56
763.822	13.38
764.218	12.85
764.614	12.39
765.01	9.38
765.405	7.59
765.801	8.72
766.196	7.21
766.592	6.76
766.987	6.81
767.382	7.79
767.778	7.36
