Data from N_1_DEC_ON_6N_Splice17_11-22-42-059.txt Node
Date: Sat Mar 14 11:22:42 EDT 2020
User: sa697716
Spectrometer: FLMS03696
Trigger mode: 0
Integration Time (sec): 3.180400E-1
Scans to average: 20
Electric dark correction enabled: true
Nonlinearity correction enabled: true
Boxcar width: 5
XAxis mode: Wavelengths
Number of Pixels in Spectrum: 2048
>>>>>Begin Spectral Data<<<<<
187.83	-60400.11
188.298	577.99
188.766	368.62
189.233	326.45
189.701	463.12
190.169	697.83
190.636	246.88
191.104	234.93
191.571	51.46
192.039	17.01
192.506	-3.46
192.974	361.71
193.441	-279.98
193.908	-73.87
194.375	-40.75
194.842	32.23
195.31	66.07
195.777	109.76
196.244	182.01
196.711	129.21
197.177	151.51
197.644	152.13
198.111	252.42
198.578	303.92
199.045	239.67
199.511	405.24
199.978	404.18
200.445	360.94
200.911	377.12
201.378	396.85
201.844	406.93
202.31	654.26
202.777	680.64
203.243	392.4
203.709	385.96
204.176	466.89
204.642	379.22
205.108	367.86
205.574	309.89
206.04	268.13
206.506	244.9
206.972	203.26
207.438	182.34
207.903	208.85
208.369	197.53
208.835	198.28
209.301	202.92
209.766	202.26
210.232	192.73
210.697	208.69
211.163	237.89
211.628	350.09
212.094	337.57
212.559	489.7
213.024	322.45
213.49	393.44
213.955	371.53
214.42	341.12
214.885	325.82
215.35	324.95
215.815	358.93
216.28	376.1
216.745	306.2
217.21	334.48
217.675	267.87
218.14	263.48
218.604	240.64
219.069	248.04
219.534	269.5
219.998	263.06
220.463	270.58
220.927	249.85
221.392	228.44
221.856	229.09
222.32	205.76
222.785	253.62
223.249	314.25
223.713	345.87
224.177	332.09
224.642	341.16
225.106	375.53
225.57	419.01
226.034	343.62
226.497	470.22
226.961	412.41
227.425	524.55
227.889	517.28
228.353	477.43
228.816	892.71
229.28	906.72
229.744	758.79
230.207	539.06
230.671	502.1
231.134	683.78
231.597	866.89
232.061	808.11
232.524	731.17
232.987	512.32
233.45	478.72
233.914	425.09
234.377	376.93
234.84	371.16
235.303	400.8
235.766	418.25
236.229	434.68
236.691	245.58
237.154	250.94
237.617	220.12
238.08	208.25
238.542	219.22
239.005	170.97
239.468	177.26
239.93	156.91
240.393	142.47
240.855	136.76
241.317	123.98
241.78	121.63
242.242	141
242.704	158.76
243.166	150.01
243.629	157.68
244.091	173.64
244.553	186.54
245.015	208.81
245.477	235.82
245.939	317.29
246.4	385.54
246.862	385.86
247.324	362.54
247.786	343.83
248.247	431.47
248.709	388.6
249.17	304.46
249.632	348.06
250.093	438.51
250.555	408.97
251.016	268.7
251.477	251.08
251.939	284.88
252.4	290.03
252.861	333.13
253.322	324.63
253.783	336.03
254.244	454.52
254.705	334.97
255.166	256.54
255.627	251.9
256.088	351.33
256.549	380.61
257.009	331.61
257.47	382.57
257.931	314.71
258.391	242.42
258.852	274.01
259.312	272.33
259.773	301.42
260.233	311.18
260.694	283.12
261.154	318.45
261.614	278.87
262.074	234.92
262.534	252.15
262.994	252.46
263.455	300.04
263.915	256.86
264.374	218.88
264.834	240.31
265.294	231.14
265.754	241.01
266.214	219.51
266.673	199.49
267.133	253.36
267.593	233.07
268.052	266.63
268.512	210.18
268.971	296.74
269.431	352.56
269.89	318.36
270.349	462.26
270.809	518.09
271.268	473.28
271.727	947.61
272.186	586.01
272.645	424.52
273.104	254.8
273.563	392.94
274.022	260.09
274.481	221.17
274.94	188.02
275.399	146.45
275.857	136.89
276.316	149.82
276.775	140.31
277.233	144.22
277.692	166.46
278.15	235.4
278.609	293.59
279.067	257.92
279.525	280.31
279.984	317.28
280.442	341.23
280.9	423.48
281.358	302.86
281.816	279.53
282.274	267.74
282.732	243.17
283.19	236.95
283.648	176.22
284.106	192.71
284.564	168.48
285.021	186.46
285.479	142.36
285.937	89.24
286.394	87.47
286.852	88.11
287.309	89.89
287.767	131.23
288.224	138.23
288.682	160.66
289.139	190
289.596	177.68
290.053	168.6
290.511	209.27
290.968	289.34
291.425	385.83
291.882	384.33
292.339	357.45
292.796	300.71
293.252	276.9
293.709	240.38
294.166	216.85
294.623	237.08
295.079	215.03
295.536	227.98
295.992	202.2
296.449	204.34
296.905	205.26
297.362	220.03
297.818	224.66
298.274	228.03
298.731	212.99
299.187	205.03
299.643	225.43
300.099	281.38
300.555	297.5
301.011	254.97
301.467	282.11
301.923	293.69
302.379	271.24
302.835	283.57
303.291	286.99
303.746	315.49
304.202	385.23
304.658	350.5
305.113	243.14
305.569	265.74
306.024	272.39
306.479	214.94
306.935	190.81
307.39	184.63
307.845	170.93
308.301	200.89
308.756	198.23
309.211	201.07
309.666	200.78
310.121	296.1
310.576	261.17
311.031	236.28
311.486	251.03
311.94	228.02
312.395	309.23
312.85	510.36
313.305	1530.84
313.759	11078.18
314.214	842.05
314.668	734.15
315.123	514.08
315.577	243.47
316.032	239.24
316.486	290.97
316.94	275.82
317.394	213.72
317.849	184.73
318.303	177.96
318.757	170.36
319.211	181.96
319.665	162.64
320.119	172.38
320.572	232.51
321.026	228.96
321.48	195.46
321.934	190.14
322.387	173.66
322.841	192.19
323.295	214.71
323.748	206.88
324.202	208.88
324.655	273.63
325.108	426.22
325.562	317.43
326.015	378.31
326.468	289.4
326.921	348.81
327.374	360.2
327.827	401.98
328.28	408.25
328.733	308.26
329.186	270.64
329.639	254.98
330.092	197.64
330.545	194.36
330.997	200.75
331.45	253.71
331.903	298.39
332.355	442.04
332.808	385.98
333.26	343.23
333.713	361.56
334.165	380.01
334.617	468.64
335.069	338.25
335.522	533.05
335.974	582.71
336.426	427.82
336.878	232.93
337.33	160.17
337.782	155.68
338.234	190.18
338.686	204.35
339.137	228.96
339.589	198.02
340.041	192.09
340.493	167.72
340.944	154.76
341.396	185.9
341.847	205.29
342.299	283.51
342.75	368.41
343.201	307.69
343.653	349.71
344.104	418.92
344.555	347.77
345.006	469.73
345.457	429.72
345.908	355.08
346.359	359.53
346.81	280.59
347.261	251.38
347.712	230.47
348.163	234.42
348.613	292.53
349.064	263.71
349.515	234.56
349.965	250.92
350.416	265.06
350.866	276.25
351.317	290.81
351.767	477.24
352.217	557.59
352.668	535.33
353.118	493.1
353.568	354.79
354.018	308.99
354.468	342.89
354.918	263.15
355.368	244.66
355.818	349
356.268	829.01
356.718	3534.84
357.168	1034.38
357.617	454.75
358.067	507.92
358.517	531.73
358.966	656.97
359.416	867.81
359.865	930.96
360.315	958.07
360.764	489.31
361.213	279.51
361.663	234.55
362.112	259.6
362.561	392
363.01	313.01
363.459	233.27
363.908	224.31
364.357	184.31
364.806	251.78
365.255	191.37
365.703	175.76
366.152	200.07
366.601	179.26
367.05	189.18
367.498	182.72
367.947	169.32
368.395	176.96
368.844	166.06
369.292	160.09
369.74	148.91
370.189	208.67
370.637	217.73
371.085	189.09
371.533	206.21
371.981	131.12
372.429	173.91
372.877	207.28
373.325	187.1
373.773	171.87
374.221	147.27
374.669	154.57
375.116	132.03
375.564	131.93
376.012	148.03
376.459	144.06
376.907	176.68
377.354	165.65
377.801	155.82
378.249	202.08
378.696	262.55
379.143	327.78
379.591	320.21
380.038	569.67
380.485	456.78
380.932	389.95
381.379	441.1
381.826	409.24
382.273	290.57
382.72	257.59
383.166	243.62
383.613	166.83
384.06	151.6
384.506	175.1
384.953	129.82
385.4	130.74
385.846	133.95
386.292	108.31
386.739	84.8
387.185	86.5
387.631	84.32
388.078	93.13
388.524	103.18
388.97	96.69
389.416	84.84
389.862	92.41
390.308	87.72
390.754	90.82
391.2	99.95
391.645	100.9
392.091	118.71
392.537	128.88
392.983	104.25
393.428	119.02
393.874	124.95
394.319	138.14
394.765	147.57
395.21	140.38
395.655	126.42
396.101	119.88
396.546	106.32
396.991	82.49
397.436	69.54
397.881	72.95
398.326	56.34
398.771	60.77
399.216	47.42
399.661	35.6
400.106	43.79
400.551	51.55
400.995	45.14
401.44	47.91
401.885	48.54
402.329	44.97
402.774	49.42
403.218	58.61
403.663	52.67
404.107	55.19
404.551	60.35
404.995	50.8
405.44	43.02
405.884	45.67
406.328	39.51
406.772	38.7
407.216	38.72
407.66	31.64
408.104	20.4
408.547	19.7
408.991	18.43
409.435	15.74
409.879	19.37
410.322	20.68
410.766	20.7
411.209	25.08
411.653	24.38
412.096	26.36
412.54	25.46
412.983	29.28
413.426	30.99
413.869	29.33
414.312	29.56
414.756	26.66
415.199	26.99
415.642	29.37
416.085	28.66
416.527	28.63
416.97	25.78
417.413	28.05
417.856	25.33
418.298	24.63
418.741	23.6
419.184	22.77
419.626	18.91
420.069	16.83
420.511	15.69
420.953	16.08
421.396	16.54
421.838	16.3
422.28	15.74
422.722	18.39
423.164	17.29
423.606	19.09
424.048	17.47
424.49	21.31
424.932	20.43
425.374	19.31
425.816	17.56
426.258	17.02
426.699	19.87
427.141	22.78
427.582	19.77
428.024	18.96
428.465	16.08
428.907	16.6
429.348	14.12
429.789	16.44
430.231	17.27
430.672	16.95
431.113	16.84
431.554	14.45
431.995	10.57
432.436	13.88
432.877	15.6
433.318	18.87
433.759	18.68
434.2	19.91
434.64	19.5
435.081	19.2
435.522	21.47
435.962	20.66
436.403	22.96
436.843	22.1
437.284	19
437.724	15.94
438.164	11.21
438.604	10.76
439.045	12.75
439.485	14.05
439.925	12.92
440.365	10.91
440.805	10.33
441.245	8.58
441.685	9.33
442.125	9.34
442.564	9.5
443.004	12.18
443.444	13.03
443.883	12.11
444.323	8.12
444.762	5.01
445.202	3.92
445.641	4.89
446.081	3.4
446.52	4.08
446.959	4.95
447.398	6.4
447.837	5.23
448.276	3.17
448.716	3.99
449.154	4.2
449.593	7.28
450.032	8.99
450.471	6.63
450.91	5.87
451.349	6.93
451.787	6.24
452.226	5.9
452.664	7.48
453.103	7.74
453.541	6.31
453.98	8.7
454.418	8.25
454.856	9.31
455.295	11.13
455.733	13.13
456.171	11.96
456.609	12.78
457.047	12.5
457.485	13.76
457.923	15.23
458.361	14.17
458.798	13.95
459.236	13.57
459.674	10.96
460.111	10.63
460.549	10.96
460.987	10.01
461.424	8.37
461.862	8.68
462.299	7.25
462.736	7.97
463.173	8.2
463.611	9.39
464.048	9.83
464.485	11.14
464.922	10.84
465.359	8.17
465.796	15.23
466.233	17.43
466.67	19.62
467.106	20.79
467.543	18.77
467.98	18.99
468.416	17.15
468.853	16.31
469.29	15.86
469.726	16
470.162	17.23
470.599	12.58
471.035	10.65
471.471	9.48
471.907	7.03
472.344	6.56
472.78	6.04
473.216	5.31
473.652	6.03
474.088	5.83
474.523	5.55
474.959	4.48
475.395	4.09
475.831	4.54
476.266	3.33
476.702	3.47
477.138	4.59
477.573	4.76
478.008	5.18
478.444	6.03
478.879	6.66
479.314	6.74
479.75	7.39
480.185	6.52
480.62	6.63
481.055	6.75
481.49	7.98
481.925	8.31
482.36	10.13
482.795	9.31
483.229	7.87
483.664	7.35
484.099	7.64
484.534	7.78
484.968	8.87
485.403	8.02
485.837	7.03
486.271	6.07
486.706	5.11
487.14	3.83
487.574	4.26
488.009	3.87
488.443	3.97
488.877	4.49
489.311	3.9
489.745	3.69
490.179	3.99
490.613	6.2
491.046	5.85
491.48	5.71
491.914	5.54
492.348	5.58
492.781	5.86
493.215	6.06
493.648	5.18
494.082	4.79
494.515	4.72
494.948	5.62
495.382	4.1
495.815	4.52
496.248	5.09
496.681	5.39
497.114	4.79
497.547	5.73
497.98	6.3
498.413	7.45
498.846	8.31
499.279	8.1
499.711	6.98
500.144	7.01
500.577	7.2
501.009	6.82
501.442	7.54
501.874	8.46
502.306	7.51
502.739	8.9
503.171	8.34
503.603	8.08
504.036	7.93
504.468	8.49
504.9	8.37
505.332	8.23
505.764	8.87
506.196	8.08
506.627	8.16
507.059	8.44
507.491	6.13
507.923	6.15
508.354	6.64
508.786	6.57
509.217	6.36
509.649	6.3
510.08	6.09
510.512	6.36
510.943	6.11
511.374	5.83
511.805	5.55
512.237	5.36
512.668	4.74
513.099	3.84
513.53	4.01
513.961	4.47
514.391	4.86
514.822	6.13
515.253	6.23
515.684	6.61
516.114	6.67
516.545	7.15
516.975	7.05
517.406	6.58
517.836	6.51
518.267	6.6
518.697	6.7
519.127	6.85
519.558	6.12
519.988	5.35
520.418	4.42
520.848	3.47
521.278	3.1
521.708	31.84
522.138	33.02
522.567	32.83
522.997	32.61
523.427	31.87
523.857	31.8
524.286	31.44
524.716	31.87
525.145	32.87
525.575	33.93
526.004	33.62
526.433	5.31
526.863	4.01
527.292	4.98
527.721	5.62
528.15	5.89
528.579	5.61
529.008	5.61
529.437	4.46
529.866	3.51
530.295	3.07
530.724	3.93
531.152	4.23
531.581	5.32
532.01	5.4
532.438	4.61
532.867	4.41
533.295	4.75
533.723	4.88
534.152	5.49
534.58	6.44
535.008	6.34
535.436	6.43
535.865	6.13
536.293	4.84
536.721	4.19
537.149	4.59
537.576	5.14
538.004	5.71
538.432	5.31
538.86	5.68
539.287	5.27
539.715	5.57
540.143	4.86
540.57	5.19
540.998	5.67
541.425	7.25
541.852	6.63
542.28	6.39
542.707	5.81
543.134	6.4
543.561	6.25
543.988	6.35
544.415	5.56
544.842	5.65
545.269	5.38
545.696	6.22
546.123	5.74
546.549	6.43
546.976	6.46
547.403	6.29
547.829	5.47
548.256	4.83
548.682	4.91
549.108	6.32
549.535	6.28
549.961	6.25
550.387	6
550.813	6.04
551.24	5.88
551.666	5.43
552.092	5.13
552.518	5.32
552.943	6.69
553.369	6.17
553.795	5.32
554.221	5.78
554.646	5.71
555.072	6.13
555.498	5.24
555.923	4.56
556.349	4.84
556.774	5.04
557.199	4.69
557.625	3.32
558.05	3.97
558.475	4.2
558.9	4.13
559.325	5.13
559.75	5.03
560.175	5.32
560.6	5.44
561.025	4.37
561.449	4.41
561.874	4.45
562.299	4.93
562.723	4.29
563.148	4.22
563.572	3.64
563.997	2.96
564.421	1.61
564.846	1.17
565.27	1.09
565.694	2.12
566.118	1.85
566.542	3.19
566.966	3.32
567.39	3.53
567.814	3.3
568.238	3.63
568.662	2.9
569.086	3.81
569.509	3.35
569.933	4.82
570.357	4.7
570.78	4.82
571.204	4.34
571.627	4.15
572.05	4.89
572.474	6.2
572.897	6.15
573.32	6.86
573.743	6.28
574.166	7.07
574.589	5.75
575.012	5.7
575.435	5.38
575.858	5.59
576.281	5.82
576.704	4.82
577.126	3.57
577.549	2.97
577.972	2.53
578.394	3.07
578.817	4.65
579.239	5.09
579.661	5.12
580.084	6.42
580.506	6.01
580.928	5.81
581.35	5.84
581.772	5.86
582.194	6.44
582.616	6.62
583.038	6.12
583.46	4.61
583.882	4.71
584.303	3.95
584.725	3
585.147	6.64
585.568	6.88
585.99	7.75
586.411	8.39
586.833	8.99
587.254	8.79
587.675	8.71
588.096	9.01
588.518	8.68
588.939	9.61
589.36	10.5
589.781	6.75
590.202	8.72
590.623	8.33
591.043	7.43
591.464	7.26
591.885	8
592.305	7.82
592.726	7.31
593.147	7.5
593.567	7.55
593.987	7.03
594.408	6.36
594.828	3.63
595.248	4.19
595.669	5.14
596.089	5
596.509	4.21
596.929	4.02
597.349	4.07
597.769	4.15
598.189	4.3
598.608	4.47
599.028	4.92
599.448	4.62
599.867	4.19
600.287	3.93
600.706	4
601.126	4.76
601.545	5.54
601.965	5.29
602.384	5.16
602.803	4.91
603.222	5.09
603.641	4.83
604.061	5.88
604.48	5.43
604.898	4.99
605.317	4.62
605.736	4.24
606.155	4.79
606.574	5.2
606.992	5.06
607.411	5.09
607.829	4.26
608.248	4.11
608.666	3.57
609.085	4.24
609.503	4.45
609.921	5.39
610.339	5.12
610.758	4.38
611.176	4.09
611.594	5.02
612.012	5.52
612.43	6
612.847	6.03
613.265	6.93
613.683	6.95
614.101	7.49
614.518	6.51
614.936	6.83
615.353	7.36
615.771	7.89
616.188	7.35
616.606	6.51
617.023	6.83
617.44	6.84
617.857	5.7
618.274	4.97
618.691	5.05
619.108	5.04
619.525	4.45
619.942	4.21
620.359	4.04
620.776	3.76
621.192	4.66
621.609	5.08
622.026	5.5
622.442	6.14
622.859	6.4
623.275	5.49
623.691	5.7
624.108	6.95
624.524	6.96
624.94	6.9
625.356	6.55
625.772	5.65
626.188	4.46
626.604	4.66
627.02	4.6
627.436	4.99
627.852	6.19
628.268	6.55
628.683	5.68
629.099	5.31
629.514	4.98
629.93	5.51
630.345	5.87
630.761	6.04
631.176	5.96
631.591	7.42
632.007	7.58
632.422	6.36
632.837	5.85
633.252	6.57
633.667	6.84
634.082	6.95
634.497	7.28
634.911	8.63
635.326	8.86
635.741	8.19
636.155	6.88
636.57	7.1
636.984	7.17
637.399	7.91
637.813	7.29
638.228	7.58
638.642	7.6
639.056	7
639.47	6.03
639.884	6.73
640.298	7.56
640.712	8.71
641.126	8.77
641.54	8.89
641.954	7.19
642.368	7.45
642.781	8.77
643.195	8.56
643.609	9.23
644.022	9.74
644.436	8.28
644.849	7.99
645.262	6.78
645.676	5.71
646.089	6.11
646.502	7.88
646.915	7.66
647.328	6.84
647.741	7.65
648.154	7.38
648.567	8.06
648.98	9.88
649.393	10.05
649.805	10.54
650.218	10.7
650.631	11.11
651.043	10.86
651.456	10.96
651.868	10.3
652.28	9.24
652.693	8.54
653.105	7.96
653.517	6.85
653.929	6.96
654.341	7.89
654.753	8.71
655.165	8.37
655.577	8.53
655.989	8.26
656.401	7.39
656.813	8.63
657.224	9.37
657.636	9
658.047	9.91
658.459	9.81
658.87	8.47
659.282	8.71
659.693	9.17
660.104	9.1
660.515	8.86
660.926	8.77
661.338	9.25
661.749	8.49
662.159	8.81
662.57	7.69
662.981	7.65
663.392	7.58
663.803	6.65
664.213	5.79
664.624	5.57
665.035	5.57
665.445	5.65
665.855	4.76
666.266	6.11
666.676	5.93
667.086	5.84
667.497	5.99
667.907	6.41
668.317	7.18
668.727	10.05
669.137	8.83
669.547	9.19
669.956	8.86
670.366	9.44
670.776	9.02
671.186	8.44
671.595	9.04
672.005	8.22
672.414	8.01
672.824	7.67
673.233	4.8
673.642	6.09
674.052	6.05
674.461	7.61
674.87	7.31
675.279	8.46
675.688	7.24
676.097	7.84
676.506	8.06
676.915	7.5
677.323	7.98
677.732	8.23
678.141	7.4
678.549	7.78
678.958	6.3
679.366	5.25
679.775	4.07
680.183	6.5
680.592	6.08
681	6.62
681.408	7.01
681.816	6.54
682.224	5.88
682.632	7.46
683.04	6.83
683.448	7.62
683.856	9.07
684.264	9.88
684.671	7.79
685.079	6.96
685.487	6.95
685.894	6.72
686.302	5.46
686.709	6.28
687.116	5.18
687.524	5.56
687.931	6.34
688.338	6.61
688.745	5.48
689.152	6.31
689.559	7.7
689.966	9.63
690.373	10.22
690.78	12.21
691.187	12.81
691.593	14.47
692	14.31
692.407	14.84
692.813	16.1
693.22	16.38
693.626	14.84
694.032	14.12
694.439	13.82
694.845	13.51
695.251	12.39
695.657	12.07
696.063	9.77
696.469	10.38
696.875	9.2
697.281	8.73
697.687	8.3
698.093	9.46
698.498	11.04
698.904	8.89
699.31	8.5
699.715	10.71
700.12	10.32
700.526	11.36
700.931	10.51
701.337	12.08
701.742	11.81
702.147	12.23
702.552	13.3
702.957	11.31
703.362	12.04
703.767	12.02
704.172	10.24
704.577	10.27
704.981	9.44
705.386	10.07
705.791	8.45
706.195	7.03
706.6	7.65
707.004	5.53
707.408	4.87
707.813	5.76
708.217	7.02
708.621	7.21
709.025	7.22
709.43	8.96
709.834	8.98
710.237	9.58
710.641	10.08
711.045	9.84
711.449	11.4
711.853	14.75
712.256	13.68
712.66	12.93
713.064	13.13
713.467	14.15
713.87	13.31
714.274	14.5
714.677	14.63
715.08	14.79
715.484	14.5
715.887	17.19
716.29	15.5
716.693	17.22
717.096	18.91
717.499	19.26
717.901	17.49
718.304	17
718.707	15.26
719.109	14.88
719.512	14.9
719.915	16.81
720.317	14.89
720.719	13.61
721.122	12.81
721.524	12.04
721.926	15.85
722.328	17.13
722.731	17.45
723.133	17.87
723.535	17.24
723.937	17.36
724.338	17.84
724.74	18.35
725.142	56.54
725.544	59.29
725.945	69.61
726.347	65.09
726.748	65.04
727.15	65.62
727.551	68.64
727.952	68.79
728.354	67.48
728.755	66.81
729.156	65.45
729.557	28.18
729.958	25.05
730.359	15.12
730.76	15.72
731.161	15.91
731.562	14.88
731.962	11.98
732.363	11.84
732.763	12.87
733.164	10.73
733.564	10.95
733.965	11.72
734.365	12.54
734.766	12.46
735.166	12.18
735.566	13.05
735.966	14.32
736.366	15.5
736.766	16.08
737.166	15.05
737.566	15.86
737.966	16.04
738.365	16.6
738.765	16.77
739.165	16.78
739.564	16.23
739.964	14.1
740.363	12.66
740.763	10.6
741.162	11.75
741.561	11.76
741.96	11.49
742.36	9.84
742.759	9.73
743.158	8.55
743.557	7.51
743.955	7.6
744.354	8.01
744.753	7.52
745.152	8.56
745.55	6.15
745.949	6.35
746.348	6.51
746.746	6.56
747.144	7.94
747.543	7.72
747.941	7.78
748.339	7.43
748.737	8.18
749.136	9.03
749.534	7.1
749.932	9.2
750.33	9.07
750.727	8.43
751.125	9.45
751.523	7.68
751.921	10.31
752.318	10.83
752.716	12.36
753.113	12.17
753.511	11.53
753.908	14.19
754.305	16.81
754.703	17.59
755.1	18.35
755.497	18.14
755.894	18.27
756.291	16.18
756.688	17.01
757.085	15.36
757.482	17.28
757.878	20.65
758.275	21.03
758.672	15.55
759.068	14.58
759.465	16.5
759.861	16.69
760.258	16.95
760.654	18.7
761.05	19.94
761.447	20.92
761.843	18.89
762.239	18.11
762.635	14.59
763.031	14.15
763.427	13.88
763.822	13.96
764.218	15.55
764.614	16.19
765.01	13.42
765.405	11.82
765.801	13.48
766.196	12.5
