Data from N_1_DEC_VA_2N_Splice17_11-18-49-285.txt Node
Date: Sat Mar 14 11:18:49 EDT 2020
User: sa697716
Spectrometer: FLMS03696
Trigger mode: 0
Integration Time (sec): 3.180400E-1
Scans to average: 20
Electric dark correction enabled: true
Nonlinearity correction enabled: true
Boxcar width: 5
XAxis mode: Wavelengths
Number of Pixels in Spectrum: 2048
>>>>>Begin Spectral Data<<<<<
187.83	-185331.98
188.298	1325.75
188.766	676.81
189.233	638.28
189.701	854.34
190.169	1155.43
190.636	436.92
191.104	435.32
191.571	72.91
192.039	26.33
192.506	60.62
192.974	334.81
193.441	-483.61
193.908	-220.56
194.375	-45.27
194.842	24.58
195.31	9.81
195.777	99.74
196.244	224.34
196.711	151.5
197.177	150.71
197.644	174.25
198.111	276.23
198.578	338
199.045	270.92
199.511	393.46
199.978	383.4
200.445	376.17
200.911	382.53
201.378	374.69
201.844	390.29
202.31	661.65
202.777	632.3
203.243	354.62
203.709	335.26
204.176	388.01
204.642	355.11
205.108	345.28
205.574	266.01
206.04	221.73
206.506	213.72
206.972	172.53
207.438	155.68
207.903	191.19
208.369	185.9
208.835	198.94
209.301	202.25
209.766	184.09
210.232	171.89
210.697	184.96
211.163	231.51
211.628	323.91
212.094	306.64
212.559	448.81
213.024	288.5
213.49	328.71
213.955	311
214.42	270.92
214.885	264.12
215.35	263.56
215.815	327.42
216.28	345.56
216.745	284.55
217.21	316.6
217.675	247.89
218.14	257.78
218.604	261.73
219.069	274.84
219.534	293.92
219.998	298.29
220.463	322.61
220.927	273.46
221.392	235.51
221.856	221.25
222.32	196.85
222.785	235.84
223.249	238.11
223.713	247.05
224.177	226.04
224.642	217.84
225.106	236.67
225.57	227.35
226.034	241.63
226.497	333.79
226.961	336.33
227.425	417.19
227.889	438.6
228.353	461.19
228.816	849.43
229.28	815.48
229.744	728.47
230.207	492.5
230.671	484.62
231.134	661.67
231.597	811.88
232.061	694.44
232.524	581.32
232.987	376.44
233.45	345.9
233.914	322.55
234.377	284.75
234.84	235.61
235.303	242.37
235.766	274.15
236.229	293.45
236.691	170.79
237.154	193.11
237.617	172.27
238.08	167.78
238.542	194.44
239.005	154.52
239.468	173.23
239.93	161.43
240.393	159.57
240.855	138.91
241.317	126.73
241.78	145.56
242.242	159.62
242.704	199.52
243.166	193.45
243.629	194.52
244.091	213.05
244.553	231.3
245.015	275.77
245.477	313.99
245.939	437.7
246.4	481.57
246.862	433.98
247.324	401.39
247.786	382.93
248.247	429.63
248.709	314.52
249.17	248.05
249.632	271.25
250.093	335.75
250.555	321.12
251.016	235.25
251.477	227.8
251.939	260.71
252.4	277.78
252.861	304.62
253.322	312.01
253.783	356.9
254.244	415.16
254.705	299.96
255.166	223.97
255.627	210.65
256.088	299.42
256.549	304.57
257.009	238.33
257.47	256.31
257.931	242.17
258.391	178.97
258.852	209.43
259.312	247.28
259.773	277.09
260.233	283.19
260.694	259.81
261.154	260.22
261.614	257.36
262.074	250.74
262.534	271.37
262.994	256.9
263.455	330.96
263.915	277.53
264.374	243.14
264.834	281.13
265.294	267.98
265.754	272.3
266.214	258.71
266.673	214.54
267.133	230.93
267.593	211.92
268.052	262.45
268.512	206.7
268.971	308.39
269.431	346.2
269.89	285.27
270.349	460.57
270.809	517.76
271.268	451.51
271.727	988.93
272.186	659.31
272.645	516.42
273.104	328.74
273.563	453.76
274.022	282.87
274.481	275.87
274.94	233.17
275.399	162.85
275.857	164.15
276.316	217.02
276.775	181.56
277.233	189.51
277.692	166.42
278.15	213.6
278.609	273.66
279.067	255.24
279.525	257.46
279.984	301.66
280.442	362.94
280.9	431.34
281.358	279.62
281.816	265.39
282.274	243.86
282.732	241.34
283.19	219.75
283.648	173.75
284.106	161.85
284.564	149.24
285.021	145.69
285.479	108.08
285.937	69.54
286.394	89.87
286.852	88.95
287.309	105.39
287.767	132.27
288.224	148.41
288.682	159.69
289.139	209.88
289.596	195
290.053	205.23
290.511	238.12
290.968	310.89
291.425	365.36
291.882	342.86
292.339	310.31
292.796	276.45
293.252	247.01
293.709	224.63
294.166	198.79
294.623	202.72
295.079	180.47
295.536	207.09
295.992	187.12
296.449	181.25
296.905	186.79
297.362	193.74
297.818	198.8
298.274	207.81
298.731	190.37
299.187	183.03
299.643	216.29
300.099	273.52
300.555	284.41
301.011	242.48
301.467	300.85
301.923	299.8
302.379	301.11
302.835	290.46
303.291	290.37
303.746	315.94
304.202	351.23
304.658	281.85
305.113	200.14
305.569	190.03
306.024	187.7
306.479	122.7
306.935	142.09
307.39	116.55
307.845	131.82
308.301	148.19
308.756	150.64
309.211	168.01
309.666	185.28
310.121	228.07
310.576	242.87
311.031	214.87
311.486	229.19
311.94	209.84
312.395	250.7
312.85	355.17
313.305	969.06
313.759	9662.31
314.214	781.69
314.668	650.49
315.123	673.27
315.577	249.68
316.032	250.27
316.486	271.11
316.94	246.11
317.394	195.57
317.849	178.89
318.303	175.59
318.757	164.04
319.211	176.24
319.665	166.29
320.119	164.74
320.572	209.68
321.026	220.81
321.48	203.26
321.934	186.32
322.387	188.73
322.841	196.77
323.295	213.98
323.748	199.5
324.202	197.39
324.655	215.9
325.108	321.04
325.562	264.06
326.015	262.98
326.468	197.96
326.921	249.09
327.374	243.74
327.827	280.79
328.28	309.35
328.733	234.7
329.186	204.69
329.639	201.64
330.092	172.05
330.545	173.01
330.997	185.09
331.45	214.19
331.903	262.37
332.355	395.64
332.808	347.07
333.26	282.69
333.713	303.08
334.165	307.59
334.617	397.19
335.069	241.35
335.522	339.6
335.974	349.42
336.426	304.44
336.878	156.86
337.33	124.82
337.782	114.35
338.234	150.25
338.686	134.11
339.137	154.75
339.589	131.24
340.041	147.64
340.493	153.22
340.944	182.63
341.396	193.49
341.847	186.26
342.299	222.92
342.75	316.02
343.201	247.1
343.653	310.92
344.104	360.12
344.555	295.92
345.006	368.27
345.457	317.15
345.908	246.4
346.359	241.09
346.81	187.35
347.261	160.28
347.712	112.98
348.163	126.09
348.613	178.4
349.064	188.62
349.515	173
349.965	203.41
350.416	223.37
350.866	220.51
351.317	223.12
351.767	361.71
352.217	515.49
352.668	523.27
353.118	454.78
353.568	329.27
354.018	263.56
354.468	297.73
354.918	233.94
355.368	201.01
355.818	309.36
356.268	842.61
356.718	3659.98
357.168	941.59
357.617	420.55
358.067	456.69
358.517	460.18
358.966	593.27
359.416	771.57
359.865	786.95
360.315	814.06
360.764	374.17
361.213	235.95
361.663	203.19
362.112	222.12
362.561	354.79
363.01	273.12
363.459	252.34
363.908	222.39
364.357	173
364.806	265.18
365.255	208.92
365.703	219.87
366.152	205.99
366.601	194.09
367.05	188.78
367.498	188.42
367.947	192.68
368.395	169.29
368.844	171.95
369.292	166.84
369.74	130.01
370.189	179.77
370.637	197.67
371.085	159.5
371.533	173.81
371.981	106.77
372.429	140.12
372.877	153.07
373.325	149.48
373.773	125.83
374.221	107.13
374.669	128.9
375.116	122.22
375.564	122.21
376.012	140.41
376.459	129.29
376.907	181.48
377.354	189.54
377.801	189.91
378.249	231.22
378.696	283.19
379.143	365.62
379.591	415.6
380.038	655.18
380.485	487.05
380.932	530.59
381.379	601.94
381.826	506.26
382.273	317.19
382.72	251.15
383.166	237.01
383.613	184.34
384.06	165.3
384.506	182.01
384.953	143.27
385.4	128.78
385.846	119.89
386.292	80.44
386.739	60.63
387.185	50.69
387.631	48.2
388.078	61.64
388.524	54.09
388.97	51.7
389.416	44.76
389.862	51.88
390.308	49.92
390.754	47.08
391.2	56.29
391.645	39.75
392.091	69.96
392.537	83.39
392.983	71.86
393.428	98.25
393.874	101.74
394.319	115.03
394.765	118.87
395.21	121.33
395.655	108.45
396.101	114.87
396.546	118.13
396.991	99.74
397.436	89.07
397.881	79
398.326	58.95
398.771	62.03
399.216	52.08
399.661	42.84
400.106	50.15
400.551	57.01
400.995	45.59
401.44	46.01
401.885	47.58
402.329	47.07
402.774	49.77
403.218	57.48
403.663	54.55
404.107	54.46
404.551	59.04
404.995	51.25
405.44	42.86
405.884	41.83
406.328	35.16
406.772	29.8
407.216	30.6
407.66	27.39
408.104	18.33
408.547	16.43
408.991	12.37
409.435	8.68
409.879	12.25
410.322	15.94
410.766	17.43
411.209	20.95
411.653	21.95
412.096	21.92
412.54	22
412.983	21.18
413.426	24.64
413.869	25.09
414.312	28.06
414.756	23.82
415.199	23.17
415.642	25.63
416.085	27.2
416.527	26.85
416.97	24.65
417.413	23.49
417.856	22.37
418.298	19.34
418.741	18.53
419.184	15.09
419.626	12.35
420.069	11.22
420.511	8.14
420.953	9.19
421.396	9.23
421.838	9.83
422.28	9.38
422.722	12.41
423.164	11.97
423.606	12.67
424.048	11.86
424.49	15.2
424.932	14.37
425.374	14.83
425.816	11.93
426.258	11.79
426.699	11.45
427.141	14.49
427.582	12.56
428.024	11.14
428.465	8.65
428.907	9.22
429.348	6.97
429.789	8.81
430.231	10
430.672	8.79
431.113	8.54
431.554	8.52
431.995	5.84
432.436	7.91
432.877	9.76
433.318	13.19
433.759	12.95
434.2	13.42
434.64	13.59
435.081	12.01
435.522	13.56
435.962	13.31
436.403	14.83
436.843	11.8
437.284	11.4
437.724	10.21
438.164	6.36
438.604	6.84
439.045	7.89
439.485	9.52
439.925	9.34
440.365	7.97
440.805	7.55
441.245	7.57
441.685	9.63
442.125	8.45
442.564	7.27
443.004	9.43
443.444	9.18
443.883	9.91
444.323	6.92
444.762	4.8
445.202	4.5
445.641	7.15
446.081	5.54
446.52	6.94
446.959	7.75
447.398	9.52
447.837	9.55
448.276	8.7
448.716	8.71
449.154	8.16
449.593	10.06
450.032	11.26
450.471	8.67
450.91	7.99
451.349	8.54
451.787	7.29
452.226	6.05
452.664	4.92
453.103	4.97
453.541	3.71
453.98	6.4
454.418	5.17
454.856	5.98
455.295	6.81
455.733	7.65
456.171	7.08
456.609	8.63
457.047	10.04
457.485	12.07
457.923	13.11
458.361	13.11
458.798	11.6
459.236	12.63
459.674	11.02
460.111	11.03
460.549	10.74
460.987	8.92
461.424	8.11
461.862	7.91
462.299	6.76
462.736	7.41
463.173	6.94
463.611	9.64
464.048	10.29
464.485	11.31
464.922	11
465.359	10.46
465.796	17.27
466.233	17.81
466.67	19.55
467.106	20.69
467.543	20.11
467.98	19.76
468.416	17.58
468.853	16.59
469.29	15.89
469.726	15.09
470.162	15.05
470.599	10.03
471.035	9.1
471.471	7.43
471.907	5.12
472.344	4.43
472.78	5.75
473.216	5.05
473.652	4.23
474.088	3.33
474.523	3.36
474.959	2.95
475.395	3.33
475.831	3.5
476.266	3.3
476.702	4.27
477.138	4
477.573	3.17
478.008	3.35
478.444	5.03
478.879	5.9
479.314	6.7
479.75	6.5
480.185	5.93
480.62	5.22
481.055	5.24
481.49	5.79
481.925	6.1
482.36	7.61
482.795	7.22
483.229	5.74
483.664	6.13
484.099	6.12
484.534	7.07
484.968	7.04
485.403	6.77
485.837	6.12
486.271	5.17
486.706	5.15
487.14	3.62
487.574	3.89
488.009	4.04
488.443	3.39
488.877	3.55
489.311	2.59
489.745	2.64
490.179	2.87
490.613	4.26
491.046	4.24
491.48	4.16
491.914	4.45
492.348	3.88
492.781	4.14
493.215	4.42
493.648	3.43
494.082	3.66
494.515	3.7
494.948	4.5
495.382	2.98
495.815	3.71
496.248	4.34
496.681	4.55
497.114	4.43
497.547	4.48
497.98	5.24
498.413	6.83
498.846	7.57
499.279	7.46
499.711	7.13
500.144	7.32
500.577	7.69
501.009	6.77
501.442	7
501.874	7.87
502.306	7.96
502.739	9.02
503.171	8.26
503.603	7.95
504.036	8.07
504.468	8.26
504.9	8.26
505.332	7.26
505.764	7.23
506.196	7.09
506.627	6.93
507.059	6.87
507.491	4.95
507.923	4.81
508.354	4.88
508.786	4.76
509.217	4.41
509.649	4.12
510.08	3.99
510.512	5.2
510.943	5.43
511.374	5.63
511.805	5.32
512.237	4.91
512.668	4.48
513.099	4.13
513.53	4.62
513.961	4.82
514.391	5.07
514.822	6.43
515.253	5.96
515.684	5.57
516.114	5.41
516.545	5.52
516.975	5.59
517.406	5.51
517.836	4.72
518.267	4.27
518.697	5.24
519.127	5.44
519.558	4.29
519.988	3.46
520.418	2.72
520.848	2.36
521.278	1.97
521.708	18.17
522.138	18.21
522.567	17.75
522.997	17.33
523.427	16.29
523.857	16.2
524.286	16.6
524.716	17.11
525.145	18.04
525.575	18.39
526.004	18.19
526.433	2.83
526.863	3.03
527.292	4.63
527.721	5.4
528.15	5.6
528.579	5.87
529.008	5.8
529.437	4.92
529.866	4.21
530.295	3.56
530.724	4.8
531.152	4.54
531.581	4.95
532.01	4.76
532.438	4.13
532.867	3.8
533.295	3.89
533.723	4.04
534.152	4.83
534.58	5.22
535.008	5.72
535.436	6.26
535.865	5.62
536.293	5.18
536.721	4.56
537.149	4.64
537.576	5.43
538.004	5.66
538.432	4.9
538.86	4.75
539.287	4.47
539.715	4.23
540.143	2.9
540.57	3.64
540.998	3.87
541.425	5.35
541.852	4.82
542.28	4.09
542.707	3.28
543.134	3.71
543.561	3.93
543.988	4.01
544.415	4.05
544.842	3.98
545.269	3.65
545.696	3.93
546.123	3.58
546.549	4.63
546.976	5.04
547.403	5.69
547.829	5.35
548.256	4.77
548.682	5.03
549.108	5.47
549.535	5.48
549.961	5.79
550.387	5.61
550.813	5.83
551.24	5.65
551.666	5.26
552.092	5.13
552.518	5.61
552.943	6.33
553.369	6.12
553.795	5.71
554.221	6.03
554.646	6.13
555.072	6.38
555.498	5.31
555.923	4.78
556.349	4.83
556.774	5.22
557.199	4.55
557.625	4.08
558.05	4.22
558.475	4.37
558.9	4.35
559.325	3.86
559.75	4.06
560.175	4.13
560.6	3.61
561.025	2.96
561.449	2.27
561.874	1.99
562.299	2.47
562.723	2.15
563.148	2.28
563.572	2.05
563.997	2.39
564.421	1.75
564.846	0.96
565.27	1.52
565.694	1.96
566.118	1.93
566.542	2.96
566.966	2.77
567.39	2.99
567.814	3.5
568.238	3.51
568.662	2.61
569.086	3.02
569.509	3.2
569.933	4.55
570.357	4.41
570.78	4.26
571.204	4.78
571.627	4.8
572.05	5.26
572.474	5.44
572.897	5.91
573.32	7.5
573.743	6.66
574.166	7.9
574.589	6.7
575.012	6.56
575.435	6.58
575.858	6
576.281	6
576.704	5.47
577.126	4.46
577.549	3.92
577.972	2.63
578.394	2.78
578.817	3.79
579.239	3.57
579.661	4.14
580.084	4.79
580.506	5.31
580.928	5.3
581.35	5.47
581.772	6.05
582.194	6.45
582.616	6.25
583.038	5.96
583.46	4.59
583.882	5.05
584.303	4.36
584.725	3.61
585.147	6.67
585.568	6.54
585.99	6.58
586.411	6.82
586.833	7.07
587.254	7.65
587.675	7.92
588.096	7.77
588.518	7.61
588.939	8.5
589.36	9.04
589.781	4.64
590.202	7.04
590.623	7.08
591.043	6.22
591.464	6.54
591.885	7.17
592.305	6.7
592.726	6.1
593.147	6.42
593.567	5.95
593.987	6.33
594.408	6.43
594.828	3.42
595.248	4
595.669	4.62
596.089	3.93
596.509	2.87
596.929	2.74
597.349	3.53
597.769	2.88
598.189	2.94
598.608	2.68
599.028	3.18
599.448	3.52
599.867	3.07
600.287	2.25
600.706	2.66
601.126	3.55
601.545	4.5
601.965	4.38
602.384	4.87
602.803	5.08
603.222	4.95
603.641	4.16
604.061	4.92
604.48	4.66
604.898	4.91
605.317	4.38
605.736	4.27
606.155	4.51
606.574	3.96
606.992	3.67
607.411	3.76
607.829	3.3
608.248	3.82
608.666	3.06
609.085	3.24
609.503	3.18
609.921	3.55
610.339	3.3
610.758	2.33
611.176	2.46
611.594	2.89
612.012	3.21
612.43	3.99
612.847	3.93
613.265	4.84
613.683	5.17
614.101	5.56
614.518	5.32
614.936	5.89
615.353	6.87
615.771	7.58
616.188	7.64
616.606	6.79
617.023	6.42
617.44	6.22
617.857	5.6
618.274	5.37
618.691	5.22
619.108	4.78
619.525	4.45
619.942	4.12
620.359	3.95
620.776	3.66
621.192	4.27
621.609	4.86
622.026	5.44
622.442	5.65
622.859	4.59
623.275	4.7
623.691	5.02
624.108	5.22
624.524	5.29
624.94	5.5
625.356	5.17
625.772	4.52
626.188	4.19
626.604	4.09
627.02	3.63
627.436	4.44
627.852	5.06
628.268	5.63
628.683	4.93
629.099	4.92
629.514	4.04
629.93	4.45
630.345	4.35
630.761	4.21
631.176	3.98
631.591	5.54
632.007	6.01
632.422	5.31
632.837	4.45
633.252	5.71
633.667	5.5
634.082	6.19
634.497	6.78
634.911	8.57
635.326	8.42
635.741	8.49
636.155	7.35
636.57	7.87
636.984	8
637.399	9.38
637.813	8.34
638.228	7.62
638.642	6.78
639.056	6.04
639.47	4.85
639.884	5.39
640.298	4.96
640.712	5.75
641.126	5.07
641.54	5.05
641.954	2.95
642.368	3.37
642.781	6.02
643.195	6.11
643.609	6.62
644.022	6.37
644.436	5.75
644.849	5.41
645.262	4.54
645.676	3.81
646.089	3.23
646.502	4.83
646.915	4.15
647.328	3.95
647.741	5.05
648.154	5.04
648.567	6.82
648.98	7.41
649.393	7.9
649.805	7.66
650.218	7.95
650.631	8.64
651.043	8.72
651.456	9.34
651.868	8.27
652.28	7.37
652.693	6.75
653.105	6.14
653.517	6
653.929	6.52
654.341	7.01
654.753	7.96
655.165	7.6
655.577	7
655.989	6.79
656.401	5.3
656.813	6.14
657.224	6.61
657.636	5.61
658.047	6.43
658.459	5.91
658.87	4.85
659.282	4
659.693	4.68
660.104	6.06
660.515	6.16
660.926	7.08
661.338	7.15
661.749	6.26
662.159	7.55
662.57	5.96
662.981	6.6
663.392	7.4
663.803	7.69
664.213	7.52
664.624	6.5
665.035	5.69
665.445	5.65
665.855	6.52
666.266	7.98
666.676	7.88
667.086	7.74
667.497	8.17
667.907	8.59
668.317	7.99
668.727	9.95
669.137	9.34
669.547	10.14
669.956	9.34
670.366	8.13
670.776	7.98
671.186	6.84
671.595	7.5
672.005	6.52
672.414	6.07
672.824	7.39
673.233	5.48
673.642	4.99
674.052	5.1
674.461	6.38
674.87	6.38
675.279	7.18
675.688	6.58
676.097	7.88
676.506	7.13
676.915	6.85
677.323	6.53
677.732	6.43
678.141	7.43
678.549	7.4
678.958	6.85
679.366	6.57
679.775	4.58
680.183	6.63
680.592	5.21
681	6.14
681.408	6.24
681.816	5.83
682.224	5.49
682.632	6.06
683.04	5.88
683.448	5.81
683.856	6.65
684.264	8.02
684.671	6.29
685.079	6.02
685.487	6.31
685.894	6.17
686.302	6.14
686.709	6.32
687.116	6.21
687.524	6.6
687.931	6.87
688.338	6.65
688.745	6.58
689.152	6.9
689.559	7.43
689.966	8.04
690.373	9.08
690.78	10.09
691.187	10.84
691.593	11.23
692	11.35
692.407	11.8
692.813	13.7
693.22	13.45
693.626	12.84
694.032	13.24
694.439	13.08
694.845	12.77
695.251	11.33
695.657	10.84
696.063	9
696.469	7.89
696.875	7.29
697.281	5.66
697.687	4.93
698.093	6.18
698.498	6.43
698.904	4.72
699.31	3.89
699.715	6.65
700.12	6.26
700.526	7.51
700.931	8.26
701.337	9.51
701.742	9.45
702.147	9.57
702.552	9.32
702.957	8.29
703.362	8.82
703.767	9.46
704.172	7.32
704.577	7.17
704.981	5.61
705.386	5.33
705.791	4.47
706.195	4.08
706.6	4.6
707.004	3.46
707.408	3.92
707.813	4.62
708.217	4.91
708.621	5.03
709.025	5.16
709.43	7.83
709.834	8.73
710.237	8.95
710.641	9.2
711.045	9.62
711.449	11.13
711.853	13.07
712.256	12.81
712.66	12.22
713.064	11.54
713.467	13.41
713.87	12.22
714.274	12.51
714.677	13.28
715.08	14.04
715.484	14.29
715.887	15.16
716.29	13.66
716.693	14.67
717.096	15.91
717.499	17.25
717.901	15.42
718.304	16.1
718.707	14.83
719.109	13.95
719.512	12.19
719.915	14.46
720.317	14.37
720.719	13.38
721.122	12.28
721.524	12.36
721.926	15.53
722.328	16.38
722.731	15.39
723.133	15.9
723.535	14.71
723.937	16.71
724.338	16.25
724.74	15.96
725.142	53.74
725.544	56.79
725.945	65.53
726.347	62.89
726.748	62.73
727.15	64.01
727.551	66.14
727.952	66.3
728.354	64.03
728.755	63.29
729.156	62.75
729.557	26.53
729.958	23.31
730.359	14.88
730.76	14.27
731.161	13.5
731.562	11.43
731.962	9.22
732.363	10.22
732.763	10.99
733.164	8.56
733.564	9.3
733.965	9.82
734.365	11.56
734.766	11.37
735.166	10.84
735.566	11.52
735.966	13.09
736.366	13.53
736.766	13.07
737.166	12.26
737.566	12.94
737.966	11.87
738.365	12.58
738.765	12.63
739.165	12.66
739.564	13.01
739.964	12.2
740.363	11.43
740.763	10.06
741.162	10.73
741.561	11.72
741.96	11.78
742.36	11.19
742.759	10.97
743.158	9.79
743.557	8.67
743.955	7.95
744.354	8.54
744.753	7.89
745.152	9.35
745.55	8.32
745.949	7.31
746.348	8.03
746.746	7.63
747.144	8.16
747.543	8.08
747.941	7.72
748.339	8.05
748.737	7.64
749.136	8.73
749.534	6.73
749.932	8.71
750.33	8.92
750.727	7.8
751.125	8.44
751.523	7.9
751.921	10.04
752.318	11.74
752.716	13.13
753.113	13.25
753.511	12.95
753.908	15.06
754.305	17.18
754.703	17.3
755.1	18.56
755.497	17.71
755.894	16.65
756.291	15.22
756.688	15.4
757.085	15.32
757.482	17.07
757.878	20.02
758.275	20.82
758.672	17.07
759.068	19.03
759.465	21.17
759.861	23.05
760.258	26.57
760.654	28.21
761.05	30.37
761.447	28.24
761.843	24.16
762.239	22.81
762.635	19.81
763.031	17.04
763.427	15.67
763.822	13.88
764.218	13.97
764.614	13.21
765.01	10.73
765.405	9.5
765.801	10.46
766.196	10.55
766.592	9.14
766.987	10.18
767.382	9.49
767.778	9.39
768.173	8.59
768.568	8.74
