Data from N_1_HIR_WI_4N_Splice17_11-39-26-963.txt Node
Date: Sat Mar 14 11:39:26 EDT 2020
User: sa697716
Spectrometer: FLMS03696
Trigger mode: 0
Integration Time (sec): 3.180400E-1
Scans to average: 20
Electric dark correction enabled: true
Nonlinearity correction enabled: true
Boxcar width: 5
XAxis mode: Wavelengths
Number of Pixels in Spectrum: 2048
>>>>>Begin Spectral Data<<<<<
187.83	-139441.99
188.298	1146.29
188.766	655.74
189.233	557.91
189.701	740.7
190.169	1000.66
190.636	406.33
191.104	307.39
191.571	43.3
192.039	-61.39
192.506	-54.42
192.974	317.49
193.441	-474.97
193.908	-93.91
194.375	-12.6
194.842	11.06
195.31	35.23
195.777	107.44
196.244	176.63
196.711	104.77
197.177	75.3
197.644	30.02
198.111	7.5
198.578	-15.67
199.045	-34.12
199.511	-107.56
199.978	-182.55
200.445	-132.49
200.911	-154.29
201.378	-238.49
201.844	-178.93
202.31	-338.25
202.777	-324.99
203.243	-140.64
203.709	-140.33
204.176	-141.6
204.642	-88.27
205.108	-64.81
205.574	-45.25
206.04	-80.88
206.506	-73.87
206.972	-92.01
207.438	-91.58
207.903	-110.64
208.369	-79.98
208.835	-50.95
209.301	-59.31
209.766	-79.57
210.232	-79.69
210.697	-128.36
211.163	-132.82
211.628	-212.2
212.094	-143.65
212.559	-71.91
213.024	-33.72
213.49	-11.3
213.955	-41.29
214.42	-56.07
214.885	-55.79
215.35	-48.84
215.815	41.41
216.28	41.36
216.745	33.48
217.21	49.3
217.675	-4.14
218.14	5.28
218.604	-23.79
219.069	-18.64
219.534	20.06
219.998	0.57
220.463	-4.46
220.927	-86.64
221.392	-77
221.856	-58.8
222.32	-137.91
222.785	-108.7
223.249	-150.46
223.713	-160.21
224.177	-148.77
224.642	-268.69
225.106	-332.48
225.57	-362.09
226.034	-210.02
226.497	-335.13
226.961	-243.06
227.425	-177.4
227.889	-255.04
228.353	-226.58
228.816	-500.49
229.28	-434.12
229.744	-378.58
230.207	-114.25
230.671	-109.02
231.134	-309.57
231.597	-260.16
232.061	-339.39
232.524	-456.87
232.987	-290.02
233.45	-234.23
233.914	-215.67
234.377	-264.24
234.84	-207.93
235.303	-285.82
235.766	-295.33
236.229	-300.51
236.691	-214.37
237.154	-264.42
237.617	-162.23
238.08	-189.25
238.542	-271.69
239.005	-173.27
239.468	-149.55
239.93	-152.37
240.393	-134.4
240.855	-116.11
241.317	-132.06
241.78	-175.33
242.242	-159.13
242.704	-139.63
243.166	-101.53
243.629	-46.12
244.091	-57.63
244.553	-72.34
245.015	-61.31
245.477	-92.02
245.939	-168.34
246.4	-140.84
246.862	-117.4
247.324	-140.53
247.786	-222.73
248.247	-343.31
248.709	-520.85
249.17	-349.3
249.632	-259.9
250.093	-247.7
250.555	-208.65
251.016	-78.47
251.477	-65.42
251.939	-71.53
252.4	-71.16
252.861	-94.21
253.322	-62.98
253.783	-77.1
254.244	-157.97
254.705	-165.17
255.166	-188.59
255.627	-183.84
256.088	-275.67
256.549	-305.07
257.009	-269.77
257.47	-363.95
257.931	-308.19
258.391	-223.56
258.852	-216.91
259.312	-231.95
259.773	-294.91
260.233	-166.77
260.694	-104.69
261.154	-124.9
261.614	-44.67
262.074	-22.07
262.534	10.18
262.994	23.75
263.455	12.49
263.915	33.49
264.374	22.51
264.834	24.88
265.294	-19.62
265.754	-25.59
266.214	-24.39
266.673	-32.16
267.133	-75.24
267.593	-91.53
268.052	-88.55
268.512	-85.98
268.971	-70.88
269.431	-41.23
269.89	-47.73
270.349	-48.62
270.809	-88.32
271.268	-72.8
271.727	-315.94
272.186	-161.33
272.645	-121.7
273.104	-164.93
273.563	-224.39
274.022	-243.56
274.481	-184.83
274.94	-124.2
275.399	-108.17
275.857	-140.32
276.316	-224.87
276.775	-214.65
277.233	-196.37
277.692	-156.94
278.15	-146.89
278.609	-118.89
279.067	-104.47
279.525	-67.59
279.984	-99
280.442	-111.63
280.9	-40.48
281.358	-23.96
281.816	-9.72
282.274	-46.83
282.732	-97.91
283.19	-113.46
283.648	-113.9
284.106	-160.55
284.564	-193.15
285.021	-160.98
285.479	-125.39
285.937	-134.98
286.394	-113.76
286.852	-115.94
287.309	-112.72
287.767	-73.66
288.224	-54.28
288.682	-86.81
289.139	-63.1
289.596	-60.12
290.053	-86.81
290.511	-152.06
290.968	-161.36
291.425	-238.46
291.882	-148.67
292.339	-114.14
292.796	-140.13
293.252	-130.34
293.709	-44.08
294.166	-43.22
294.623	-60.57
295.079	-56.91
295.536	-17.5
295.992	-18.11
296.449	-5.75
296.905	-28.08
297.362	-4.9
297.818	-10.27
298.274	-4.39
298.731	-28.78
299.187	-38.45
299.643	-38.67
300.099	-37.11
300.555	-55.08
301.011	-58.64
301.467	6.36
301.923	-22.33
302.379	-27.94
302.835	-18.1
303.291	-11.23
303.746	-15.77
304.202	-37.02
304.658	-35.06
305.113	-9.02
305.569	1.07
306.024	-7.83
306.479	-89.52
306.935	-29.57
307.39	-75.75
307.845	-77.35
308.301	-77.86
308.756	-94.46
309.211	-57.15
309.666	-65.77
310.121	-67.7
310.576	-99.98
311.031	-122.4
311.486	-184.45
311.94	-241.67
312.395	-309.98
312.85	-648.18
313.305	-4215.24
313.759	-17366.57
314.214	-1294.66
314.668	-965.26
315.123	-848.38
315.577	-230.42
316.032	-189.29
316.486	-188.99
316.94	-107.6
317.394	-54.57
317.849	-46.1
318.303	-41.35
318.757	-39.33
319.211	-48.63
319.665	-43.98
320.119	-35.06
320.572	-87.89
321.026	-54.86
321.48	-46.85
321.934	-75.41
322.387	-95.8
322.841	-75.46
323.295	-22.59
323.748	-76.36
324.202	-75.69
324.655	-71.64
325.108	-45.01
325.562	3.91
326.015	-15.7
326.468	1.51
326.921	2.85
327.374	61.95
327.827	76.56
328.28	70.82
328.733	62.39
329.186	55.49
329.639	44.41
330.092	18.33
330.545	14.45
330.997	29.53
331.45	58.32
331.903	80.71
332.355	53.48
332.808	20.11
333.26	8.17
333.713	36.57
334.165	25.87
334.617	-22.94
335.069	-107.88
335.522	-298.46
335.974	-394.04
336.426	-424.63
336.878	-376.54
337.33	-178.32
337.782	-162.99
338.234	-177.79
338.686	-222.7
339.137	-294.3
339.589	-282.1
340.041	-169.42
340.493	-107.34
340.944	-101.37
341.396	-130.78
341.847	-56.74
342.299	4.32
342.75	27.74
343.201	-22.25
343.653	-74.62
344.104	-120.99
344.555	-69.72
345.006	-163.73
345.457	-64.81
345.908	-75.63
346.359	-35.29
346.81	-29.38
347.261	-79.78
347.712	-93.82
348.163	-103.53
348.613	-17.17
349.064	15.08
349.515	23.87
349.965	45.46
350.416	22.65
350.866	22.18
351.317	-57.8
351.767	-115.32
352.217	-167.99
352.668	-169.4
353.118	-142.39
353.568	-272.94
354.018	-194.1
354.468	-204.34
354.918	-140.19
355.368	-128.82
355.818	-210.75
356.268	-579.71
356.718	-2128.77
357.168	-558.49
357.617	-271.04
358.067	-301.86
358.517	-279.19
358.966	-325.92
359.416	-303.68
359.865	-402.63
360.315	-650.62
360.764	-240.07
361.213	-95.05
361.663	-120.42
362.112	-161.3
362.561	-292.39
363.01	-214.87
363.459	-194.35
363.908	-234.01
364.357	-159.86
364.806	-298.67
365.255	-177.53
365.703	-118.9
366.152	-139.54
366.601	-117.74
367.05	-67.9
367.498	-46.25
367.947	-69.27
368.395	-68.77
368.844	-27.56
369.292	-103.69
369.74	-45.45
370.189	-92.03
370.637	-153.13
371.085	-109.45
371.533	-133.16
371.981	-160.91
372.429	-124.64
372.877	-113.07
373.325	-85.88
373.773	-131.43
374.221	-106.87
374.669	-156.4
375.116	-128.28
375.564	-129.4
376.012	-169.14
376.459	-121.43
376.907	-154.17
377.354	-222.48
377.801	-183.7
378.249	-218.36
378.696	-349.16
379.143	-377.56
379.591	-393.05
380.038	-678.32
380.485	-432.96
380.932	-518.86
381.379	-336.68
381.826	-134.03
382.273	-105.79
382.72	-139.22
383.166	-101.41
383.613	-35.31
384.06	-48.59
384.506	-54.64
384.953	-21.16
385.4	-42.7
385.846	-32.57
386.292	-72.15
386.739	-93.54
387.185	-94.55
387.631	-91.42
388.078	-72.04
388.524	-81.31
388.97	-64.78
389.416	-53.42
389.862	-63.35
390.308	-51.84
390.754	-49.7
391.2	-48.47
391.645	-54.29
392.091	-12.96
392.537	1.98
392.983	-23.27
393.428	13.4
393.874	8.41
394.319	28.07
394.765	43.62
395.21	31.45
395.655	34.59
396.101	35.28
396.546	43.75
396.991	19.49
397.436	15.2
397.881	16.04
398.326	-4
398.771	0.91
399.216	-9.66
399.661	-13.13
400.106	-9.29
400.551	-2.74
400.995	-0.24
401.44	-1.82
401.885	-4.1
402.329	-1.64
402.774	2.13
403.218	16.22
403.663	12.46
404.107	14.6
404.551	20.01
404.995	21.08
405.44	14.81
405.884	11.25
406.328	5.47
406.772	2.02
407.216	1.07
407.66	-1.76
408.104	-12.85
408.547	-12.31
408.991	-10.87
409.435	-11.88
409.879	-9.88
410.322	-8.07
410.766	-5.29
411.209	-2.23
411.653	-0.99
412.096	1.6
412.54	-0.16
412.983	1.15
413.426	5.6
413.869	2.75
414.312	3.75
414.756	1.16
415.199	-0.42
415.642	0.99
416.085	3.4
416.527	3.72
416.97	1.09
417.413	2.3
417.856	-0.23
418.298	-2.78
418.741	-4.19
419.184	-6.76
419.626	-11.03
420.069	-9.98
420.511	-10.05
420.953	-7.97
421.396	-6.62
421.838	-8.23
422.28	-7.41
422.722	-2.69
423.164	-4.81
423.606	-5.15
424.048	-6.95
424.49	-2.17
424.932	-4.13
425.374	-5.54
425.816	-10.55
426.258	-11.77
426.699	-11.59
427.141	-8.32
427.582	-13.01
428.024	-13.84
428.465	-14.73
428.907	-13.92
429.348	-14.64
429.789	-12.49
430.231	-10.29
430.672	-8.56
431.113	-7.13
431.554	-6.04
431.995	-8.16
432.436	-4.27
432.877	-1.61
433.318	3.8
433.759	3.27
434.2	3.1
434.64	1.48
435.081	1.87
435.522	3.66
435.962	2.99
436.403	4.3
436.843	1.43
437.284	-1.41
437.724	-3.52
438.164	-8.16
438.604	-8.61
439.045	-7.24
439.485	-2.83
439.925	-3.12
440.365	-5.35
440.805	-6.37
441.245	-5.76
441.685	-3.98
442.125	-4.7
442.564	-4.84
443.004	-2.61
443.444	-1.07
443.883	-1.13
444.323	-4.55
444.762	-9.77
445.202	-10.7
445.641	-9
446.081	-11.4
446.52	-10.57
446.959	-8.44
447.398	-5.35
447.837	-6.39
448.276	-7.53
448.716	-6.11
449.154	-7.97
449.593	-3.97
450.032	-3.4
450.471	-4.72
450.91	-5.03
451.349	-4.09
451.787	-4.72
452.226	-6.64
452.664	-7.11
453.103	-7.07
453.541	-8.89
453.98	-5.14
454.418	-5.78
454.856	-2.82
455.295	-3.07
455.733	-1.33
456.171	-2.58
456.609	-0.79
457.047	-0.96
457.485	1.44
457.923	3.07
458.361	2.71
458.798	0.96
459.236	0.77
459.674	-1.5
460.111	-0.45
460.549	-0.29
460.987	-1.12
461.424	-3.1
461.862	-1.96
462.299	-2.16
462.736	-1.3
463.173	-1.42
463.611	2.03
464.048	3.57
464.485	4.53
464.922	4.35
465.359	2.69
465.796	11.23
466.233	13.46
466.67	15.47
467.106	16.32
467.543	14.91
467.98	14.09
468.416	10.99
468.853	9.53
469.29	8.23
469.726	7.89
470.162	7.67
470.599	0.85
471.035	-1.57
471.471	-3.28
471.907	-5.42
472.344	-6.28
472.78	-4.94
473.216	-5.74
473.652	-5.19
474.088	-5.21
474.523	-4.58
474.959	-4.44
475.395	-4.1
475.831	-2.65
476.266	-2.27
476.702	-2.33
477.138	-1.51
477.573	-2.22
478.008	-2.21
478.444	-1.45
478.879	-0.34
479.314	-0.07
479.75	0.29
480.185	0.23
480.62	-0.64
481.055	-0.71
481.49	0.21
481.925	-0.01
482.36	2.57
482.795	2.7
483.229	1.4
483.664	1.54
484.099	0.63
484.534	1.33
484.968	1.6
485.403	1.56
485.837	0.15
486.271	-0.1
486.706	-0.03
487.14	-1.55
487.574	-1.31
488.009	-1.14
488.443	-2.11
488.877	-0.85
489.311	-1.32
489.745	-1.32
490.179	0.02
490.613	2.06
491.046	1.39
491.48	1.53
491.914	1.5
492.348	1.28
492.781	1.75
493.215	2.09
493.648	0.56
494.082	0.2
494.515	0.77
494.948	0.65
495.382	-0.36
495.815	0.35
496.248	0.34
496.681	0.13
497.114	-0.12
497.547	-0.01
497.98	0.88
498.413	2.41
498.846	3.05
499.279	2.43
499.711	1.64
500.144	1.4
500.577	1.89
501.009	1.89
501.442	2.66
501.874	3.43
502.306	2.99
502.739	5.29
503.171	4.94
503.603	5.05
504.036	4.47
504.468	4.6
504.9	4.43
505.332	4.29
505.764	4.78
506.196	4
506.627	3.67
507.059	3.36
507.491	-0.07
507.923	0.26
508.354	0.49
508.786	0.6
509.217	0.45
509.649	0.96
510.08	0.41
510.512	0.93
510.943	1.05
511.374	1.61
511.805	1.85
512.237	1.92
512.668	0.95
513.099	-0.38
513.53	-0.33
513.961	0.17
514.391	0.15
514.822	1.29
515.253	1
515.684	1.03
516.114	0.94
516.545	1.46
516.975	1.8
517.406	1.92
517.836	2.22
518.267	2.55
518.697	2.62
519.127	2.03
519.558	0.8
519.988	0.14
520.418	-0.17
520.848	-1.25
521.278	-1.3
521.708	29.94
522.138	31.3
522.567	30.75
522.997	30.4
523.427	29.77
523.857	30.46
524.286	31.01
524.716	31.51
525.145	31.98
525.575	32.97
526.004	32.33
526.433	1.74
526.863	0.34
527.292	1.38
527.721	1.94
528.15	2.23
528.579	1.67
529.008	1.23
529.437	0.13
529.866	-0.26
530.295	-0.96
530.724	0.17
531.152	0.01
531.581	0.89
532.01	0.9
532.438	0.88
532.867	0.56
533.295	0.85
533.723	0.95
534.152	1.55
534.58	2.17
535.008	2.74
535.436	3.31
535.865	3.02
536.293	1.89
536.721	1.22
537.149	1.12
537.576	1.44
538.004	1.45
538.432	0.97
538.86	1.25
539.287	0.92
539.715	0.89
540.143	-0.37
540.57	0.28
540.998	0.6
541.425	2.53
541.852	2.14
542.28	1.88
542.707	1.91
543.134	2.44
543.561	2.34
543.988	2.55
544.415	2.24
544.842	1.69
545.269	1.25
545.696	1.65
546.123	0.43
546.549	0.27
546.976	0.31
547.403	0.64
547.829	0.37
548.256	0.11
548.682	0.11
549.108	0.85
549.535	1.23
549.961	1.01
550.387	0.8
550.813	2.38
551.24	3.18
551.666	2.75
552.092	2.26
552.518	2.16
552.943	2.44
553.369	2.25
553.795	2.19
554.221	2.5
554.646	2.43
555.072	3.65
555.498	1.99
555.923	1.12
556.349	1.53
556.774	1.37
557.199	1.17
557.625	0.49
558.05	0.55
558.475	0.14
558.9	-0.22
559.325	0.65
559.75	0.29
560.175	0.35
560.6	0.57
561.025	-0.44
561.449	-0.32
561.874	-0.63
562.299	0.28
562.723	0.01
563.148	0.08
563.572	-0.06
563.997	-0.48
564.421	-1.44
564.846	-1.98
565.27	-1.75
565.694	-0.75
566.118	-1
566.542	0.56
566.966	0.43
567.39	0.75
567.814	0.78
568.238	1.12
568.662	0.41
569.086	0.74
569.509	0.8
569.933	1.89
570.357	1.57
570.78	1.91
571.204	2.23
571.627	1.74
572.05	1.38
572.474	2.1
572.897	2.23
573.32	3.45
573.743	3.15
574.166	3.93
574.589	2.97
575.012	3.37
575.435	3.34
575.858	2.93
576.281	3.1
576.704	2.3
577.126	1.46
577.549	0.83
577.972	-0.25
578.394	-0.4
578.817	1.26
579.239	1.11
579.661	1.42
580.084	2.82
580.506	2.38
580.928	2.01
581.35	2.95
581.772	2.98
582.194	3.67
582.616	3.33
583.038	2.69
583.46	0.54
583.882	0.4
584.303	-0.76
584.725	-2.32
585.147	1.95
585.568	2.57
585.99	2.9
586.411	3.85
586.833	3.81
587.254	4.11
587.675	4.41
588.096	4.7
588.518	5.32
588.939	6.08
589.36	5.97
589.781	-0.11
590.202	2.64
590.623	2.19
591.043	0.88
591.464	0.96
591.885	1.73
592.305	1.39
592.726	1.09
593.147	0.7
593.567	1.22
593.987	1.22
594.408	1.92
594.828	-1.43
595.248	-0.76
595.669	0.21
596.089	-0.12
596.509	-0.73
596.929	-0.99
597.349	-0.18
597.769	0.27
598.189	-0.19
598.608	0.33
599.028	0.81
599.448	0.66
599.867	0.33
600.287	-0.38
600.706	-0.04
601.126	0.77
601.545	2.11
601.965	1.58
602.384	0.95
602.803	0.72
603.222	0.85
603.641	0.36
604.061	1.05
604.48	0.49
604.898	0.1
605.317	-0.29
605.736	-0.64
606.155	-0.4
606.574	-0.5
606.992	-0.47
607.411	-0.66
607.829	-1.49
608.248	-1.88
608.666	-2.48
609.085	-2.13
609.503	-1.66
609.921	-0.95
610.339	-1.22
610.758	-2.58
611.176	-2.63
611.594	-2.46
612.012	-1.99
612.43	-0.83
612.847	-0.55
613.265	0.49
613.683	0.65
614.101	0.9
614.518	0.05
614.936	0.12
615.353	1.18
615.771	1.52
616.188	1.91
616.606	1.87
617.023	1.41
617.44	1.65
617.857	0.5
618.274	-0.14
618.691	-0.03
619.108	0.64
619.525	0.11
619.942	-0.1
620.359	-0.31
620.776	-0.35
621.192	-0.11
621.609	0.73
622.026	1.32
622.442	1.6
622.859	1.17
623.275	0.42
623.691	-0.25
624.108	0.86
624.524	0.62
624.94	0.67
625.356	0.37
625.772	0.28
626.188	-0.98
626.604	-1.66
627.02	-1.82
627.436	-0.68
627.852	0.31
628.268	0.91
628.683	-0.09
629.099	-0.3
629.514	-1.15
629.93	-1.29
630.345	-1.79
630.761	-2.58
631.176	-2.21
631.591	0.07
632.007	0.41
632.422	-0.19
632.837	-1.08
633.252	0.19
633.667	0.35
634.082	1.21
634.497	1.54
634.911	3.75
635.326	4.9
635.741	5.34
636.155	4.11
636.57	4.52
636.984	4.46
637.399	5.26
637.813	4.24
638.228	3.92
638.642	3.5
639.056	3.74
639.47	1.94
639.884	1.38
640.298	0.62
640.712	0.49
641.126	-0.31
641.54	-0.41
641.954	-2.08
642.368	-1.9
642.781	1.12
643.195	2.06
643.609	2.25
644.022	2.32
644.436	2.11
644.849	1.72
645.262	1.02
645.676	0.1
646.089	-0.04
646.502	1.87
646.915	1.16
647.328	-0.29
647.741	-0.64
648.154	-0.86
648.567	1.01
648.98	1.94
649.393	2.42
649.805	2.6
650.218	3.07
650.631	3.7
651.043	3.81
651.456	4.74
651.868	3.83
652.28	2.23
652.693	1.65
653.105	0.14
653.517	0.22
653.929	0.48
654.341	1.61
654.753	2.12
655.165	1.88
655.577	1.75
655.989	1.28
656.401	0.79
656.813	2.79
657.224	2.67
657.636	1.29
658.047	1.46
658.459	1.24
658.87	-0.15
659.282	0.05
659.693	0.67
660.104	0.59
660.515	-0.05
660.926	0.01
661.338	-0.62
661.749	-1.29
662.159	0.4
662.57	-0.5
662.981	-0.74
663.392	-0.49
663.803	-1.3
664.213	-2.39
664.624	-2.9
665.035	-2.81
665.445	-2.78
665.855	-1.96
666.266	-0.66
666.676	-1.13
667.086	-0.99
667.497	-0.54
667.907	-0.11
668.317	0.48
668.727	3.28
669.137	2.53
669.547	2.88
669.956	1.42
670.366	0.84
670.776	0.96
671.186	0.81
671.595	0.99
672.005	0.16
672.414	0.31
672.824	0.36
673.233	-2.13
673.642	-1.81
674.052	-1.06
674.461	0.37
674.87	0.44
675.279	0.42
675.688	-0.41
676.097	-0.36
676.506	-0.49
676.915	-1.75
677.323	-2.56
677.732	-2.69
678.141	-2.13
678.549	-2.55
678.958	-3.94
679.366	-5.05
679.775	-5.82
680.183	-3.72
680.592	-3.89
681	-2.99
681.408	-2.81
681.816	-2.3
682.224	-2.79
682.632	-1.35
683.04	-1.39
683.448	-0.25
683.856	0.24
684.264	1.27
684.671	-0.41
685.079	-1.16
685.487	-2.32
685.894	-2.97
686.302	-4.35
686.709	-4.2
687.116	-5.96
687.524	-3.99
687.931	-3
688.338	-1.52
688.745	-4.22
689.152	-4.59
689.559	-4.31
689.966	-2.17
690.373	-0.96
690.78	0.51
691.187	1.21
691.593	2.45
692	0.82
692.407	0.16
692.813	1.67
693.22	3.58
693.626	2.82
694.032	4.38
694.439	4.19
694.845	4.2
695.251	3.04
695.657	3.12
696.063	1.14
696.469	0.54
696.875	0.81
697.281	-1.14
697.687	-1.42
698.093	-1.38
698.498	-1.86
698.904	-2.83
699.31	-2.73
699.715	0.14
700.12	0.2
700.526	1.35
700.931	1.64
701.337	2.14
701.742	2.82
702.147	3.04
702.552	4.04
702.957	3.52
703.362	2.86
703.767	2.02
704.172	-0.72
704.577	-1.01
704.981	-2.35
705.386	-2.46
705.791	-2.09
706.195	-3.49
706.6	-3.54
707.004	-5.08
707.408	-5.93
707.813	-4.93
708.217	-3.62
708.621	-3.1
709.025	-4.22
709.43	-2.25
709.834	-1.8
710.237	-2.6
710.641	-1.46
711.045	-1.01
711.449	1.49
711.853	5.66
712.256	5.79
712.66	5.58
713.064	6.01
713.467	8.13
713.87	7.75
714.274	8.17
714.677	8.29
715.08	7.79
715.484	8.12
715.887	9.52
716.29	6.06
716.693	7.25
717.096	7.35
717.499	6.87
717.901	4.45
718.304	3.99
718.707	2.84
719.109	3.43
719.512	2.72
719.915	4.73
720.317	3.43
720.719	2.5
721.122	0.53
721.524	0.26
721.926	5.68
722.328	7.11
722.731	6.26
723.133	6.5
723.535	6.15
723.937	7.23
724.338	7.13
724.74	7.31
725.142	57.64
725.544	61.59
725.945	74.56
726.347	70.18
726.748	70.12
727.15	72.11
727.551	75.95
727.952	73.96
728.354	71.97
728.755	71.21
729.156	69.88
729.557	22.06
729.958	18.91
730.359	6.75
730.76	6.16
731.161	5.26
731.562	3.18
731.962	-0.16
732.363	1.14
732.763	1.68
733.164	-1.31
733.564	-1.5
733.965	-1.27
734.365	-1.96
734.766	-1.54
735.166	-1.13
735.566	1.17
735.966	2.37
736.366	2.41
736.766	1.98
737.166	1.76
737.566	2.78
737.966	3.43
738.365	4.03
738.765	5.15
739.165	5.04
739.564	5.03
739.964	3.59
740.363	2.25
740.763	1.24
741.162	3.04
741.561	3.6
741.96	3.16
742.36	1.46
742.759	1.27
743.158	0.27
743.557	-0.96
743.955	-1.67
744.354	-2.1
744.753	-1.82
745.152	-0.11
745.55	-2
745.949	-2.79
746.348	-1.55
746.746	-1.92
747.144	0.09
747.543	-0.7
747.941	-0.65
748.339	-0.32
748.737	0.3
749.136	1.45
749.534	-0.75
749.932	1.53
750.33	2.36
750.727	1.8
751.125	3.48
751.523	1.31
751.921	5.09
752.318	6.11
752.716	7.15
753.113	6.54
753.511	6.26
753.908	7.47
754.305	10.46
754.703	9.74
755.1	10.9
755.497	10.24
755.894	9.97
756.291	7.26
756.688	7.06
757.085	5.92
757.482	6.83
757.878	9.36
758.275	11.02
758.672	3.32
759.068	3.3
