Data from N_1_HIR_IL_4N_Splice17_11-27-31-655.txt Node
Date: Sat Mar 14 11:27:31 EDT 2020
User: sa697716
Spectrometer: FLMS03696
Trigger mode: 0
Integration Time (sec): 3.180400E-1
Scans to average: 20
Electric dark correction enabled: true
Nonlinearity correction enabled: true
Boxcar width: 5
XAxis mode: Wavelengths
Number of Pixels in Spectrum: 2048
>>>>>Begin Spectral Data<<<<<
187.83	-172010.35
188.298	1370.08
188.766	777.73
189.233	650.96
189.701	922.38
190.169	1210.37
190.636	464.66
191.104	331.68
191.571	27.15
192.039	-22.36
192.506	-84.61
192.974	89.27
193.441	-121.49
193.908	139.12
194.375	-19.24
194.842	63.75
195.31	54.96
195.777	114.32
196.244	180.6
196.711	145.71
197.177	138.48
197.644	144.58
198.111	207.3
198.578	309.44
199.045	246.68
199.511	441.37
199.978	448.8
200.445	396.33
200.911	431.28
201.378	480.46
201.844	447.91
202.31	770.3
202.777	806.05
203.243	474.27
203.709	442.78
204.176	544.26
204.642	431.97
205.108	410.95
205.574	337.49
206.04	280.15
206.506	248.38
206.972	223.73
207.438	206.25
207.903	225.04
208.369	219.41
208.835	238.47
209.301	239.14
209.766	222.56
210.232	217.56
210.697	257.42
211.163	315.64
211.628	407.08
212.094	352.85
212.559	504.93
213.024	340.88
213.49	397.26
213.955	351.45
214.42	320.74
214.885	305.09
215.35	289.79
215.815	330.09
216.28	353.03
216.745	289.31
217.21	313.28
217.675	245.9
218.14	250.88
218.604	256.19
219.069	271.14
219.534	284.78
219.998	300.34
220.463	339.82
220.927	312.17
221.392	253.15
221.856	270.77
222.32	266.07
222.785	328.85
223.249	345.82
223.713	342.06
224.177	331.7
224.642	361.57
225.106	396.99
225.57	373.07
226.034	326.92
226.497	513.69
226.961	467.96
227.425	578.75
227.889	596.1
228.353	611.43
228.816	1134.79
229.28	1088.06
229.744	911.53
230.207	628.89
230.671	614
231.134	829.27
231.597	952.55
232.061	855.28
232.524	756.17
232.987	512.64
233.45	493.34
233.914	459.8
234.377	410.32
234.84	364.59
235.303	363.52
235.766	397.86
236.229	420.4
236.691	255.61
237.154	238.8
237.617	205.3
238.08	182.17
238.542	188.55
239.005	146
239.468	165.54
239.93	158.31
240.393	151.87
240.855	135.83
241.317	121.79
241.78	132.12
242.242	162.68
242.704	194.79
243.166	187.85
243.629	195.7
244.091	216.12
244.553	233.75
245.015	262.15
245.477	314.91
245.939	440.99
246.4	517.96
246.862	473.28
247.324	459.54
247.786	465.36
248.247	564.75
248.709	489.21
249.17	385.14
249.632	430.47
250.093	515.81
250.555	489.95
251.016	326.4
251.477	293.88
251.939	338.66
252.4	318.18
252.861	355.44
253.322	355.16
253.783	401.05
254.244	458.23
254.705	285.48
255.166	222.44
255.627	188.35
256.088	265.23
256.549	290.39
257.009	258
257.47	317.17
257.931	260.96
258.391	210.08
258.852	217.7
259.312	231.43
259.773	282.56
260.233	266.76
260.694	242.74
261.154	277.16
261.614	283.3
262.074	222.79
262.534	246.53
262.994	246.55
263.455	272.98
263.915	246.32
264.374	239.84
264.834	283.4
265.294	290.62
265.754	304.61
266.214	265.45
266.673	221.76
267.133	273.33
267.593	248.29
268.052	296.8
268.512	256.72
268.971	330.64
269.431	350.95
269.89	304.75
270.349	470.27
270.809	517.03
271.268	483.46
271.727	981.22
272.186	705.22
272.645	558.9
273.104	339.05
273.563	499.64
274.022	355.66
274.481	335.19
274.94	255.68
275.399	182.37
275.857	192.14
276.316	227.2
276.775	187.38
277.233	179.37
277.692	160.91
278.15	238.57
278.609	275.17
279.067	219.24
279.525	230.72
279.984	284.04
280.442	330.02
280.9	387.92
281.358	275.09
281.816	286.77
282.274	267.06
282.732	265.6
283.19	236.35
283.648	191.32
284.106	209.68
284.564	191.23
285.021	185.77
285.479	139.63
285.937	102.1
286.394	111.37
286.852	105.2
287.309	113.12
287.767	136.43
288.224	147.52
288.682	179.07
289.139	214.33
289.596	216.94
290.053	217.73
290.511	250.07
290.968	333.95
291.425	391.09
291.882	361.46
292.339	319.76
292.796	286.17
293.252	248.91
293.709	209.63
294.166	191.66
294.623	170.79
295.079	145.72
295.536	173.33
295.992	148.52
296.449	161.04
296.905	181.23
297.362	197.85
297.818	207.89
298.274	238.13
298.731	217.26
299.187	223.13
299.643	263.48
300.099	335.02
300.555	373.95
301.011	351.14
301.467	379.85
301.923	396.73
302.379	387.35
302.835	389.13
303.291	373.05
303.746	433.61
304.202	521.06
304.658	482.59
305.113	333.9
305.569	308.57
306.024	282.94
306.479	205.91
306.935	182.91
307.39	166.69
307.845	158.68
308.301	163.12
308.756	141.13
309.211	145.55
309.666	153.4
310.121	230.39
310.576	239.51
311.031	224.36
311.486	261.69
311.94	242.72
312.395	322.89
312.85	475.63
313.305	1942.2
313.759	16273.95
314.214	1284.65
314.668	1094.77
315.123	881.81
315.577	363.1
316.032	351.69
316.486	433.04
316.94	377.89
317.394	275.72
317.849	232.45
318.303	218.7
318.757	200.67
319.211	207.67
319.665	179.77
320.119	182.64
320.572	230.12
321.026	232.6
321.48	186.42
321.934	177.11
322.387	182.98
322.841	219.14
323.295	242.1
323.748	229.84
324.202	244.3
324.655	318.94
325.108	480.33
325.562	352.58
326.015	382.73
326.468	302.99
326.921	357.19
327.374	347.01
327.827	353.45
328.28	388.94
328.733	300.69
329.186	283.33
329.639	269.51
330.092	217.57
330.545	219.12
330.997	243.63
331.45	293.36
331.903	368.65
332.355	574.26
332.808	545.31
333.26	431.64
333.713	476.85
334.165	437.9
334.617	537
335.069	390.58
335.522	623.11
335.974	603.8
336.426	508.46
336.878	277.59
337.33	183.7
337.782	175.76
338.234	240.8
338.686	249.9
339.137	284.91
339.589	296.87
340.041	251.72
340.493	221.57
340.944	232.72
341.396	251.86
341.847	250.29
342.299	293.87
342.75	403.83
343.201	316.8
343.653	349.97
344.104	402.19
344.555	297.22
345.006	398.96
345.457	393.76
345.908	293.55
346.359	284.68
346.81	217.52
347.261	222.21
347.712	190.09
348.163	173.41
348.613	235.11
349.064	234.05
349.515	199.8
349.965	229.34
350.416	223.45
350.866	226.59
351.317	201.63
351.767	339.27
352.217	354.97
352.668	349.38
353.118	352.37
353.568	231.85
354.018	196.21
354.468	251.65
354.918	204.73
355.368	208.68
355.818	322.33
356.268	952.16
356.718	4109.6
357.168	1154.88
357.617	521.75
358.067	588.78
358.517	599.87
358.966	758.73
359.416	930.93
359.865	921.36
360.315	1099.66
360.764	491.01
361.213	299.3
361.663	260.61
362.112	311.92
362.561	489.48
363.01	371.76
363.459	305.77
363.908	301.59
364.357	258.61
364.806	373.36
365.255	202.36
365.703	210.89
366.152	183.89
366.601	172.62
367.05	162.7
367.498	169.27
367.947	167.83
368.395	169.85
368.844	162.92
369.292	143.08
369.74	122.52
370.189	185.81
370.637	238.79
371.085	208.74
371.533	225.97
371.981	191.47
372.429	201.56
372.877	203.47
373.325	176.87
373.773	172.64
374.221	172.16
374.669	198.35
375.116	176.6
375.564	174.68
376.012	194.09
376.459	192.98
376.907	201.47
377.354	218.02
377.801	243.72
378.249	285.01
378.696	334.89
379.143	433.75
379.591	484.5
380.038	817.56
380.485	576.57
380.932	634.41
381.379	594.32
381.826	491.94
382.273	326.67
382.72	267.46
383.166	288.65
383.613	208.71
384.06	183.22
384.506	206.42
384.953	159.93
385.4	164.79
385.846	143.96
386.292	115.58
386.739	110.69
387.185	109.19
387.631	106.74
388.078	110.21
388.524	110.91
388.97	97.45
389.416	88.62
389.862	86.07
390.308	76.29
390.754	82.94
391.2	93.94
391.645	82.91
392.091	104.92
392.537	113.88
392.983	91.23
393.428	115.51
393.874	114.23
394.319	121.36
394.765	139.87
395.21	137.34
395.655	124.74
396.101	121.73
396.546	116.55
396.991	95.74
397.436	82.42
397.881	77.96
398.326	57.79
398.771	64.27
399.216	53.84
399.661	46.29
400.106	50.67
400.551	58.72
400.995	49.22
401.44	50.05
401.885	50.12
402.329	52.6
402.774	55.73
403.218	62.97
403.663	60.68
404.107	63.9
404.551	62.67
404.995	54.94
405.44	47.9
405.884	48.31
406.328	43.56
406.772	44.68
407.216	39.88
407.66	33.75
408.104	23.83
408.547	22.17
408.991	20.14
409.435	17.49
409.879	21.72
410.322	22.71
410.766	23.81
411.209	24.14
411.653	21.51
412.096	24.13
412.54	23.75
412.983	25.97
413.426	27.6
413.869	23.89
414.312	26.07
414.756	22.77
415.199	21.71
415.642	24.31
416.085	26.86
416.527	27.32
416.97	24.17
417.413	25.3
417.856	23.2
418.298	22.75
418.741	24.3
419.184	21.03
419.626	17.94
420.069	17.35
420.511	14.19
420.953	16.11
421.396	15.36
421.838	15.13
422.28	15.8
422.722	18.32
423.164	16.38
423.606	17.1
424.048	17.23
424.49	20
424.932	17.94
425.374	18.07
425.816	14.06
426.258	14.23
426.699	16.64
427.141	17.52
427.582	13.55
428.024	12.17
428.465	9.39
428.907	10.66
429.348	8.44
429.789	10.31
430.231	12.58
430.672	15.46
431.113	16.73
431.554	14.95
431.995	12.75
432.436	15.68
432.877	17.33
433.318	20.6
433.759	18.78
434.2	19
434.64	18.52
435.081	17.62
435.522	16.19
435.962	14.47
436.403	15.76
436.843	14.6
437.284	13.37
437.724	10.02
438.164	7.66
438.604	6.99
439.045	9.25
439.485	11.06
439.925	10.91
440.365	10.66
440.805	9.31
441.245	8.8
441.685	10.33
442.125	9.28
442.564	9.58
443.004	10.57
443.444	11.44
443.883	12.57
444.323	10.03
444.762	5.51
445.202	4.16
445.641	6.76
446.081	5.06
446.52	5.57
446.959	6.96
447.398	9.91
447.837	10.42
448.276	9.11
448.716	8.22
449.154	7.56
449.593	10.96
450.032	10.75
450.471	8.19
450.91	7.91
451.349	9.38
451.787	8.49
452.226	6.74
452.664	5.04
453.103	6.06
453.541	4.5
453.98	6.89
454.418	5.43
454.856	6.97
455.295	8.05
455.733	10.25
456.171	8.11
456.609	9.62
457.047	9.8
457.485	11.58
457.923	11.83
458.361	11.38
458.798	9.96
459.236	10.29
459.674	9.08
460.111	9.54
460.549	9.66
460.987	8.7
461.424	6.78
461.862	6.84
462.299	6.39
462.736	7.56
463.173	7.19
463.611	9.59
464.048	11.18
464.485	12.5
464.922	12.39
465.359	10.57
465.796	17.56
466.233	18.65
466.67	20.8
467.106	21.29
467.543	19.35
467.98	19.86
468.416	18.3
468.853	16.99
469.29	15.48
469.726	14.58
470.162	15.16
470.599	9.97
471.035	8.87
471.471	7.97
471.907	5.68
472.344	6.02
472.78	5.78
473.216	4.25
473.652	4.76
474.088	4.04
474.523	4.75
474.959	3.84
475.395	3.63
475.831	4.27
476.266	3.42
476.702	3.99
477.138	4.99
477.573	4.64
478.008	5.51
478.444	6.32
478.879	8.36
479.314	8.48
479.75	8.16
480.185	7.99
480.62	7.98
481.055	7.76
481.49	8.51
481.925	7.94
482.36	9.65
482.795	9.17
483.229	8.06
483.664	6.98
484.099	6.52
484.534	7.29
484.968	7.72
485.403	6.65
485.837	6.05
486.271	5.74
486.706	5.5
487.14	5.05
487.574	5.07
488.009	4.77
488.443	4.34
488.877	4.78
489.311	3.95
489.745	3.58
490.179	4.18
490.613	6.14
491.046	5.82
491.48	5.36
491.914	4.69
492.348	4.76
492.781	5.11
493.215	5.29
493.648	4.51
494.082	4.95
494.515	5.29
494.948	6.07
495.382	4.54
495.815	4.48
496.248	5.01
496.681	4.88
497.114	4.15
497.547	4.21
497.98	4.89
498.413	6.6
498.846	7.06
499.279	6.63
499.711	5.96
500.144	5.93
500.577	7.07
501.009	6.49
501.442	7.7
501.874	9.34
502.306	9.1
502.739	10.95
503.171	9.58
503.603	9.76
504.036	9.48
504.468	9.77
504.9	9.74
505.332	8.58
505.764	9.32
506.196	8.37
506.627	7.37
507.059	7.03
507.491	4.8
507.923	4.98
508.354	5.42
508.786	5.64
509.217	4.87
509.649	5.26
510.08	5.12
510.512	5.57
510.943	5.74
511.374	6.08
511.805	6.47
512.237	6.13
512.668	5.3
513.099	3.5
513.53	3.5
513.961	4.08
514.391	3.56
514.822	5
515.253	4.34
515.684	4.99
516.114	4.82
516.545	5.01
516.975	5.15
517.406	5.67
517.836	5.78
518.267	5.53
518.697	6.18
519.127	5.72
519.558	4.67
519.988	4.51
520.418	3.19
520.848	2.42
521.278	1.83
521.708	20.44
522.138	20.52
522.567	20.63
522.997	20.5
523.427	19.47
523.857	20.08
524.286	19.8
524.716	19.79
525.145	20.32
525.575	21.22
526.004	20.9
526.433	2.86
526.863	2.7
527.292	3.76
527.721	4.96
528.15	5.26
528.579	5.67
529.008	5.76
529.437	5.21
529.866	4.98
530.295	4.65
530.724	5.37
531.152	4.91
531.581	6.02
532.01	5.8
532.438	4.78
532.867	4.68
533.295	4.55
533.723	4.83
534.152	5.33
534.58	5.64
535.008	5.78
535.436	6.94
535.865	6.73
536.293	5.3
536.721	4.38
537.149	4.4
537.576	5.28
538.004	5.48
538.432	4.86
538.86	5.16
539.287	4.87
539.715	4.9
540.143	3.36
540.57	3.85
540.998	4.29
541.425	6.14
541.852	6.22
542.28	5.37
542.707	5.08
543.134	5.42
543.561	5.66
543.988	5.81
544.415	5.51
544.842	5.29
545.269	5.56
545.696	5.68
546.123	4.86
546.549	5.39
546.976	5.47
547.403	5.15
547.829	4.93
548.256	4.48
548.682	4.81
549.108	5.98
549.535	6.25
549.961	5.67
550.387	5.53
550.813	6.51
551.24	5.94
551.666	5.7
552.092	5.74
552.518	5.69
552.943	6.23
553.369	5.81
553.795	4.92
554.221	4.99
554.646	5.18
555.072	6.34
555.498	4.96
555.923	4.7
556.349	4.92
556.774	4.84
557.199	4.93
557.625	3.79
558.05	4.04
558.475	3.86
558.9	4.01
559.325	4.66
559.75	4.24
560.175	4
560.6	3.68
561.025	3.33
561.449	3.5
561.874	3.19
562.299	3.32
562.723	2.54
563.148	2.45
563.572	2.05
563.997	1.46
564.421	0.19
564.846	-0.11
565.27	0.04
565.694	-0.14
566.118	-0.42
566.542	1.02
566.966	1.89
567.39	2.76
567.814	3.68
568.238	4.16
568.662	3.63
569.086	4.12
569.509	3.91
569.933	5.5
570.357	5.98
570.78	6.16
571.204	6.47
571.627	5.87
572.05	5.47
572.474	5.6
572.897	5.8
573.32	6.65
573.743	6.16
574.166	7.41
574.589	6.21
575.012	6.05
575.435	5.84
575.858	5.02
576.281	5.66
576.704	5.41
577.126	4.84
577.549	4.3
577.972	3.62
578.394	4.13
578.817	5.49
579.239	4.99
579.661	5.36
580.084	6.39
580.506	6.51
580.928	5.39
581.35	5.78
581.772	5.64
582.194	5.98
582.616	5.81
583.038	5.19
583.46	3.44
583.882	4.29
584.303	2.6
584.725	2.03
585.147	5.09
585.568	5.89
585.99	6.26
586.411	7.16
586.833	7.54
587.254	8.24
587.675	8.75
588.096	8.58
588.518	8.92
588.939	10.12
589.36	9.69
589.781	5.84
590.202	7.68
590.623	7.41
591.043	5.86
591.464	5.22
591.885	4.94
592.305	4.37
592.726	4.43
593.147	3.96
593.567	4.36
593.987	4.98
594.408	4.77
594.828	2.26
595.248	2.31
595.669	3.35
596.089	3.06
596.509	2.53
596.929	3.02
597.349	3.44
597.769	3.34
598.189	3.17
598.608	2.62
599.028	2.66
599.448	2.93
599.867	3.03
600.287	2.46
600.706	2.74
601.126	3.94
601.545	5.02
601.965	4.49
602.384	4.68
602.803	4.44
603.222	4.93
603.641	5.13
604.061	5.47
604.48	5.12
604.898	5.28
605.317	5.15
605.736	4.45
606.155	4.08
606.574	4.15
606.992	3.99
607.411	4.35
607.829	3.32
608.248	2.99
608.666	2.47
609.085	2.68
609.503	2.71
609.921	2.84
610.339	3.02
610.758	2.19
611.176	2.14
611.594	2.82
612.012	2.89
612.43	4.79
612.847	4.87
613.265	6.26
613.683	6.2
614.101	6.11
614.518	5.96
614.936	5.72
615.353	6.82
615.771	7.36
616.188	7.35
616.606	6.94
617.023	6.08
617.44	6.41
617.857	5.12
618.274	4.96
618.691	5.2
619.108	5.71
619.525	5.86
619.942	5.69
620.359	5.11
620.776	5.02
621.192	6.12
621.609	6.27
622.026	6.77
622.442	7.28
622.859	6.75
623.275	6.6
623.691	6.4
624.108	6.37
624.524	5.76
624.94	6.53
625.356	5.85
625.772	4.95
626.188	4.33
626.604	3.63
627.02	3.52
627.436	4.67
627.852	5.94
628.268	6.42
628.683	6.48
629.099	6.36
629.514	5.75
629.93	6.16
630.345	5.94
630.761	5.8
631.176	5.56
631.591	7.15
632.007	7.62
632.422	6.03
632.837	4.77
633.252	5.23
633.667	5.95
634.082	6.47
634.497	6.83
634.911	8.31
635.326	8.81
635.741	9.67
636.155	8.57
636.57	8.55
636.984	8.67
637.399	10.68
637.813	10.15
638.228	9.66
638.642	9.08
639.056	8.68
639.47	7.97
639.884	7.94
640.298	7.09
640.712	7.34
641.126	7.21
641.54	7.13
641.954	4.22
642.368	4.42
642.781	7.09
643.195	6.62
643.609	6.88
644.022	6.41
644.436	6.36
644.849	6.29
645.262	5.9
645.676	5.21
646.089	5.77
646.502	8.23
646.915	8.23
647.328	6.46
647.741	6.69
648.154	7.24
648.567	9.34
648.98	10.05
649.393	10.41
649.805	10.52
650.218	10.24
650.631	10.4
651.043	9.56
651.456	10.14
651.868	9.66
652.28	9.1
652.693	8.03
653.105	6.37
653.517	6.07
653.929	5.6
654.341	6.02
654.753	7.22
655.165	7.26
655.577	7.54
655.989	7.12
656.401	6.77
656.813	8.24
657.224	8.17
657.636	7.82
658.047	7.51
658.459	8
658.87	6.82
659.282	6.08
659.693	6.21
660.104	7.11
660.515	6.66
660.926	6.61
661.338	6.41
661.749	5.99
662.159	6.9
662.57	6.39
662.981	6.51
663.392	6.83
663.803	6.12
664.213	6.04
664.624	4.81
665.035	4.89
665.445	4.65
665.855	6.01
666.266	7.32
666.676	6.82
667.086	6.41
667.497	6.86
667.907	6.47
668.317	6.92
668.727	9.47
669.137	9.43
669.547	9.71
669.956	8.9
670.366	7.69
670.776	7.51
671.186	7.33
671.595	7.52
672.005	5.64
672.414	6.6
672.824	7.39
673.233	4.92
673.642	4.88
674.052	4.55
674.461	6.44
674.87	6.24
675.279	6.59
675.688	5.57
676.097	7.75
676.506	8.97
676.915	8.31
677.323	8.33
677.732	7.72
678.141	8
678.549	8.19
678.958	6.47
679.366	6.17
679.775	4.96
680.183	7.14
680.592	5.87
681	5.74
681.408	6.19
681.816	5.85
682.224	6.08
682.632	7.49
683.04	7.87
683.448	8.8
683.856	9.69
684.264	10.67
684.671	9.22
685.079	9.03
685.487	9.53
685.894	8.8
686.302	7.31
686.709	7.33
687.116	5.5
687.524	6.58
687.931	7.29
688.338	7.48
688.745	6.59
689.152	6.69
689.559	6.75
689.966	7.95
690.373	8.45
690.78	10.58
691.187	10.79
691.593	11.9
692	10.84
692.407	10.82
692.813	11.96
693.22	12.84
693.626	11.57
694.032	12.16
694.439	13.14
694.845	13.49
695.251	13.43
695.657	14.06
696.063	13.04
696.469	12.42
696.875	12.44
697.281	10.89
697.687	9.77
698.093	9.89
698.498	10.27
698.904	8.11
699.31	7.76
699.715	8.67
700.12	7.48
700.526	7.58
700.931	8.45
701.337	9.46
701.742	10.5
702.147	10.87
702.552	12.49
702.957	10.68
703.362	9.99
703.767	9.57
704.172	8.7
704.577	8.71
704.981	7.53
705.386	6.45
705.791	5.41
706.195	3.6
706.6	4.38
707.004	2.99
707.408	3.1
707.813	4.58
708.217	6.82
708.621	6.01
709.025	4.78
709.43	7.67
709.834	7.98
710.237	7.73
710.641	8.84
711.045	9.29
711.449	11.43
711.853	14.94
712.256	14.29
712.66	12.84
713.064	13.33
713.467	15.82
713.87	14.93
714.274	16.16
714.677	17.37
715.08	18.2
715.484	17.96
715.887	20.05
716.29	17.95
716.693	19.48
717.096	19.34
717.499	20.24
717.901	18.02
718.304	17.74
718.707	17.31
719.109	17.12
719.512	15.02
719.915	17.43
720.317	14.82
720.719	12.68
721.122	11.8
721.524	12.58
721.926	16.96
722.328	17.52
722.731	16.37
723.133	16.42
723.535	14.66
723.937	16.49
724.338	16.42
724.74	17.36
725.142	57.98
725.544	61.1
725.945	70.59
726.347	65.92
726.748	66.67
727.15	68.56
727.551	70.53
727.952	69.63
728.354	67.21
728.755	65.01
729.156	63
729.557	24.32
729.958	21.28
730.359	12.01
730.76	11.59
731.161	11.69
731.562	10.35
731.962	8.46
732.363	8.93
732.763	10.21
733.164	8.56
733.564	9.62
733.965	10.37
734.365	10.54
734.766	9.43
735.166	9.37
735.566	10.24
735.966	11.51
736.366	11.79
736.766	13.01
737.166	11.62
737.566	12.48
737.966	12.5
738.365	12.81
738.765	13.4
739.165	14.57
739.564	14.08
739.964	12.4
740.363	10.64
740.763	8.57
741.162	9.36
741.561	10.46
741.96	11.27
742.36	9.66
742.759	9.94
743.158	8.13
743.557	6.38
743.955	6.35
744.354	6.85
744.753	7.66
745.152	9.75
745.55	8.12
745.949	7.72
746.348	7.23
746.746	6.78
747.144	8.06
747.543	8.84
747.941	10.01
748.339	10.73
748.737	11.4
749.136	11.23
749.534	9.68
749.932	11.39
750.33	11.72
750.727	10.98
751.125	12.44
751.523	11.44
751.921	14.13
752.318	14.5
752.716	15.72
753.113	15.87
753.511	16.13
753.908	17.52
754.305	20.54
754.703	20.62
755.1	21.36
755.497	21.09
755.894	20.27
756.291	17.68
756.688	17.6
757.085	17.6
757.482	18.72
757.878	19.82
758.275	21.02
758.672	14.56
759.068	13.98
759.465	14.6
759.861	14.75
760.258	14.76
760.654	16.43
761.05	21.22
761.447	19.37
761.843	17.43
762.239	16.93
762.635	12.72
763.031	12.89
763.427	13.94
763.822	14.34
764.218	13.73
764.614	13.78
765.01	11.9
765.405	9.74
765.801	8.98
766.196	8.36
