Data from N_1_DEC_OH_4N_Splice17_11-20-18-320.txt Node
Date: Sat Mar 14 11:20:18 EDT 2020
User: sa697716
Spectrometer: FLMS03696
Trigger mode: 0
Integration Time (sec): 3.180400E-1
Scans to average: 20
Electric dark correction enabled: true
Nonlinearity correction enabled: true
Boxcar width: 5
XAxis mode: Wavelengths
Number of Pixels in Spectrum: 2048
>>>>>Begin Spectral Data<<<<<
187.83	-149111.51
188.298	1309.46
188.766	645.47
189.233	550.63
189.701	838.72
190.169	1231.47
190.636	507.41
191.104	489.35
191.571	145.29
192.039	92.32
192.506	121.73
192.974	604.52
193.441	-431.59
193.908	-164.21
194.375	-54.31
194.842	72.44
195.31	167.89
195.777	170.31
196.244	330.46
196.711	374.49
197.177	460.26
197.644	603.6
198.111	1051.78
198.578	1406.01
199.045	1124.14
199.511	1832.41
199.978	2120.51
200.445	1788.08
200.911	1950.99
201.378	2194.9
201.844	1976.48
202.31	3354.2
202.777	3538.35
203.243	1971.99
203.709	1870.81
204.176	2200.12
204.642	1811.83
205.108	1673.74
205.574	1373.37
206.04	1266.95
206.506	1175.75
206.972	1118.92
207.438	1067.13
207.903	1203.01
208.369	1051.33
208.835	1047.94
209.301	1079.17
209.766	1091.12
210.232	1074.67
210.697	1293.98
211.163	1558.62
211.628	2301.62
212.094	1911.35
212.559	2322.35
213.024	1428.72
213.49	1700.67
213.955	1631.68
214.42	1582.84
214.885	1466.43
215.35	1379.14
215.815	1326.4
216.28	1369.23
216.745	1080.89
217.21	1110.71
217.675	951.29
218.14	1001.64
218.604	1021.46
219.069	1060.71
219.534	1025.55
219.998	1068.47
220.463	1173.33
220.927	1271.74
221.392	1108.78
221.856	1041.88
222.32	1181.87
222.785	1387.86
223.249	1617.07
223.713	1699.33
224.177	1615.59
224.642	1947.64
225.106	2246.01
225.57	2319.92
226.034	1698.84
226.497	2469.26
226.961	2173.95
227.425	2531.97
227.889	2661.24
228.353	2597.68
228.816	5163.7
229.28	4798.94
229.744	3967.08
230.207	2424.78
230.671	2343.15
231.134	3662.98
231.597	4193.77
232.061	4089.84
232.524	3834.5
232.987	2620.88
233.45	2304.19
233.914	2018.06
234.377	2010.9
234.84	1803.93
235.303	2056.14
235.766	2262.97
236.229	2314.32
236.691	1401.1
237.154	1559.47
237.617	1175.65
238.08	1166.59
238.542	1347.14
239.005	986.72
239.468	984.32
239.93	915.57
240.393	837.92
240.855	739.46
241.317	746.23
241.78	909.93
242.242	933.22
242.704	1009.16
243.166	893.94
243.629	826.46
244.091	940.34
244.553	1025.57
245.015	1113.27
245.477	1422.88
245.939	2040.51
246.4	2163.25
246.862	2083.78
247.324	1969.83
247.786	2168.27
248.247	2790.01
248.709	2811.95
249.17	2104.72
249.632	2023.11
250.093	2359
250.555	2043.1
251.016	1282.03
251.477	1209.65
251.939	1308.59
252.4	1349.4
252.861	1586.83
253.322	1489.58
253.783	1728.98
254.244	2187.8
254.705	1700.27
255.166	1476.49
255.627	1435.68
256.088	1999.93
256.549	2137.04
257.009	1818.28
257.47	2195.47
257.931	1782.3
258.391	1346.67
258.852	1396.44
259.312	1460.65
259.773	1750.35
260.233	1536.51
260.694	1319.1
261.154	1478.82
261.614	1217.28
262.074	1080.4
262.534	1127.62
262.994	1062.72
263.455	1367.74
263.915	1149.75
264.374	1070.6
264.834	1169.69
265.294	1228.39
265.754	1247.85
266.214	1147.14
266.673	1042.25
267.133	1269.03
267.593	1234.01
268.052	1486.93
268.512	1266.35
268.971	1550.36
269.431	1706.11
269.89	1509.83
270.349	2248.56
270.809	2483.18
271.268	2278.69
271.727	5070.47
272.186	3361.07
272.645	2515.93
273.104	1789.22
273.563	2604.22
274.022	1974.79
274.481	1697.57
274.94	1308.56
275.399	988.19
275.857	1139.12
276.316	1505.16
276.775	1340.54
277.233	1322.62
277.692	1253.61
278.15	1459.62
278.609	1553.89
279.067	1490.8
279.525	1419.46
279.984	1842.78
280.442	2266.22
280.9	2325.61
281.358	1561.83
281.816	1486.99
282.274	1475.76
282.732	1513.98
283.19	1522.52
283.648	1324.05
284.106	1405.58
284.564	1415.82
285.021	1359.56
285.479	1013.75
285.937	913.05
286.394	830.74
286.852	844.59
287.309	898.79
287.767	913.83
288.224	882.37
288.682	962.54
289.139	1063.96
289.596	989.82
290.053	1010.22
290.511	1245.31
290.968	1505.74
291.425	1992.55
291.882	1710.41
292.339	1500.28
292.796	1425.98
293.252	1338.11
293.709	1092.2
294.166	986.25
294.623	1070.43
295.079	1014.99
295.536	1044.08
295.992	941.56
296.449	940.46
296.905	956.24
297.362	931.15
297.818	986.35
298.274	1023.64
298.731	1020.91
299.187	997.71
299.643	1069.97
300.099	1313.08
300.555	1425.91
301.011	1213.9
301.467	1211.33
301.923	1405.45
302.379	1362.66
302.835	1356.03
303.291	1358.98
303.746	1525.63
304.202	1924.53
304.658	1962.37
305.113	1336.12
305.569	1324.87
306.024	1408.19
306.479	1304.21
306.935	1128.49
307.39	1221.26
307.845	1137.74
308.301	1187.5
308.756	1184.01
309.211	1184.09
309.666	1220.81
310.121	1534.58
310.576	1565.46
311.031	1564.47
311.486	1770.32
311.94	1779.31
312.395	2404.65
312.85	4445.23
313.305	21292.77
313.759	114502.08
314.214	8359.47
314.668	6637.23
315.123	5619.68
315.577	2083.67
316.032	1890.2
316.486	2394.37
316.94	1942.18
317.394	1364.44
317.849	1084.7
318.303	1016.97
318.757	963.16
319.211	1037.06
319.665	919.51
320.119	941.55
320.572	1310.07
321.026	1238.19
321.48	1025.66
321.934	1071.97
322.387	1062.19
322.841	1146.91
323.295	1080.08
323.748	1199.17
324.202	1236.3
324.655	1489.05
325.108	2112.15
325.562	1522.73
326.015	1784.75
326.468	1361.77
326.921	1544.79
327.374	1475.22
327.827	1551.2
328.28	1722.06
328.733	1200.43
329.186	1066.68
329.639	1021.5
330.092	851.4
330.545	811.1
330.997	840.64
331.45	949.71
331.903	1141.06
332.355	1898.21
332.808	1845.51
333.26	1532.07
333.713	1676.1
334.165	1676.12
334.617	2224.86
335.069	1781.91
335.522	3206.13
335.974	3493.99
336.426	3123.17
336.878	2135.88
337.33	1122.69
337.782	1120.17
338.234	1420.52
338.686	1667.24
339.137	1981.29
339.589	1890.75
340.041	1501.13
340.493	1296.27
340.944	1348.52
341.396	1478.5
341.847	1284.39
342.299	1582.25
342.75	1931.91
343.201	1678.23
343.653	1931.81
344.104	2381.13
344.555	1837.46
345.006	2755.64
345.457	2181.87
345.908	1687.45
346.359	1602.79
346.81	1260.62
347.261	1272.05
347.712	1235.25
348.163	1293.72
348.613	1355.33
349.064	1257.47
349.515	1113.03
349.965	1183.23
350.416	1379.1
350.866	1512.03
351.317	1667.89
351.767	2775.68
352.217	3518.46
352.668	2942.29
353.118	2746.8
353.568	2564.89
354.018	2067.98
354.468	2224.13
354.918	1601.29
355.368	1405.92
355.818	2016.34
356.268	5809.24
356.718	24825.12
357.168	6209
357.617	3144.39
358.067	3473.4
358.517	3252.6
358.966	3833.64
359.416	4377.05
359.865	4749.1
360.315	5697.25
360.764	2659.51
361.213	1508.43
361.663	1402.49
362.112	1723.92
362.561	2757.92
363.01	2103.94
363.459	1773.72
363.908	1895.19
364.357	1634.6
364.806	2718.45
365.255	1853.67
365.703	1728.13
366.152	1735.02
366.601	1444.86
367.05	1207.83
367.498	1105.3
367.947	1153.89
368.395	1202.05
368.844	1095.95
369.292	1276.69
369.74	910.94
370.189	1380.04
370.637	1619.39
371.085	1414.64
371.533	1692.17
371.981	1581.31
372.429	1508.36
372.877	1576.99
373.325	1344.61
373.773	1373.02
374.221	1227.64
374.669	1515
375.116	1324
375.564	1325.68
376.012	1441.94
376.459	1231.65
376.907	1488.46
377.354	1808.99
377.801	1691.13
378.249	1959.36
378.696	2443.41
379.143	2993.83
379.591	3167.9
380.038	5406.43
380.485	4001.27
380.932	4372.04
381.379	4053.01
381.826	3078.56
382.273	2213.14
382.72	1979.55
383.166	1942.19
383.613	1293.94
384.06	1171.53
384.506	1388.29
384.953	1063.36
385.4	1082.1
385.846	991.08
386.292	990.19
386.739	1005.07
387.185	1040.65
387.631	1100.12
388.078	1159.51
388.524	1320.4
388.97	1303.81
389.416	1140.3
389.862	1239.32
390.308	1222.01
390.754	1303.68
391.2	1509.29
391.645	1657.19
392.091	1730.39
392.537	1785.7
392.983	1865.23
393.428	1929.91
393.874	2170.9
394.319	2354.29
394.765	2465.82
395.21	2809.97
395.655	2922.7
396.101	2991.97
396.546	2947.17
396.991	3226.33
397.436	3266.1
397.881	3450.71
398.326	3584.17
398.771	3690.2
399.216	3492.67
399.661	3381.39
400.106	3576.29
400.551	3860.38
400.995	3633.43
401.44	3748.31
401.885	3657.85
402.329	3816.47
402.774	3764.14
403.218	3733.01
403.663	3704.18
404.107	3915.78
404.551	4062.24
404.995	3858.08
405.44	3854.22
405.884	4055.67
406.328	4049.76
406.772	4149.1
407.216	3896.24
407.66	3899.93
408.104	3857.43
408.547	3747.99
408.991	3747.83
409.435	3712.74
409.879	3743.31
410.322	3776.49
410.766	3724.94
411.209	3631.32
411.653	3589
412.096	3607.72
412.54	3702.19
412.983	3755.32
413.426	3826.33
413.869	3897.94
414.312	3885.78
414.756	3820.66
415.199	3715.07
415.642	3672.8
416.085	3731.93
416.527	3757.77
416.97	3868.5
417.413	3708.2
417.856	3709.44
418.298	3703.86
418.741	3694.07
419.184	3703.28
419.626	3871.52
420.069	3883.46
420.511	3917.01
420.953	3858.37
421.396	3852.7
421.838	3787.59
422.28	3900.02
422.722	3948.46
423.164	4060.55
423.606	4050.35
424.048	4114.72
424.49	3957.69
424.932	3990.45
425.374	3987.27
425.816	4080.75
426.258	4137.03
426.699	4124.69
427.141	3977.49
427.582	3972.11
428.024	3909.79
428.465	3900.24
428.907	3845.64
429.348	3873.31
429.789	3927.22
430.231	3882.34
430.672	3983.53
431.113	3971.98
431.554	4050.9
431.995	4132.93
432.436	4143.42
432.877	4198.31
433.318	4222.8
433.759	4288.64
434.2	4348.78
434.64	4358.52
435.081	4430.39
435.522	4267.72
435.962	4195.45
436.403	4164.69
436.843	4291.19
437.284	4266.9
437.724	4203.93
438.164	4278.15
438.604	4225.35
439.045	4100.91
439.485	3979.04
439.925	3966.66
440.365	3936.87
440.805	3938.25
441.245	3931.97
441.685	3814.66
442.125	3813.31
442.564	3857.09
443.004	3776.01
443.444	3784.83
443.883	3816.92
444.323	3839.28
444.762	3893.35
445.202	3978.96
445.641	4066.12
446.081	4086.69
446.52	4153.36
446.959	4150.95
447.398	4090.79
447.837	4096.73
448.276	4073.41
448.716	4141.27
449.154	4194.46
449.593	4081.39
450.032	4060.9
450.471	4000.47
450.91	4004.83
451.349	3984.09
451.787	3965.33
452.226	4014.01
452.664	3999.77
453.103	3994.34
453.541	3995.78
453.98	3971.35
454.418	4008.65
454.856	3934.63
455.295	3919.52
455.733	3934.14
456.171	3948.8
456.609	3931.32
457.047	3922.75
457.485	3959.11
457.923	3950.6
458.361	3893.01
458.798	3910.01
459.236	3905.56
459.674	3955.68
460.111	3989.42
460.549	3962.61
460.987	3969.22
461.424	3981.68
461.862	3978.42
462.299	3938.47
462.736	3946.1
463.173	3970.05
463.611	3917.65
464.048	3913.38
464.485	3957.38
464.922	3948.49
465.359	3965.73
465.796	3888.62
466.233	3890.31
466.67	3870.83
467.106	3881.72
467.543	3886.77
467.98	3881.32
468.416	3847.25
468.853	3877.24
469.29	3815.99
469.726	3813.41
470.162	3748.57
470.599	3794.3
471.035	3805.83
471.471	3764.23
471.907	3799.24
472.344	3809.53
472.78	3836.12
473.216	3907.94
473.652	3869.5
474.088	3876.89
474.523	3876.8
474.959	3931.43
475.395	3903.81
475.831	3882.71
476.266	3911.39
476.702	3905.06
477.138	3865.7
477.573	3858.72
478.008	3845.61
478.444	3858.77
478.879	3875.9
479.314	3880.23
479.75	3862.24
480.185	3868.55
480.62	3884.46
481.055	3881.27
481.49	3875.59
481.925	3889.16
482.36	3878.91
482.795	3909.75
483.229	3932.05
483.664	3935.78
484.099	3890.57
484.534	3891.7
484.968	3878.47
485.403	3853.92
485.837	3821.76
486.271	3793.64
486.706	3795.37
487.14	3780.63
487.574	3746.5
488.009	3742.39
488.443	3729.01
488.877	3757.64
489.311	3767.65
489.745	3806.01
490.179	3829.09
490.613	3878.44
491.046	3905.66
491.48	3924.4
491.914	3917.51
492.348	3939.07
492.781	3954.64
493.215	3966.97
493.648	3992.42
494.082	4029.77
494.515	4028.22
494.948	4060.26
495.382	4086.15
495.815	4097.82
496.248	4110.39
496.681	4166.58
497.114	4210.39
497.547	4238.91
497.98	4273.29
498.413	4263.33
498.846	4280.12
499.279	4305.18
499.711	4320.41
500.144	4318.13
500.577	4346.81
501.009	4386.14
501.442	4415
501.874	4412.4
502.306	4433.08
502.739	4469.95
503.171	4566.2
503.603	4592.94
504.036	4643.38
504.468	4663.95
504.9	4716.39
505.332	4755.04
505.764	4776.84
506.196	4816.01
506.627	4885.26
507.059	4937.92
507.491	4986.55
507.923	4960.19
508.354	5026.7
508.786	5075.99
509.217	5160.05
509.649	5222.17
510.08	5301.75
510.512	5354.77
510.943	5400.57
511.374	5425.72
511.805	5502.16
512.237	5573.48
512.668	5702.73
513.099	5786.2
513.53	5842.75
513.961	5856.99
514.391	5931.65
514.822	6006.36
515.253	6110.44
515.684	6172.78
516.114	6265.13
516.545	6315.57
516.975	6396.24
517.406	6446.17
517.836	6444.27
518.267	6482.67
518.697	6577.8
519.127	6610.18
519.558	6651.87
519.988	6670.28
520.418	6716.31
520.848	6788.77
521.278	6816.78
521.708	6695.02
522.138	6728.11
522.567	6836.95
522.997	6901.34
523.427	6913.95
523.857	6927.82
524.286	6923.97
524.716	6946.28
525.145	6985.77
525.575	6993.25
526.004	7021.48
526.433	7122.24
526.863	7090.1
527.292	7017.3
527.721	7028.52
528.15	7056.84
528.579	7059.34
529.008	7095.49
529.437	7174.67
529.866	7202.82
530.295	7240.17
530.724	7248.1
531.152	7322.08
531.581	7343.74
532.01	7388.59
532.438	7395.61
532.867	7427.47
533.295	7475.45
533.723	7476.55
534.152	7446.71
534.58	7430.79
535.008	7354.28
535.436	7345.6
535.865	7362.76
536.293	7405.19
536.721	7443.48
537.149	7513.57
537.576	7493.12
538.004	7524.65
538.432	7544.73
538.86	7528.75
539.287	7550.1
539.715	7595.23
540.143	7610.57
540.57	7600.21
540.998	7597.35
541.425	7513.14
541.852	7454.31
542.28	7473.46
542.707	7433.3
543.134	7397.91
543.561	7400
543.988	7386.46
544.415	7404.05
544.842	7397.95
545.269	7381.73
545.696	7400.95
546.123	7477.15
546.549	7449.47
546.976	7411.03
547.403	7421.85
547.829	7445.31
548.256	7470.95
548.682	7472.38
549.108	7455.11
549.535	7471.1
549.961	7493.94
550.387	7452.81
550.813	7436.54
551.24	7475.43
551.666	7492.86
552.092	7464.69
552.518	7450.51
552.943	7428.99
553.369	7468.68
553.795	7497.15
554.221	7500.88
554.646	7489.73
555.072	7521.32
555.498	7541.61
555.923	7569.83
556.349	7616.37
556.774	7639.19
557.199	7633.91
557.625	7660.35
558.05	7628.63
558.475	7667.45
558.9	7657.32
559.325	7617.73
559.75	7595.77
560.175	7570.31
560.6	7547.2
561.025	7543.16
561.449	7548.04
561.874	7566.03
562.299	7562.29
562.723	7577.45
563.148	7516.84
563.572	7520.88
563.997	7548.92
564.421	7561.62
564.846	7544.94
565.27	7535.34
565.694	7500.36
566.118	7519.42
566.542	7519.69
566.966	7472.51
567.39	7424.73
567.814	7356.08
568.238	7330.52
568.662	7333.53
569.086	7325.79
569.509	7352.91
569.933	7288.93
570.357	7271.95
570.78	7199.55
571.204	7156.76
571.627	7133.61
572.05	7149.62
572.474	7171.32
572.897	7145.98
573.32	7134.6
573.743	7122.14
574.166	7061.99
574.589	7085.2
575.012	7066.19
575.435	7079.29
575.858	7061.36
576.281	7038.26
576.704	7002.5
577.126	6986.47
577.549	6971.2
577.972	6963.71
578.394	6946.13
578.817	6937.8
579.239	6892.38
579.661	6868.16
580.084	6830.2
580.506	6809.01
580.928	6825.64
581.35	6804.59
581.772	6806.12
582.194	6762.97
582.616	6715.11
583.038	6661.03
583.46	6627.91
583.882	6614.75
584.303	6634.16
584.725	6610.52
585.147	6568.55
585.568	6560.64
585.99	6540.31
586.411	6491.13
586.833	6484.9
587.254	6441.02
587.675	6457.45
588.096	6466.6
588.518	6402.53
588.939	6296.35
589.36	6257.04
589.781	6231.69
590.202	6116.78
590.623	6111.29
591.043	6136.37
591.464	6104.53
591.885	6093.31
592.305	6071.71
592.726	6017.56
593.147	6022.07
593.567	5999.12
593.987	5968.14
594.408	5942
594.828	5939.41
595.248	5901.92
595.669	5816.92
596.089	5789.15
596.509	5765.72
596.929	5705.63
597.349	5697.56
597.769	5646.48
598.189	5605.3
598.608	5591.21
599.028	5578.56
599.448	5565.69
599.867	5508.81
600.287	5486.86
600.706	5459.33
601.126	5411.14
601.545	5396.94
601.965	5387.61
602.384	5360.74
602.803	5367.9
603.222	5344.32
603.641	5317.2
604.061	5293.22
604.48	5271.4
604.898	5291.42
605.317	5300.14
605.736	5293.81
606.155	5264.69
606.574	5211.08
606.992	5213.03
607.411	5177.1
607.829	5135.14
608.248	5106.21
608.666	5085.66
609.085	5067.78
609.503	5020.59
609.921	4979.06
610.339	4969.26
610.758	4955.82
611.176	4925.74
611.594	4880.47
612.012	4857.96
612.43	4851.11
612.847	4859.39
613.265	4837.76
613.683	4832.35
614.101	4820.12
614.518	4797.45
614.936	4756.82
615.353	4697.22
615.771	4682.58
616.188	4679.45
616.606	4664.65
617.023	4641.54
617.44	4594.93
617.857	4583.54
618.274	4558.81
618.691	4536.04
619.108	4500.42
619.525	4471.97
619.942	4482.39
620.359	4476.42
620.776	4445.07
621.192	4409.44
621.609	4378.11
622.026	4375.45
622.442	4366.48
622.859	4358.09
623.275	4316.79
623.691	4318.17
624.108	4336.47
624.524	4365.98
624.94	4343.21
625.356	4352.59
625.772	4380.01
626.188	4403.89
626.604	4392.13
627.02	4364.7
627.436	4341.25
627.852	4346.02
628.268	4365.41
628.683	4322.15
629.099	4285.71
629.514	4270.42
629.93	4281.52
630.345	4291.41
630.761	4277.44
631.176	4289.76
631.591	4266.81
632.007	4247.33
632.422	4244.68
632.837	4210.27
633.252	4199.89
633.667	4168.21
634.082	4139.42
634.497	4097.16
634.911	4032.01
635.326	4024.75
635.741	3969.66
636.155	3942.96
636.57	3942.76
636.984	3937.84
637.399	3934.83
637.813	3933.97
638.228	3926.48
638.642	3935.69
639.056	3900.11
639.47	3899.83
639.884	3866.18
640.298	3840.81
640.712	3832.68
641.126	3794.38
641.54	3768.24
641.954	3762.69
642.368	3724.75
642.781	3690.55
643.195	3630.63
643.609	3625.34
644.022	3599.34
644.436	3577.08
644.849	3530.91
645.262	3485.27
645.676	3480.48
646.089	3451.14
646.502	3383.75
646.915	3357.43
647.328	3308.94
647.741	3302.3
648.154	3263.04
648.567	3246.65
648.98	3208.21
649.393	3216.88
649.805	3211.17
650.218	3196.19
650.631	3155.6
651.043	3147.26
651.456	3132.72
651.868	3131.97
652.28	3175.02
652.693	3194.38
653.105	3186.11
653.517	3178.95
653.929	3146.5
654.341	3138.86
654.753	3082.76
655.165	3093.52
655.577	3080.9
655.989	3070.55
656.401	3057.2
656.813	2962.32
657.224	2934.49
657.636	2896.83
658.047	2884.21
658.459	2865.94
658.87	2876.55
659.282	2870.87
659.693	2821.27
660.104	2790.02
660.515	2759.59
660.926	2763.58
661.338	2769.97
661.749	2761
662.159	2734.83
662.57	2733.6
662.981	2723.46
663.392	2701.53
663.803	2718
664.213	2716.68
664.624	2710.19
665.035	2724.94
665.445	2685.13
665.855	2660.44
666.266	2632.88
666.676	2627.16
667.086	2598.13
667.497	2592.97
667.907	2569.78
668.317	2534.73
668.727	2508.76
669.137	2507.39
669.547	2492.25
669.956	2496.82
670.366	2498.26
670.776	2496.1
671.186	2504.37
671.595	2505.94
672.005	2511.27
672.414	2498.53
672.824	2484.91
673.233	2503
673.642	2503.32
674.052	2501.95
674.461	2495.95
674.87	2501.29
675.279	2481.2
675.688	2480.32
676.097	2471.11
676.506	2453.39
676.915	2494.35
677.323	2493.48
677.732	2478.64
678.141	2468.12
678.549	2430.02
678.958	2422.26
679.366	2412.92
679.775	2426.55
680.183	2438.2
680.592	2449.3
681	2453.12
681.408	2418.96
681.816	2431.08
682.224	2444.97
682.632	2453.1
683.04	2517.69
683.448	2550.13
683.856	2580.13
684.264	2607.14
684.671	2631.06
685.079	2671.63
685.487	2720.41
685.894	2810.15
686.302	2867.13
686.709	2894.92
687.116	2943.6
687.524	2972.37
687.931	3008.34
688.338	3050.92
688.745	3098.05
689.152	3149.54
689.559	3214.63
689.966	3270.99
690.373	3272.56
690.78	3311.8
691.187	3398.79
691.593	3448.06
692	3485.67
692.407	3560.28
692.813	3660.43
693.22	3735.02
693.626	3823.17
694.032	3890.6
694.439	4013.64
694.845	4106.87
695.251	4232.6
695.657	4335.3
696.063	4501.87
696.469	4615.35
696.875	4709.57
697.281	4747.59
697.687	4791.84
698.093	4813.58
698.498	4899.82
698.904	4952.68
699.31	5063.48
699.715	5127.85
700.12	5258.06
700.526	5263.71
