Data from N_1_DIV_WI_4N_Splice17_11-32-14-507.txt Node
Date: Sat Mar 14 11:32:14 EDT 2020
User: sa697716
Spectrometer: FLMS03696
Trigger mode: 0
Integration Time (sec): 3.180400E-1
Scans to average: 20
Electric dark correction enabled: true
Nonlinearity correction enabled: true
Boxcar width: 5
XAxis mode: Wavelengths
Number of Pixels in Spectrum: 2048
>>>>>Begin Spectral Data<<<<<
187.83	-182447.48
188.298	1304.36
188.766	663.41
189.233	631.13
189.701	750.5
190.169	1067.32
190.636	371.52
191.104	320.96
191.571	8.28
192.039	-37.82
192.506	-105.11
192.974	160.71
193.441	-501.46
193.908	-133.64
194.375	6.36
194.842	-59.98
195.31	-51.14
195.777	52.64
196.244	172.62
196.711	76.58
197.177	62.2
197.644	19.96
198.111	45.89
198.578	45.85
199.045	-8.54
199.511	-38.45
199.978	-86.43
200.445	-36.02
200.911	-57.06
201.378	-161.01
201.844	-112.33
202.31	-226.72
202.777	-218.85
203.243	-133.36
203.709	-100.12
204.176	-82.54
204.642	-55.34
205.108	-40.19
205.574	-36.65
206.04	-53.38
206.506	-24.71
206.972	-36.47
207.438	-27.63
207.903	-44.06
208.369	-10.17
208.835	-2.18
209.301	-8.77
209.766	-27.07
210.232	-33.13
210.697	-50.97
211.163	-84.91
211.628	-181.1
212.094	-101.57
212.559	-53.66
213.024	-27.83
213.49	-17.98
213.955	-50.47
214.42	-58.81
214.885	-43.72
215.35	-25.61
215.815	39.73
216.28	55.43
216.745	47.01
217.21	55.76
217.675	22.7
218.14	33.19
218.604	9.86
219.069	35.34
219.534	66.95
219.998	54.2
220.463	71.44
220.927	-1.99
221.392	-3.59
221.856	5.93
222.32	-56.23
222.785	-67.94
223.249	-96.87
223.713	-101.03
224.177	-101.12
224.642	-190.92
225.106	-230.22
225.57	-270.61
226.034	-101.87
226.497	-117.55
226.961	-51.85
227.425	10.03
227.889	27.7
228.353	27.97
228.816	26.03
229.28	67.48
229.744	-14.04
230.207	76.54
230.671	46.34
231.134	-103.43
231.597	-133.7
232.061	-249.16
232.524	-260.26
232.987	-178.4
233.45	-121.57
233.914	-116.1
234.377	-174.52
234.84	-139.62
235.303	-226.81
235.766	-225.59
236.229	-224.23
236.691	-152.19
237.154	-178.26
237.617	-131.95
238.08	-157.31
238.542	-208.14
239.005	-145.19
239.468	-124.56
239.93	-102.28
240.393	-82.45
240.855	-67.83
241.317	-80.56
241.78	-115.05
242.242	-89.99
242.704	-52.64
243.166	-24.08
243.629	9.4
244.091	16.07
244.553	22.92
245.015	35.81
245.477	32.45
245.939	36.84
246.4	56.55
246.862	96.35
247.324	91.33
247.786	30.45
248.247	-45.64
248.709	-172.6
249.17	-108.39
249.632	-45.26
250.093	-25.56
250.555	-22.33
251.016	16.8
251.477	37.13
251.939	24.41
252.4	8.64
252.861	-24.92
253.322	3.8
253.783	-34.08
254.244	-93.03
254.705	-131.11
255.166	-168.38
255.627	-154.74
256.088	-230.22
256.549	-282.92
257.009	-249.35
257.47	-302.57
257.931	-236.33
258.391	-152.98
258.852	-128.43
259.312	-145.27
259.773	-187.64
260.233	-96.6
260.694	-71.43
261.154	-88.44
261.614	-24.74
262.074	-17.24
262.534	-9.5
262.994	17.7
263.455	-3.84
263.915	18.26
264.374	26.16
264.834	29.65
265.294	11.03
265.754	22.39
266.214	11.42
266.673	2.95
267.133	-7.3
267.593	-13.01
268.052	-3.51
268.512	-13.63
268.971	30.31
269.431	79.4
269.89	82.3
270.349	98.14
270.809	122.28
271.268	163.79
271.727	217.8
272.186	158.88
272.645	115.96
273.104	21.22
273.563	32.59
274.022	-66.99
274.481	-79.07
274.94	-67.09
275.399	-50.93
275.857	-96.83
276.316	-182.67
276.775	-162.49
277.233	-156.03
277.692	-127.24
278.15	-111.38
278.609	-63.11
279.067	-70.74
279.525	-37.03
279.984	-66.32
280.442	-72.44
280.9	13.49
281.358	38.01
281.816	47.67
282.274	27.13
282.732	-14.69
283.19	-32.05
283.648	-47.82
284.106	-39.79
284.564	-61.68
285.021	-29.44
285.479	-23.95
285.937	-50.83
286.394	-43.52
286.852	-52.8
287.309	-53.52
287.767	0.55
288.224	18.11
288.682	17.49
289.139	16.07
289.596	19.6
290.053	-2.47
290.511	-32.12
290.968	-9.26
291.425	-40.89
291.882	20.9
292.339	53.55
292.796	4.55
293.252	-7.44
293.709	19.84
294.166	27.86
294.623	23.99
295.079	14.82
295.536	43.7
295.992	28.23
296.449	27.25
296.905	37.22
297.362	47.88
297.818	39.33
298.274	44.37
298.731	22.75
299.187	36.7
299.643	39.83
300.099	53.04
300.555	57.03
301.011	84.99
301.467	150.58
301.923	123.35
302.379	119.64
302.835	104.08
303.291	99.47
303.746	117.07
304.202	117.04
304.658	101.52
305.113	94.42
305.569	92.69
306.024	66.69
306.479	3.47
306.935	25.61
307.39	-6
307.845	1.97
308.301	23.65
308.756	-7.08
309.211	-12.81
309.666	-15.63
310.121	-15.28
310.576	-44.1
311.031	-80.15
311.486	-153.18
311.94	-186.93
312.395	-258.75
312.85	-509.92
313.305	-3504.45
313.759	-11621.54
314.214	-840.15
314.668	-571.75
315.123	-436.36
315.577	-134.78
316.032	-105.77
316.486	-115.73
316.94	-32.02
317.394	-4.47
317.849	21.38
318.303	14.82
318.757	9.14
319.211	1.61
319.665	5.01
320.119	-4.33
320.572	-14.2
321.026	20.69
321.48	32.02
321.934	-10.82
322.387	-4.82
322.841	-13.93
323.295	38.31
323.748	2.83
324.202	27.54
324.655	30.99
325.108	103.05
325.562	87.97
326.015	39.26
326.468	9.73
326.921	42.63
327.374	57.8
327.827	71.66
328.28	50.88
328.733	47.89
329.186	34.98
329.639	24.77
330.092	6.24
330.545	20.25
330.997	27.72
331.45	66.73
331.903	84.89
332.355	101.74
332.808	69.66
333.26	41.07
333.713	41.43
334.165	31.46
334.617	32.31
335.069	-27.94
335.522	-175.28
335.974	-166.88
336.426	-270.05
336.878	-238.85
337.33	-110.05
337.782	-111.43
338.234	-103.81
338.686	-104.23
339.137	-117.24
339.589	-103.94
340.041	-45.7
340.493	-30.69
340.944	-30.49
341.396	-35.18
341.847	-13.97
342.299	20.14
342.75	59.44
343.201	11.07
343.653	8.02
344.104	-41.34
344.555	-33.9
345.006	-112.63
345.457	3.74
345.908	2.81
346.359	43.9
346.81	29.2
347.261	-14.27
347.712	-44.89
348.163	-45.94
348.613	-15.62
349.064	13.47
349.515	16.63
349.965	33.2
350.416	-0.58
350.866	-19.67
351.317	-39.06
351.767	-63.25
352.217	-88.69
352.668	-13.18
353.118	-5.08
353.568	-143.79
354.018	-79.86
354.468	-81.19
354.918	-56.15
355.368	-40.83
355.818	-76.64
356.268	-433.22
356.718	-1194.23
357.168	-153.25
357.617	-90.91
358.067	-126.64
358.517	-26.02
358.966	-0.49
359.416	77.65
359.865	31.43
360.315	-72.39
360.764	-3.09
361.213	25.54
361.663	-48
362.112	-101.17
362.561	-198.74
363.01	-151.24
363.459	-151.15
363.908	-224.39
364.357	-177.82
364.806	-317.37
365.255	-218.81
365.703	-157.28
366.152	-131.28
366.601	-54.99
367.05	2.81
367.498	33.81
367.947	21.47
368.395	23.41
368.844	44.68
369.292	7.7
369.74	30.75
370.189	9.18
370.637	-16.86
371.085	-20.77
371.533	-53.47
371.981	-121.63
372.429	-109.43
372.877	-110.33
373.325	-100.49
373.773	-127.67
374.221	-119.02
374.669	-164.49
375.116	-107.63
375.564	-93.16
376.012	-117.69
376.459	-81.28
376.907	-88.08
377.354	-147.8
377.801	-111.56
378.249	-112.3
378.696	-155.94
379.143	-182.44
379.591	-190.4
380.038	-419.77
380.485	-309.47
380.932	-357.04
381.379	-207.85
381.826	-76.57
382.273	-19.1
382.72	-35.27
383.166	-19.8
383.613	-0.94
384.06	-1.76
384.506	-9.23
384.953	6.28
385.4	-12.62
385.846	-1.54
386.292	-29.25
386.739	-40.16
387.185	-56.24
387.631	-58.37
388.078	-37.39
388.524	-31.56
388.97	-23.98
389.416	-11.53
389.862	-14.74
390.308	-1.52
390.754	-2.96
391.2	-3.45
391.645	-18.77
392.091	14.21
392.537	35.75
392.983	21.58
393.428	41.01
393.874	34.86
394.319	44.78
394.765	57.37
395.21	50.04
395.655	43.84
396.101	41.55
396.546	48.83
396.991	21.28
397.436	8.22
397.881	1.15
398.326	-15.81
398.771	-3.65
399.216	-13.24
399.661	-15.51
400.106	-12.23
400.551	-5.82
400.995	-3.27
401.44	-1.39
401.885	5.84
402.329	6.76
402.774	13.48
403.218	21.1
403.663	17.23
404.107	22.05
404.551	26.73
404.995	23.35
405.44	14.48
405.884	12.3
406.328	6.44
406.772	4.62
407.216	4.76
407.66	-1
408.104	-9.06
408.547	-8.06
408.991	-7.82
409.435	-9.31
409.879	-5.53
410.322	-0.83
410.766	2.27
411.209	3.59
411.653	1.7
412.096	4.72
412.54	4.55
412.983	7.18
413.426	9.24
413.869	8.37
414.312	11.62
414.756	8.07
415.199	7.56
415.642	8.24
416.085	11.55
416.527	10.71
416.97	9.08
417.413	12.73
417.856	10.85
418.298	10.36
418.741	6.85
419.184	1.83
419.626	-2.2
420.069	-2.83
420.511	-2.32
420.953	-1.26
421.396	1.78
421.838	-0.66
422.28	-2.98
422.722	-0.14
423.164	-2.81
423.606	-0.8
424.048	0.48
424.49	4.53
424.932	2.56
425.374	1.71
425.816	-2.89
426.258	-4.43
426.699	-3.66
427.141	-0.27
427.582	-3.1
428.024	-3.01
428.465	-4.69
428.907	-4.78
429.348	-6.73
429.789	-3.3
430.231	-0.29
430.672	1.42
431.113	2.12
431.554	2.62
431.995	-0.56
432.436	2.48
432.877	4.12
433.318	7.5
433.759	5.97
434.2	6.89
434.64	5.09
435.081	3.88
435.522	3.91
435.962	2.55
436.403	4.62
436.843	2.74
437.284	0.41
437.724	-2.24
438.164	-8.41
438.604	-7.06
439.045	-3.63
439.485	-1.59
439.925	-3.32
440.365	-3.48
440.805	-3.6
441.245	-3.37
441.685	-2.72
442.125	-3.88
442.564	-2.74
443.004	0.72
443.444	0.52
443.883	-1.24
444.323	-3.13
444.762	-5.21
445.202	-6.59
445.641	-4.08
446.081	-7.34
446.52	-5.82
446.959	-3.25
447.398	-1.35
447.837	-1.26
448.276	-1.99
448.716	-0.69
449.154	-1.64
449.593	0.36
450.032	1.98
450.471	-2.4
450.91	-1.28
451.349	0.33
451.787	-1.3
452.226	-3.29
452.664	-2.67
453.103	-2.61
453.541	-4.69
453.98	-1.46
454.418	-1.68
454.856	0.03
455.295	1.7
455.733	2.01
456.171	0.1
456.609	1.59
457.047	2.11
457.485	3.18
457.923	4.5
458.361	4.72
458.798	2.8
459.236	2.62
459.674	0.16
460.111	0.89
460.549	1.72
460.987	1.24
461.424	0.57
461.862	0.95
462.299	0.24
462.736	1.43
463.173	1.01
463.611	4.76
464.048	5.48
464.485	6.46
464.922	6.17
465.359	4.38
465.796	11.59
466.233	11.52
466.67	13.55
467.106	14.79
467.543	12.87
467.98	12.48
468.416	9.33
468.853	7.94
469.29	7.7
469.726	6.37
470.162	6.85
470.599	1.16
471.035	0.49
471.471	-1.22
471.907	-2.91
472.344	-3.18
472.78	-2.6
473.216	-2.52
473.652	-1.82
474.088	-3.28
474.523	-1.98
474.959	-2.52
475.395	-3.11
475.831	-2.33
476.266	-3.05
476.702	-3.45
477.138	-3
477.573	-3.13
478.008	-3.09
478.444	-2.31
478.879	0.18
479.314	0.4
479.75	0.67
480.185	1.22
480.62	0.77
481.055	0.92
481.49	1.33
481.925	2.35
482.36	4.57
482.795	3.66
483.229	2.62
483.664	1.78
484.099	1.16
484.534	1.94
484.968	2.24
485.403	2.11
485.837	1.37
486.271	1.62
486.706	0.62
487.14	-0.86
487.574	-0.39
488.009	-0.16
488.443	-0.42
488.877	0.69
489.311	-0.77
489.745	-0.73
490.179	-0.37
490.613	1.95
491.046	1.31
491.48	1.38
491.914	1.15
492.348	0.84
492.781	1.1
493.215	0.71
493.648	-0.63
494.082	0.32
494.515	0.61
494.948	1.06
495.382	-1.04
495.815	-0.54
496.248	-0.09
496.681	-0.35
497.114	-0.84
497.547	-0.7
497.98	0.37
498.413	1.94
498.846	2.05
499.279	1.04
499.711	0.45
500.144	0.7
500.577	1.18
501.009	0.38
501.442	1.97
501.874	3.17
502.306	2.77
502.739	4.39
503.171	4.2
503.603	3.98
504.036	4.3
504.468	4.04
504.9	4.57
505.332	4.09
505.764	4.82
506.196	3.69
506.627	3.16
507.059	3.11
507.491	0.9
507.923	0.76
508.354	1.86
508.786	1.65
509.217	2
509.649	2.02
510.08	1.99
510.512	2.41
510.943	2.41
511.374	2.93
511.805	2.59
512.237	1.97
512.668	1.03
513.099	-0.42
513.53	-0.38
513.961	0.14
514.391	-0.37
514.822	0.34
515.253	0.31
515.684	0.31
516.114	0.16
516.545	0.82
516.975	1.17
517.406	1.24
517.836	1.32
518.267	2.02
518.697	2.46
519.127	2.34
519.558	1.76
519.988	1.57
520.418	1.59
520.848	0.89
521.278	0.1
521.708	19.01
522.138	19.42
522.567	19.09
522.997	18.55
523.427	17.6
523.857	18.11
524.286	18.18
524.716	17.81
525.145	18.24
525.575	18.73
526.004	18.43
526.433	0.07
526.863	-0.03
527.292	0.85
527.721	1.22
528.15	1.45
528.579	1.49
529.008	1.21
529.437	0.2
529.866	-0.55
530.295	-1.02
530.724	0.3
531.152	0.4
531.581	1.06
532.01	0.9
532.438	0.59
532.867	0.25
533.295	0.33
533.723	0.67
534.152	1.49
534.58	2.16
535.008	2.66
535.436	3.17
535.865	2.84
536.293	2.14
536.721	1.54
537.149	1.75
537.576	2.83
538.004	3.36
538.432	2.44
538.86	2.72
539.287	1.96
539.715	1.8
540.143	0.72
540.57	0.79
540.998	0.39
541.425	2
541.852	1.77
542.28	0.97
542.707	0.54
543.134	1.22
543.561	1.43
543.988	2.07
544.415	2.02
544.842	1.64
545.269	1.87
545.696	2.88
546.123	2.48
546.549	2.46
546.976	2.52
547.403	2.6
547.829	1.92
548.256	1.38
548.682	1.4
549.108	1.88
549.535	2.06
549.961	1.54
550.387	1.06
550.813	1.93
551.24	2.16
551.666	1.97
552.092	1.47
552.518	1.82
552.943	2.23
553.369	1.74
553.795	1.69
554.221	1.97
554.646	2.25
555.072	3.4
555.498	1.68
555.923	0.88
556.349	0.55
556.774	0.5
557.199	0.45
557.625	-0.45
558.05	-0.12
558.475	-0.61
558.9	-0.51
559.325	-0.22
559.75	-0.85
560.175	-0.47
560.6	-0.87
561.025	-1.41
561.449	-0.98
561.874	-1.23
562.299	0.16
562.723	-0.37
563.148	-0.29
563.572	-0.73
563.997	-1.12
564.421	-2.22
564.846	-2.86
565.27	-1.89
565.694	-1.17
566.118	-1.36
566.542	-0.16
566.966	-1.09
567.39	-0.88
567.814	-0.33
568.238	-0.19
568.662	-0.47
569.086	-0
569.509	-0.18
569.933	0.83
570.357	0.95
570.78	0.85
571.204	1.41
571.627	1.36
572.05	1.62
572.474	2.2
572.897	2.6
573.32	3.57
573.743	3.72
574.166	4.54
574.589	3.47
575.012	3.41
575.435	2.96
575.858	2.01
576.281	2.55
576.704	2.4
577.126	0.94
577.549	0.27
577.972	-0.48
578.394	-0.55
578.817	0.96
579.239	0.96
579.661	0.94
580.084	2.37
580.506	2.51
580.928	1.78
581.35	1.89
581.772	2.1
582.194	2.62
582.616	2.14
583.038	1.57
583.46	0.14
583.882	0.47
584.303	-0.43
584.725	-1.9
585.147	1.87
585.568	2.73
585.99	2.37
586.411	3.02
586.833	3.68
587.254	4.6
587.675	4.11
588.096	3.68
588.518	3.47
588.939	4.21
589.36	5.2
589.781	0.34
590.202	2.45
590.623	3.08
591.043	2.27
591.464	1.57
591.885	1.64
592.305	2.11
592.726	2.32
593.147	2.78
593.567	3.43
593.987	3.17
594.408	3.28
594.828	0.61
595.248	1.14
595.669	2.67
596.089	2.57
596.509	1.91
596.929	1.89
597.349	1.95
597.769	1.54
598.189	1.08
598.608	0.52
599.028	0.28
599.448	0.16
599.867	-0.63
600.287	-1.32
600.706	-0.75
601.126	-0.6
601.545	0.53
601.965	0.28
602.384	0.31
602.803	0.34
603.222	1.07
603.641	0.82
604.061	1.54
604.48	1.21
604.898	0.32
605.317	-0.21
605.736	-0.37
606.155	-0.78
606.574	-0.77
606.992	-0.59
607.411	-0.09
607.829	-0.98
608.248	-0.6
608.666	-1.01
609.085	-0.64
609.503	-0.24
609.921	0.16
610.339	0.54
610.758	0.14
611.176	0.28
611.594	0.58
612.012	0.19
612.43	1.4
612.847	1.82
613.265	2.41
613.683	2.4
614.101	2.61
614.518	1.95
614.936	1.63
615.353	2.25
615.771	2.29
616.188	2.07
616.606	2.01
617.023	1.8
617.44	1.4
617.857	0.21
618.274	0.39
618.691	0.77
619.108	1.35
619.525	1.27
619.942	0.93
620.359	0.93
620.776	0.71
621.192	1.84
621.609	2.22
622.026	2.63
622.442	3.33
622.859	2.94
623.275	2.23
623.691	1.3
624.108	1.62
624.524	1.41
624.94	1.77
625.356	1.66
625.772	0.14
626.188	-0.89
626.604	-0.93
627.02	-1.27
627.436	-1.07
627.852	0.46
628.268	1.47
628.683	1.15
629.099	0.91
629.514	0.21
629.93	-0.33
630.345	-0.19
630.761	0.01
631.176	0.29
631.591	2.83
632.007	3
632.422	1.68
632.837	0.76
633.252	2.29
633.667	2.66
634.082	2.76
634.497	3.57
634.911	5.16
635.326	5.13
635.741	5.4
636.155	3.72
636.57	4.3
636.984	4.46
637.399	6.04
637.813	4.74
638.228	5.09
638.642	4.84
639.056	3.81
639.47	2.63
639.884	2.54
640.298	1.93
640.712	1.38
641.126	0.6
641.54	-0.18
641.954	-2.52
642.368	-2.32
642.781	-0.73
643.195	-0.62
643.609	0.68
644.022	0.14
644.436	-0.1
644.849	-0.8
645.262	-0.68
645.676	-1.7
646.089	-1.11
646.502	0.12
646.915	-0.56
647.328	-1.39
647.741	-1.21
648.154	-1.71
648.567	1.43
648.98	2.27
649.393	3.04
649.805	2.68
650.218	3.48
650.631	3.41
651.043	3.85
651.456	4.77
651.868	3.98
652.28	3.27
652.693	3.04
653.105	0.68
653.517	-0.05
653.929	-0.74
654.341	0.05
654.753	1.06
655.165	1.33
655.577	0.75
655.989	0.37
656.401	-1.37
656.813	0.09
657.224	-0.09
657.636	-0.83
658.047	0.32
658.459	1.16
658.87	-0.74
659.282	-1.86
659.693	-1.44
660.104	-0.44
660.515	0
660.926	0.67
661.338	0.55
661.749	-0.08
662.159	0.92
662.57	-0.32
662.981	-0.27
663.392	1.45
663.803	1.86
664.213	1.63
664.624	1.18
665.035	0.52
665.445	0.36
665.855	0.6
666.266	2.05
666.676	1.7
667.086	1.07
667.497	1.84
667.907	1.6
668.317	1.09
668.727	3.61
669.137	2.43
669.547	2.77
669.956	2.09
670.366	1.96
670.776	2.14
671.186	2.23
671.595	2.66
672.005	1.37
672.414	1.47
672.824	2.88
673.233	0.14
673.642	0.97
674.052	1.33
674.461	3.12
674.87	2.69
675.279	3.31
675.688	1.6
676.097	2.98
676.506	2.82
676.915	2.21
677.323	2.01
677.732	2.11
678.141	1.7
678.549	0.74
678.958	-0.88
679.366	-1.87
679.775	-3.27
680.183	-0.71
680.592	-1.05
681	-0.77
681.408	-0.26
681.816	-0.8
682.224	-0.92
682.632	-0.06
683.04	0.04
683.448	0
683.856	2.18
684.264	3.26
684.671	1.9
685.079	0.37
685.487	-1.01
685.894	-2.19
686.302	-2.92
686.709	-2.91
687.116	-2.92
687.524	-1.57
687.931	0.8
688.338	0.19
688.745	-1.71
689.152	-2.53
689.559	-1.59
689.966	1.47
690.373	2.29
690.78	3.54
691.187	3.81
691.593	3.81
692	2.5
692.407	2.14
692.813	4.61
693.22	5.86
693.626	5.58
694.032	6.59
694.439	5.46
694.845	5.56
695.251	4.79
695.657	4.99
696.063	4.19
696.469	4.24
696.875	4.24
697.281	1.52
697.687	1.28
698.093	2.13
698.498	2.16
698.904	1.18
699.31	0.89
699.715	2.89
700.12	2.5
700.526	2.97
700.931	3.31
701.337	3.25
701.742	4.07
702.147	3.68
702.552	3.85
702.957	2.43
703.362	2.69
703.767	2.16
704.172	-0.03
704.577	-0.56
704.981	-1.8
705.386	-1.87
705.791	-2.1
706.195	-3.68
706.6	-3.44
707.004	-5.66
707.408	-5.13
707.813	-4.02
708.217	-3.29
708.621	-3.19
709.025	-2.68
709.43	-0.59
709.834	-0.88
710.237	-1.02
710.641	-0.31
711.045	0.27
711.449	2.48
711.853	4.74
712.256	3.68
712.66	3.51
713.064	4.11
713.467	4.64
713.87	3.55
714.274	5.01
714.677	5.27
715.08	6.44
715.484	5.55
715.887	7.61
716.29	5.23
716.693	6.47
717.096	6.79
717.499	5.37
717.901	5.13
718.304	5.91
718.707	4.01
719.109	3.84
719.512	1.66
719.915	5.54
720.317	3.74
720.719	1.39
721.122	-0.02
721.524	1.48
721.926	5.73
722.328	4.76
722.731	3.29
723.133	4.01
723.535	3.2
723.937	3.74
724.338	2.54
724.74	2.67
725.142	50.43
725.544	53.79
725.945	64.3
726.347	61.41
726.748	62.38
727.15	64.79
727.551	67.02
727.952	65.56
728.354	63.99
728.755	62.72
729.156	61.14
729.557	16.76
729.958	13.42
730.359	2.45
730.76	1.68
731.161	1.72
731.562	-0.48
731.962	-4.12
732.363	-2.59
732.763	-1.6
733.164	-3.41
733.564	-2.13
733.965	-1.04
734.365	-0.08
734.766	-0.81
735.166	-0.9
735.566	-1.01
735.966	0.36
736.366	1.97
736.766	2.57
737.166	2.2
737.566	3.39
737.966	3.22
738.365	3.04
738.765	3.33
739.165	3.66
739.564	3.73
739.964	3
740.363	2.43
740.763	0.76
741.162	1.64
741.561	1.46
741.96	1.1
742.36	0.3
742.759	0.72
743.158	-0.97
743.557	-1.83
743.955	-1.65
744.354	-1.71
744.753	-2.18
745.152	-0.38
745.55	-2.32
745.949	-2.25
746.348	-2.12
746.746	-3.29
747.144	-1.48
747.543	-1.9
747.941	-2.09
748.339	-1.91
748.737	-0.92
749.136	-0.52
749.534	-1.87
749.932	0.55
750.33	0.49
750.727	-0.56
751.125	1.52
751.523	-0.59
751.921	2.38
752.318	3.67
752.716	5.43
753.113	4.43
753.511	4.21
753.908	5.52
754.305	8.3
754.703	8.4
755.1	9.49
755.497	9.16
755.894	8.19
756.291	6.27
756.688	6.66
757.085	4.14
757.482	6
757.878	7.82
758.275	7.79
758.672	0.07
759.068	0.13
759.465	-3.13
759.861	-6.44
760.258	-6.94
760.654	-7.36
761.05	-6.21
761.447	-4.62
761.843	-6.56
762.239	-6.02
762.635	-6.53
763.031	-8.32
763.427	-7.23
763.822	-3.04
764.218	-2.97
764.614	-3.21
765.01	-4.51
765.405	-6.49
765.801	-5.88
766.196	-5.49
766.592	-6.57
766.987	-6.24
767.382	-4.83
767.778	-5.19
