Data from N_1_DEC_NC_4N_Splice17_11-36-03-486.txt Node
Date: Sat Mar 14 11:36:03 EDT 2020
User: sa697716
Spectrometer: FLMS03696
Trigger mode: 0
Integration Time (sec): 3.180400E-1
Scans to average: 20
Electric dark correction enabled: true
Nonlinearity correction enabled: true
Boxcar width: 5
XAxis mode: Wavelengths
Number of Pixels in Spectrum: 2048
>>>>>Begin Spectral Data<<<<<
187.83	-120160.85
188.298	933.09
188.766	543.14
189.233	504.65
189.701	706.49
190.169	951.26
190.636	317.15
191.104	269.09
191.571	35.88
192.039	-55.95
192.506	-81.17
192.974	235.98
193.441	-445.09
193.908	-12.02
194.375	26.12
194.842	50.95
195.31	87.25
195.777	114.55
196.244	206.55
196.711	131.34
197.177	110.09
197.644	62.05
198.111	78.29
198.578	101.14
199.045	64.11
199.511	86.95
199.978	42.15
200.445	63.27
200.911	17.73
201.378	-51.24
201.844	-24.76
202.31	-101.23
202.777	-64.35
203.243	-27.93
203.709	-46.83
204.176	-65.85
204.642	-65.41
205.108	-37.96
205.574	-27.83
206.04	-39.9
206.506	-24.13
206.972	-39.32
207.438	-39.4
207.903	-66.15
208.369	-31.95
208.835	-18.17
209.301	-11.23
209.766	-23.18
210.232	-39.26
210.697	-92.87
211.163	-90.71
211.628	-158.94
212.094	-104.81
212.559	-39.09
213.024	12.65
213.49	22.74
213.955	16.81
214.42	-26.32
214.885	-7.27
215.35	6.61
215.815	85.49
216.28	61.71
216.745	41.69
217.21	64.65
217.675	18.66
218.14	12.28
218.604	-13.05
219.069	-1.98
219.534	46.93
219.998	20.95
220.463	32.65
220.927	-51.07
221.392	-45.98
221.856	-29.43
222.32	-98.37
222.785	-99.99
223.249	-140.62
223.713	-129
224.177	-121.8
224.642	-227.54
225.106	-276.46
225.57	-319.33
226.034	-155.21
226.497	-192.9
226.961	-130.67
227.425	-89.84
227.889	-119.57
228.353	-121.73
228.816	-328.98
229.28	-304.33
229.744	-286.15
230.207	-76.95
230.671	-53.53
231.134	-220.41
231.597	-199.67
232.061	-245.99
232.524	-285.18
232.987	-155.93
233.45	-81.54
233.914	-76.11
234.377	-115.71
234.84	-95.41
235.303	-166.01
235.766	-179.93
236.229	-201.05
236.691	-145.75
237.154	-194.55
237.617	-113.5
238.08	-120.86
238.542	-154.76
239.005	-81.24
239.468	-67.62
239.93	-69.34
240.393	-43.25
240.855	-36.36
241.317	-35.93
241.78	-69.89
242.242	-50.2
242.704	-29.32
243.166	-25.99
243.629	2.24
244.091	-15.78
244.553	-20.11
245.015	15.79
245.477	-9.48
245.939	-42.8
246.4	-27.45
246.862	-2.65
247.324	0.39
247.786	-84.91
248.247	-166.16
248.709	-308.43
249.17	-215.26
249.632	-122.93
250.093	-112.24
250.555	-67.13
251.016	-10.26
251.477	-7.19
251.939	0.47
252.4	-24.04
252.861	-27.35
253.322	20.98
253.783	24.41
254.244	15.9
254.705	-64.81
255.166	-104.38
255.627	-110.72
256.088	-158.11
256.549	-143.96
257.009	-136.42
257.47	-168.29
257.931	-157.28
258.391	-118.84
258.852	-133.56
259.312	-140.49
259.773	-155.92
260.233	-85.08
260.694	-55.17
261.154	-88.45
261.614	-37.69
262.074	-30.27
262.534	-20.13
262.994	1.4
263.455	-35.16
263.915	2.92
264.374	6.75
264.834	10.69
265.294	-14.22
265.754	-8.12
266.214	-8.07
266.673	-25.23
267.133	-56.38
267.593	-59.14
268.052	-79.55
268.512	-62.78
268.971	-40.54
269.431	-12.23
269.89	-43.55
270.349	-43.39
270.809	-47.98
271.268	-23.21
271.727	-196.54
272.186	-121.69
272.645	-118.02
273.104	-94.36
273.563	-155.96
274.022	-183.27
274.481	-146.33
274.94	-75.78
275.399	-80.09
275.857	-121.97
276.316	-206.13
276.775	-164.56
277.233	-141.28
277.692	-89.26
278.15	-82.99
278.609	-39.14
279.067	-45.51
279.525	-30.33
279.984	-78.51
280.442	-64.94
280.9	14.47
281.358	50.09
281.816	59.08
282.274	51.5
282.732	8.74
283.19	-22.14
283.648	-26.02
284.106	-28.89
284.564	-60.12
285.021	-32.25
285.479	-22.93
285.937	-58.71
286.394	-45.58
286.852	-70.2
287.309	-73.2
287.767	-38.39
288.224	-11.87
288.682	-21.69
289.139	-9.55
289.596	15.76
290.053	6.06
290.511	-40.58
290.968	-26.87
291.425	-59.07
291.882	41.25
292.339	41.66
292.796	20.15
293.252	-3.82
293.709	35.25
294.166	25.52
294.623	3.25
295.079	-12.01
295.536	16.42
295.992	23.89
296.449	19.74
296.905	9.4
297.362	27.11
297.818	18.09
298.274	25.56
298.731	-10.17
299.187	-16.54
299.643	-31.83
300.099	-17.99
300.555	-22.61
301.011	7.32
301.467	69.13
301.923	26.58
302.379	32.37
302.835	28.28
303.291	25.93
303.746	41.69
304.202	47.9
304.658	71.96
305.113	70.38
305.569	69.75
306.024	23.8
306.479	-51.71
306.935	-8.37
307.39	-45.03
307.845	-29.98
308.301	2.21
308.756	-14.46
309.211	8.34
309.666	-3.37
310.121	3.17
310.576	-0.05
311.031	-20.15
311.486	-64.05
311.94	-116.45
312.395	-182.8
312.85	-459.71
313.305	-3445.76
313.759	-12581.35
314.214	-1100.91
314.668	-768.27
315.123	-666.77
315.577	-200.87
316.032	-155.03
316.486	-168.8
316.94	-73.28
317.394	-7.14
317.849	16.84
318.303	18.52
318.757	1.11
319.211	7.86
319.665	3.42
320.119	10.04
320.572	-21.23
321.026	-10.16
321.48	-6.47
321.934	-42.45
322.387	-55.41
322.841	-58.88
323.295	-5.09
323.748	-35.05
324.202	-28.11
324.655	-22.38
325.108	37.58
325.562	50.96
326.015	15.43
326.468	37.94
326.921	73.08
327.374	93.11
327.827	127.53
328.28	108.88
328.733	84.94
329.186	81.39
329.639	66.46
330.092	25.22
330.545	26.99
330.997	53.92
331.45	66.98
331.903	89.53
332.355	94.84
332.808	60.17
333.26	50.43
333.713	83.81
334.165	59.14
334.617	43.08
335.069	-17.88
335.522	-120.88
335.974	-186.5
336.426	-231.13
336.878	-262.02
337.33	-104.04
337.782	-106.95
338.234	-121
338.686	-204.11
339.137	-240.88
339.589	-225.03
340.041	-140.83
340.493	-113.7
340.944	-114.19
341.396	-105.95
341.847	-45.9
342.299	-48.37
342.75	-3.48
343.201	-18.31
343.653	-16.85
344.104	-59.51
344.555	-46.07
345.006	-155.7
345.457	-38.77
345.908	-51.64
346.359	-36.59
346.81	-36.5
347.261	-76.18
347.712	-118.8
348.163	-148.58
348.613	-74.62
349.064	-46.47
349.515	-23.57
349.965	0.05
350.416	-30.01
350.866	-14.63
351.317	-31.42
351.767	-23.87
352.217	2.85
352.668	39.39
353.118	102.49
353.568	-57.16
354.018	-9.14
354.468	6.65
354.918	12.08
355.368	25.8
355.818	15.93
356.268	-138.7
356.718	-421.18
357.168	32.61
357.617	5.34
358.067	-91.6
358.517	-55.68
358.966	-117.28
359.416	-109.16
359.865	-178.99
360.315	-355.32
360.764	-142.41
361.213	-51.2
361.663	-79.29
362.112	-148.19
362.561	-267.91
363.01	-194.81
363.459	-147.19
363.908	-151.22
364.357	-109.6
364.806	-197
365.255	-118.32
365.703	-63.7
366.152	-70.78
366.601	-40.25
367.05	2.7
367.498	29.77
367.947	13.44
368.395	-4.22
368.844	5.34
369.292	-42.52
369.74	-0.39
370.189	-28.33
370.637	-47.88
371.085	-40.82
371.533	-46.98
371.981	-106.2
372.429	-93.8
372.877	-85.98
373.325	-53.93
373.773	-82.11
374.221	-69.71
374.669	-110.1
375.116	-87.58
375.564	-117.37
376.012	-163.26
376.459	-134.11
376.907	-157.04
377.354	-236.09
377.801	-175.79
378.249	-175.12
378.696	-209.58
379.143	-230.26
379.591	-232.67
380.038	-389.47
380.485	-197.44
380.932	-84.1
381.379	1.47
381.826	113.7
382.273	81.79
382.72	53.53
383.166	57.31
383.613	41.61
384.06	45.53
384.506	43.2
384.953	35.86
385.4	35.58
385.846	17.55
386.292	-12.3
386.739	-29.15
387.185	-31.57
387.631	-29.48
388.078	-22.59
388.524	-23.77
388.97	-22.7
389.416	-17.15
389.862	-14.98
390.308	-24.26
390.754	-7.84
391.2	-8.07
391.645	-15.43
392.091	29.26
392.537	33.25
392.983	22.15
393.428	50.51
393.874	48.64
394.319	67.04
394.765	80
395.21	76.49
395.655	65.48
396.101	71.25
396.546	74.91
396.991	51.79
397.436	39.25
397.881	30.95
398.326	6.18
398.771	15.29
399.216	3.88
399.661	-7.69
400.106	-1.93
400.551	-0.01
400.995	-2.58
401.44	-7.21
401.885	-13.96
402.329	-10.12
402.774	-5.13
403.218	11.99
403.663	7.68
404.107	11.19
404.551	18.75
404.995	13.68
405.44	8.95
405.884	10.42
406.328	8.73
406.772	7.55
407.216	7.94
407.66	4.4
408.104	-8.49
408.547	-8.83
408.991	-10.59
409.435	-12.7
409.879	-6.71
410.322	-5.81
410.766	-5.94
411.209	-2.94
411.653	-0.72
412.096	3.17
412.54	3.07
412.983	4.47
413.426	7.9
413.869	6.51
414.312	9.93
414.756	5.61
415.199	5.92
415.642	7.7
416.085	7.89
416.527	8.52
416.97	4.74
417.413	7.15
417.856	4.72
418.298	3.79
418.741	2.06
419.184	-2.94
419.626	-5.75
420.069	-5.41
420.511	-8.23
420.953	-4.7
421.396	-3.74
421.838	-4.49
422.28	-7.54
422.722	-1.44
423.164	-3.76
423.606	-1.19
424.048	0.27
424.49	2.1
424.932	-0.7
425.374	-0.48
425.816	-6.21
426.258	-8.17
426.699	-9.68
427.141	-3.2
427.582	-7.55
428.024	-7.74
428.465	-11.15
428.907	-11.87
429.348	-12.04
429.789	-7.97
430.231	-2.82
430.672	-1.15
431.113	-1.52
431.554	0.87
431.995	-3.26
432.436	-1.4
432.877	0.29
433.318	4.45
433.759	3.94
434.2	4.46
434.64	1.39
435.081	0.6
435.522	0.99
435.962	1.14
436.403	2.45
436.843	-1.28
437.284	-3.85
437.724	-6.61
438.164	-9.48
438.604	-7.39
439.045	-4.44
439.485	-0.65
439.925	-1.98
440.365	-2.24
440.805	-3.71
441.245	-3.55
441.685	-0.99
442.125	-0.63
442.564	-0.66
443.004	0.15
443.444	-1.89
443.883	-3.1
444.323	-5.25
444.762	-9
445.202	-9.76
445.641	-6.96
446.081	-9.07
446.52	-7.17
446.959	-5.5
447.398	-2.95
447.837	-2.59
448.276	-1.59
448.716	-0.54
449.154	-2.84
449.593	0.77
450.032	2.25
450.471	-0.27
450.91	-1.14
451.349	0.03
451.787	-1.22
452.226	-2.71
452.664	-2.99
453.103	-3.14
453.541	-5.2
453.98	-1.34
454.418	-2.03
454.856	-1.35
455.295	-0.08
455.733	2.37
456.171	1.01
456.609	2.65
457.047	3.67
457.485	5.5
457.923	6.59
458.361	6.48
458.798	5.34
459.236	4.68
459.674	2.89
460.111	2.78
460.549	1.77
460.987	0.33
461.424	-0.89
461.862	-1.74
462.299	-2.13
462.736	-1.05
463.173	-1.2
463.611	1.32
464.048	3.17
464.485	4.16
464.922	4
465.359	3.27
465.796	10.69
466.233	11.77
466.67	14.58
467.106	16.07
467.543	13.92
467.98	13.08
468.416	10.81
468.853	8.92
469.29	8.79
469.726	8.14
470.162	7.6
470.599	1.91
471.035	0.08
471.471	-1.7
471.907	-4.28
472.344	-3.71
472.78	-2.17
473.216	-2.81
473.652	-1.84
474.088	-2.7
474.523	-1.92
474.959	-2.12
475.395	-2.17
475.831	-1.11
476.266	-1.05
476.702	-0.93
477.138	-0.94
477.573	-1.25
478.008	-0.94
478.444	-0.78
478.879	0.9
479.314	1.06
479.75	1.75
480.185	1.08
480.62	0.71
481.055	1.03
481.49	1.71
481.925	2.11
482.36	4.07
482.795	3.64
483.229	2.83
483.664	2.1
484.099	1.82
484.534	2.57
484.968	3.38
485.403	3.13
485.837	1.8
486.271	2.07
486.706	1.82
487.14	0.33
487.574	0.7
488.009	0.61
488.443	0.11
488.877	0.82
489.311	0.08
489.745	0.29
490.179	0.56
490.613	2.79
491.046	1.71
491.48	1.31
491.914	1.32
492.348	1.06
492.781	1.58
493.215	1.68
493.648	0.8
494.082	1.03
494.515	1.2
494.948	1.87
495.382	0.12
495.815	0.96
496.248	1.68
496.681	1.66
497.114	1.08
497.547	1.7
497.98	2.98
498.413	4.79
498.846	4.88
499.279	3.84
499.711	3
500.144	2.86
500.577	3.49
501.009	2.84
501.442	3.24
501.874	4.78
502.306	4.17
502.739	5.09
503.171	4.19
503.603	3.96
504.036	4.43
504.468	4.7
504.9	4.81
505.332	3.72
505.764	4.47
506.196	4.29
506.627	3.77
507.059	3.57
507.491	1.78
507.923	1.6
508.354	2.27
508.786	2.08
509.217	1.78
509.649	2.26
510.08	1.91
510.512	2.41
510.943	2.55
511.374	2.76
511.805	2.51
512.237	1.65
512.668	1.01
513.099	-0.13
513.53	0.44
513.961	1.25
514.391	0.8
514.822	3.24
515.253	3.17
515.684	3.31
516.114	2.91
516.545	3.61
516.975	4.19
517.406	4.6
517.836	4.17
518.267	4.07
518.697	4.61
519.127	4.79
519.558	2.74
519.988	1.6
520.418	0.84
520.848	0.73
521.278	-0.18
521.708	19.65
522.138	19.76
522.567	19.95
522.997	19.67
523.427	18.69
523.857	18.85
524.286	19.41
524.716	20.19
525.145	20.77
525.575	21.47
526.004	21.48
526.433	2.41
526.863	2.39
527.292	3.5
527.721	4.03
528.15	3.91
528.579	4.12
529.008	4.18
529.437	2.98
529.866	2.67
530.295	1.81
530.724	2.65
531.152	2.8
531.581	3.75
532.01	3.14
532.438	2.36
532.867	2.4
533.295	2.96
533.723	2.98
534.152	3.66
534.58	4.2
535.008	4.56
535.436	5.66
535.865	5.49
536.293	4.49
536.721	4.32
537.149	5.27
537.576	6.66
538.004	6.25
538.432	5.51
538.86	5.98
539.287	5.44
539.715	5.71
540.143	4.31
540.57	4.27
540.998	4.14
541.425	5.85
541.852	5.35
542.28	3.86
542.707	3.48
543.134	4.02
543.561	4.18
543.988	4.8
544.415	4.04
544.842	3.88
545.269	3.5
545.696	3.99
546.123	3.52
546.549	3.91
546.976	4.56
547.403	4.86
547.829	4.3
548.256	3.84
548.682	3.65
549.108	5.03
549.535	4.88
549.961	4.62
550.387	4.55
550.813	5.1
551.24	4.89
551.666	4.07
552.092	3.88
552.518	4.17
552.943	4.28
553.369	4.09
553.795	3.56
554.221	4.21
554.646	4.4
555.072	5.3
555.498	3.36
555.923	2.76
556.349	3.21
556.774	2.94
557.199	2.52
557.625	2.01
558.05	2.3
558.475	1.6
558.9	1.41
559.325	2.02
559.75	1.53
560.175	2.39
560.6	2.35
561.025	1.9
561.449	2.02
561.874	2.1
562.299	2.76
562.723	1.93
563.148	2.17
563.572	1.81
563.997	1.82
564.421	0.81
564.846	0.04
565.27	0.22
565.694	0.47
566.118	0.19
566.542	0.98
566.966	1.02
567.39	1.42
567.814	1.69
568.238	1.96
568.662	0.79
569.086	1.38
569.509	1.31
569.933	2.62
570.357	2.85
570.78	3.33
571.204	3.57
571.627	3.28
572.05	3.25
572.474	4.15
572.897	4.11
573.32	5.18
573.743	4.65
574.166	5.71
574.589	4.57
575.012	4.46
575.435	3.91
575.858	3.69
576.281	3.73
576.704	3.6
577.126	2.45
577.549	2.3
577.972	1.67
578.394	2.24
578.817	3.55
579.239	3.45
579.661	3.32
580.084	4.46
580.506	4.6
580.928	4.17
581.35	4.02
581.772	4.24
582.194	4.48
582.616	4.51
583.038	3.93
583.46	2.05
583.882	2.14
584.303	1.13
584.725	0.04
585.147	3.89
585.568	4.67
585.99	4.98
586.411	5.27
586.833	5.56
587.254	5.45
587.675	4.97
588.096	5.53
588.518	5.5
588.939	6.47
589.36	7.09
589.781	2.3
590.202	4.53
590.623	4.73
591.043	3.77
591.464	3.46
591.885	4.32
592.305	4.48
592.726	3.44
593.147	3.26
593.567	3.89
593.987	3.87
594.408	3.59
594.828	0.71
595.248	1.42
595.669	2.41
596.089	2.09
596.509	1.11
596.929	0.96
597.349	1.41
597.769	1.43
598.189	1.14
598.608	0.86
599.028	1.08
599.448	0.83
599.867	-0.19
600.287	-0.82
600.706	-0.42
601.126	0.27
601.545	1.15
601.965	0.99
602.384	1.26
602.803	1.01
603.222	1.09
603.641	0.6
604.061	1.12
604.48	1.72
604.898	1.66
605.317	1.51
605.736	1.29
606.155	1.59
606.574	1.7
606.992	1.19
607.411	1.13
607.829	0.45
608.248	0.32
608.666	-0.05
609.085	-0.52
609.503	-0.7
609.921	-0.1
610.339	-0.29
610.758	-1.3
611.176	-1.36
611.594	-0.37
612.012	0.22
612.43	1.27
612.847	1.63
613.265	2.5
613.683	2.72
614.101	3.08
614.518	2.05
614.936	1.88
615.353	2.4
615.771	2.66
616.188	2.81
616.606	2.32
617.023	2.56
617.44	2.37
617.857	1.41
618.274	1.2
618.691	1.5
619.108	1.38
619.525	1.71
619.942	2.17
620.359	1.98
620.776	1.39
621.192	2.13
621.609	2.73
622.026	3.42
622.442	4.11
622.859	3.2
623.275	3.08
623.691	3.54
624.108	3.62
624.524	2.95
624.94	3.42
625.356	2.88
625.772	1.9
626.188	0.51
626.604	0.39
627.02	-0.35
627.436	0.82
627.852	1.72
628.268	1.59
628.683	1.53
629.099	1.25
629.514	0.42
629.93	0.48
630.345	0.57
630.761	-0.06
631.176	-0.02
631.591	1.74
632.007	2.36
632.422	0.75
632.837	0.42
633.252	1.56
633.667	1.85
634.082	2.72
634.497	3.39
634.911	5.39
635.326	6.18
635.741	6.67
636.155	5.68
636.57	6.02
636.984	6.64
637.399	8.41
637.813	7.24
638.228	7.37
638.642	6.38
639.056	5.94
639.47	4.37
639.884	4.33
640.298	3.6
640.712	3.82
641.126	3.42
641.54	2.87
641.954	0.06
642.368	0.26
642.781	2.58
643.195	2.92
643.609	3.57
644.022	3.27
644.436	2.45
644.849	1.94
645.262	0.97
645.676	-0.79
646.089	-0.62
646.502	1.28
646.915	0.57
647.328	-0.23
647.741	0.48
648.154	0.46
648.567	3.02
648.98	3.85
649.393	4.66
649.805	5.36
650.218	6.09
650.631	6.65
651.043	6.63
651.456	7.77
651.868	7
652.28	5.74
652.693	4.62
653.105	2.65
653.517	1.94
653.929	1.85
654.341	2.59
654.753	4
655.165	3.41
655.577	3.67
655.989	3.1
656.401	1.95
656.813	3.72
657.224	4.22
657.636	3.4
658.047	4.57
658.459	4.41
658.87	2.98
659.282	2.11
659.693	3.31
660.104	3.69
660.515	3.92
660.926	3.43
661.338	2.59
661.749	1.74
662.159	2.73
662.57	2.46
662.981	2.45
663.392	2.43
663.803	2.19
664.213	1.03
664.624	0.18
665.035	-0.73
665.445	-0.8
665.855	-0.56
666.266	0.38
666.676	0.07
667.086	-1.23
667.497	-0.87
667.907	-0.94
668.317	-1.2
668.727	2.29
669.137	0.94
669.547	0.11
669.956	-0.62
670.366	-0.51
670.776	-0.35
671.186	-0.77
671.595	-0.74
672.005	-1.77
672.414	-1.15
672.824	-0.59
673.233	-4.18
673.642	-3.25
674.052	-1.53
674.461	0.01
674.87	-0.21
675.279	0.26
675.688	-0.91
676.097	0.6
676.506	1.06
676.915	0.66
677.323	0.86
677.732	0.46
678.141	-0.08
678.549	-0.43
678.958	-1.51
679.366	-2.48
679.775	-3.23
680.183	-0.9
680.592	-1.45
681	-1.72
681.408	-1.76
681.816	-2
682.224	-1.92
682.632	-0.1
683.04	0.11
683.448	0.43
683.856	1.49
684.264	2.66
684.671	1
685.079	0.51
685.487	0.58
685.894	0.41
686.302	-0.97
686.709	-0.18
687.116	-1.12
687.524	-0.59
687.931	0.7
688.338	0.54
688.745	-1.46
689.152	-1.33
689.559	-1.59
689.966	-0.38
690.373	-0.12
690.78	2
691.187	2.06
691.593	2.89
692	1.16
692.407	1.36
692.813	3.07
693.22	4.52
693.626	4.15
694.032	5.86
694.439	6.08
694.845	5.58
695.251	3.85
695.657	4.36
696.063	2.64
696.469	3.32
696.875	2.95
697.281	2.08
697.687	1.18
698.093	1.71
698.498	1.81
698.904	-0.25
699.31	-0.18
699.715	3.12
700.12	2.28
700.526	3.22
700.931	2.68
701.337	3.63
701.742	4.55
702.147	4.83
702.552	5.54
702.957	3.4
703.362	4.53
703.767	4.86
704.172	1.92
704.577	1.6
704.981	0.7
705.386	2.02
705.791	2.2
706.195	0.35
706.6	-0.27
707.004	-2.47
707.408	-2.3
707.813	-1.58
708.217	-0.52
708.621	-0.62
709.025	-1.13
709.43	0.43
709.834	-0.34
710.237	-1.75
710.641	-1.55
711.045	-0.16
711.449	2.95
711.853	6.47
712.256	5.38
712.66	4.14
713.064	5.28
713.467	6.89
713.87	7.11
714.274	8.11
714.677	9.3
715.08	10.03
715.484	10.11
715.887	10.93
716.29	7.43
716.693	9.06
717.096	10.83
717.499	9.57
717.901	8.4
718.304	7.04
718.707	6.45
719.109	6.03
719.512	4.71
719.915	6.04
720.317	4.67
720.719	3.93
721.122	2
721.524	1.2
721.926	6.34
722.328	6.71
722.731	6.48
723.133	6.07
723.535	5.31
723.937	6.67
724.338	7.12
724.74	7.7
725.142	55.54
725.544	60.7
725.945	71.31
726.347	67.36
726.748	67.22
727.15	67.54
727.551	71.18
727.952	70.25
728.354	68.06
728.755	66.65
729.156	65.77
729.557	20.52
729.958	16.33
730.359	7.02
730.76	5.91
731.161	6.31
731.562	5.7
731.962	1.87
732.363	2.33
732.763	3.69
733.164	1.92
733.564	2.41
733.965	3.39
734.365	4.21
734.766	3.51
735.166	3.68
735.566	4.43
735.966	5.27
736.366	6.27
736.766	7.19
737.166	6.9
737.566	7.7
737.966	7.92
738.365	7.88
738.765	8.78
739.165	9.25
739.564	9.61
739.964	8.49
740.363	7.77
740.763	6.76
741.162	7.57
741.561	6.7
741.96	7.03
742.36	4.68
742.759	3.87
743.158	2.03
743.557	1.88
743.955	1.88
744.354	1.48
744.753	0.28
745.152	1.12
745.55	-1.24
745.949	-0.61
746.348	-0.47
746.746	-0.94
747.144	1.46
747.543	0.88
747.941	-0.49
748.339	0.06
748.737	0.71
749.136	3.07
749.534	1.16
749.932	3.96
750.33	3.8
750.727	2.87
751.125	3.94
751.523	3.49
751.921	6.61
752.318	7.8
752.716	8.48
753.113	8.64
753.511	8.13
753.908	10.36
754.305	12.3
754.703	13.3
755.1	14.82
755.497	15.63
755.894	14.16
756.291	12.68
756.688	13.01
757.085	12.25
757.482	12.9
757.878	14.89
758.275	15.07
758.672	7.16
759.068	4.38
759.465	0.14
759.861	-3.4
760.258	-6.19
760.654	-8.08
761.05	-5.67
761.447	-5.78
761.843	-6.63
762.239	-6.55
762.635	-8.75
763.031	-6.34
763.427	-5.72
763.822	-4.09
764.218	-3.02
764.614	-2.1
765.01	-4.84
765.405	-7.24
765.801	-6.95
766.196	-6.34
766.592	-7.93
766.987	-5.98
767.382	-5.55
767.778	-3.44
768.173	-3.18
768.568	-3.56
