Data from N_1_DIV_PA_2N_Splice17_11-11-06-257.txt Node
Date: Sat Mar 14 11:11:06 EDT 2020
User: sa697716
Spectrometer: FLMS03696
Trigger mode: 0
Integration Time (sec): 3.180400E-1
Scans to average: 20
Electric dark correction enabled: true
Nonlinearity correction enabled: true
Boxcar width: 5
XAxis mode: Wavelengths
Number of Pixels in Spectrum: 2048
>>>>>Begin Spectral Data<<<<<
187.83	-73535.4
188.298	616.91
188.766	364.62
189.233	346.11
189.701	398.99
190.169	531.55
190.636	208.8
191.104	158
191.571	7.56
192.039	-47.66
192.506	-105.47
192.974	302.11
193.441	-832.67
193.908	-373.66
194.375	-60.25
194.842	-67.42
195.31	-74.17
195.777	41.86
196.244	121.36
196.711	97.27
197.177	91.8
197.644	76.65
198.111	139.62
198.578	236.43
199.045	167.36
199.511	238.4
199.978	196.38
200.445	174.76
200.911	202.59
201.378	199.56
201.844	225.34
202.31	407.16
202.777	457.76
203.243	275.17
203.709	261.97
204.176	335.02
204.642	302.51
205.108	329.44
205.574	275.72
206.04	238.69
206.506	209.07
206.972	181.04
207.438	171.98
207.903	198
208.369	194.71
208.835	199.45
209.301	188.84
209.766	181.1
210.232	176.17
210.697	214.69
211.163	250.61
211.628	375.87
212.094	317.3
212.559	393.82
213.024	249.85
213.49	301.14
213.955	281.97
214.42	271.9
214.885	247.93
215.35	244.18
215.815	277.62
216.28	315.02
216.745	246.11
217.21	269.97
217.675	226.87
218.14	247.01
218.604	237.39
219.069	260.83
219.534	277.13
219.998	286.23
220.463	306.89
220.927	285.1
221.392	236.69
221.856	225.19
222.32	218.79
222.785	250.83
223.249	271.08
223.713	288.24
224.177	265.12
224.642	268.1
225.106	259.94
225.57	216.41
226.034	196.34
226.497	283.37
226.961	280.57
227.425	376.69
227.889	378.12
228.353	372.52
228.816	685.94
229.28	697.85
229.744	594.15
230.207	407.67
230.671	420.75
231.134	554.68
231.597	625.09
232.061	610.29
232.524	523.4
232.987	388.8
233.45	350.53
233.914	302.81
234.377	231.13
234.84	206.07
235.303	232.96
235.766	286.32
236.229	288.98
236.691	163.52
237.154	171.08
237.617	138.4
238.08	138.97
238.542	150.36
239.005	127.01
239.468	166.1
239.93	156.62
240.393	157.15
240.855	123.26
241.317	123.33
241.78	145.13
242.242	147.76
242.704	186.16
243.166	150.92
243.629	153.43
244.091	167.38
244.553	165.04
245.015	205.83
245.477	245.27
245.939	369.99
246.4	416.31
246.862	416.65
247.324	374.64
247.786	364.46
248.247	457.91
248.709	412.02
249.17	308.88
249.632	353.08
250.093	408.73
250.555	330.53
251.016	228.45
251.477	209.94
251.939	215.32
252.4	234.6
252.861	251.04
253.322	272.63
253.783	300.94
254.244	376.59
254.705	259.37
255.166	188.18
255.627	179.3
256.088	231.87
256.549	227.46
257.009	179.58
257.47	175.52
257.931	140.27
258.391	105.7
258.852	113.36
259.312	105.65
259.773	125.79
260.233	156.97
260.694	144.86
261.154	164.71
261.614	181.9
262.074	165.85
262.534	190.06
262.994	189.83
263.455	229.15
263.915	202.46
264.374	201.08
264.834	216.43
265.294	207.79
265.754	236.82
266.214	217.62
266.673	193.18
267.133	228.56
267.593	223.45
268.052	286.17
268.512	229.92
268.971	291.2
269.431	318.47
269.89	284.88
270.349	438.28
270.809	491.45
271.268	465.44
271.727	948.77
272.186	629.56
272.645	478.91
273.104	315.12
273.563	464.03
274.022	332.49
274.481	292.88
274.94	226.87
275.399	158.13
275.857	148.82
276.316	155.3
276.775	138.22
277.233	128.64
277.692	129.02
278.15	171.31
278.609	197.45
279.067	172.63
279.525	184.46
279.984	221.4
280.442	244.26
280.9	317.27
281.358	217.11
281.816	216.65
282.274	223.05
282.732	191.37
283.19	182.21
283.648	161.56
284.106	167.1
284.564	145.19
285.021	161.88
285.479	136.14
285.937	95.1
286.394	103.62
286.852	96.01
287.309	95.58
287.767	135.54
288.224	136.39
288.682	138.26
289.139	165.1
289.596	160.12
290.053	138.17
290.511	153.39
290.968	188.15
291.425	204.43
291.882	224.44
292.339	224.64
292.796	175.75
293.252	162.69
293.709	153.37
294.166	156.98
294.623	171.28
295.079	170.83
295.536	197.81
295.992	191.58
296.449	186.62
296.905	193.78
297.362	186.87
297.818	206
298.274	217.63
298.731	210.99
299.187	183.8
299.643	188.56
300.099	228.49
300.555	239.88
301.011	199.31
301.467	256.17
301.923	253.37
302.379	269.12
302.835	272.13
303.291	285.94
303.746	323.19
304.202	411.81
304.658	401.35
305.113	271.17
305.569	269.81
306.024	268.56
306.479	216.46
306.935	198.99
307.39	189.36
307.845	178.76
308.301	163.79
308.756	161.3
309.211	170.78
309.666	174.35
310.121	253.73
310.576	236.65
311.031	246.36
311.486	258.54
311.94	229
312.395	294.25
312.85	357.25
313.305	1171.51
313.759	7793.03
314.214	583.73
314.668	540.23
315.123	414.78
315.577	171.23
316.032	161.7
316.486	141.43
316.94	120.45
317.394	101.09
317.849	116.46
318.303	119.27
318.757	113.59
319.211	124.59
319.665	118.93
320.119	118.58
320.572	179.42
321.026	178.4
321.48	171.7
321.934	175
322.387	166.36
322.841	187.16
323.295	185.43
323.748	193.2
324.202	193.07
324.655	215.48
325.108	329.37
325.562	249.03
326.015	284.2
326.468	210.11
326.921	255.43
327.374	268.03
327.827	277.42
328.28	325.8
328.733	239.91
329.186	213.52
329.639	207.25
330.092	174.48
330.545	164.16
330.997	167.96
331.45	204.22
331.903	251.31
332.355	393.08
332.808	345.03
333.26	306.61
333.713	338.74
334.165	331.58
334.617	427.56
335.069	275.24
335.522	399.44
335.974	408.09
336.426	378.24
336.878	199.73
337.33	115.5
337.782	124.04
338.234	128.58
338.686	110.16
339.137	142.52
339.589	151.42
340.041	175.52
340.493	154.7
340.944	160.97
341.396	153.08
341.847	177.84
342.299	207.76
342.75	292.81
343.201	257.08
343.653	293.57
344.104	350.05
344.555	276.58
345.006	366.66
345.457	341.1
345.908	273.2
346.359	275.62
346.81	231.29
347.261	234.04
347.712	207.06
348.163	194.3
348.613	226.59
349.064	186.84
349.515	148.39
349.965	154.2
350.416	170.28
350.866	196.58
351.317	190.71
351.767	249.5
352.217	274.57
352.668	223.47
353.118	258.07
353.568	175.32
354.018	183.45
354.468	225.48
354.918	178.93
355.368	152.88
355.818	191.27
356.268	422.56
356.718	2123.33
357.168	716.49
357.617	348.73
358.067	313.96
358.517	361.69
358.966	460.5
359.416	580.66
359.865	609.99
360.315	708.02
360.764	340.59
361.213	217.4
361.663	176.42
362.112	165.47
362.561	281.5
363.01	218.42
363.459	169.57
363.908	164.12
364.357	134.74
364.806	185.91
365.255	132.35
365.703	143.19
366.152	138.58
366.601	126.83
367.05	145.84
367.498	143.68
367.947	149.21
368.395	140.9
368.844	140.17
369.292	137.65
369.74	103.01
370.189	137.44
370.637	136.45
371.085	142.18
371.533	177.29
371.981	125.76
372.429	142.21
372.877	161.8
373.325	148.62
373.773	143.93
374.221	135.56
374.669	172.78
375.116	155.6
375.564	176.22
376.012	191.03
376.459	170.66
376.907	196.64
377.354	207.92
377.801	190.56
378.249	243.22
378.696	297.55
379.143	376.59
379.591	435.83
380.038	723.67
380.485	517.81
380.932	542.66
381.379	578.95
381.826	491.69
382.273	366.46
382.72	302.86
383.166	297.49
383.613	191.39
384.06	166.4
384.506	169.36
384.953	129.42
385.4	121.13
385.846	97.22
386.292	78.36
386.739	61.49
387.185	41.31
387.631	46.55
388.078	53.38
388.524	52.17
388.97	57.18
389.416	62.61
389.862	64.7
390.308	67.31
390.754	77.9
391.2	74.07
391.645	70.08
392.091	91.18
392.537	89.17
392.983	77.45
393.428	93.65
393.874	82.43
394.319	85.44
394.765	92.9
395.21	88.68
395.655	79.38
396.101	72.72
396.546	69.57
396.991	57.77
397.436	59.33
397.881	54.67
398.326	45.49
398.771	53.08
399.216	43.17
399.661	38.71
400.106	39.62
400.551	47.27
400.995	46.1
401.44	48.18
401.885	46.86
402.329	49.26
402.774	51.47
403.218	57.5
403.663	53.46
404.107	55.23
404.551	52.26
404.995	50.22
405.44	44.09
405.884	42.51
406.328	39.04
406.772	35.95
407.216	30.99
407.66	26.24
408.104	16.87
408.547	17.42
408.991	17
409.435	17.32
409.879	17.85
410.322	19.65
410.766	20.11
411.209	23.09
411.653	24.08
412.096	25.63
412.54	25.33
412.983	26.51
413.426	27.88
413.869	26.87
414.312	27.85
414.756	26.54
415.199	24.08
415.642	25.49
416.085	23.94
416.527	22.32
416.97	20.15
417.413	21.7
417.856	22.09
418.298	20.14
418.741	18.49
419.184	17.16
419.626	12.18
420.069	12.57
420.511	11.36
420.953	13.77
421.396	15.53
421.838	14.89
422.28	13.57
422.722	14.74
423.164	14.79
423.606	15.94
424.048	16.64
424.49	22.26
424.932	20.37
425.374	19.56
425.816	18.06
426.258	16.25
426.699	17.06
427.141	20.53
427.582	18.75
428.024	18.35
428.465	16.45
428.907	17.14
429.348	16.38
429.789	18.98
430.231	20.23
430.672	18.71
431.113	19.62
431.554	21.28
431.995	18.65
432.436	19.09
432.877	17.83
433.318	20.9
433.759	18.92
434.2	16.27
434.64	15.79
435.081	17.54
435.522	18.86
435.962	17.81
436.403	18.51
436.843	16.94
437.284	14.13
437.724	12.14
438.164	8.15
438.604	8.18
439.045	10.59
439.485	11.79
439.925	11.12
440.365	9.5
440.805	9.64
441.245	9.52
441.685	10.82
442.125	12.41
442.564	14.66
443.004	15.51
443.444	14.92
443.883	15.54
444.323	13.6
444.762	10.92
445.202	11.16
445.641	13.14
446.081	9.27
446.52	10.34
446.959	11.38
447.398	12.12
447.837	13.76
448.276	13.33
448.716	13.82
449.154	11.91
449.593	12.35
450.032	12.39
450.471	10.41
450.91	10.92
451.349	10.71
451.787	10.36
452.226	9.64
452.664	8.83
453.103	9.32
453.541	7.23
453.98	11.11
454.418	11.59
454.856	13.21
455.295	13.48
455.733	14.28
456.171	13.84
456.609	14.35
457.047	14.94
457.485	15.57
457.923	15.63
458.361	15.49
458.798	13.43
459.236	13.46
459.674	11.74
460.111	11.47
460.549	12.17
460.987	11.07
461.424	10.33
461.862	9.74
462.299	10.76
462.736	12.09
463.173	12.26
463.611	14.59
464.048	15.56
464.485	16.64
464.922	16.68
465.359	16.28
465.796	22.21
466.233	22.58
466.67	24.29
467.106	24.58
467.543	23.45
467.98	23.09
468.416	21.31
468.853	19.79
469.29	19.26
469.726	18.97
470.162	18.4
470.599	13.64
471.035	12.91
471.471	11.83
471.907	10.01
472.344	9.61
472.78	9.82
473.216	9.09
473.652	9.91
474.088	10.79
474.523	10.99
474.959	10.94
475.395	11.77
475.831	12.88
476.266	12.58
476.702	12.3
477.138	12.8
477.573	13.3
478.008	13.38
478.444	14.09
478.879	14
479.314	14.34
479.75	14.28
480.185	13.45
480.62	12.44
481.055	12.26
481.49	13.12
481.925	13.32
482.36	14.12
482.795	14.16
483.229	12.9
483.664	12.31
484.099	11.77
484.534	12.5
484.968	13.12
485.403	12.85
485.837	12.29
486.271	11.43
486.706	10.74
487.14	9.89
487.574	10.68
488.009	10.77
488.443	10.54
488.877	11.22
489.311	10.01
489.745	10.13
490.179	10.51
490.613	11.99
491.046	12.02
491.48	12.35
491.914	12.32
492.348	11.41
492.781	11.87
493.215	12.01
493.648	11.47
494.082	11.77
494.515	11.69
494.948	12.23
495.382	11.04
495.815	11.46
496.248	11.59
496.681	11.25
497.114	11.28
497.547	11.33
497.98	12.15
498.413	13.2
498.846	13.94
499.279	13.31
499.711	13.11
500.144	13.7
500.577	14.4
501.009	13.94
501.442	14.82
501.874	15.25
502.306	15.05
502.739	15.99
503.171	15.91
503.603	16.07
504.036	16.6
504.468	16.92
504.9	16.62
505.332	15.99
505.764	16.48
506.196	16.15
506.627	16.54
507.059	16.54
507.491	15.32
507.923	15.56
508.354	15.66
508.786	15.45
509.217	15.1
509.649	15.34
510.08	15.44
510.512	15.92
510.943	16.51
511.374	16.67
511.805	16.61
512.237	16.29
512.668	15.97
513.099	15.69
513.53	16.11
513.961	16.75
514.391	16.7
514.822	17.99
515.253	18.51
515.684	18.23
516.114	17.95
516.545	18.76
516.975	19.3
517.406	19.11
517.836	18.91
518.267	19.09
518.697	20.08
519.127	20.48
519.558	20.18
519.988	19.59
520.418	19.34
520.848	19.33
521.278	19.19
521.708	32.89
522.138	33.65
522.567	33.59
522.997	33.96
523.427	33.17
523.857	33.2
524.286	32.88
524.716	33.59
525.145	34.65
525.575	35.87
526.004	35.75
526.433	22.52
526.863	22.23
527.292	23.86
527.721	24.16
528.15	24.45
528.579	24.97
529.008	25.1
529.437	24.7
529.866	24.27
530.295	23.89
530.724	25.16
531.152	25.37
531.581	26.01
532.01	25.61
532.438	25.2
532.867	25.15
533.295	25.59
533.723	25.89
534.152	26.1
534.58	26.02
535.008	25.88
535.436	25.85
535.865	25.88
536.293	24.96
536.721	24.56
537.149	25.06
537.576	25.34
538.004	25.41
538.432	25.17
538.86	25.9
539.287	26.13
539.715	25.96
540.143	25.19
540.57	25.71
540.998	26.22
541.425	27.65
541.852	27.33
542.28	27.66
542.707	27.27
543.134	27.52
543.561	27.42
543.988	27.71
544.415	28.16
544.842	28.28
545.269	28.05
545.696	28.36
546.123	28.2
546.549	28.04
546.976	27.61
547.403	27.84
547.829	27.38
548.256	26.7
548.682	26.96
549.108	27.35
549.535	26.93
549.961	26.82
550.387	26.75
550.813	26.6
551.24	27.07
551.666	27.3
552.092	26.56
552.518	27.22
552.943	28.11
553.369	27.75
553.795	27.57
554.221	28.52
554.646	28.45
555.072	28.78
555.498	27.67
555.923	26.67
556.349	26.36
556.774	27.02
557.199	26.3
557.625	25.23
558.05	25.2
558.475	25.1
558.9	25
559.325	25.52
559.75	25.64
560.175	25.96
560.6	26.61
561.025	26.69
561.449	26.47
561.874	26.14
562.299	26.69
562.723	26.4
563.148	26.34
563.572	25.63
563.997	25.13
564.421	24.29
564.846	23.89
565.27	23.88
565.694	23.24
566.118	23.31
566.542	24.26
566.966	24.4
567.39	24.08
567.814	23.87
568.238	24.16
568.662	23.52
569.086	23.76
569.509	23.63
569.933	24.62
570.357	24.75
570.78	24.49
571.204	24.87
571.627	24.18
572.05	24.17
572.474	25.08
572.897	24.88
573.32	25.6
573.743	25.01
574.166	25.47
574.589	24.16
575.012	24.12
575.435	23.56
575.858	22.88
576.281	23.23
576.704	23.1
577.126	21.52
577.549	21.03
577.972	20.41
578.394	20.97
578.817	22.35
579.239	22.15
579.661	22.38
580.084	23.37
580.506	22.98
580.928	22.67
581.35	22.8
581.772	22.96
582.194	22.82
582.616	22.52
583.038	21.31
583.46	19.52
583.882	19.86
584.303	18.55
584.725	17.57
585.147	20.89
585.568	20.45
585.99	20.56
586.411	20.95
586.833	21.52
587.254	21.68
587.675	22.01
588.096	21.91
588.518	21.56
588.939	21.97
589.36	22.28
589.781	18.15
590.202	20.28
590.623	20.54
591.043	19.6
591.464	19.52
591.885	19.59
592.305	19.24
592.726	19.31
593.147	19.29
593.567	19.87
593.987	19.2
594.408	19.11
594.828	16.98
595.248	17.41
595.669	18.26
596.089	18.11
596.509	17.46
596.929	17.58
597.349	17.47
597.769	16.98
598.189	16.48
598.608	16.3
599.028	16.86
599.448	16.63
599.867	15.77
600.287	15.1
600.706	15.44
601.126	15.43
601.545	16.04
601.965	15.75
602.384	16.47
602.803	16.68
603.222	17.1
603.641	16.32
604.061	16.89
604.48	16.94
604.898	16.86
605.317	15.94
605.736	16.63
606.155	16.5
606.574	16.22
606.992	15.68
607.411	15.65
607.829	15.05
608.248	14.83
608.666	14.19
609.085	13.77
609.503	13.42
609.921	14.06
610.339	14.17
610.758	13.6
611.176	13.68
611.594	14.17
612.012	14.17
612.43	14.6
612.847	14.92
613.265	15.56
613.683	15.86
614.101	16.34
614.518	15.81
614.936	14.99
615.353	15.57
615.771	15.98
616.188	15.56
616.606	15.47
617.023	15.97
617.44	16.37
617.857	15.56
618.274	15.28
618.691	15.2
619.108	15.22
619.525	15.34
619.942	15.35
620.359	15.01
620.776	15.29
621.192	15.47
621.609	15.42
622.026	15.43
622.442	15.83
622.859	16.07
623.275	16.08
623.691	16.4
624.108	16.65
624.524	16.24
624.94	16.19
625.356	15.45
625.772	15.14
626.188	13.99
626.604	13.36
627.02	12.96
627.436	12.96
627.852	13.4
628.268	13.57
628.683	12.34
629.099	12.16
629.514	12
629.93	11.79
630.345	11.63
630.761	12.25
631.176	12.61
631.591	14.36
632.007	14.24
632.422	13.3
632.837	12.44
633.252	14.41
633.667	14.86
634.082	15.3
634.497	16.01
634.911	16.87
635.326	16.65
635.741	16.57
636.155	15.3
636.57	15.72
636.984	16.38
637.399	17.43
637.813	16.24
638.228	15.69
638.642	15.19
639.056	14.44
639.47	14.12
639.884	14.33
640.298	14.27
640.712	14.17
641.126	14.2
641.54	13.95
641.954	11.78
642.368	11.61
642.781	13.66
643.195	14.11
643.609	14.64
644.022	14.18
644.436	13.51
644.849	13.2
645.262	12.48
645.676	11.15
646.089	10.63
646.502	11.96
646.915	11.85
647.328	10.58
647.741	10.65
648.154	10
648.567	11.37
648.98	13.09
649.393	13.11
649.805	13.56
650.218	13.66
650.631	13.62
651.043	13.89
651.456	13.67
651.868	13.16
652.28	12.06
652.693	11.87
653.105	10.39
653.517	8.4
653.929	7.91
654.341	8.11
654.753	9.55
655.165	9.22
655.577	8.99
655.989	9.45
656.401	8.75
656.813	9.85
657.224	10.51
657.636	9.83
658.047	10.24
658.459	10.91
658.87	10.15
659.282	10.16
659.693	10.15
660.104	10.01
660.515	9.15
660.926	9.15
661.338	8.91
661.749	7.9
662.159	8.25
662.57	8.24
662.981	8.26
663.392	8.19
663.803	7.77
664.213	8.43
664.624	8.72
665.035	9.63
665.445	9.93
665.855	10.67
666.266	11.96
666.676	11.5
667.086	11.21
667.497	11.61
667.907	12.79
668.317	12.24
668.727	14.01
669.137	12.9
669.547	12.63
669.956	12.07
670.366	10.94
670.776	11.02
671.186	11.94
671.595	12.46
672.005	11.9
672.414	11.47
672.824	11.79
673.233	9.52
673.642	10.62
674.052	10.93
674.461	11.98
674.87	12.74
675.279	13.81
675.688	12.48
676.097	13.02
676.506	12.65
676.915	11.85
677.323	12.23
677.732	12.38
678.141	12.06
678.549	12.06
678.958	11.01
679.366	10.12
679.775	7.95
680.183	10.03
680.592	9.82
681	10
681.408	9.93
681.816	9.04
682.224	8.52
682.632	9.8
683.04	9.63
683.448	10.04
683.856	10.58
684.264	12.29
684.671	11.1
685.079	10.16
685.487	9.74
685.894	10.93
686.302	10.49
686.709	12.12
687.116	11.57
687.524	12.72
687.931	13.24
688.338	14.21
688.745	11.7
689.152	11.36
689.559	13.38
689.966	15.12
690.373	15.92
690.78	18.31
691.187	18.69
691.593	19.1
692	19.06
692.407	19.96
692.813	21.36
693.22	24.09
693.626	24.4
694.032	24.89
694.439	24.95
694.845	24.57
695.251	22.92
695.657	23.43
696.063	22.56
696.469	22.35
696.875	21.95
697.281	20.88
697.687	19.6
698.093	20.08
698.498	19.4
698.904	19.03
699.31	19.4
699.715	21.2
700.12	21.34
700.526	22.51
700.931	23.09
701.337	24.54
701.742	25.58
702.147	26.06
702.552	27.1
702.957	26.67
703.362	27.9
703.767	27.82
704.172	27.8
704.577	26.52
704.981	25.34
705.386	25.28
705.791	24.68
706.195	24.28
706.6	24.82
707.004	23.58
707.408	24
707.813	25.01
708.217	26.5
708.621	26.15
709.025	26.54
709.43	28.97
709.834	29.95
710.237	30.14
710.641	30.38
711.045	32.08
711.449	33.82
711.853	36.62
712.256	34.77
712.66	33.85
713.064	34.62
713.467	36.55
713.87	36.2
714.274	36.69
714.677	37.22
715.08	38.64
715.484	38.21
715.887	40.32
716.29	37.82
716.693	40.25
717.096	41.47
717.499	42.22
717.901	40.82
718.304	40.66
718.707	40.42
719.109	41.18
719.512	40.26
719.915	41.76
720.317	40.39
720.719	41.82
721.122	41.39
721.524	42.04
721.926	45.02
722.328	46.18
722.731	45.45
723.133	45.22
723.535	45.84
723.937	46.77
724.338	47.63
724.74	48.13
725.142	79.27
725.544	81.77
725.945	89.85
726.347	86.47
726.748	86.08
727.15	88.03
727.551	89.89
727.952	87.82
728.354	85.76
728.755	84.93
729.156	84.39
729.557	53.58
729.958	50.76
730.359	43.22
730.76	43.93
731.161	44.95
731.562	44.31
731.962	43.48
732.363	44.97
732.763	45.54
733.164	43.48
733.564	43.96
733.965	43.71
734.365	44.7
734.766	44.81
735.166	44.46
735.566	45.31
735.966	46.36
736.366	46.38
736.766	45.92
737.166	45.64
737.566	46.99
737.966	45.77
738.365	47.32
738.765	47.51
739.165	46.72
739.564	46.77
739.964	45.04
740.363	43.93
740.763	42.68
741.162	43.86
741.561	44.18
741.96	44.13
742.36	44.5
742.759	44.05
743.158	43.06
743.557	43.06
743.955	43.05
744.354	43.12
744.753	42.72
745.152	44.19
745.55	43.27
745.949	42.81
746.348	41.8
746.746	41.14
747.144	41.64
747.543	41.23
747.941	40.66
748.339	40.47
748.737	40.99
749.136	41.82
749.534	40.48
749.932	40.72
750.33	41.29
750.727	41.75
751.125	43.31
751.523	42.34
751.921	44.66
752.318	45.87
752.716	47.59
