Data from N_1_DEC_OH_4N_Splice17_11-20-28-488.txt Node
Date: Sat Mar 14 11:20:28 EDT 2020
User: sa697716
Spectrometer: FLMS03696
Trigger mode: 0
Integration Time (sec): 3.180400E-1
Scans to average: 20
Electric dark correction enabled: true
Nonlinearity correction enabled: true
Boxcar width: 5
XAxis mode: Wavelengths
Number of Pixels in Spectrum: 2048
>>>>>Begin Spectral Data<<<<<
187.83	-70079.61
188.298	718.77
188.766	465.95
189.233	431.36
189.701	589.65
190.169	750.27
190.636	323.01
191.104	319.79
191.571	118.97
192.039	58.57
192.506	44.69
192.974	300.09
193.441	46.39
193.908	216.53
194.375	102.08
194.842	133.86
195.31	171.33
195.777	167.55
196.244	252.66
196.711	215.53
197.177	221.37
197.644	231.84
198.111	321.27
198.578	363
199.045	280.52
199.511	450.81
199.978	496.17
200.445	436.55
200.911	451.63
201.378	465.54
201.844	444.05
202.31	716.45
202.777	743.03
203.243	453.63
203.709	438
204.176	520.26
204.642	430.77
205.108	404.14
205.574	339.09
206.04	294.03
206.506	273.87
206.972	242.67
207.438	228.39
207.903	258.5
208.369	236.53
208.835	245.8
209.301	256.24
209.766	246.09
210.232	243.29
210.697	288.85
211.163	369.57
211.628	510.02
212.094	440.65
212.559	591.15
213.024	367.47
213.49	443.83
213.955	393.5
214.42	353.63
214.885	330.26
215.35	316.53
215.815	319.12
216.28	322.81
216.745	262.53
217.21	294.33
217.675	232.07
218.14	255.03
218.604	261.29
219.069	285.88
219.534	314.92
219.998	321.22
220.463	351.68
220.927	345.75
221.392	287.48
221.856	279.73
222.32	276.55
222.785	322.13
223.249	365.75
223.713	381.25
224.177	358.49
224.642	360.49
225.106	428.15
225.57	445.32
226.034	368.91
226.497	567.79
226.961	526.14
227.425	580.6
227.889	598.07
228.353	533.13
228.816	928.39
229.28	904.23
229.744	778.76
230.207	500.79
230.671	445.11
231.134	602.57
231.597	688.72
232.061	595.99
232.524	568.93
232.987	380.71
233.45	383.61
233.914	340.42
234.377	289.15
234.84	276.35
235.303	312.1
235.766	371.61
236.229	384.31
236.691	222.98
237.154	244.37
237.617	212.4
238.08	217.4
238.542	225.86
239.005	186.03
239.468	209.16
239.93	189.96
240.393	171.7
240.855	154.03
241.317	153.08
241.78	173.67
242.242	193.7
242.704	221.96
243.166	210.86
243.629	224.62
244.091	250.08
244.553	265.45
245.015	294.5
245.477	369.62
245.939	497.51
246.4	507.29
246.862	482.84
247.324	451.75
247.786	484.75
248.247	590.29
248.709	446.38
249.17	353.47
249.632	394.65
250.093	470.88
250.555	382.05
251.016	272.63
251.477	266.22
251.939	285.54
252.4	287.1
252.861	302.7
253.322	285.43
253.783	345.58
254.244	416.45
254.705	283.36
255.166	208.62
255.627	223.69
256.088	290.21
256.549	338.03
257.009	305.8
257.47	350.94
257.931	295.1
258.391	240.09
258.852	246.32
259.312	262
259.773	293.32
260.233	293.48
260.694	252.46
261.154	267.42
261.614	245
262.074	218.29
262.534	236.83
262.994	220.23
263.455	254.53
263.915	243.03
264.374	213.51
264.834	238.77
265.294	240.69
265.754	263.44
266.214	256.15
266.673	220.51
267.133	251.94
267.593	242.23
268.052	296.67
268.512	264.78
268.971	333.12
269.431	384.56
269.89	359.19
270.349	555.98
270.809	592.09
271.268	540.37
271.727	1097.46
272.186	760.19
272.645	569.55
273.104	387.5
273.563	564.21
274.022	402.45
274.481	369.23
274.94	287.71
275.399	213.1
275.857	234.12
276.316	280.82
276.775	263.37
277.233	246.68
277.692	272.33
278.15	326.6
278.609	369.64
279.067	338.65
279.525	320.05
279.984	412.94
280.442	489.14
280.9	560.75
281.358	402.36
281.816	388.22
282.274	400.36
282.732	363.92
283.19	360.77
283.648	294.1
284.106	291.88
284.564	285.11
285.021	254.17
285.479	185.14
285.937	139.91
286.394	136.39
286.852	120.2
287.309	120.64
287.767	145.36
288.224	160.78
288.682	173
289.139	229.26
289.596	209.53
290.053	206.2
290.511	245.27
290.968	301.06
291.425	373.08
291.882	361.3
292.339	322.27
292.796	289.94
293.252	253.06
293.709	213.86
294.166	169.88
294.623	180.49
295.079	175.86
295.536	189.53
295.992	184.58
296.449	189.42
296.905	196.52
297.362	209.68
297.818	205.47
298.274	227.78
298.731	229.02
299.187	226.4
299.643	254.09
300.099	300.95
300.555	337.44
301.011	288.63
301.467	314.26
301.923	326.42
302.379	307.04
302.835	314.54
303.291	297.87
303.746	341.54
304.202	430.82
304.658	413.91
305.113	309.39
305.569	296.92
306.024	285.38
306.479	221.93
306.935	216.77
307.39	216.98
307.845	223.11
308.301	240.89
308.756	231.54
309.211	233.63
309.666	226.56
310.121	298.12
310.576	291.59
311.031	288.67
311.486	290.19
311.94	256.79
312.395	344.19
312.85	531.08
313.305	2084.05
313.759	13745.62
314.214	1030.06
314.668	881.83
315.123	839.3
315.577	348.81
316.032	320.33
316.486	426.6
316.94	393.67
317.394	301.49
317.849	248.82
318.303	224.62
318.757	214.96
319.211	220.43
319.665	200.11
320.119	181.19
320.572	240.51
321.026	238.54
321.48	195.93
321.934	188.73
322.387	170.01
322.841	196.63
323.295	212.18
323.748	185.59
324.202	211.96
324.655	261.28
325.108	395.64
325.562	305.72
326.015	355.52
326.468	278.99
326.921	318.1
327.374	318.04
327.827	341.33
328.28	365.75
328.733	284.13
329.186	258.89
329.639	248.22
330.092	205.87
330.545	201.88
330.997	209.45
331.45	264.71
331.903	330.22
332.355	523.16
332.808	481.78
333.26	421.16
333.713	472.81
334.165	454.11
334.617	585.06
335.069	411.6
335.522	632.16
335.974	649.45
336.426	496.01
336.878	243.82
337.33	158.62
337.782	149.29
338.234	197.94
338.686	178.81
339.137	209.91
339.589	183.88
340.041	178.16
340.493	153.97
340.944	165.66
341.396	173.6
341.847	196.01
342.299	262.46
342.75	356.99
343.201	277.14
343.653	343.15
344.104	399.54
344.555	335.15
345.006	442.97
345.457	434.19
345.908	319.69
346.359	328.15
346.81	239.1
347.261	207.21
347.712	181.37
348.163	182.47
348.613	231.82
349.064	234.04
349.515	208.85
349.965	253.47
350.416	265.65
350.866	304.83
351.317	327.09
351.767	570.38
352.217	713.26
352.668	602.1
353.118	582.52
353.568	441.78
354.018	351.36
354.468	371.01
354.918	273.46
355.368	243.39
355.818	322.13
356.268	775.77
356.718	3429.7
357.168	886.49
357.617	481.27
358.067	503.02
358.517	508.24
358.966	623.71
359.416	745.53
359.865	821.82
360.315	898.33
360.764	470.33
361.213	279.57
361.663	249.96
362.112	267.83
362.561	410.34
363.01	332.42
363.459	276.69
363.908	281.62
364.357	265.69
364.806	372.17
365.255	287.41
365.703	281.96
366.152	304.44
366.601	216.48
367.05	227.32
367.498	219.83
367.947	196.99
368.395	208.7
368.844	200.16
369.292	184.09
369.74	146.82
370.189	186.78
370.637	192.1
371.085	164.2
371.533	242.12
371.981	182.62
372.429	187.51
372.877	219.77
373.325	176.16
373.773	138.72
374.221	144.88
374.669	166.22
375.116	151.72
375.564	154.91
376.012	159.35
376.459	144.48
376.907	198.43
377.354	205.31
377.801	224.66
378.249	268.81
378.696	348.26
379.143	418.43
379.591	421.02
380.038	742.31
380.485	620.15
380.932	721.85
381.379	715.33
381.826	603.86
382.273	438.67
382.72	349.11
383.166	345.43
383.613	246.56
384.06	219
384.506	260.96
384.953	198.12
385.4	193.35
385.846	160.02
386.292	133.78
386.739	103.59
387.185	85.08
387.631	83.06
388.078	90.6
388.524	85.84
388.97	85.67
389.416	82.16
389.862	87.25
390.308	75.05
390.754	79.48
391.2	88.09
391.645	88.13
392.091	120.33
392.537	129.41
392.983	113.92
393.428	144.44
393.874	138.75
394.319	144.55
394.765	151.25
395.21	150.59
395.655	144.59
396.101	140.25
396.546	129.4
396.991	109.45
397.436	97.96
397.881	93.03
398.326	67.76
398.771	69.65
399.216	54.01
399.661	44.06
400.106	53.18
400.551	58.04
400.995	54.65
401.44	55.48
401.885	53.2
402.329	52.3
402.774	54.55
403.218	63.23
403.663	59.41
404.107	62.69
404.551	65.83
404.995	56.19
405.44	45.72
405.884	42.54
406.328	32.66
406.772	29.54
407.216	27.79
407.66	26.3
408.104	16.21
408.547	18.05
408.991	17.55
409.435	14.77
409.879	18.84
410.322	22.48
410.766	23.34
411.209	29.02
411.653	28.49
412.096	29.06
412.54	25.82
412.983	26.98
413.426	27.85
413.869	26.85
414.312	31.41
414.756	27.08
415.199	27.05
415.642	29.14
416.085	29.73
416.527	29.77
416.97	30.22
417.413	31.28
417.856	30.07
418.298	31.09
418.741	30.85
419.184	24.52
419.626	21.02
420.069	19.74
420.511	17.03
420.953	16.38
421.396	17.24
421.838	15.39
422.28	16.56
422.722	18.28
423.164	14.44
423.606	14.27
424.048	16.78
424.49	18.5
424.932	15.47
425.374	15.28
425.816	13.92
426.258	15.87
426.699	16.43
427.141	18.89
427.582	17.4
428.024	17.89
428.465	13.51
428.907	11.58
429.348	11.49
429.789	15.06
430.231	18.63
430.672	19.49
431.113	18.18
431.554	18.47
431.995	16.08
432.436	20.15
432.877	19.29
433.318	24.33
433.759	23.1
434.2	25.22
434.64	22.28
435.081	20.93
435.522	21.88
435.962	20.48
436.403	21.88
436.843	20.17
437.284	17.46
437.724	16.04
438.164	11.35
438.604	12.4
439.045	12.11
439.485	14.09
439.925	12.59
440.365	10.51
440.805	9.06
441.245	8.16
441.685	8.66
442.125	7.32
442.564	8.4
443.004	10.39
443.444	10.17
443.883	10.77
444.323	8.58
444.762	5.06
445.202	2.92
445.641	6.15
446.081	5.43
446.52	5.38
446.959	6.88
447.398	8.65
447.837	8.67
448.276	9.53
448.716	10.01
449.154	10.3
449.593	13.56
450.032	15.78
450.471	12.74
450.91	12.2
451.349	13.75
451.787	12.39
452.226	10.77
452.664	9.75
453.103	8.79
453.541	6.52
453.98	8.25
454.418	8.34
454.856	8.98
455.295	10.03
455.733	10.32
456.171	9.21
456.609	11.18
457.047	11.35
457.485	14.07
457.923	14.7
458.361	14.62
458.798	13.88
459.236	13.15
459.674	12.08
460.111	11.67
460.549	11.63
460.987	10.34
461.424	8.13
461.862	7.77
462.299	6.92
462.736	7.51
463.173	7.73
463.611	10.34
464.048	10.88
464.485	10.82
464.922	10.28
465.359	9.5
465.796	16.53
466.233	18.69
466.67	21.06
467.106	21.34
467.543	19.68
467.98	19
468.416	17.72
468.853	17.28
469.29	17.04
469.726	17.24
470.162	17.43
470.599	11.72
471.035	9.56
471.471	8.55
471.907	7.36
472.344	7.56
472.78	8.02
473.216	7.34
473.652	7.41
474.088	6.39
474.523	6.47
474.959	5.7
475.395	6.5
475.831	6.94
476.266	6.33
476.702	6.5
477.138	6.85
477.573	6.71
478.008	6.52
478.444	6.92
478.879	9.28
479.314	9.89
479.75	10.31
480.185	9.86
480.62	9.81
481.055	10.09
481.49	9.73
481.925	10.19
482.36	11.45
482.795	10.67
483.229	9.76
483.664	8.89
484.099	8.31
484.534	9.11
484.968	9.65
485.403	9.16
485.837	7.92
486.271	7.66
486.706	7.26
487.14	6.29
487.574	7.03
488.009	7.25
488.443	7.09
488.877	7.95
489.311	6.98
489.745	6.21
490.179	7.02
490.613	9.02
491.046	9.15
491.48	8.69
491.914	9.33
492.348	9.01
492.781	9.06
493.215	9.33
493.648	8.1
494.082	8.46
494.515	9.16
494.948	9.35
495.382	8.12
495.815	8.54
496.248	9.27
496.681	8.47
497.114	7.77
497.547	8.28
497.98	8.65
498.413	10.03
498.846	10.58
499.279	9.76
499.711	9.46
500.144	9.31
500.577	9.8
501.009	9.29
501.442	10.34
501.874	11.56
502.306	11.1
502.739	12.48
503.171	12.43
503.603	12.26
504.036	12.59
504.468	12.96
504.9	13.37
505.332	13.01
505.764	13.3
506.196	12.7
506.627	12.86
507.059	13.06
507.491	10.93
507.923	11.03
508.354	11.68
508.786	11.76
509.217	11.24
509.649	11.27
510.08	10.96
510.512	11.76
510.943	12.2
511.374	11.93
511.805	11.7
512.237	11.78
512.668	11.15
513.099	9.89
513.53	10.48
513.961	11.65
514.391	12.01
514.822	13.66
515.253	13.41
515.684	13.54
516.114	14.05
516.545	14.68
516.975	15.29
517.406	15.21
517.836	15.5
518.267	15.19
518.697	15.22
519.127	15.05
519.558	14.6
519.988	14.94
520.418	14.64
520.848	13.59
521.278	13.22
521.708	29.19
522.138	29.9
522.567	29.8
522.997	30.39
523.427	30.03
523.857	30.35
524.286	30.11
524.716	29.99
525.145	30.56
525.575	32.07
526.004	31.95
526.433	16.75
526.863	16.42
527.292	17.64
527.721	17.48
528.15	17.43
528.579	17.83
529.008	18.13
529.437	17.67
529.866	17.73
530.295	17.16
530.724	18.22
531.152	18.25
531.581	18.95
532.01	18.78
532.438	18.94
532.867	19.2
533.295	19.34
533.723	19.55
534.152	19.98
534.58	19.68
535.008	19.91
535.436	20.54
535.865	20
536.293	19.16
536.721	18.87
537.149	18.79
537.576	19.09
538.004	18.57
538.432	17.32
538.86	17.7
539.287	17.77
539.715	17.89
540.143	16.79
540.57	17.03
540.998	17.48
541.425	19.09
541.852	19.1
542.28	18.93
542.707	18.93
543.134	19.71
543.561	19.97
543.988	20.14
544.415	20.1
544.842	20
545.269	19.87
545.696	20.33
546.123	19.9
546.549	19.73
546.976	19.79
547.403	20.07
547.829	19.84
548.256	19.43
548.682	19.34
549.108	19.97
549.535	19.96
549.961	19.92
550.387	19.68
550.813	20.02
551.24	20.49
551.666	20.18
552.092	20.09
552.518	20.15
552.943	20.44
553.369	20.29
553.795	19.62
554.221	19.97
554.646	19.94
555.072	20.91
555.498	19.23
555.923	18.42
556.349	18.66
556.774	18.33
557.199	18.06
557.625	17.35
558.05	17.9
558.475	17.67
558.9	17.41
559.325	17.93
559.75	17.38
560.175	17.44
560.6	17.58
561.025	17.39
561.449	18.16
561.874	17.81
562.299	18.08
562.723	17.92
563.148	17.91
563.572	17.35
563.997	16.59
564.421	15.52
564.846	15.5
565.27	15.69
565.694	15.25
566.118	14.85
566.542	15.73
566.966	15.68
567.39	15.36
567.814	15.87
568.238	15.74
568.662	15.66
569.086	16.26
569.509	16.02
569.933	17.28
570.357	17.37
570.78	17.18
571.204	17.81
571.627	17.92
572.05	17.81
572.474	17.98
572.897	18.85
573.32	19.38
573.743	18.74
574.166	19.44
574.589	18.53
575.012	18.36
575.435	18.35
575.858	17.9
576.281	17.82
576.704	17.18
577.126	15.94
577.549	15.25
577.972	15.13
578.394	15.5
578.817	16.48
579.239	15.84
579.661	16.35
580.084	16.86
580.506	16.57
580.928	15.81
581.35	16.6
581.772	17.32
582.194	17.33
582.616	16.21
583.038	15.35
583.46	13.89
583.882	14.17
584.303	12.91
584.725	12.47
585.147	15.61
585.568	15.81
585.99	15.96
586.411	16.33
586.833	16.62
587.254	17.54
587.675	17.63
588.096	17.91
588.518	18.24
588.939	18.55
589.36	17.95
589.781	13.77
590.202	15.99
590.623	15.6
591.043	14.45
591.464	14.3
591.885	15.11
592.305	15.24
592.726	15.1
593.147	14.85
593.567	15.48
593.987	15.9
594.408	15.88
594.828	13.23
595.248	13.42
595.669	14.33
596.089	13.99
596.509	13.09
596.929	12.68
597.349	12.79
597.769	12.25
598.189	12.08
598.608	12.05
599.028	12.53
599.448	12.61
599.867	12.35
600.287	11.7
600.706	12.06
601.126	12.28
601.545	13.25
601.965	13.18
602.384	13.48
602.803	13.15
603.222	13.08
603.641	12.67
604.061	13.2
604.48	13.18
604.898	13.35
605.317	13.11
605.736	12.71
606.155	12.79
606.574	12.56
606.992	12.49
607.411	12.8
607.829	11.81
608.248	11.32
608.666	10.56
609.085	10.02
609.503	9.73
609.921	10.37
610.339	10.32
610.758	9.28
611.176	8.7
611.594	8.84
612.012	8.78
612.43	9.56
612.847	9.67
613.265	10.33
613.683	10.97
614.101	11.17
614.518	10.32
614.936	10.39
615.353	11.57
615.771	12.36
616.188	12.27
616.606	12.05
617.023	12.11
617.44	12.04
617.857	11.24
618.274	10.87
618.691	10.91
619.108	11.55
619.525	11.39
619.942	10.86
620.359	10.62
620.776	10.65
621.192	11.84
621.609	12.58
622.026	12.82
622.442	13.27
622.859	12.58
623.275	12.09
623.691	11.64
624.108	11.88
624.524	11.88
624.94	12.37
625.356	11.86
625.772	10.63
626.188	9.04
626.604	9.24
627.02	9.46
627.436	10.36
627.852	11.61
628.268	12.16
628.683	11.61
629.099	11.35
629.514	10.13
629.93	9.83
630.345	10
630.761	10.47
631.176	10.33
631.591	11.98
632.007	12.37
632.422	10.67
632.837	9.24
633.252	10.11
633.667	10.36
634.082	10.98
634.497	11.91
634.911	13.02
635.326	13.05
635.741	13.42
636.155	11.94
636.57	12.45
636.984	13.42
637.399	14.58
637.813	13.89
638.228	14.15
638.642	14.29
639.056	13.51
639.47	12.99
639.884	13.44
640.298	12.78
640.712	13.33
641.126	12.35
641.54	11.96
641.954	10.49
642.368	10.46
642.781	12.16
643.195	11.74
643.609	12.49
644.022	11.89
644.436	10.62
644.849	10.26
645.262	9.66
645.676	9.07
646.089	8.66
646.502	9.94
646.915	10.05
647.328	7.73
647.741	8.29
648.154	8.23
648.567	9.68
648.98	11.09
649.393	10.93
649.805	11.01
650.218	10.69
650.631	11.21
651.043	12.11
651.456	12.38
651.868	12.92
652.28	12.27
652.693	11.95
653.105	10.58
653.517	9.87
653.929	10.61
654.341	11.3
654.753	12.95
655.165	13.05
655.577	11.95
655.989	11.65
656.401	10.82
656.813	11.19
657.224	10.61
657.636	10.43
658.047	11.58
658.459	11.5
658.87	9.82
659.282	8.95
659.693	9.03
660.104	9.24
660.515	9.19
660.926	8.52
661.338	8.53
661.749	8.35
662.159	9.25
662.57	7.89
662.981	7.85
663.392	8.18
663.803	7.97
664.213	7.55
664.624	7.39
665.035	7.09
665.445	7.53
665.855	7.83
666.266	9.18
666.676	8.24
667.086	7.57
667.497	7.74
667.907	8.12
668.317	8.07
668.727	10.49
669.137	10.05
669.547	10.25
669.956	10.28
670.366	9.91
670.776	9.46
671.186	9.91
671.595	11
672.005	10.3
672.414	10.64
672.824	11.1
673.233	8.92
673.642	8.79
674.052	9.2
674.461	10.86
674.87	11.34
675.279	11.72
675.688	10.02
676.097	10.15
676.506	10.71
676.915	9.88
677.323	9.79
677.732	9.51
678.141	9.47
678.549	9.74
678.958	7.61
679.366	6.47
679.775	4.91
680.183	7.02
680.592	7.32
681	7.27
681.408	8.08
681.816	7.65
682.224	7.2
682.632	9.1
683.04	9.02
683.448	10.13
683.856	11.52
684.264	13.83
684.671	13.12
685.079	13.41
685.487	13.68
685.894	13.03
686.302	12.69
686.709	14.13
687.116	12.94
687.524	13.38
687.931	14.15
688.338	14.38
688.745	13.43
689.152	12.84
689.559	12.29
689.966	13.41
690.373	14.65
690.78	16.78
691.187	16.97
691.593	17.56
692	16.92
692.407	16.7
692.813	18.94
693.22	20.4
693.626	20.08
694.032	20.41
694.439	21.03
694.845	20.87
695.251	19.64
695.657	20.39
696.063	19.85
696.469	20.95
696.875	20.65
697.281	19.19
697.687	17.76
698.093	18.2
698.498	19.1
698.904	17.88
699.31	18.25
699.715	19.99
700.12	19.99
700.526	20.79
700.931	20.45
701.337	21.86
701.742	23.24
702.147	24.51
702.552	25.21
702.957	24.29
703.362	24.75
703.767	25.23
704.172	25.1
704.577	24.94
704.981	24.32
705.386	25.3
705.791	24.91
706.195	23.46
706.6	23.01
707.004	21.86
707.408	22.11
707.813	23.12
708.217	23.75
708.621	23.7
709.025	23.24
709.43	24.99
709.834	24.83
710.237	24.8
710.641	25.07
711.045	25.37
711.449	27.85
711.853	30.19
712.256	29.25
712.66	28.47
713.064	28.84
713.467	30.27
713.87	30.01
714.274	30.5
714.677	31.28
715.08	31.81
715.484	32.61
715.887	33.92
716.29	31.28
716.693	33.68
717.096	35.13
717.499	35.57
717.901	35.01
718.304	34.84
718.707	34.64
719.109	34.01
719.512	33.03
719.915	35.8
720.317	35.22
720.719	35.97
721.122	35.42
721.524	35.2
721.926	38.57
722.328	39.32
722.731	38.28
723.133	37.74
723.535	38.49
723.937	39.79
724.338	38.89
724.74	39.66
725.142	78.04
725.544	80.83
725.945	90
726.347	86.06
726.748	85.88
727.15	87.6
727.551	90.55
727.952	89.75
728.354	88.42
728.755	86.99
729.156	85.79
729.557	49.24
729.958	45.81
730.359	36.2
730.76	36.07
731.161	36.25
731.562	34.67
731.962	32.19
732.363	32.47
732.763	33.34
733.164	32.49
733.564	32.87
733.965	33.23
734.365	33.65
734.766	36
735.166	36.6
735.566	37.26
735.966	38.59
736.366	39.48
736.766	39.28
737.166	38.38
737.566	39.1
737.966	38.23
738.365	38.3
738.765	37.9
739.165	35.69
739.564	35.47
739.964	33.81
740.363	32.08
740.763	30.4
741.162	30.86
741.561	29.86
741.96	29.39
742.36	29.08
742.759	29.14
743.158	28.99
743.557	28.28
743.955	27.78
744.354	27.86
744.753	29.12
745.152	30.37
745.55	29.48
745.949	29.97
746.348	30.17
746.746	30.04
747.144	31.86
747.543	30.76
747.941	31.87
748.339	31.98
748.737	32.68
749.136	33.24
749.534	31.77
749.932	33.38
750.33	33.52
750.727	33.05
751.125	33.46
751.523	31.85
751.921	34.69
752.318	34.31
752.716	35.34
753.113	34.77
753.511	34.92
753.908	36.09
754.305	38.68
754.703	39.02
