Data from N_1_DIV_IL_4N_Splice17_11-16-20-427.txt Node
Date: Sat Mar 14 11:16:20 EDT 2020
User: sa697716
Spectrometer: FLMS03696
Trigger mode: 0
Integration Time (sec): 3.180400E-1
Scans to average: 20
Electric dark correction enabled: true
Nonlinearity correction enabled: true
Boxcar width: 5
XAxis mode: Wavelengths
Number of Pixels in Spectrum: 2048
>>>>>Begin Spectral Data<<<<<
187.83	-56491.44
188.298	581.27
188.766	282.14
189.233	215.69
189.701	318.55
190.169	411.03
190.636	76.33
191.104	30.43
191.571	-42.42
192.039	-59.63
192.506	-120.65
192.974	293.16
193.441	-319.37
193.908	-150.14
194.375	-72.35
194.842	-43.85
195.31	-130.82
195.777	15.96
196.244	92.46
196.711	90.47
197.177	131.91
197.644	127.91
198.111	222.94
198.578	310.7
199.045	236.08
199.511	363.77
199.978	394.75
200.445	363.89
200.911	347.22
201.378	348.8
201.844	332.45
202.31	493.76
202.777	547.23
203.243	348.34
203.709	312.31
204.176	406.29
204.642	346.08
205.108	332.89
205.574	269.98
206.04	246.83
206.506	244.12
206.972	225.9
207.438	223.47
207.903	236.74
208.369	218.51
208.835	234.19
209.301	215.52
209.766	214.65
210.232	202.33
210.697	252.6
211.163	307.53
211.628	417.25
212.094	372.02
212.559	469.79
213.024	299.58
213.49	359.93
213.955	323.58
214.42	294.93
214.885	263.97
215.35	268.76
215.815	282.99
216.28	292.5
216.745	246.89
217.21	273.44
217.675	230.27
218.14	225.78
218.604	222.19
219.069	236.57
219.534	259.24
219.998	275.35
220.463	302.91
220.927	291.03
221.392	253.44
221.856	242.6
222.32	235.89
222.785	266.83
223.249	336.89
223.713	338.68
224.177	322.34
224.642	338.52
225.106	351.23
225.57	318.18
226.034	280.72
226.497	406.74
226.961	371.76
227.425	404.09
227.889	436.12
228.353	383.72
228.816	682.15
229.28	634.5
229.744	519.19
230.207	399.68
230.671	432.92
231.134	553.66
231.597	664.32
232.061	597.05
232.524	572.67
232.987	408.93
233.45	380.39
233.914	344.7
234.377	335.24
234.84	328.8
235.303	334.83
235.766	334.65
236.229	355.86
236.691	213.25
237.154	215.65
237.617	190.57
238.08	156.4
238.542	186.09
239.005	160.48
239.468	164.35
239.93	145.99
240.393	145.59
240.855	117.29
241.317	110.53
241.78	114.53
242.242	129.77
242.704	158.78
243.166	162.61
243.629	163.57
244.091	174.24
244.553	173.75
245.015	204.48
245.477	245.25
245.939	362.14
246.4	398.5
246.862	374.35
247.324	345.66
247.786	325.99
248.247	373.27
248.709	295.19
249.17	240.27
249.632	316.17
250.093	377.17
250.555	332.42
251.016	240.09
251.477	218.74
251.939	247.09
252.4	248.36
252.861	273.71
253.322	265.76
253.783	317.53
254.244	361.14
254.705	250.22
255.166	188.84
255.627	171.41
256.088	217.38
256.549	244.57
257.009	230.43
257.47	280.73
257.931	239.45
258.391	203.33
258.852	204.68
259.312	220.02
259.773	243.22
260.233	249.82
260.694	235.17
261.154	267.14
261.614	258.53
262.074	218.02
262.534	238.82
262.994	233.56
263.455	263.54
263.915	233.96
264.374	227.67
264.834	253.56
265.294	249.31
265.754	254.22
266.214	240.08
266.673	210.56
267.133	246.57
267.593	214.62
268.052	255.32
268.512	236.23
268.971	296.96
269.431	327.14
269.89	281.92
270.349	421.71
270.809	470.61
271.268	419.88
271.727	834.33
272.186	579.23
272.645	446.35
273.104	283.92
273.563	399.22
274.022	259.97
274.481	238.39
274.94	184.14
275.399	122.23
275.857	115.77
276.316	122.48
276.775	111.36
277.233	98.28
277.692	112.66
278.15	170.18
278.609	220.38
279.067	225.3
279.525	215.45
279.984	268.44
280.442	345.85
280.9	417.06
281.358	290.84
281.816	288.75
282.274	301.38
282.732	276.21
283.19	252.46
283.648	194.92
284.106	184.87
284.564	163.45
285.021	185.03
285.479	137.59
285.937	95.33
286.394	99.96
286.852	88.21
287.309	76.83
287.767	123.13
288.224	124.43
288.682	130.61
289.139	162.5
289.596	177.61
290.053	164.09
290.511	177.1
290.968	234.87
291.425	283.23
291.882	293.37
292.339	285.96
292.796	238.62
293.252	214.92
293.709	198.98
294.166	180.97
294.623	170.5
295.079	160.11
295.536	196.26
295.992	177.97
296.449	180.57
296.905	187.67
297.362	193.07
297.818	207.32
298.274	222.05
298.731	220.14
299.187	215.12
299.643	233.91
300.099	272.78
300.555	292.6
301.011	245.1
301.467	279.78
301.923	278.81
302.379	267.45
302.835	244.11
303.291	244.05
303.746	264.56
304.202	325.04
304.658	333.72
305.113	253.15
305.569	246.39
306.024	251.11
306.479	186.78
306.935	191.48
307.39	194.3
307.845	184.91
308.301	198.26
308.756	167.22
309.211	165.81
309.666	152.05
310.121	189.87
310.576	173.02
311.031	159.75
311.486	161.49
311.94	121.46
312.395	133.36
312.85	156.98
313.305	323.83
313.759	6436.42
314.214	557.76
314.668	510.79
315.123	550.94
315.577	243.91
316.032	251.12
316.486	336.91
316.94	290.57
317.394	230.95
317.849	199.08
318.303	192.45
318.757	178.59
319.211	184.87
319.665	167.19
320.119	162.69
320.572	208.81
321.026	213.02
321.48	187.55
321.934	186.19
322.387	168.89
322.841	191
323.295	188.96
323.748	189.15
324.202	222.24
324.655	260.72
325.108	382.18
325.562	296.32
326.015	328.26
326.468	242.56
326.921	288.62
327.374	325.08
327.827	337.13
328.28	378.84
328.733	279.04
329.186	246.14
329.639	235.55
330.092	188.38
330.545	191.39
330.997	203.83
331.45	235.98
331.903	292.21
332.355	407.86
332.808	394.5
333.26	344.7
333.713	367.54
334.165	337.6
334.617	462.02
335.069	335.47
335.522	513.37
335.974	551.61
336.426	454.74
336.878	253.27
337.33	171.64
337.782	176.94
338.234	225.42
338.686	220.36
339.137	250.81
339.589	197.42
340.041	183.7
340.493	155.74
340.944	158.95
341.396	174.05
341.847	188.58
342.299	241.55
342.75	314.13
343.201	243.59
343.653	316.01
344.104	397.37
344.555	335.69
345.006	446.99
345.457	410.88
345.908	284.46
346.359	280.94
346.81	204.53
347.261	193.4
347.712	163.96
348.163	163.53
348.613	204.15
349.064	172.4
349.515	153.05
349.965	188.43
350.416	207.72
350.866	245.79
351.317	250.43
351.767	397.01
352.217	413.87
352.668	361.36
353.118	354.38
353.568	268.48
354.018	273.67
354.468	290.51
354.918	201.42
355.368	187.4
355.818	243.84
356.268	589.22
356.718	2717.21
357.168	864.45
357.617	435.38
358.067	396.11
358.517	342.76
358.966	438.57
359.416	621.65
359.865	710.44
360.315	729.42
360.764	383.05
361.213	244.62
361.663	197.58
362.112	213.89
362.561	337.02
363.01	295.06
363.459	267.67
363.908	258.6
364.357	208.25
364.806	289.15
365.255	188.19
365.703	215.15
366.152	239.49
366.601	243.04
367.05	236.32
367.498	220.84
367.947	211.62
368.395	219.54
368.844	194.02
369.292	208.05
369.74	168.36
370.189	243.93
370.637	233.28
371.085	183.66
371.533	167.24
371.981	103.32
372.429	140.24
372.877	155.21
373.325	137.19
373.773	123.19
374.221	89.55
374.669	75.41
375.116	82.88
375.564	101.3
376.012	99.91
376.459	122.01
376.907	136.34
377.354	110.8
377.801	133.21
378.249	160.49
378.696	215.62
379.143	286.24
379.591	324.23
380.038	481.33
380.485	339.59
380.932	393.96
381.379	424.18
381.826	374.7
382.273	253.13
382.72	201
383.166	206.79
383.613	148.16
384.06	133.67
384.506	166.27
384.953	130.1
385.4	125.28
385.846	115.78
386.292	78.86
386.739	60.46
387.185	66.33
387.631	60.79
388.078	79.85
388.524	87.73
388.97	98.05
389.416	78.95
389.862	86.83
390.308	79.25
390.754	74.76
391.2	90.54
391.645	90.71
392.091	109.03
392.537	112.89
392.983	83.55
393.428	96.99
393.874	89.59
394.319	104.8
394.765	109.58
395.21	114.59
395.655	115.81
396.101	107.46
396.546	108.28
396.991	90.85
397.436	86.83
397.881	80.25
398.326	59.39
398.771	60.78
399.216	47.77
399.661	39.33
400.106	41.35
400.551	40.56
400.995	35.28
401.44	36.84
401.885	36.1
402.329	37.12
402.774	42.5
403.218	51.22
403.663	46.28
404.107	46.8
404.551	49.69
404.995	46.51
405.44	43.7
405.884	43.58
406.328	34.26
406.772	29.25
407.216	23.34
407.66	18.65
408.104	12.54
408.547	14.54
408.991	13.24
409.435	9.06
409.879	10.64
410.322	10.16
410.766	13.92
411.209	18.97
411.653	22.43
412.096	26.08
412.54	23.97
412.983	23.48
413.426	24.54
413.869	24.61
414.312	26.83
414.756	22.73
415.199	24.18
415.642	25.1
416.085	23.23
416.527	21.44
416.97	18.99
417.413	20.15
417.856	19.66
418.298	19.25
418.741	18.4
419.184	18.28
419.626	17.44
420.069	15.96
420.511	14.02
420.953	15.57
421.396	14.65
421.838	15.02
422.28	15.39
422.722	17.36
423.164	13.55
423.606	13.23
424.048	11.5
424.49	12.42
424.932	11.37
425.374	9.59
425.816	9.01
426.258	9.73
426.699	12.72
427.141	15.49
427.582	11.83
428.024	12.23
428.465	11.83
428.907	12.31
429.348	12.65
429.789	15.05
430.231	19.98
430.672	18.29
431.113	17.08
431.554	14.32
431.995	12.33
432.436	15.39
432.877	16.36
433.318	16.92
433.759	14.86
434.2	15.63
434.64	14.08
435.081	13.36
435.522	13.76
435.962	15.74
436.403	16.38
436.843	15.26
437.284	13.22
437.724	11.52
438.164	9.7
438.604	11.35
439.045	11.11
439.485	12.35
439.925	9.9
440.365	9.89
440.805	8.16
441.245	9.4
441.685	10.53
442.125	9.75
442.564	9.96
443.004	12.13
443.444	12.41
443.883	13.22
444.323	10.58
444.762	7.17
445.202	6.28
445.641	7.35
446.081	5.74
446.52	4.4
446.959	5.69
447.398	7.29
447.837	7.94
448.276	6.73
448.716	7.04
449.154	6.01
449.593	8.76
450.032	8.63
450.471	6.25
450.91	6.3
451.349	8.01
451.787	7.44
452.226	6.16
452.664	4.31
453.103	4.14
453.541	2.23
453.98	5.29
454.418	4.73
454.856	6.46
455.295	7.78
455.733	8.45
456.171	8.31
456.609	9.39
457.047	10.76
457.485	12.24
457.923	13.98
458.361	13.24
458.798	11.99
459.236	12.31
459.674	10.83
460.111	10.58
460.549	10.13
460.987	9.37
461.424	7.87
461.862	7.59
462.299	8.23
462.736	7.8
463.173	8.67
463.611	10.5
464.048	11.65
464.485	12.76
464.922	12.83
465.359	12.13
465.796	16.83
466.233	18.11
466.67	19.78
467.106	19.33
467.543	18.26
467.98	17.79
468.416	16.92
468.853	15.42
469.29	14.27
469.726	14.11
470.162	13.66
470.599	9.38
471.035	8.33
471.471	7.15
471.907	4.91
472.344	5.06
472.78	4.51
473.216	3.25
473.652	3.99
474.088	4.06
474.523	4.49
474.959	3.71
475.395	3.85
475.831	3.99
476.266	3.55
476.702	3.83
477.138	3.92
477.573	4.61
478.008	5.02
478.444	5.34
478.879	6.16
479.314	5.68
479.75	6.31
480.185	6.45
480.62	6.65
481.055	6.11
481.49	6.96
481.925	7.03
482.36	8.25
482.795	7.96
483.229	7.09
483.664	6.84
484.099	6.92
484.534	7.23
484.968	7.6
485.403	7.07
485.837	6.68
486.271	6.09
486.706	6.25
487.14	5.33
487.574	4.85
488.009	4.94
488.443	4.68
488.877	5.11
489.311	4.28
489.745	3.66
490.179	3.71
490.613	5.55
491.046	5.61
491.48	5.57
491.914	5.6
492.348	6.18
492.781	6.02
493.215	6.2
493.648	5.47
494.082	5.75
494.515	6.36
494.948	7.19
495.382	5.52
495.815	5.72
496.248	5.54
496.681	4.82
497.114	4.2
497.547	4.87
497.98	5.49
498.413	6.82
498.846	7.49
499.279	6.7
499.711	5.87
500.144	5.77
500.577	6.37
501.009	5.85
501.442	6.55
501.874	7.13
502.306	6.26
502.739	7.34
503.171	6.74
503.603	6.8
504.036	6.74
504.468	6.67
504.9	6.83
505.332	6.28
505.764	7.14
506.196	6.82
506.627	6.67
507.059	6.5
507.491	4.91
507.923	5
508.354	5.23
508.786	5.19
509.217	5.53
509.649	5.49
510.08	5.1
510.512	5.56
510.943	6
511.374	6.41
511.805	6.36
512.237	6.06
512.668	5.76
513.099	4.55
513.53	4.88
513.961	4.96
514.391	5.32
514.822	6.43
515.253	6.02
515.684	5.73
516.114	5.75
516.545	6.39
516.975	6.11
517.406	5.64
517.836	6.09
518.267	5.92
518.697	6.22
519.127	5.95
519.558	5.01
519.988	3.91
520.418	3.47
520.848	2.01
521.278	1.49
521.708	17.01
522.138	17.77
522.567	16.65
522.997	16.8
523.427	16.4
523.857	16.28
524.286	16.43
524.716	17.5
525.145	18.16
525.575	18.82
526.004	18.95
526.433	3.98
526.863	2.94
527.292	4.38
527.721	4.43
528.15	4.37
528.579	4.65
529.008	4.55
529.437	3.24
529.866	2.83
530.295	2.81
530.724	3.68
531.152	3.8
531.581	4.82
532.01	4.69
532.438	4.42
532.867	3.89
533.295	3.86
533.723	4.09
534.152	4.76
534.58	5.1
535.008	5.54
535.436	5.64
535.865	5.14
536.293	4.57
536.721	3.72
537.149	3.37
537.576	4.05
538.004	4.43
538.432	3.83
538.86	4.11
539.287	3.85
539.715	3.59
540.143	2.41
540.57	2.88
540.998	2.57
541.425	4.24
541.852	4.05
542.28	4.33
542.707	4.33
543.134	4.43
543.561	4.23
543.988	4.08
544.415	3.9
544.842	4.54
545.269	4.58
545.696	5.38
546.123	4.67
546.549	5.44
546.976	5.31
547.403	4.98
547.829	4.7
548.256	4.64
548.682	5.15
549.108	5.48
549.535	4.84
549.961	4.07
550.387	4.1
550.813	5.16
551.24	5.27
551.666	4.32
552.092	3.91
552.518	4.2
552.943	4.98
553.369	4.46
553.795	4.54
554.221	5.02
554.646	5.45
555.072	5.78
555.498	4.25
555.923	3.27
556.349	3.33
556.774	3.43
557.199	3.49
557.625	2.74
558.05	3.32
558.475	3.07
558.9	2.88
559.325	3.25
559.75	3.27
560.175	2.96
560.6	3.46
561.025	4.05
561.449	4.4
561.874	4.1
562.299	4.21
562.723	4
563.148	4.05
563.572	3.89
563.997	3.54
564.421	2.6
564.846	3.27
565.27	3.67
565.694	3.68
566.118	3.21
566.542	3.86
566.966	4.06
567.39	3.73
567.814	3.87
568.238	3.93
568.662	3.49
569.086	3.54
569.509	2.28
569.933	3.09
570.357	2.87
570.78	3.07
571.204	3.64
571.627	3.51
572.05	3.79
572.474	4.81
572.897	5.42
573.32	6.25
573.743	6.34
574.166	7.44
574.589	6.34
575.012	6.35
575.435	5.66
575.858	5.85
576.281	6.12
576.704	5.46
577.126	4.1
577.549	3.68
577.972	3.26
578.394	3.18
578.817	4.49
579.239	4.17
579.661	4.45
580.084	6.34
580.506	6.15
580.928	5.44
581.35	6.01
581.772	6.38
582.194	6.47
582.616	6.03
583.038	6.06
583.46	4.87
583.882	5.77
584.303	4.79
584.725	3.8
585.147	5.81
585.568	6.46
585.99	6.97
586.411	7.53
586.833	8.05
587.254	8.55
587.675	8.25
588.096	8.06
588.518	7.6
588.939	8.39
589.36	8.51
589.781	5.25
590.202	7.16
590.623	6.55
591.043	5.68
591.464	5
591.885	5.28
592.305	5.06
592.726	5.56
593.147	5.63
593.567	5.97
593.987	5.72
594.408	5.79
594.828	3.43
595.248	4.24
595.669	4.67
596.089	4.7
596.509	3.94
596.929	3.74
597.349	3.41
597.769	3.39
598.189	3.61
598.608	3.59
599.028	3.57
599.448	3.57
599.867	3.19
600.287	3.22
600.706	3.58
601.126	4.23
601.545	5.1
601.965	4.83
602.384	5.18
602.803	4.6
603.222	4.86
603.641	4.88
604.061	5.5
604.48	5.12
604.898	4.28
605.317	3.77
605.736	3.48
606.155	3.62
606.574	4.02
606.992	3.53
607.411	3.48
607.829	2.8
608.248	2.44
608.666	1.6
609.085	1.92
609.503	2.08
609.921	2.86
610.339	3.1
610.758	2.36
611.176	2.25
611.594	2.81
612.012	2.93
612.43	3.87
612.847	4.01
613.265	5.04
613.683	4.77
614.101	5.09
614.518	4.72
614.936	4.64
615.353	5.13
615.771	5.12
616.188	5.07
616.606	5.06
617.023	4.68
617.44	4.83
617.857	4.02
618.274	4.16
618.691	4.05
619.108	3.39
619.525	3.06
619.942	3.15
620.359	3.14
620.776	3.11
621.192	3.88
621.609	4.7
622.026	5.34
622.442	5.48
622.859	5.08
623.275	4.99
623.691	5.72
624.108	6.41
624.524	6.78
624.94	7.26
625.356	7.1
625.772	6.58
626.188	5.61
626.604	5.49
627.02	5.62
627.436	5.76
627.852	7.04
628.268	7.05
628.683	6.84
629.099	6.22
629.514	5.57
629.93	5.4
630.345	5.59
630.761	5.71
631.176	5.78
631.591	6.78
632.007	7.55
632.422	6.78
632.837	6.36
633.252	7.1
633.667	6.93
634.082	7.37
634.497	8.13
634.911	9.28
635.326	9.46
635.741	9.15
636.155	8.37
636.57	8.64
636.984	9.05
637.399	10.04
637.813	9.29
638.228	9.36
638.642	8.99
639.056	8.28
639.47	7.23
639.884	7.61
640.298	7.14
640.712	8.03
641.126	7.69
641.54	7.04
641.954	5.23
642.368	5.54
642.781	7.42
643.195	7.16
643.609	7.9
644.022	7.23
644.436	6.65
644.849	7.06
645.262	6.28
645.676	5.71
646.089	6
646.502	7.48
646.915	6.79
647.328	5.93
647.741	6.71
648.154	6.81
648.567	8.92
648.98	9.71
649.393	9.89
649.805	10.27
650.218	10.28
650.631	10.18
651.043	9.99
651.456	10.34
651.868	9.98
652.28	9.27
652.693	8.04
653.105	6.86
653.517	6.35
653.929	6.69
654.341	6.51
654.753	7.01
655.165	6.79
655.577	6.61
655.989	6.5
656.401	5.67
656.813	6.83
657.224	6.88
657.636	6.13
658.047	6.42
658.459	6.31
658.87	5.05
659.282	4.74
659.693	5.36
660.104	6.06
660.515	6.27
660.926	6.32
661.338	5.9
661.749	5.69
662.159	6.62
662.57	6.65
662.981	6.3
663.392	7.18
663.803	7.04
664.213	7.07
664.624	6.69
665.035	5.76
665.445	5.52
665.855	6.09
666.266	7.18
666.676	7.15
667.086	5.92
667.497	6.71
667.907	7.04
668.317	7.09
668.727	9.4
669.137	8.83
669.547	8.91
669.956	8.64
670.366	8.01
670.776	8
671.186	7.81
671.595	7.71
672.005	6.92
672.414	6.53
672.824	7.05
673.233	4.86
673.642	5.36
674.052	6.07
674.461	7.29
674.87	7.29
675.279	7.35
675.688	6.05
676.097	6.82
676.506	6.97
676.915	6.47
677.323	6.59
677.732	6.3
678.141	5.6
678.549	5.98
678.958	5.06
679.366	4.71
679.775	3.42
680.183	5.17
680.592	5.56
681	5.6
681.408	6.01
681.816	5.1
682.224	4.85
682.632	6.56
683.04	6.66
683.448	6.98
683.856	7.81
684.264	9.29
684.671	8.67
685.079	8.11
685.487	7.73
685.894	7.7
686.302	7.2
686.709	7.81
687.116	6.46
687.524	5.99
687.931	6.97
688.338	7.01
688.745	6.24
689.152	5.87
689.559	6.9
689.966	7.37
690.373	8.2
690.78	9.26
691.187	8.67
691.593	9.6
692	10.37
692.407	10.82
692.813	11.85
693.22	12.82
693.626	11.96
694.032	11.57
694.439	12
694.845	11.42
695.251	11.02
695.657	12.06
696.063	10.91
696.469	10.25
696.875	9.49
697.281	8.42
697.687	7.18
698.093	7.27
698.498	7.49
698.904	6.71
699.31	7.1
699.715	8.9
700.12	8.06
700.526	9.85
700.931	9.37
701.337	10.61
701.742	11.8
702.147	12.4
702.552	13.12
702.957	11.8
703.362	11.94
703.767	11.66
704.172	10.76
704.577	10.54
704.981	7.7
705.386	7.35
705.791	6.22
706.195	4.32
706.6	4.15
707.004	2.83
707.408	3.03
707.813	3.5
708.217	4.42
708.621	3.67
709.025	3.2
709.43	5.9
709.834	6.1
710.237	6.07
710.641	7.33
711.045	8.4
711.449	10.68
711.853	13.62
712.256	13.43
712.66	12.45
713.064	13.28
713.467	14.8
713.87	13.96
714.274	15
714.677	15.93
715.08	16.19
715.484	16.17
715.887	17.65
716.29	15.4
716.693	16.45
717.096	17.15
717.499	18.32
717.901	16.68
718.304	15.36
718.707	14.13
719.109	13.86
719.512	13.11
719.915	14
720.317	12.32
720.719	12.08
721.122	11.79
721.524	12.11
721.926	14.47
722.328	14.83
722.731	15.04
723.133	15.72
723.535	14.81
723.937	15.5
724.338	15.96
724.74	17.03
725.142	53.5
725.544	55.45
725.945	64.25
726.347	61.04
726.748	62.05
727.15	64.16
727.551	66.13
727.952	65.5
728.354	64.33
728.755	64.01
729.156	62.65
729.557	27.09
729.958	24.91
730.359	15.13
730.76	14.65
731.161	14.38
731.562	12.59
731.962	10.55
732.363	10.96
732.763	10.94
733.164	8.26
733.564	8.28
733.965	9.46
734.365	9.9
734.766	11.5
735.166	11.78
735.566	11.99
735.966	13.45
736.366	14.2
736.766	14.1
737.166	13.46
737.566	14.38
737.966	13.47
738.365	12.77
738.765	12.74
739.165	12.61
739.564	11.63
739.964	10.97
740.363	9.08
740.763	7.64
741.162	9.58
741.561	10.21
741.96	10.35
742.36	9.75
742.759	10.47
743.158	8.5
743.557	7.24
743.955	7.57
744.354	6.86
744.753	7.26
745.152	8.38
745.55	5.84
745.949	5.41
746.348	5.36
746.746	5.34
747.144	6.51
747.543	7.88
747.941	7.55
748.339	8.31
748.737	9.59
749.136	10.27
749.534	8.38
749.932	10.55
750.33	10.49
750.727	9.26
751.125	11.25
751.523	9.58
751.921	11.33
752.318	12.75
752.716	12.86
753.113	12.36
753.511	12.2
753.908	13.34
754.305	15.58
754.703	15.82
755.1	16.95
755.497	16.24
755.894	16.09
756.291	14.39
756.688	14.21
757.085	14.11
757.482	14.4
757.878	17.36
758.275	19.4
758.672	13.7
759.068	14.59
759.465	15.57
759.861	16.76
760.258	18.88
760.654	20.39
761.05	24.15
761.447	22.33
761.843	21.96
762.239	19.39
762.635	17.04
763.031	16.64
763.427	14.44
763.822	14.66
764.218	13.16
764.614	11.12
765.01	8.85
765.405	6.69
765.801	7.74
766.196	7.85
766.592	5.95
766.987	6.34
767.382	6.21
