Data from N_1_HIR_WI_4N_Splice17_11-39-50-709.txt Node
Date: Sat Mar 14 11:39:50 EDT 2020
User: sa697716
Spectrometer: FLMS03696
Trigger mode: 0
Integration Time (sec): 3.180400E-1
Scans to average: 20
Electric dark correction enabled: true
Nonlinearity correction enabled: true
Boxcar width: 5
XAxis mode: Wavelengths
Number of Pixels in Spectrum: 2048
>>>>>Begin Spectral Data<<<<<
187.83	-117384.82
188.298	845.43
188.766	446.38
189.233	364.74
189.701	500.23
190.169	732.24
190.636	187.2
191.104	186.98
191.571	-10.2
192.039	-77.06
192.506	-72.58
192.974	331.93
193.441	-442.55
193.908	-219.41
194.375	-116.03
194.842	-97.84
195.31	-101.2
195.777	35.01
196.244	173.25
196.711	105.25
197.177	100.6
197.644	79.8
198.111	102.79
198.578	91.16
199.045	55.72
199.511	70.44
199.978	0.65
200.445	22.04
200.911	-14.24
201.378	-104.64
201.844	-64.73
202.31	-144.06
202.777	-130.45
203.243	-61.72
203.709	-72.65
204.176	-40.32
204.642	-59.94
205.108	-48.04
205.574	-60.98
206.04	-90.14
206.506	-93.77
206.972	-117.06
207.438	-119.43
207.903	-148.11
208.369	-102.32
208.835	-86.9
209.301	-118.46
209.766	-112
210.232	-96.16
210.697	-113.24
211.163	-153.79
211.628	-215.39
212.094	-136.59
212.559	-78.79
213.024	-47.07
213.49	-32.39
213.955	-46.17
214.42	-59.61
214.885	-42.54
215.35	-26.17
215.815	46.98
216.28	75.78
216.745	47.55
217.21	73.41
217.675	22.4
218.14	38.43
218.604	9.36
219.069	14.77
219.534	52.28
219.998	36.39
220.463	25.72
220.927	-45.05
221.392	-44.04
221.856	-17.43
222.32	-90.61
222.785	-80.66
223.249	-110.87
223.713	-135.53
224.177	-131.51
224.642	-217.52
225.106	-292.04
225.57	-328.57
226.034	-182.13
226.497	-280.88
226.961	-206.81
227.425	-163.3
227.889	-228.06
228.353	-230.88
228.816	-482.4
229.28	-407.39
229.744	-401.46
230.207	-149.12
230.671	-119.71
231.134	-338.85
231.597	-291.64
232.061	-341.69
232.524	-381.06
232.987	-251.09
233.45	-189.62
233.914	-173.26
234.377	-195.43
234.84	-140.85
235.303	-214.73
235.766	-235.66
236.229	-240.85
236.691	-166.48
237.154	-212.53
237.617	-133
238.08	-126.02
238.542	-159.88
239.005	-92.81
239.468	-89.81
239.93	-97.45
240.393	-83.82
240.855	-80.59
241.317	-82.47
241.78	-130.27
242.242	-122.96
242.704	-109.34
243.166	-100.43
243.629	-67.83
244.091	-87.29
244.553	-103.01
245.015	-93.71
245.477	-121.54
245.939	-206.25
246.4	-223.04
246.862	-196.41
247.324	-175.64
247.786	-268.22
248.247	-348.05
248.709	-419.8
249.17	-282.63
249.632	-162.38
250.093	-121.08
250.555	-81.91
251.016	-3.3
251.477	-0.71
251.939	1.83
252.4	6.33
252.861	6.58
253.322	26.41
253.783	-18.12
254.244	-65.37
254.705	-109.59
255.166	-161.8
255.627	-179.89
256.088	-247.03
256.549	-263.68
257.009	-238.14
257.47	-346.21
257.931	-293.79
258.391	-217.35
258.852	-203.66
259.312	-202.62
259.773	-266.65
260.233	-158.11
260.694	-116.78
261.154	-169.55
261.614	-66.06
262.074	-67.64
262.534	-51.91
262.994	-28.24
263.455	-58.74
263.915	-34.6
264.374	-28.87
264.834	-23.41
265.294	-63.25
265.754	-48.77
266.214	-26.07
266.673	-61.97
267.133	-79.63
267.593	-100.69
268.052	-128.59
268.512	-118.81
268.971	-97.06
269.431	-96.05
269.89	-100.49
270.349	-108.5
270.809	-113.22
271.268	-111.48
271.727	-322.88
272.186	-155.4
272.645	-91.19
273.104	-116.08
273.563	-149.22
274.022	-199.9
274.481	-150.06
274.94	-89.01
275.399	-96.31
275.857	-155.69
276.316	-250.92
276.775	-224.89
277.233	-230.04
277.692	-188.21
278.15	-177.97
278.609	-138.45
279.067	-143.02
279.525	-126.38
279.984	-213.61
280.442	-213.01
280.9	-126.66
281.358	-49.75
281.816	-36.43
282.274	-25.34
282.732	-82.56
283.19	-120.53
283.648	-129.02
284.106	-131
284.564	-128.96
285.021	-84.89
285.479	-76
285.937	-95.14
286.394	-76.06
286.852	-94.86
287.309	-110.99
287.767	-56.73
288.224	-26.21
288.682	-35.35
289.139	-33.52
289.596	-34.26
290.053	-54.27
290.511	-91.69
290.968	-97.27
291.425	-140.29
291.882	-55.5
292.339	-32.57
292.796	-84.24
293.252	-104.52
293.709	-46.5
294.166	-42.48
294.623	-65.49
295.079	-68.99
295.536	-42.09
295.992	-36.29
296.449	-38.59
296.905	-25.88
297.362	-6.47
297.818	-11.92
298.274	10.36
298.731	-15.21
299.187	-15.54
299.643	-9.01
300.099	-11.73
300.555	-22.94
301.011	-9.37
301.467	61.34
301.923	-1.04
302.379	0.41
302.835	13.53
303.291	8.89
303.746	2.12
304.202	-13.35
304.658	-29.48
305.113	-14.98
305.569	-16.36
306.024	-33.98
306.479	-122.37
306.935	-53.53
307.39	-85.9
307.845	-83.64
308.301	-64.62
308.756	-83.28
309.211	-53.01
309.666	-53.68
310.121	-15.5
310.576	-41.31
311.031	-49.59
311.486	-104.78
311.94	-188.08
312.395	-272.24
312.85	-546.99
313.305	-3921.32
313.759	-14558.37
314.214	-1093
314.668	-773.97
315.123	-643.88
315.577	-173.05
316.032	-156.4
316.486	-156.76
316.94	-58.28
317.394	-11.75
317.849	-6.96
318.303	1.77
318.757	7.25
319.211	-5.19
319.665	-11.31
320.119	-28.99
320.572	-68.18
321.026	-42.18
321.48	-24.92
321.934	-54.23
322.387	-65.27
322.841	-55.29
323.295	-0.01
323.748	-54.84
324.202	-50.02
324.655	-47.7
325.108	10.58
325.562	62.3
326.015	42.17
326.468	31.52
326.921	40.79
327.374	51.89
327.827	73.1
328.28	74.45
328.733	79.14
329.186	72.42
329.639	58.61
330.092	35.63
330.545	24.68
330.997	42.05
331.45	65.57
331.903	85.31
332.355	108.5
332.808	75.65
333.26	25.56
333.713	19.53
334.165	14.53
334.617	-20.64
335.069	-102.44
335.522	-255.12
335.974	-343.33
336.426	-419.36
336.878	-353.48
337.33	-171.85
337.782	-175.72
338.234	-170.84
338.686	-244.2
339.137	-283.05
339.589	-268.85
340.041	-158.24
340.493	-137.66
340.944	-144.76
341.396	-138.51
341.847	-47.01
342.299	-4.74
342.75	20.7
343.201	-44.45
343.653	-35.15
344.104	-87.58
344.555	-57.09
345.006	-170.15
345.457	-43.7
345.908	-56.67
346.359	-42.94
346.81	-63.63
347.261	-98
347.712	-125.06
348.163	-117.78
348.613	-73.03
349.064	-59.39
349.515	-44.54
349.965	-30.01
350.416	-77.58
350.866	-88.35
351.317	-104.88
351.767	-165.83
352.217	-247.89
352.668	-189.04
353.118	-232.93
353.568	-332.06
354.018	-207.17
354.468	-206.23
354.918	-110.58
355.368	-113.11
355.818	-140.97
356.268	-578.14
356.718	-2031.62
357.168	-413.18
357.617	-189.57
358.067	-197.99
358.517	-217
358.966	-251.03
359.416	-209.14
359.865	-329.47
360.315	-433.71
360.764	-147.22
361.213	-43.95
361.663	-87.86
362.112	-133.95
362.561	-225.39
363.01	-131.34
363.459	-84.22
363.908	-122.8
364.357	-80.96
364.806	-164.59
365.255	-92.1
365.703	-45.25
366.152	-45.5
366.601	-25.32
367.05	20.63
367.498	27.12
367.947	4.63
368.395	-7.88
368.844	-9.52
369.292	-66.84
369.74	-34.43
370.189	-73.12
370.637	-130.67
371.085	-126.66
371.533	-163.81
371.981	-223.82
372.429	-167.63
372.877	-176.53
373.325	-120.27
373.773	-119.41
374.221	-107.69
374.669	-154.25
375.116	-133.02
375.564	-144.26
376.012	-169.68
376.459	-116.79
376.907	-147.1
377.354	-221.63
377.801	-185.65
378.249	-191.19
378.696	-271.88
379.143	-286.72
379.591	-251.13
380.038	-433.37
380.485	-304.88
380.932	-371.15
381.379	-260.7
381.826	-83.7
382.273	-71.62
382.72	-95.84
383.166	-118.37
383.613	-52.67
384.06	-51.17
384.506	-71.66
384.953	-49.01
385.4	-42.45
385.846	-20.22
386.292	-55.21
386.739	-72.82
387.185	-81.83
387.631	-76.03
388.078	-50.1
388.524	-61.11
388.97	-42.18
389.416	-20.17
389.862	-15.67
390.308	-25.98
390.754	-18.33
391.2	-9.65
391.645	-18.62
392.091	16.2
392.537	27.45
392.983	8.33
393.428	33.06
393.874	17.72
394.319	29.66
394.765	49.68
395.21	57.99
395.655	44.77
396.101	49.19
396.546	51.73
396.991	39.2
397.436	31.17
397.881	23.13
398.326	7.6
398.771	13.76
399.216	1.21
399.661	-5.71
400.106	-4.69
400.551	2.62
400.995	-2.77
401.44	0.66
401.885	-1.11
402.329	1.51
402.774	11.81
403.218	25.08
403.663	23.87
404.107	24.28
404.551	28.58
404.995	27.95
405.44	22.07
405.884	21.45
406.328	14.6
406.772	11.92
407.216	11.53
407.66	3.69
408.104	-7.24
408.547	-7.3
408.991	-5.54
409.435	-7.32
409.879	-5.43
410.322	-4.03
410.766	0.13
411.209	2.43
411.653	3.28
412.096	6.96
412.54	5.32
412.983	6.54
413.426	9.72
413.869	7.51
414.312	8.64
414.756	5.33
415.199	3.31
415.642	2.2
416.085	3.54
416.527	1.77
416.97	-2.24
417.413	1.5
417.856	-1.81
418.298	-2.35
418.741	-2.91
419.184	-4.98
419.626	-9.57
420.069	-8.68
420.511	-6.99
420.953	-5.84
421.396	-5.21
421.838	-5.96
422.28	-6.21
422.722	-5.57
423.164	-9.09
423.606	-8.21
424.048	-8.99
424.49	-3.92
424.932	-6.15
425.374	-8.89
425.816	-14.07
426.258	-15.53
426.699	-15.22
427.141	-10.33
427.582	-9.71
428.024	-11.22
428.465	-14.04
428.907	-14.98
429.348	-17.11
429.789	-14.34
430.231	-10.1
430.672	-7.79
431.113	-6.9
431.554	-6.27
431.995	-10.65
432.436	-6.63
432.877	-3.02
433.318	-0.17
433.759	-0.49
434.2	-1.33
434.64	-3.36
435.081	-5.02
435.522	-2.8
435.962	-1.82
436.403	1.27
436.843	-1.28
437.284	-4.46
437.724	-9.31
438.164	-12.6
438.604	-11.9
439.045	-6.85
439.485	-3.53
439.925	-4.59
440.365	-6.1
440.805	-7.41
441.245	-6.8
441.685	-5.49
442.125	-6.41
442.564	-6.24
443.004	-4.63
443.444	-4.43
443.883	-5.31
444.323	-8.56
444.762	-12.78
445.202	-12.73
445.641	-9.78
446.081	-14.27
446.52	-13.29
446.959	-12.29
447.398	-8.65
447.837	-7.65
448.276	-7.52
448.716	-6.49
449.154	-6.53
449.593	-0.61
450.032	-0.29
450.471	-3.81
450.91	-4.14
451.349	-2.51
451.787	-3.12
452.226	-4.88
452.664	-5.73
453.103	-6.02
453.541	-7.85
453.98	-4.93
454.418	-7.21
454.856	-4.61
455.295	-2.99
455.733	-1.28
456.171	-2.42
456.609	-0.22
457.047	2.04
457.485	4.39
457.923	5.13
458.361	4.59
458.798	3.12
459.236	3.5
459.674	0.77
460.111	1.37
460.549	1.86
460.987	1.28
461.424	0.24
461.862	-1.49
462.299	-2.35
462.736	-1.28
463.173	-1.75
463.611	2.26
464.048	4.22
464.485	5.65
464.922	4.98
465.359	3.33
465.796	11.26
466.233	12.38
466.67	15.69
467.106	17.65
467.543	16.31
467.98	16.15
468.416	12.96
468.853	10.88
469.29	9.95
469.726	9.77
470.162	9.44
470.599	2.99
471.035	1.3
471.471	-1.36
471.907	-4.4
472.344	-4.39
472.78	-3.2
473.216	-3.86
473.652	-3.92
474.088	-4.88
474.523	-4.29
474.959	-4.77
475.395	-4.56
475.831	-3.83
476.266	-3.74
476.702	-3.29
477.138	-3.32
477.573	-3.74
478.008	-3.44
478.444	-2.42
478.879	-0.32
479.314	-0.04
479.75	0.88
480.185	0.53
480.62	0.08
481.055	0.06
481.49	0.89
481.925	1.61
482.36	3.3
482.795	2.93
483.229	2.09
483.664	1.1
484.099	0.79
484.534	1.12
484.968	1.53
485.403	1.23
485.837	0.96
486.271	0.39
486.706	-0.37
487.14	-1.76
487.574	-1.1
488.009	-0.88
488.443	-0.89
488.877	-0.48
489.311	-1.17
489.745	-0.91
490.179	-0.23
490.613	1.48
491.046	1.44
491.48	1.66
491.914	2.29
492.348	2.22
492.781	2.6
493.215	2.5
493.648	1.85
494.082	1.64
494.515	1.5
494.948	1.93
495.382	0.06
495.815	0.51
496.248	1.02
496.681	0.39
497.114	-0.49
497.547	-0.23
497.98	0.67
498.413	1.86
498.846	2.5
499.279	1.72
499.711	1.39
500.144	1.47
500.577	1.69
501.009	1.27
501.442	2.58
501.874	3.31
502.306	2.4
502.739	4.34
503.171	3.98
503.603	4.47
504.036	4.36
504.468	4.79
504.9	5.1
505.332	4.63
505.764	5.18
506.196	4.51
506.627	4.41
507.059	4.98
507.491	1.86
507.923	1.75
508.354	1.84
508.786	2.54
509.217	2.24
509.649	2.13
510.08	1.64
510.512	1.92
510.943	1.73
511.374	2.11
511.805	1.29
512.237	1.56
512.668	0.73
513.099	-0.48
513.53	-0.93
513.961	-0.58
514.391	-0.19
514.822	1.26
515.253	1.29
515.684	1.51
516.114	1.07
516.545	2.29
516.975	2.37
517.406	2.27
517.836	2.36
518.267	3.27
518.697	3.5
519.127	3.23
519.558	2.17
519.988	1.33
520.418	0.65
520.848	-0.18
521.278	-1.25
521.708	29.96
522.138	31.45
522.567	31.07
522.997	30.35
523.427	29.59
523.857	29.73
524.286	29.46
524.716	29.77
525.145	30.44
525.575	31.22
526.004	31.04
526.433	0.38
526.863	-0.88
527.292	0.31
527.721	1.01
528.15	1.02
528.579	1.5
529.008	1.74
529.437	0.88
529.866	0.31
530.295	-0.06
530.724	1.12
531.152	0.79
531.581	1.37
532.01	1.11
532.438	0.21
532.867	-0.11
533.295	0.2
533.723	-0.17
534.152	0.5
534.58	1.15
535.008	1.65
535.436	2.02
535.865	2.06
536.293	0.97
536.721	0.61
537.149	0.81
537.576	1.76
538.004	1.41
538.432	0.96
538.86	1.14
539.287	0.39
539.715	0.37
540.143	-0.87
540.57	-0.42
540.998	0.25
541.425	2.29
541.852	2.21
542.28	1.53
542.707	1.04
543.134	2.02
543.561	2.08
543.988	2.27
544.415	1.7
544.842	1.91
545.269	1.66
545.696	2.26
546.123	1.74
546.549	2.21
546.976	2.63
547.403	2.53
547.829	2.42
548.256	1.95
548.682	2.32
549.108	3.54
549.535	3.21
549.961	3
550.387	2.43
550.813	2.68
551.24	2.59
551.666	2.01
552.092	2.29
552.518	1.81
552.943	2.29
553.369	1.6
553.795	1.04
554.221	1.6
554.646	1.49
555.072	2.71
555.498	1.41
555.923	0.81
556.349	1.24
556.774	0.62
557.199	0.69
557.625	-0.11
558.05	0.54
558.475	-0.22
558.9	-0.21
559.325	0.69
559.75	0.28
560.175	0.12
560.6	0.2
561.025	-0.62
561.449	-0.22
561.874	-0.45
562.299	0.35
562.723	-0.05
563.148	0.32
563.572	-0.15
563.997	-1.32
564.421	-2.39
564.846	-2.41
565.27	-1.89
565.694	-1.28
566.118	-1.49
566.542	-0.29
566.966	-0.2
567.39	0.14
567.814	0.58
568.238	1.09
568.662	0.94
569.086	1.15
569.509	0.74
569.933	1.82
570.357	1.57
570.78	1.45
571.204	1.98
571.627	1.35
572.05	1.38
572.474	2.14
572.897	2.25
573.32	3.77
573.743	3.45
574.166	4.64
574.589	2.76
575.012	3
575.435	2.97
575.858	2.45
576.281	2.68
576.704	2.05
577.126	2.12
577.549	1.22
577.972	0.47
578.394	1.2
578.817	2.67
579.239	3.51
579.661	3.65
580.084	5.1
580.506	4.88
580.928	4.77
581.35	4.78
581.772	4.25
582.194	4.96
582.616	3.91
583.038	3.13
583.46	1.49
583.882	1.39
584.303	0.73
584.725	-0.61
585.147	3.51
585.568	4.43
585.99	5.41
586.411	5.37
586.833	5.32
587.254	6.24
587.675	5.66
588.096	4.97
588.518	5.37
588.939	5.83
589.36	6.27
589.781	1.39
590.202	3.66
590.623	3.36
591.043	2.22
591.464	1.99
591.885	2.41
592.305	2.87
592.726	3.14
593.147	3
593.567	3.14
593.987	3.46
594.408	2.93
594.828	-0.3
595.248	0.18
595.669	1.76
596.089	2.16
596.509	1.47
596.929	0.86
597.349	0.88
597.769	0.49
598.189	0.18
598.608	-0.18
599.028	0.31
599.448	0.05
599.867	-0.26
600.287	-1.26
600.706	-0.66
601.126	0.14
601.545	1.31
601.965	1.05
602.384	1.12
602.803	1.15
603.222	1.3
603.641	0.81
604.061	1.65
604.48	1.45
604.898	1.41
605.317	0.66
605.736	0.06
606.155	0.65
606.574	1.21
606.992	1.05
607.411	1.01
607.829	0.2
608.248	0.03
608.666	-0.84
609.085	-0.85
609.503	-1.03
609.921	-0.29
610.339	0.15
610.758	-1.32
611.176	-1.78
611.594	-1.52
612.012	-1.08
612.43	-0.35
612.847	-0.39
613.265	0.54
613.683	0.83
614.101	0.85
614.518	-0.16
614.936	-1.06
615.353	-0.12
615.771	0.05
616.188	0.27
616.606	-0.26
617.023	0.31
617.44	0.69
617.857	0.23
618.274	-0.79
618.691	-0.23
619.108	-0.36
619.525	-0.38
619.942	-0.42
620.359	-0.38
620.776	-0.47
621.192	0.61
621.609	0.5
622.026	1.11
622.442	0.94
622.859	1
623.275	0.77
623.691	0.64
624.108	1.32
624.524	0.9
624.94	0.9
625.356	0.45
625.772	-0.59
626.188	-1.17
626.604	-2.01
627.02	-1.87
627.436	-0.97
627.852	0.31
628.268	1.69
628.683	1.46
629.099	1.26
629.514	0.68
629.93	0.66
630.345	0.9
630.761	0.14
631.176	0.61
631.591	2.29
632.007	2.54
632.422	0.38
632.837	-1.02
633.252	-0.42
633.667	-0.56
634.082	-0.43
634.497	0.55
634.911	1.48
635.326	1.87
635.741	2.43
636.155	1.02
636.57	1.25
636.984	2.69
637.399	4.21
637.813	3.51
638.228	4.04
638.642	4.17
639.056	3.42
639.47	3.11
639.884	3.82
640.298	3.24
640.712	4.49
641.126	4.14
641.54	3.33
641.954	1.13
642.368	1.59
642.781	3.94
643.195	4.64
643.609	5.47
644.022	4.82
644.436	3.83
644.849	3.45
645.262	2.05
645.676	1.05
646.089	0.64
646.502	2.5
646.915	2.23
647.328	0.76
647.741	0.38
648.154	-0.05
648.567	2.31
648.98	3.17
649.393	3.47
649.805	3.29
650.218	3.32
650.631	4.62
651.043	3.57
651.456	2.71
651.868	1.36
652.28	-0.34
652.693	-1.22
653.105	-3.73
653.517	-4.52
653.929	-4.87
654.341	-4.13
654.753	-3.06
655.165	-4.27
655.577	-3.6
655.989	-2.65
656.401	-3.05
656.813	-1.1
657.224	-1.1
657.636	-1.63
658.047	0.13
658.459	-0.01
658.87	-1.18
659.282	-2.02
659.693	-0.55
660.104	-0.01
660.515	-0.46
660.926	-0.37
661.338	-0.84
661.749	-1.04
662.159	0.78
662.57	-1.06
662.981	-0.46
663.392	-0.82
663.803	-0.89
664.213	-2.52
664.624	-3.31
665.035	-3.52
665.445	-3.32
665.855	-2.29
666.266	-1.34
666.676	-2.04
667.086	-2.56
667.497	-2.5
667.907	-2.29
668.317	-1.43
668.727	1.71
669.137	0.6
669.547	1.32
669.956	1.42
670.366	0.92
670.776	0.85
671.186	-0.22
671.595	0.94
672.005	0.18
672.414	1.33
672.824	2.03
673.233	-0.66
673.642	0.01
674.052	-0.21
674.461	0.58
674.87	-0.07
675.279	0.91
675.688	0.56
676.097	1.86
676.506	2.43
676.915	1.64
677.323	0.64
677.732	0.52
678.141	0.72
678.549	0.99
678.958	-0.02
679.366	-0.03
679.775	-1.56
680.183	1.49
680.592	0.05
681	-0.06
681.408	0.16
681.816	-0.25
682.224	-1.24
682.632	0.12
683.04	0.03
683.448	-0.39
683.856	0.41
684.264	1.1
684.671	-1.88
685.079	-2.42
685.487	-3.03
685.894	-3.8
686.302	-4.98
686.709	-4.17
687.116	-5.04
687.524	-4.78
687.931	-2.13
688.338	-2.3
688.745	-3.53
689.152	-3.08
689.559	-2.62
689.966	-0.89
690.373	0.67
690.78	2.67
691.187	2.83
691.593	3.54
692	3.58
692.407	2.68
692.813	4.99
693.22	6.43
693.626	4.83
694.032	5.99
694.439	5.09
694.845	4.32
695.251	3.46
695.657	4.46
696.063	2.85
696.469	1.61
696.875	1.23
697.281	-0.9
697.687	-2.46
698.093	-0.77
698.498	-1.12
698.904	-2.17
699.31	-1.97
699.715	0.31
700.12	-0.76
700.526	-0.02
700.931	0.16
701.337	0.55
701.742	1.33
702.147	1.62
702.552	1.68
702.957	0.24
703.362	1.09
703.767	0.03
704.172	-1.57
704.577	-2.19
704.981	-3.37
705.386	-2.64
705.791	-2.3
706.195	-3.68
706.6	-3.44
707.004	-5.2
707.408	-4.72
707.813	-3.41
708.217	-1.25
708.621	-1.56
709.025	-1.57
709.43	0.81
709.834	1.44
710.237	0.79
710.641	1.24
711.045	2.5
711.449	4.78
711.853	8.5
712.256	6.89
712.66	5.66
713.064	6.2
713.467	8.52
713.87	7.85
714.274	7.52
714.677	8.28
715.08	8.19
715.484	7.63
715.887	9.84
716.29	5.53
716.693	7.75
717.096	7.88
717.499	6.63
717.901	3.76
718.304	2.61
718.707	1.8
719.109	1.96
719.512	1.44
719.915	3.93
720.317	1.93
720.719	1.31
721.122	0.57
721.524	1.67
721.926	7.74
722.328	8.65
722.731	8.76
723.133	9.64
723.535	8.84
723.937	10.08
724.338	9.9
724.74	10.7
725.142	61.27
725.544	64.3
725.945	75.19
726.347	70.69
726.748	71.2
727.15	71.48
727.551	75.08
727.952	72.96
728.354	71.24
728.755	70.16
729.156	68.35
729.557	20.29
729.958	16.18
730.359	4.22
730.76	2.61
731.161	2.12
731.562	1.44
731.962	-2.34
732.363	-1.1
732.763	-0.92
733.164	-3.66
733.564	-3.26
733.965	-1.93
734.365	-1.53
734.766	-0.22
735.166	0.37
735.566	1.79
735.966	2.22
736.366	2.4
736.766	2.74
737.166	2.34
737.566	4.01
737.966	4.01
738.365	2.9
738.765	4.78
739.165	4.26
739.564	4.77
739.964	2.83
740.363	2.27
740.763	0.92
741.162	2.35
741.561	2.37
741.96	2.82
742.36	1.25
742.759	1.58
743.158	-1.03
743.557	-1.02
743.955	-1.99
744.354	-1.86
744.753	-2.37
745.152	-0.74
745.55	-2.27
745.949	-1.76
746.348	-1.65
746.746	-1.77
747.144	1.18
747.543	0.74
747.941	-0.36
748.339	0.03
748.737	1.62
749.136	3.92
749.534	2.31
749.932	4.44
750.33	3.68
750.727	2.24
751.125	3.48
751.523	1.43
751.921	5.22
752.318	6.17
752.716	8.07
753.113	7.45
753.511	6.73
753.908	7.79
754.305	10.76
754.703	11.68
755.1	11.93
755.497	11.57
755.894	10.98
756.291	9.22
756.688	10.52
757.085	8.2
757.482	8.9
757.878	10.22
758.275	11.59
758.672	3.31
759.068	2.46
759.465	1.54
759.861	1.18
