Data from N_1_DIV_OH_2N_Splice17_11-29-57-089.txt Node
Date: Sat Mar 14 11:29:57 EDT 2020
User: sa697716
Spectrometer: FLMS03696
Trigger mode: 0
Integration Time (sec): 3.180400E-1
Scans to average: 20
Electric dark correction enabled: true
Nonlinearity correction enabled: true
Boxcar width: 5
XAxis mode: Wavelengths
Number of Pixels in Spectrum: 2048
>>>>>Begin Spectral Data<<<<<
187.83	-132922.38
188.298	1028.28
188.766	635.55
189.233	526.67
189.701	756.5
190.169	1090.62
190.636	443.83
191.104	345.09
191.571	81.17
192.039	16.97
192.506	56.96
192.974	404.9
193.441	-536.26
193.908	-192.66
194.375	-46.52
194.842	26.23
195.31	60.76
195.777	121.83
196.244	198.13
196.711	162.6
197.177	179.89
197.644	209.7
198.111	310.1
198.578	392.25
199.045	328.4
199.511	462.96
199.978	471.36
200.445	426.98
200.911	471.25
201.378	450.94
201.844	428.19
202.31	677.72
202.777	731.45
203.243	425.27
203.709	417.51
204.176	498.59
204.642	429.24
205.108	416.21
205.574	345.03
206.04	269
206.506	268.34
206.972	250.53
207.438	237.79
207.903	257.06
208.369	247.59
208.835	248.42
209.301	256.42
209.766	238.64
210.232	238.08
210.697	264.59
211.163	322.5
211.628	447.86
212.094	364.87
212.559	510.31
213.024	329.89
213.49	392.43
213.955	343.63
214.42	304.19
214.885	305.72
215.35	302.75
215.815	352.46
216.28	402.02
216.745	333.59
217.21	382.53
217.675	300.73
218.14	316.19
218.604	303.14
219.069	328.16
219.534	360.94
219.998	358.96
220.463	385.78
220.927	358.51
221.392	295.55
221.856	281.64
222.32	274.27
222.785	335.27
223.249	379.51
223.713	414.71
224.177	395.35
224.642	397.26
225.106	470.54
225.57	449.77
226.034	389.1
226.497	568.25
226.961	512.7
227.425	585.3
227.889	605.07
228.353	558.13
228.816	1063.19
229.28	1060.32
229.744	878.87
230.207	578.87
230.671	580.4
231.134	775.55
231.597	896.19
232.061	831.08
232.524	725.88
232.987	500.95
233.45	494.16
233.914	421.79
234.377	360.5
234.84	336.37
235.303	338.56
235.766	366.65
236.229	386.84
236.691	208.76
237.154	204.92
237.617	179.97
238.08	171.28
238.542	176.12
239.005	137.79
239.468	160.99
239.93	152.75
240.393	156.75
240.855	137.66
241.317	125.73
241.78	144.94
242.242	162.43
242.704	198.85
243.166	177.26
243.629	195.33
244.091	216.6
244.553	225.37
245.015	244.11
245.477	290.04
245.939	394.42
246.4	467.26
246.862	464.23
247.324	449.2
247.786	449.15
248.247	583.18
248.709	422.86
249.17	334.28
249.632	364.35
250.093	451.59
250.555	380.33
251.016	277.42
251.477	261.12
251.939	282.97
252.4	284.86
252.861	322.16
253.322	311.21
253.783	377.77
254.244	466.17
254.705	334.11
255.166	255.78
255.627	251.96
256.088	316.49
256.549	331.46
257.009	265.39
257.47	329.21
257.931	273.42
258.391	207.34
258.852	201.88
259.312	212.99
259.773	262.26
260.233	293.43
260.694	280.64
261.154	306.79
261.614	287.29
262.074	263.08
262.534	279.03
262.994	266.98
263.455	327.21
263.915	308.9
264.374	290.48
264.834	318.51
265.294	309.49
265.754	324.85
266.214	303.83
266.673	263.65
267.133	307.94
267.593	289
268.052	362.02
268.512	312.65
268.971	404.51
269.431	443.62
269.89	396.21
270.349	574.69
270.809	643.19
271.268	595.63
271.727	1212.67
272.186	845.74
272.645	632.87
273.104	410.68
273.563	608.97
274.022	398.49
274.481	364.78
274.94	293.4
275.399	210.96
275.857	211.93
276.316	259.68
276.775	245.83
277.233	236.83
277.692	228.18
278.15	280.01
278.609	299.42
279.067	284.25
279.525	254.57
279.984	297.88
280.442	370.4
280.9	412.99
281.358	285.24
281.816	266.36
282.274	253.44
282.732	222.94
283.19	218.15
283.648	180.92
284.106	182.89
284.564	194.74
285.021	202.13
285.479	157.47
285.937	130.33
286.394	127.65
286.852	123.06
287.309	124.78
287.767	160.29
288.224	174.84
288.682	194.15
289.139	237
289.596	231.42
290.053	221.18
290.511	269.59
290.968	358.16
291.425	446.93
291.882	444.63
292.339	407.22
292.796	365.31
293.252	311.74
293.709	283.24
294.166	259.07
294.623	258.81
295.079	241.83
295.536	243.45
295.992	211.8
296.449	204.19
296.905	206.36
297.362	227.45
297.818	250.67
298.274	277.64
298.731	256.87
299.187	234.43
299.643	252.2
300.099	298.54
300.555	336.68
301.011	305.88
301.467	368.75
301.923	383.13
302.379	360.37
302.835	342.78
303.291	330.9
303.746	375.22
304.202	483.68
304.658	489.12
305.113	353.84
305.569	357.06
306.024	327.72
306.479	264.16
306.935	250.83
307.39	242.59
307.845	230.45
308.301	236.53
308.756	220.96
309.211	222.9
309.666	214.41
310.121	283.31
310.576	251.45
311.031	261.8
311.486	233.16
311.94	190.25
312.395	247.64
312.85	361.56
313.305	1396.3
313.759	10774.91
314.214	816.48
314.668	704.35
315.123	614.32
315.577	275.7
316.032	276.45
316.486	402.77
316.94	355.22
317.394	267.63
317.849	241.3
318.303	232.54
318.757	220.23
319.211	222.87
319.665	196.79
320.119	207.58
320.572	267.54
321.026	249.48
321.48	201.37
321.934	190.06
322.387	189.32
322.841	203.47
323.295	218.78
323.748	196.57
324.202	218.71
324.655	289.59
325.108	437.33
325.562	346.25
326.015	374.12
326.468	312.43
326.921	382.64
327.374	388.82
327.827	419.1
328.28	432
328.733	336.59
329.186	292.83
329.639	276.78
330.092	219.3
330.545	209.98
330.997	233.6
331.45	267.9
331.903	314.04
332.355	454.32
332.808	416.03
333.26	375.85
333.713	410.68
334.165	406.43
334.617	503.61
335.069	346.43
335.522	532.81
335.974	570.47
336.426	457.45
336.878	289.62
337.33	188.52
337.782	179.32
338.234	215.88
338.686	215
339.137	270.99
339.589	250.6
340.041	258.7
340.493	230.56
340.944	226.58
341.396	245.41
341.847	249.54
342.299	321.85
342.75	433.83
343.201	330.52
343.653	378.71
344.104	430.13
344.555	352.94
345.006	453.09
345.457	447.27
345.908	335
346.359	342.5
346.81	275.15
347.261	245.62
347.712	236.92
348.163	267.45
348.613	315.2
349.064	319.15
349.515	273.06
349.965	289.9
350.416	298.67
350.866	325.08
351.317	318.73
351.767	496.74
352.217	702.58
352.668	578.86
353.118	518.47
353.568	408.96
354.018	352.21
354.468	411.46
354.918	335.87
355.368	300.67
355.818	438.51
356.268	1286.82
356.718	5474.03
357.168	1347.63
357.617	634.87
358.067	670.61
358.517	681.73
358.966	796.04
359.416	955.49
359.865	960.72
360.315	1068.81
360.764	567.88
361.213	329.01
361.663	284.3
362.112	328.62
362.561	503.31
363.01	399.55
363.459	332.05
363.908	322.78
364.357	293.04
364.806	421.19
365.255	279.1
365.703	257.09
366.152	251.62
366.601	227.56
367.05	223.61
367.498	236.23
367.947	252.12
368.395	254.69
368.844	243.97
369.292	246.02
369.74	211
370.189	306.33
370.637	319.47
371.085	270.13
371.533	316.31
371.981	245.63
372.429	270.9
372.877	279.77
373.325	242.55
373.773	224.36
374.221	204.03
374.669	217.41
375.116	212.86
375.564	226.75
376.012	247.34
376.459	202.87
376.907	245.78
377.354	240.89
377.801	235.67
378.249	276.94
378.696	330.11
379.143	433.17
379.591	494.33
380.038	751.8
380.485	545.38
380.932	608.45
381.379	711
381.826	612.32
382.273	422.54
382.72	330.05
383.166	327.97
383.613	245.07
384.06	217.25
384.506	234.74
384.953	188.7
385.4	195.59
385.846	169.26
386.292	125.72
386.739	100.25
387.185	88.02
387.631	86.77
388.078	98.24
388.524	93.41
388.97	83.1
389.416	72.22
389.862	77.1
390.308	66.8
390.754	67.11
391.2	82.8
391.645	76.8
392.091	106.94
392.537	122.37
392.983	105.9
393.428	131.51
393.874	130.05
394.319	159.62
394.765	167.47
395.21	170.57
395.655	167.19
396.101	153.58
396.546	153.41
396.991	133.47
397.436	122.84
397.881	122.52
398.326	98.86
398.771	109.53
399.216	85.59
399.661	70.62
400.106	74.88
400.551	79.7
400.995	77.12
401.44	73.47
401.885	70.58
402.329	67.86
402.774	64.69
403.218	75.66
403.663	69.9
404.107	72.52
404.551	80.07
404.995	69.9
405.44	61.34
405.884	56.83
406.328	48.21
406.772	48.05
407.216	45.31
407.66	43.33
408.104	33.27
408.547	30.14
408.991	30.27
409.435	24.97
409.879	29.28
410.322	30.47
410.766	34.69
411.209	36.5
411.653	36.13
412.096	39.34
412.54	38.91
412.983	38.87
413.426	41.16
413.869	36.87
414.312	39
414.756	35.36
415.199	32.68
415.642	31.85
416.085	34.95
416.527	31.73
416.97	28.11
417.413	28.25
417.856	25.97
418.298	24
418.741	23.32
419.184	20.34
419.626	15.83
420.069	17.48
420.511	16.79
420.953	18.09
421.396	18.92
421.838	19
422.28	18.38
422.722	21.44
423.164	20.47
423.606	23.97
424.048	23.27
424.49	27.6
424.932	25.79
425.374	25.26
425.816	22.8
426.258	24.25
426.699	26.98
427.141	30.24
427.582	28.76
428.024	29.57
428.465	24.35
428.907	24.38
429.348	23.2
429.789	26.26
430.231	27.89
430.672	29.53
431.113	27.37
431.554	26.05
431.995	22.88
432.436	24.61
432.877	24.33
433.318	28.4
433.759	27.99
434.2	29.41
434.64	28.54
435.081	28.7
435.522	26.9
435.962	28.37
436.403	29.88
436.843	28.37
437.284	27.04
437.724	25.34
438.164	22.83
438.604	21.88
439.045	21.52
439.485	22.57
439.925	23.36
440.365	23.85
440.805	22.76
441.245	22.47
441.685	23.74
442.125	23.49
442.564	23.8
443.004	24.72
443.444	26.28
443.883	26.25
444.323	24.11
444.762	18.35
445.202	16.29
445.641	18.65
446.081	16.73
446.52	17.17
446.959	17.18
447.398	18.89
447.837	17.73
448.276	15.19
448.716	16.19
449.154	14.55
449.593	16.88
450.032	18.72
450.471	16.38
450.91	16.69
451.349	16.95
451.787	16.13
452.226	14.52
452.664	15.06
453.103	16.08
453.541	14.54
453.98	17.46
454.418	17.65
454.856	17.39
455.295	17.86
455.733	17
456.171	16
456.609	16.56
457.047	17.78
457.485	19.38
457.923	20.39
458.361	20.41
458.798	19.51
459.236	19.44
459.674	18.39
460.111	19.74
460.549	20.61
460.987	19.98
461.424	20.06
461.862	19.83
462.299	19.15
462.736	19.64
463.173	19.6
463.611	22.3
464.048	22.57
464.485	24.17
464.922	23.18
465.359	22.32
465.796	28.88
466.233	29.69
466.67	30.95
467.106	32.09
467.543	30.98
467.98	29.83
468.416	27.29
468.853	26.53
469.29	25.29
469.726	24.91
470.162	25.16
470.599	19.82
471.035	18.39
471.471	17.07
471.907	14.63
472.344	14.29
472.78	14.92
473.216	13.97
473.652	14.24
474.088	13.47
474.523	13.67
474.959	12.86
475.395	12.71
475.831	13.21
476.266	13.1
476.702	13.09
477.138	13.12
477.573	12.78
478.008	13.57
478.444	15.82
478.879	17.29
479.314	17.11
479.75	17.67
480.185	17.95
480.62	17.06
481.055	16.85
481.49	17.92
481.925	18.57
482.36	20.94
482.795	20.26
483.229	17.54
483.664	16.91
484.099	16.99
484.534	17.52
484.968	18.07
485.403	18.05
485.837	16.56
486.271	15.45
486.706	14.71
487.14	12.73
487.574	12.93
488.009	13.34
488.443	13.02
488.877	13.47
489.311	12.71
489.745	12.12
490.179	12.74
490.613	15.4
491.046	15.55
491.48	15.21
491.914	15.35
492.348	15.48
492.781	15.76
493.215	16.16
493.648	15.19
494.082	14.75
494.515	14.92
494.948	15.47
495.382	13.87
495.815	14.38
496.248	14.83
496.681	14.81
497.114	13.81
497.547	14.04
497.98	14.83
498.413	15.97
498.846	16.82
499.279	15.96
499.711	15.02
500.144	14.72
500.577	15.3
501.009	15.1
501.442	15.6
501.874	16.65
502.306	15.95
502.739	17.61
503.171	17.64
503.603	17.12
504.036	17.22
504.468	17.78
504.9	17.61
505.332	16.7
505.764	17.35
506.196	17.34
506.627	17.63
507.059	17.62
507.491	14.64
507.923	14.53
508.354	15.34
508.786	15.75
509.217	15.49
509.649	16.24
510.08	16.15
510.512	16.41
510.943	16.39
511.374	16.45
511.805	16.17
512.237	16.52
512.668	15.93
513.099	14.65
513.53	14.63
513.961	15.04
514.391	14.55
514.822	16.18
515.253	16.55
515.684	16.43
516.114	15.73
516.545	16.73
516.975	16.78
517.406	16.31
517.836	16.43
518.267	16.77
518.697	17.51
519.127	17.91
519.558	16.73
519.988	15.96
520.418	15.34
520.848	15.12
521.278	14.52
521.708	32.98
522.138	34.19
522.567	34.02
522.997	33.84
523.427	32.58
523.857	32.75
524.286	32.71
524.716	32.78
525.145	33.76
525.575	34.6
526.004	34.14
526.433	15.67
526.863	14.77
527.292	15.8
527.721	16.19
528.15	16.28
528.579	16.59
529.008	16.61
529.437	16.18
529.866	15.56
530.295	15.3
530.724	16.3
531.152	17.19
531.581	17.83
532.01	18.08
532.438	17.58
532.867	17.42
533.295	17.61
533.723	17.52
534.152	17.42
534.58	17.67
535.008	17.31
535.436	18.2
535.865	17.47
536.293	16.61
536.721	16.1
537.149	16.43
537.576	17.46
538.004	17.14
538.432	16.87
538.86	17.86
539.287	17.54
539.715	17.85
540.143	17
540.57	17.69
540.998	18.14
541.425	19.71
541.852	19.45
542.28	18.79
542.707	18.62
543.134	18.91
543.561	18.98
543.988	19.47
544.415	19.34
544.842	18.9
545.269	18.69
545.696	18.86
546.123	18.27
546.549	18.53
546.976	18.57
547.403	18.92
547.829	18.37
548.256	17.63
548.682	17.47
549.108	18.4
549.535	18.55
549.961	18.52
550.387	18.17
550.813	18.71
551.24	18.93
551.666	18.52
552.092	18.17
552.518	18.31
552.943	19.18
553.369	19.01
553.795	18.66
554.221	18.93
554.646	18.67
555.072	20.02
555.498	18.58
555.923	17.96
556.349	18.87
556.774	18.89
557.199	18.82
557.625	17.89
558.05	18.18
558.475	17.62
558.9	17.71
559.325	18.85
559.75	18.91
560.175	19.07
560.6	18.81
561.025	17.89
561.449	17.92
561.874	18.11
562.299	18.74
562.723	18.86
563.148	18.82
563.572	18.31
563.997	17.25
564.421	15.78
564.846	15.21
565.27	15.61
565.694	15.57
566.118	15.55
566.542	16.2
566.966	15.94
567.39	15.88
567.814	16.52
568.238	17.1
568.662	16.84
569.086	17.33
569.509	17.48
569.933	18.81
570.357	18.81
570.78	19.01
571.204	19.58
571.627	19.87
572.05	19.51
572.474	20.45
572.897	20.49
573.32	21.84
573.743	21.14
574.166	22.03
574.589	20.95
575.012	21.17
575.435	20.71
575.858	20.78
576.281	20.57
576.704	20.53
577.126	18.88
577.549	18.51
577.972	17.34
578.394	17.88
578.817	18.93
579.239	18.6
579.661	18.64
580.084	19.24
580.506	18.67
580.928	18.03
581.35	17.83
581.772	18.22
582.194	18.42
582.616	18.24
583.038	17.97
583.46	16.3
583.882	17.11
584.303	16.22
584.725	15.98
585.147	19.59
585.568	20.71
585.99	21.15
586.411	21.6
586.833	21.87
587.254	21.55
587.675	20.93
588.096	20.69
588.518	19.6
588.939	19.87
589.36	20.03
589.781	14.97
590.202	16.34
590.623	16.63
591.043	15.3
591.464	15.17
591.885	15.87
592.305	16.08
592.726	15.87
593.147	16.26
593.567	16.82
593.987	16.41
594.408	16.55
594.828	14.48
595.248	14.58
595.669	15.93
596.089	15.42
596.509	14.53
596.929	14.42
597.349	14.81
597.769	14.53
598.189	14.32
598.608	14.02
599.028	13.95
599.448	13.85
599.867	12.88
600.287	11.76
600.706	12.25
601.126	12.84
601.545	13.88
601.965	13.66
602.384	13.65
602.803	13.66
603.222	14.09
603.641	13.91
604.061	14.21
604.48	14.42
604.898	14.92
605.317	14.74
605.736	14.42
606.155	14.29
606.574	14.33
606.992	14.44
607.411	14.93
607.829	13.95
608.248	13.78
608.666	13.32
609.085	13.38
609.503	12.84
609.921	13.08
610.339	13.5
610.758	12.56
611.176	12.73
611.594	13.05
612.012	12.39
612.43	13.7
612.847	13.73
613.265	14.34
613.683	14.54
614.101	15.3
614.518	14.51
614.936	13.86
615.353	14.47
615.771	15.12
616.188	14.87
616.606	15.09
617.023	14.47
617.44	14.73
617.857	13.67
618.274	12.86
618.691	12.85
619.108	12.97
619.525	12.69
619.942	12.71
620.359	11.83
620.776	11.56
621.192	12.25
621.609	12.89
622.026	13.64
622.442	14.51
622.859	14.21
623.275	13.6
623.691	13.48
624.108	14.65
624.524	14.34
624.94	14.9
625.356	14.52
625.772	13.31
626.188	12.34
626.604	11.62
627.02	11.4
627.436	12.87
627.852	14.41
628.268	14.98
628.683	14.33
629.099	14.33
629.514	13.08
629.93	13.31
630.345	13.88
630.761	14.06
631.176	14.13
631.591	15.85
632.007	16.24
632.422	14.53
632.837	13.97
633.252	15.02
633.667	15.11
634.082	15.56
634.497	16.38
634.911	17.82
635.326	17.93
635.741	18.44
636.155	17.09
636.57	16.94
636.984	17.41
637.399	19.04
637.813	18.58
638.228	18.44
638.642	18.54
639.056	18.41
639.47	17.25
639.884	17.38
640.298	17.15
640.712	17.05
641.126	16.93
641.54	16.35
641.954	13.44
642.368	12.81
642.781	14.63
643.195	14.9
643.609	14.33
644.022	14.35
644.436	13.49
644.849	12.6
645.262	12.16
645.676	11.19
646.089	11.74
646.502	13.59
646.915	13.59
647.328	12.83
647.741	13.23
648.154	14.19
648.567	14.81
648.98	15.96
649.393	17.09
649.805	17.45
650.218	17.25
650.631	16.99
651.043	17.28
651.456	17.68
651.868	16.98
652.28	15.96
652.693	15.21
653.105	14.92
653.517	15.06
653.929	14.31
654.341	14.57
654.753	15.4
655.165	16.03
655.577	14.97
655.989	14.49
656.401	14.2
656.813	15.41
657.224	14.81
657.636	13.47
658.047	13.91
658.459	13.97
658.87	12.42
659.282	12.29
659.693	12.41
660.104	13.32
660.515	13.06
660.926	12.97
661.338	12.6
661.749	12.95
662.159	14.61
662.57	13.21
662.981	13.75
663.392	14.55
663.803	14.36
664.213	14.07
664.624	13.45
665.035	13.21
665.445	12.95
665.855	13.35
666.266	14.27
666.676	14.05
667.086	13.53
667.497	13.22
667.907	13.76
668.317	14.48
668.727	17.23
669.137	16.62
669.547	17.07
669.956	16.11
670.366	15.51
670.776	15.09
671.186	14.19
671.595	15.01
672.005	14.65
672.414	14.33
672.824	14.16
673.233	11.26
673.642	12.03
674.052	12.17
674.461	13.21
674.87	13.8
675.279	14.52
675.688	13.11
676.097	14.23
676.506	14.38
676.915	14.23
677.323	14.3
677.732	14.43
678.141	14.59
678.549	14.32
678.958	13.7
679.366	12.43
679.775	11.49
680.183	14.93
680.592	14.61
681	14.85
681.408	14.87
681.816	14.39
682.224	14.11
682.632	14.68
683.04	14.91
683.448	15.18
683.856	16.59
684.264	17.62
684.671	15.81
685.079	14.97
685.487	15.95
685.894	15.78
686.302	14.54
686.709	14.76
687.116	14.54
687.524	15.75
687.931	17.61
688.338	18.17
688.745	16.28
689.152	15.83
689.559	15.54
689.966	16.23
690.373	17.41
690.78	19.29
691.187	19.3
691.593	20.14
692	19.23
692.407	18.97
692.813	19.76
693.22	20.68
693.626	20.02
694.032	21.72
694.439	21.62
694.845	20.96
695.251	19.38
695.657	19.69
696.063	17.89
696.469	18.52
696.875	18.65
697.281	17.23
697.687	15.95
698.093	16.84
698.498	16.47
698.904	15.17
699.31	15.26
699.715	18.87
700.12	19.7
700.526	20.45
700.931	19.2
701.337	19.42
701.742	20.03
702.147	21
702.552	21.25
702.957	20.34
703.362	20.3
703.767	20
704.172	17.78
704.577	16.27
704.981	15.13
705.386	16.44
705.791	16.12
706.195	15.05
706.6	15.12
707.004	13.81
707.408	13.42
707.813	14.59
708.217	14.97
708.621	14.67
709.025	14.47
709.43	16.61
709.834	16.53
710.237	16.55
710.641	17.61
711.045	18.78
711.449	19.74
711.853	23.59
712.256	22.62
712.66	22.74
713.064	23.4
713.467	25.52
713.87	25.3
714.274	25.54
714.677	26.38
715.08	26.92
715.484	26.9
715.887	29.59
716.29	26.58
716.693	27.85
717.096	29.92
717.499	30.32
717.901	28.4
718.304	27.98
718.707	26.89
719.109	26.17
719.512	24.1
719.915	26.36
720.317	24.74
720.719	23.99
721.122	24.06
721.524	22.89
721.926	25.92
722.328	27
722.731	25.75
723.133	25.69
723.535	25.68
723.937	26.44
724.338	25.34
724.74	26.2
725.142	67.91
725.544	69.81
725.945	80.02
726.347	76.87
726.748	77.45
727.15	79.43
727.551	82.79
727.952	81.6
728.354	80.92
728.755	80.48
729.156	78.96
729.557	38.73
729.958	36.49
730.359	25.98
730.76	25.27
731.161	24.12
731.562	23.06
731.962	19.73
732.363	21.24
732.763	21.43
733.164	19.09
733.564	19.81
733.965	20.54
734.365	19.44
734.766	20.15
735.166	19.73
735.566	21.77
735.966	22.37
736.366	23.28
736.766	21.83
737.166	21.17
737.566	21.97
737.966	20.78
738.365	21.13
738.765	21.78
739.165	21.54
739.564	21.61
739.964	19.44
740.363	17.24
740.763	15.8
741.162	17.59
741.561	18.04
741.96	18.86
742.36	19.37
742.759	19.02
743.158	17.98
743.557	17.15
743.955	17.05
744.354	16.66
744.753	16.81
745.152	18.37
745.55	17.36
745.949	17.38
746.348	17.05
746.746	15.84
747.144	17.36
747.543	17.52
747.941	17.8
748.339	18.03
748.737	19.25
749.136	20.95
749.534	19.17
749.932	20.58
750.33	20.47
