Data from N_1_DEC_CT_2N_Splice17_11-34-50-930.txt Node
Date: Sat Mar 14 11:34:50 EDT 2020
User: sa697716
Spectrometer: FLMS03696
Trigger mode: 0
Integration Time (sec): 3.180400E-1
Scans to average: 20
Electric dark correction enabled: true
Nonlinearity correction enabled: true
Boxcar width: 5
XAxis mode: Wavelengths
Number of Pixels in Spectrum: 2048
>>>>>Begin Spectral Data<<<<<
187.83	-157370.33
188.298	1262.17
188.766	662.93
189.233	578.76
189.701	712.78
190.169	990
190.636	348.2
191.104	266.79
191.571	1.71
192.039	-68.54
192.506	-91.46
192.974	248.1
193.441	-384.02
193.908	-182.85
194.375	-62.2
194.842	-27.34
195.31	-19.84
195.777	115.79
196.244	191.09
196.711	111.86
197.177	91.47
197.644	40.91
198.111	68.76
198.578	92.33
199.045	52.69
199.511	35.71
199.978	-72.08
200.445	-25.14
200.911	-103.95
201.378	-181.9
201.844	-147.13
202.31	-351.08
202.777	-313.66
203.243	-148.11
203.709	-154.57
204.176	-168.82
204.642	-108.19
205.108	-82.52
205.574	-91.9
206.04	-103
206.506	-82.22
206.972	-100.87
207.438	-81.58
207.903	-111.41
208.369	-89.57
208.835	-80
209.301	-86.33
209.766	-119.73
210.232	-115.8
210.697	-133.01
211.163	-139.07
211.628	-245.87
212.094	-152.71
212.559	-114.4
213.024	-54.5
213.49	-52.38
213.955	-58.2
214.42	-81.4
214.885	-46.07
215.35	-22.46
215.815	36.45
216.28	33.95
216.745	18.84
217.21	37.8
217.675	-9
218.14	-3.21
218.604	-36.19
219.069	-26.5
219.534	12.09
219.998	-7.65
220.463	-17.04
220.927	-95.84
221.392	-84.05
221.856	-40.11
222.32	-98.84
222.785	-77.68
223.249	-114.25
223.713	-95.53
224.177	-88.44
224.642	-204.01
225.106	-291.22
225.57	-361.73
226.034	-191.63
226.497	-275.38
226.961	-216.48
227.425	-226.12
227.889	-289.79
228.353	-303.23
228.816	-743.93
229.28	-696.09
229.744	-570.34
230.207	-231.08
230.671	-164.42
231.134	-426.1
231.597	-445
232.061	-492.48
232.524	-519.75
232.987	-320.91
233.45	-242.42
233.914	-181.44
234.377	-235.44
234.84	-193.96
235.303	-260.92
235.766	-304.31
236.229	-314.75
236.691	-229.03
237.154	-289.12
237.617	-200.51
238.08	-211.85
238.542	-268.24
239.005	-181.8
239.468	-165.17
239.93	-153.34
240.393	-135.9
240.855	-130.62
241.317	-140.58
241.78	-184.66
242.242	-167.07
242.704	-141.87
243.166	-105.86
243.629	-55.46
244.091	-56.69
244.553	-67.56
245.015	-58.51
245.477	-96.1
245.939	-151.54
246.4	-137.01
246.862	-142.97
247.324	-156.54
247.786	-247.34
248.247	-415.54
248.709	-568.11
249.17	-432.51
249.632	-320.19
250.093	-315.56
250.555	-253.88
251.016	-123.51
251.477	-111.48
251.939	-101.66
252.4	-126.5
252.861	-143.43
253.322	-87.45
253.783	-120.08
254.244	-191.43
254.705	-197.03
255.166	-222.96
255.627	-213.25
256.088	-272
256.549	-288.41
257.009	-296.08
257.47	-375.66
257.931	-323.75
258.391	-235.26
258.852	-246.5
259.312	-250.89
259.773	-330.64
260.233	-216.17
260.694	-162.32
261.154	-200.03
261.614	-102.01
262.074	-69.6
262.534	-40.73
262.994	-29.51
263.455	-84.71
263.915	-43.2
264.374	-49.31
264.834	-43.39
265.294	-82.82
265.754	-78.16
266.214	-74.07
266.673	-81.56
267.133	-112.94
267.593	-133.31
268.052	-149.04
268.512	-112.16
268.971	-81.12
269.431	-60.36
269.89	-62.11
270.349	-55.89
270.809	-61.64
271.268	-77.28
271.727	-339.43
272.186	-212.7
272.645	-131.59
273.104	-145.58
273.563	-221.13
274.022	-268.13
274.481	-209
274.94	-142.66
275.399	-130.87
275.857	-198
276.316	-298.05
276.775	-274.99
277.233	-269.59
277.692	-231.82
278.15	-229.38
278.609	-195.48
279.067	-184.93
279.525	-149.48
279.984	-230.19
280.442	-265.04
280.9	-151.92
281.358	-78.66
281.816	-59.26
282.274	-65.97
282.732	-124.39
283.19	-137.72
283.648	-140.98
284.106	-153.34
284.564	-198.93
285.021	-153.12
285.479	-119.34
285.937	-152.05
286.394	-105.66
286.852	-124.73
287.309	-125.36
287.767	-79.62
288.224	-60.7
288.682	-79.58
289.139	-79.08
289.596	-45.52
290.053	-70.17
290.511	-135.01
290.968	-139
291.425	-227.77
291.882	-118.27
292.339	-99.26
292.796	-136.91
293.252	-148.05
293.709	-83.15
294.166	-55.49
294.623	-90.72
295.079	-83.31
295.536	-34.71
295.992	-29.86
296.449	-23.55
296.905	-21.2
297.362	25.94
297.818	18.71
298.274	25.86
298.731	14.06
299.187	2.11
299.643	7.4
300.099	7.14
300.555	-15.35
301.011	25.88
301.467	67.02
301.923	15.95
302.379	-24.74
302.835	-16.7
303.291	-29.51
303.746	-48.27
304.202	-98.69
304.658	-115.5
305.113	-78.43
305.569	-75.21
306.024	-139.76
306.479	-190.11
306.935	-125.62
307.39	-164.66
307.845	-141.29
308.301	-124.79
308.756	-134.83
309.211	-116.12
309.666	-125.42
310.121	-110.51
310.576	-118.31
311.031	-139.36
311.486	-205.82
311.94	-264.33
312.395	-365.62
312.85	-720.95
313.305	-4391.13
313.759	-19228.29
314.214	-1441.98
314.668	-1022.97
315.123	-912.54
315.577	-284.92
316.032	-256.45
316.486	-342.69
316.94	-240.1
317.394	-124.98
317.849	-94.26
318.303	-88.54
318.757	-67.58
319.211	-77.54
319.665	-63.82
320.119	-62.41
320.572	-122.23
321.026	-72.81
321.48	-41.65
321.934	-61.7
322.387	-88.89
322.841	-83.25
323.295	-26.6
323.748	-86.51
324.202	-71.65
324.655	-109.93
325.108	-119.33
325.562	-77.32
326.015	-135.47
326.468	-101.23
326.921	-100.37
327.374	-62.13
327.827	-71.82
328.28	-112.15
328.733	-44.59
329.186	-37.73
329.639	-14.35
330.092	-26.63
330.545	-10.19
330.997	2.54
331.45	30.29
331.903	65.95
332.355	23.45
332.808	-1.16
333.26	13.2
333.713	19.5
334.165	6.06
334.617	-40.72
335.069	-76.5
335.522	-244.85
335.974	-340.91
336.426	-418.45
336.878	-424.82
337.33	-165.72
337.782	-156.16
338.234	-171
338.686	-247.63
339.137	-304.7
339.589	-308.08
340.041	-216.44
340.493	-180.19
340.944	-176.06
341.396	-173.22
341.847	-91.74
342.299	-97.26
342.75	-88.1
343.201	-137.18
343.653	-150.41
344.104	-206.23
344.555	-135.26
345.006	-316.2
345.457	-127.49
345.908	-88.43
346.359	-59.55
346.81	-50.65
347.261	-71.75
347.712	-87.55
348.163	-96.94
348.613	-45.34
349.064	-17.98
349.515	-23.96
349.965	-3.91
350.416	-50
350.866	-77.78
351.317	-136.8
351.767	-209.66
352.217	-324.1
352.668	-257.32
353.118	-177.62
353.568	-278.53
354.018	-193.12
354.468	-150.61
354.918	-65.55
355.368	-55.96
355.818	-85.7
356.268	-301.01
356.718	-964.06
357.168	-176.95
357.617	-115.33
358.067	-217.32
358.517	-216.68
358.966	-275.28
359.416	-309.72
359.865	-409.68
360.315	-516.39
360.764	-209.93
361.213	-107.22
361.663	-163.34
362.112	-249.28
362.561	-386.45
363.01	-262.78
363.459	-224.66
363.908	-259.17
364.357	-208.74
364.806	-398
365.255	-289.84
365.703	-223.87
366.152	-214.1
366.601	-154.23
367.05	-55.23
367.498	-56.74
367.947	-87.62
368.395	-98.8
368.844	-80.42
369.292	-147.32
369.74	-78.38
370.189	-137.94
370.637	-231.76
371.085	-213.34
371.533	-274.11
371.981	-342.78
372.429	-277.25
372.877	-272.76
373.325	-230.36
373.773	-261.63
374.221	-244.3
374.669	-318.46
375.116	-279.57
375.564	-239.24
376.012	-263.14
376.459	-178.53
376.907	-190.86
377.354	-291.7
377.801	-234.95
378.249	-228.92
378.696	-306.79
379.143	-289.81
379.591	-330.02
380.038	-516.41
380.485	-360.6
380.932	-382.04
381.379	-252.87
381.826	-77.67
382.273	-28.37
382.72	-70.09
383.166	-52.94
383.613	-8.09
384.06	-10.25
384.506	-8.49
384.953	-7.18
385.4	-23.54
385.846	-22.52
386.292	-63
386.739	-94.29
387.185	-109.75
387.631	-100.87
388.078	-87.7
388.524	-95.17
388.97	-93.11
389.416	-73.73
389.862	-66.7
390.308	-54.61
390.754	-46.88
391.2	-49.11
391.645	-50.92
392.091	-11.96
392.537	-12.48
392.983	-36.22
393.428	-18.19
393.874	-23.75
394.319	3.24
394.765	18.83
395.21	5.61
395.655	-2.62
396.101	11.26
396.546	17.24
396.991	-5.77
397.436	-6.78
397.881	-0.01
398.326	-11.38
398.771	-5.74
399.216	-17.84
399.661	-27.67
400.106	-19.78
400.551	-13.76
400.995	-13.91
401.44	-15.66
401.885	-12.93
402.329	-10.55
402.774	-10.04
403.218	0.1
403.663	1.55
404.107	3.19
404.551	7.8
404.995	7.27
405.44	0.99
405.884	-1.96
406.328	-7.63
406.772	-11.63
407.216	-7.48
407.66	-8.99
408.104	-18.98
408.547	-18.94
408.991	-18.84
409.435	-21.66
409.879	-17.95
410.322	-13.94
410.766	-12.47
411.209	-6.81
411.653	-5.14
412.096	-4.16
412.54	-5.65
412.983	-4.16
413.426	0.09
413.869	-0.98
414.312	4.05
414.756	0.04
415.199	-2.03
415.642	-0.67
416.085	-0.99
416.527	-3.59
416.97	-7.76
417.413	-4.65
417.856	-5.51
418.298	-7.04
418.741	-9.24
419.184	-13.86
419.626	-18.3
420.069	-15.99
420.511	-14.27
420.953	-11.07
421.396	-7.44
421.838	-5.78
422.28	-6.69
422.722	-5.86
423.164	-7.42
423.606	-5.85
424.048	-6
424.49	-2.31
424.932	-6.17
425.374	-10.36
425.816	-14.03
426.258	-15.32
426.699	-16.65
427.141	-12.12
427.582	-14.66
428.024	-14.1
428.465	-15.42
428.907	-13.16
429.348	-15.28
429.789	-12.25
430.231	-6.81
430.672	-5.78
431.113	-5.23
431.554	-4.35
431.995	-7.54
432.436	-3.06
432.877	-2.75
433.318	0.99
433.759	0.07
434.2	2.14
434.64	1.31
435.081	0.64
435.522	0.31
435.962	-0.32
436.403	1.17
436.843	-1.5
437.284	-3.73
437.724	-5.94
438.164	-11.93
438.604	-11.04
439.045	-9.42
439.485	-6.57
439.925	-8.95
440.365	-8.19
440.805	-7.42
441.245	-5.67
441.685	-3.99
442.125	-4.68
442.564	-5.64
443.004	-2.77
443.444	-3.3
443.883	-2.84
444.323	-6.34
444.762	-9.88
445.202	-11.37
445.641	-10.14
446.081	-13.8
446.52	-13.12
446.959	-10.93
447.398	-8.6
447.837	-8.03
448.276	-10.14
448.716	-11.16
449.154	-11.58
449.593	-8.17
450.032	-8.54
450.471	-11.49
450.91	-11.21
451.349	-9.6
451.787	-10.48
452.226	-12.05
452.664	-12.02
453.103	-10.33
453.541	-11.26
453.98	-8.88
454.418	-8.25
454.856	-6.01
455.295	-5.28
455.733	-5.3
456.171	-5.78
456.609	-4.81
457.047	-2.97
457.485	-2.2
457.923	-0.9
458.361	-1.15
458.798	-1.31
459.236	-1.57
459.674	-2.86
460.111	-2.06
460.549	-1
460.987	-3.38
461.424	-3.94
461.862	-3.05
462.299	-2.77
462.736	-1.72
463.173	-1.04
463.611	1.86
464.048	2.69
464.485	4.16
464.922	3.58
465.359	3.67
465.796	12.16
466.233	13.78
466.67	14.57
467.106	15.02
467.543	13.14
467.98	12.23
468.416	9.5
468.853	8.56
469.29	6.63
469.726	6.41
470.162	5.77
470.599	0.64
471.035	-1.55
471.471	-2.53
471.907	-4.62
472.344	-4.53
472.78	-3.71
473.216	-4.84
473.652	-4.87
474.088	-5.03
474.523	-4.24
474.959	-4.53
475.395	-5.36
475.831	-4.11
476.266	-4.44
476.702	-4.85
477.138	-4.73
477.573	-4.48
478.008	-4.05
478.444	-2.98
478.879	-1.52
479.314	-1.01
479.75	-0.43
480.185	-1.06
480.62	-1.34
481.055	-1.56
481.49	-0.53
481.925	-0
482.36	1.21
482.795	0.65
483.229	-0.36
483.664	-0.92
484.099	-1.25
484.534	-1.57
484.968	-0.19
485.403	-0.92
485.837	-1.83
486.271	-1.65
486.706	-1.93
487.14	-3.16
487.574	-2.28
488.009	-2.38
488.443	-2.19
488.877	-1.19
489.311	-2.12
489.745	-2.56
490.179	-2.26
490.613	0
491.046	-0.64
491.48	-0.58
491.914	-0.31
492.348	-0.48
492.781	-0.08
493.215	-0.38
493.648	-1.68
494.082	-0.81
494.515	-0.58
494.948	0.57
495.382	-0.94
495.815	0.04
496.248	0.55
496.681	-0.27
497.114	-1.17
497.547	-0.55
497.98	0.85
498.413	2.35
498.846	2.44
499.279	2.04
499.711	1.05
500.144	0.91
500.577	0.6
501.009	-0.16
501.442	1.47
501.874	2.59
502.306	1.81
502.739	3.21
503.171	2.42
503.603	2.81
504.036	2.57
504.468	2.75
504.9	2.71
505.332	2.43
505.764	3.01
506.196	2.39
506.627	2.2
507.059	2.11
507.491	-0.6
507.923	-0.32
508.354	-0.14
508.786	0.03
509.217	-0.34
509.649	0.21
510.08	-0.15
510.512	0.37
510.943	0.43
511.374	0.98
511.805	0.91
512.237	0.82
512.668	-0.54
513.099	-1.82
513.53	-1.95
513.961	-1.89
514.391	-2.38
514.822	0.14
515.253	-0.1
515.684	0.05
516.114	-0.24
516.545	0.35
516.975	0.43
517.406	0.86
517.836	0.81
518.267	1.43
518.697	2.28
519.127	2.47
519.558	0.58
519.988	-0.32
520.418	-0.55
520.848	-1.61
521.278	-1.89
521.708	17.74
522.138	18.17
522.567	17.86
522.997	17.56
523.427	16.6
523.857	16.67
524.286	16.69
524.716	17.66
525.145	17.71
525.575	18.3
526.004	17.87
526.433	-1.44
526.863	-1.77
527.292	-0.14
527.721	0.23
528.15	0.46
528.579	0.38
529.008	0.53
529.437	-0.74
529.866	-1.31
530.295	-1.69
530.724	-0.96
531.152	-0.92
531.581	-0.02
532.01	-0.62
532.438	-1.55
532.867	-2.14
533.295	-2
533.723	-2.21
534.152	-1.55
534.58	-0.84
535.008	-0.8
535.436	-0.32
535.865	-0.62
536.293	-1.74
536.721	-2.06
537.149	-1.69
537.576	-0.33
538.004	-0.07
538.432	-0.46
538.86	-0.18
539.287	-1.03
539.715	-0.27
540.143	-1.44
540.57	-0.59
540.998	-0.12
541.425	1.14
541.852	1.36
542.28	0.61
542.707	0.38
543.134	0.6
543.561	0.53
543.988	0.93
544.415	0.34
544.842	0.44
545.269	0.13
545.696	0.39
546.123	-0.1
546.549	-0.09
546.976	0.13
547.403	-0.01
547.829	-0.45
548.256	-1.05
548.682	-1.14
549.108	0.18
549.535	-0.4
549.961	-1.23
550.387	-1.63
550.813	-0.67
551.24	-0.39
551.666	-0.71
552.092	-0.33
552.518	-0.3
552.943	0.74
553.369	0.68
553.795	0.22
554.221	1.57
554.646	1.94
555.072	3.25
555.498	1.6
555.923	0.93
556.349	0.91
556.774	0.4
557.199	0.86
557.625	-0.24
558.05	0.21
558.475	-0.62
558.9	-1.18
559.325	0.17
559.75	-0.14
560.175	0.64
560.6	0.36
561.025	-0.34
561.449	-0.35
561.874	-1.09
562.299	-0.67
562.723	-1.16
563.148	-0.79
563.572	-1.26
563.997	-2.17
564.421	-3.98
564.846	-5.13
565.27	-4.15
565.694	-3.34
566.118	-3.73
566.542	-2.91
566.966	-2.89
567.39	-2.74
567.814	-2.34
568.238	-1.95
568.662	-2.6
569.086	-1.58
569.509	-1.68
569.933	-0.8
570.357	-0.92
570.78	-0.55
571.204	0.79
571.627	0.83
572.05	0.76
572.474	1.05
572.897	0.97
573.32	2.08
573.743	1.94
574.166	2.92
574.589	1.66
575.012	1.71
575.435	1.45
575.858	0.73
576.281	0.93
576.704	0.23
577.126	-0.97
577.549	-1.28
577.972	-2.03
578.394	-2.1
578.817	-1.12
579.239	-1.32
579.661	-1.14
580.084	-0.07
580.506	-0.19
580.928	-1.01
581.35	-0.1
581.772	0.46
582.194	1.04
582.616	0.7
583.038	-0.1
583.46	-1.44
583.882	-1.43
584.303	-2.4
584.725	-3.12
585.147	0.46
585.568	1.11
585.99	0.8
586.411	1.48
586.833	1.06
587.254	1.44
587.675	2.1
588.096	2.32
588.518	2.58
588.939	2.52
589.36	2.79
589.781	-2.17
590.202	0.17
590.623	0.82
591.043	0.13
591.464	0.18
591.885	0.7
592.305	0.13
592.726	-0.89
593.147	-1.05
593.567	0.02
593.987	-0.4
594.408	-0.23
594.828	-2.78
595.248	-2.87
595.669	-2.18
596.089	-1.84
596.509	-2.69
596.929	-2.33
597.349	-1.23
597.769	-1.02
598.189	-1.31
598.608	-1.47
599.028	-1.36
599.448	-1.8
599.867	-1.75
600.287	-2.68
600.706	-2.51
601.126	-1.86
601.545	-1.88
601.965	-2.05
602.384	-1.9
602.803	-1.87
603.222	-1.34
603.641	-1.81
604.061	-0.48
604.48	-0.58
604.898	-0.52
605.317	-0.89
605.736	-1.33
606.155	-0.56
606.574	-0.75
606.992	-1.25
607.411	-0.96
607.829	-1.66
608.248	-1.06
608.666	-2.41
609.085	-2.3
609.503	-2.49
609.921	-1.56
610.339	-1.28
610.758	-2.34
611.176	-2.16
611.594	-1.74
612.012	-1.96
612.43	-1.13
612.847	-1.5
613.265	0
613.683	-0.29
614.101	0.36
614.518	-0.41
614.936	-0.23
615.353	0.83
615.771	1.17
616.188	1.37
616.606	1.17
617.023	1.1
617.44	1.34
617.857	-0.12
618.274	-0.18
618.691	0.03
619.108	0.18
619.525	-0.32
619.942	-0.61
620.359	-0.71
620.776	-0.96
621.192	0.09
621.609	0.54
622.026	1.18
622.442	1.49
622.859	1.04
623.275	0.94
623.691	0.57
624.108	1.16
624.524	0.59
624.94	-0.42
625.356	-0.34
625.772	-1.96
626.188	-2.86
626.604	-3.32
627.02	-3.25
627.436	-2.7
627.852	-2
628.268	-1.26
628.683	-1.94
629.099	-1.44
629.514	-1.48
629.93	-1.72
630.345	-1.53
630.761	-1.41
631.176	-1.21
631.591	-0.31
632.007	0.03
632.422	-1.84
632.837	-3.54
633.252	-2.57
633.667	-2.56
634.082	-1.88
634.497	-1.51
634.911	0.35
635.326	0.29
635.741	0.12
636.155	-0.83
636.57	-0.42
636.984	0.19
637.399	2.02
637.813	1.13
638.228	0.88
638.642	0.36
639.056	0.13
639.47	-0.84
639.884	-0.91
640.298	-0.94
640.712	-0.69
641.126	-0.86
641.54	-1.22
641.954	-3.31
642.368	-2.46
642.781	0.31
643.195	0.84
643.609	1.19
644.022	0.94
644.436	0.2
644.849	-0.49
645.262	-1.03
645.676	-2.59
646.089	-2.18
646.502	0.17
646.915	-1.11
647.328	-2.61
647.741	-2.74
648.154	-3.09
648.567	-1.11
648.98	0.3
649.393	0.15
649.805	1.22
650.218	1.41
650.631	2
651.043	1.06
651.456	1.57
651.868	1.07
652.28	0.75
652.693	-0.62
653.105	-1.71
653.517	-2.45
653.929	-1.66
654.341	-1.6
654.753	-0.28
655.165	-1.11
655.577	-1.27
655.989	-1.23
656.401	-2.8
656.813	-1.48
657.224	-0.67
657.636	-2.16
658.047	-1.21
658.459	-1.22
658.87	-2.47
659.282	-2.79
659.693	-2.07
660.104	-1.25
660.515	-1.7
660.926	-1.58
661.338	-1.8
661.749	-1.68
662.159	-0.36
662.57	-1.78
662.981	-2.14
663.392	-1.85
663.803	-2.52
664.213	-2.92
664.624	-4.41
665.035	-4.7
665.445	-4.41
665.855	-3.68
666.266	-3.09
666.676	-3.71
667.086	-4.15
667.497	-3.41
667.907	-2.91
668.317	-2.75
668.727	0.21
669.137	0.36
669.547	0.24
669.956	-1.09
670.366	-2.6
670.776	-2.66
671.186	-2.99
671.595	-1.96
672.005	-3.29
672.414	-3.31
672.824	-2.35
673.233	-5.69
673.642	-5.32
674.052	-3.95
674.461	-2.63
674.87	-2.21
675.279	-1.97
675.688	-2.98
676.097	-1.3
676.506	-0.64
676.915	-1.58
677.323	-2.04
677.732	-1.59
678.141	-1.88
678.549	-2.88
678.958	-3.44
679.366	-4.12
679.775	-4.99
680.183	-2.26
680.592	-3.65
681	-3.51
681.408	-2.43
681.816	-2.62
682.224	-3.25
682.632	-1.62
683.04	-1.37
683.448	-1
683.856	-0.92
684.264	0.23
684.671	-2.26
685.079	-3.13
685.487	-3.39
685.894	-4.9
686.302	-6.28
686.709	-5.92
687.116	-7.5
687.524	-6.8
687.931	-5.2
688.338	-4.29
688.745	-5.85
689.152	-5.14
689.559	-4.63
689.966	-2.84
690.373	-1.18
690.78	0.2
691.187	0.8
691.593	1.78
692	0.48
692.407	-0.17
692.813	1.76
693.22	3.56
693.626	2.6
694.032	3.76
694.439	3.23
694.845	2.86
695.251	2.57
695.657	2.06
696.063	0.72
696.469	1.34
696.875	1.48
697.281	-0.1
697.687	-1.48
698.093	-1.49
698.498	-1.75
698.904	-3.59
699.31	-4.12
699.715	-2.4
700.12	-2.7
700.526	-1.64
700.931	-2.24
701.337	-1.61
701.742	-0.4
702.147	-0.85
702.552	0.77
702.957	-0.02
703.362	0.77
703.767	-0.08
704.172	-2.01
704.577	-1.97
704.981	-3.61
705.386	-3.31
705.791	-4.07
706.195	-6
706.6	-5.37
707.004	-7.56
707.408	-8.42
707.813	-7.58
708.217	-6.15
708.621	-5.84
709.025	-6.98
709.43	-4.9
709.834	-4.59
710.237	-5.11
710.641	-3.48
711.045	-2.6
711.449	-0.31
711.853	3.3
712.256	2.64
712.66	1.98
713.064	2.21
713.467	4.28
713.87	3.99
714.274	4.77
714.677	5.7
715.08	5.25
715.484	4.46
715.887	5.88
716.29	2.3
716.693	3.83
717.096	4.82
717.499	5.1
717.901	4.64
718.304	4.2
718.707	3.38
719.109	3.17
719.512	1.25
719.915	3.81
720.317	1.15
720.719	0.39
721.122	-0.75
721.524	-0.26
721.926	3.57
722.328	2.56
722.731	2.19
723.133	1.97
723.535	1.62
723.937	2.2
724.338	1.86
724.74	1.95
725.142	49.22
725.544	52.02
725.945	63.17
726.347	59.18
726.748	61.28
727.15	62.5
727.551	65.43
727.952	64.14
728.354	63.64
728.755	62.87
729.156	62.87
729.557	17.9
729.958	14.52
730.359	3.42
730.76	2.83
731.161	1.27
731.562	-0.32
731.962	-2.32
732.363	-1.44
732.763	-0.37
733.164	-2.37
733.564	-1.88
733.965	-0.97
734.365	-0.66
734.766	-1.79
735.166	-1.12
735.566	-0.33
735.966	0.23
736.366	0.24
736.766	-0.02
737.166	-2.27
737.566	-2.18
737.966	-2.66
738.365	-2.65
738.765	-2.04
739.165	-1.35
739.564	-2.11
739.964	-3.82
740.363	-4
740.763	-5.47
741.162	-4.14
741.561	-3.32
741.96	-2.23
742.36	-4
742.759	-4.18
743.158	-5.92
743.557	-5.79
743.955	-7.05
744.354	-6.92
744.753	-7.94
745.152	-6.11
745.55	-8.3
745.949	-7.84
746.348	-9.08
746.746	-8.61
747.144	-6.27
747.543	-5.89
747.941	-6.32
748.339	-4.37
748.737	-3.23
749.136	-2.52
749.534	-4.33
749.932	-2.29
750.33	-2.75
750.727	-2.73
