Data from N_1_DIV_OH_2N_Splice17_11-30-05-994.txt Node
Date: Sat Mar 14 11:30:05 EDT 2020
User: sa697716
Spectrometer: FLMS03696
Trigger mode: 0
Integration Time (sec): 3.180400E-1
Scans to average: 20
Electric dark correction enabled: true
Nonlinearity correction enabled: true
Boxcar width: 5
XAxis mode: Wavelengths
Number of Pixels in Spectrum: 2048
>>>>>Begin Spectral Data<<<<<
187.83	-56229.28
188.298	551.15
188.766	356.24
189.233	342.67
189.701	540.55
190.169	786.36
190.636	292.18
191.104	289.88
191.571	106.79
192.039	46.04
192.506	110.76
192.974	426.39
193.441	-732.55
193.908	-250.33
194.375	-32.88
194.842	113.52
195.31	236.02
195.777	158.09
196.244	262.54
196.711	224.21
197.177	240.36
197.644	274.37
198.111	392.83
198.578	522.31
199.045	370.34
199.511	556.71
199.978	566.72
200.445	497.64
200.911	536.5
201.378	555.9
201.844	512.32
202.31	836.69
202.777	865.29
203.243	479.1
203.709	453.09
204.176	577.06
204.642	475.24
205.108	459.15
205.574	353.07
206.04	302.43
206.506	281.59
206.972	252.06
207.438	230.78
207.903	269.61
208.369	265
208.835	279.44
209.301	278.24
209.766	281.92
210.232	263.56
210.697	315.02
211.163	373.58
211.628	487.07
212.094	440.52
212.559	585
213.024	364.21
213.49	435.7
213.955	413.67
214.42	387.87
214.885	364.12
215.35	369.96
215.815	407.07
216.28	420.82
216.745	347.9
217.21	380.7
217.675	313.01
218.14	334.12
218.604	330.62
219.069	345.89
219.534	370.67
219.998	376.01
220.463	403.45
220.927	388.16
221.392	352.14
221.856	353.13
222.32	347.01
222.785	403.16
223.249	456.23
223.713	468.91
224.177	439.61
224.642	468.28
225.106	543.88
225.57	558.26
226.034	443.71
226.497	623.76
226.961	557.65
227.425	725.39
227.889	768
228.353	712.69
228.816	1416.2
229.28	1305.38
229.744	1037.28
230.207	661.79
230.671	594.61
231.134	843.24
231.597	972.26
232.061	885.6
232.524	725.28
232.987	520.05
233.45	502.9
233.914	422.54
234.377	366.99
234.84	333.51
235.303	343.49
235.766	387.58
236.229	403.15
236.691	237.35
237.154	250.87
237.617	206.42
238.08	178.09
238.542	196.36
239.005	172.68
239.468	205.45
239.93	200.5
240.393	193.55
240.855	175.63
241.317	169.67
241.78	191.36
242.242	208.41
242.704	266.06
243.166	257.27
243.629	264.68
244.091	286.56
244.553	290.37
245.015	318.86
245.477	390.54
245.939	544.72
246.4	553.24
246.862	550.87
247.324	500.12
247.786	485.7
248.247	540.63
248.709	403.64
249.17	313.02
249.632	388.68
250.093	498.51
250.555	435.2
251.016	315.57
251.477	326.33
251.939	342.21
252.4	351.84
252.861	373.28
253.322	399.12
253.783	442.88
254.244	558.24
254.705	412.52
255.166	322.73
255.627	311.83
256.088	437.12
256.549	442.41
257.009	374.28
257.47	423.6
257.931	357.94
258.391	254.31
258.852	277.98
259.312	282.56
259.773	309.08
260.233	311.32
260.694	290.35
261.154	300.61
261.614	292.42
262.074	263.01
262.534	297.21
262.994	297.32
263.455	365.21
263.915	330.44
264.374	306.63
264.834	343.39
265.294	338.47
265.754	362.41
266.214	340.07
266.673	281.78
267.133	338.87
267.593	306.18
268.052	371.77
268.512	326.6
268.971	451.95
269.431	511.38
269.89	432.42
270.349	657.34
270.809	684.99
271.268	609.52
271.727	1274.24
272.186	886.73
272.645	673.18
273.104	436.52
273.563	628.25
274.022	393.49
274.481	357.15
274.94	291.41
275.399	207.61
275.857	230.18
276.316	298.58
276.775	280.04
277.233	266.78
277.692	279.51
278.15	342
278.609	407.49
279.067	374.63
279.525	347.88
279.984	425.01
280.442	505.43
280.9	597.6
281.358	400.93
281.816	378.83
282.274	378.12
282.732	368.71
283.19	367.12
283.648	291.68
284.106	306.81
284.564	309.13
285.021	313.7
285.479	242.12
285.937	174.32
286.394	172.53
286.852	183.55
287.309	191.54
287.767	212.26
288.224	210.01
288.682	223.45
289.139	272.81
289.596	267.08
290.053	264.2
290.511	307.05
290.968	397.94
291.425	494.85
291.882	438.56
292.339	379.68
292.796	341.14
293.252	323.36
293.709	301.96
294.166	266.36
294.623	257.06
295.079	239.88
295.536	263.17
295.992	258.11
296.449	253.55
296.905	263.95
297.362	291.13
297.818	303.43
298.274	316.37
298.731	295.66
299.187	278.47
299.643	316.15
300.099	391.64
300.555	430.61
301.011	367.35
301.467	406.25
301.923	430.07
302.379	386.78
302.835	382.18
303.291	384.39
303.746	422.52
304.202	547.61
304.658	547.75
305.113	366.85
305.569	365.53
306.024	329.42
306.479	270.26
306.935	256.14
307.39	262.82
307.845	240.56
308.301	250.61
308.756	245.54
309.211	252.42
309.666	259.86
310.121	352.05
310.576	325.58
311.031	322.8
311.486	338.41
311.94	302.18
312.395	390.6
312.85	720.45
313.305	2903.62
313.759	18303.86
314.214	1302.41
314.668	1106.26
315.123	1056.58
315.577	441.55
316.032	437.34
316.486	532.64
316.94	446.37
317.394	333.65
317.849	272.7
318.303	250.62
318.757	230.34
319.211	249.79
319.665	203.75
320.119	193.73
320.572	259.69
321.026	254.33
321.48	217.44
321.934	219.94
322.387	209.76
322.841	231.64
323.295	264.64
323.748	258.86
324.202	271.53
324.655	356.33
325.108	547.44
325.562	390.48
326.015	424.96
326.468	345.81
326.921	401.49
327.374	419.32
327.827	465.26
328.28	486.49
328.733	378.11
329.186	324.97
329.639	303.7
330.092	234.85
330.545	236.24
330.997	253.17
331.45	284.75
331.903	360.77
332.355	533.5
332.808	470.28
333.26	381.54
333.713	394.5
334.165	390.88
334.617	474.34
335.069	331.61
335.522	486.22
335.974	453.78
336.426	401.75
336.878	197.42
337.33	133.96
337.782	135.81
338.234	219.76
338.686	267.52
339.137	339.3
339.589	336.26
340.041	312.42
340.493	278.79
340.944	312.75
341.396	343.15
341.847	332.2
342.299	423.47
342.75	536.34
343.201	417.62
343.653	445.73
344.104	523.45
344.555	405.13
345.006	553.73
345.457	498.27
345.908	370.64
346.359	373.81
346.81	293.16
347.261	264.88
347.712	236.21
348.163	242.06
348.613	298.59
349.064	269.12
349.515	241.21
349.965	258.21
350.416	294.78
350.866	318.04
351.317	311.97
351.767	536.5
352.217	671.01
352.668	609.49
353.118	580.59
353.568	478.43
354.018	406.48
354.468	465.31
354.918	374.48
355.368	313.09
355.818	458.63
356.268	1241.93
356.718	5318.19
357.168	1401.84
357.617	649.54
358.067	648.12
358.517	592.47
358.966	752.37
359.416	914.4
359.865	903.89
360.315	1052.53
360.764	484.49
361.213	293.18
361.663	224.67
362.112	242.43
362.561	422.14
363.01	347.35
363.459	287.97
363.908	242.34
364.357	234.91
364.806	377.79
365.255	256.04
365.703	268.25
366.152	253.33
366.601	213.62
367.05	207.86
367.498	199.63
367.947	190.51
368.395	203.42
368.844	205.99
369.292	201.58
369.74	144.46
370.189	193.34
370.637	187.99
371.085	171.02
371.533	223.02
371.981	179.1
372.429	184.65
372.877	227.05
373.325	209.27
373.773	223.84
374.221	170.01
374.669	206.34
375.116	184.87
375.564	217.53
376.012	214.03
376.459	201.25
376.907	233.83
377.354	263.01
377.801	245.8
378.249	268.86
378.696	300.83
379.143	420.66
379.591	504.17
380.038	877.39
380.485	585.46
380.932	674.36
381.379	705.11
381.826	643.78
382.273	461.91
382.72	400.15
383.166	379.52
383.613	271.32
384.06	253.69
384.506	277.98
384.953	211.45
385.4	212.28
385.846	186.31
386.292	144.54
386.739	124.4
387.185	116.43
387.631	110.54
388.078	126.26
388.524	117.91
388.97	97.67
389.416	87.39
389.862	91.13
390.308	83.42
390.754	87.49
391.2	92.22
391.645	88.84
392.091	112.51
392.537	118.22
392.983	105.61
393.428	129.98
393.874	137.17
394.319	154.65
394.765	165.97
395.21	169.15
395.655	158.55
396.101	152.65
396.546	145.86
396.991	119.34
397.436	107.36
397.881	101.73
398.326	78.64
398.771	83.79
399.216	66.91
399.661	53.85
400.106	61.14
400.551	68.58
400.995	67.05
401.44	65.09
401.885	66.89
402.329	67.06
402.774	67.48
403.218	79.11
403.663	72.29
404.107	72.16
404.551	75.71
404.995	68.59
405.44	62.9
405.884	63.18
406.328	57.48
406.772	52.14
407.216	51.96
407.66	47.48
408.104	33.23
408.547	33.19
408.991	34.06
409.435	29.84
409.879	30.35
410.322	28.74
410.766	29.45
411.209	31.44
411.653	32.67
412.096	34.56
412.54	34.45
412.983	37.16
413.426	39.97
413.869	37.53
414.312	41.59
414.756	41.45
415.199	43.85
415.642	43.96
416.085	44.66
416.527	45.29
416.97	43.44
417.413	44.2
417.856	42.33
418.298	42.16
418.741	40.21
419.184	36.98
419.626	31.92
420.069	29.95
420.511	30.8
420.953	32.13
421.396	32.12
421.838	30.62
422.28	30.75
422.722	35.19
423.164	33.1
423.606	35.65
424.048	36.82
424.49	39.54
424.932	37.74
425.374	35.48
425.816	32.84
426.258	32.2
426.699	34.1
427.141	35.24
427.582	31.07
428.024	29.39
428.465	25.57
428.907	23.63
429.348	23.75
429.789	26.7
430.231	28.02
430.672	29.32
431.113	28.62
431.554	27.62
431.995	25.69
432.436	29.59
432.877	32.52
433.318	36.97
433.759	35.11
434.2	33.49
434.64	31.05
435.081	31.09
435.522	30.54
435.962	30.91
436.403	31.1
436.843	29.66
437.284	25.96
437.724	22.73
438.164	19.9
438.604	22.65
439.045	24.59
439.485	27.08
439.925	26.69
440.365	24.62
440.805	22.92
441.245	23.62
441.685	24.53
442.125	24.84
442.564	24.99
443.004	24.82
443.444	24.18
443.883	24.54
444.323	22.02
444.762	18.24
445.202	18.82
445.641	22.27
446.081	19.34
446.52	18.21
446.959	18.13
447.398	18.42
447.837	18.22
448.276	17
448.716	17.53
449.154	16.63
449.593	19.77
450.032	19.73
450.471	17.06
450.91	16.74
451.349	19.14
451.787	18.68
452.226	18.33
452.664	18.24
453.103	18.74
453.541	15.93
453.98	18.29
454.418	17.51
454.856	18.28
455.295	19.13
455.733	21.09
456.171	19.5
456.609	20.37
457.047	20.76
457.485	21.96
457.923	22.95
458.361	24.12
458.798	23.66
459.236	23.87
459.674	23.82
460.111	23.43
460.549	23.82
460.987	22.9
461.424	22.1
461.862	22.95
462.299	22.88
462.736	23.32
463.173	22.61
463.611	24.13
464.048	24.51
464.485	24.76
464.922	24.2
465.359	23.23
465.796	30.67
466.233	31.66
466.67	32.74
467.106	33.88
467.543	32.08
467.98	30.71
468.416	29.01
468.853	27.79
469.29	26.84
469.726	26.33
470.162	24.26
470.599	18.97
471.035	17.73
471.471	15.71
471.907	13.26
472.344	13.67
472.78	15.03
473.216	13.89
473.652	14.66
474.088	13.76
474.523	14.47
474.959	14.79
475.395	14.27
475.831	14.73
476.266	15.77
476.702	15.79
477.138	16.11
477.573	15.53
478.008	15.57
478.444	16.18
478.879	17.55
479.314	18.01
479.75	18.19
480.185	18.01
480.62	17.52
481.055	16.86
481.49	17.14
481.925	16.83
482.36	18.41
482.795	17.88
483.229	16.76
483.664	15.85
484.099	15.73
484.534	16.74
484.968	17.3
485.403	17.23
485.837	16.28
486.271	16.1
486.706	15.9
487.14	14.75
487.574	15.48
488.009	15.14
488.443	15.32
488.877	15.29
489.311	14.28
489.745	14
490.179	14.17
490.613	15.77
491.046	15.37
491.48	15.9
491.914	15.81
492.348	15.49
492.781	16.02
493.215	15.68
493.648	14.83
494.082	15.09
494.515	15.45
494.948	16.46
495.382	15.41
495.815	15.92
496.248	15.94
496.681	15.79
497.114	15
497.547	15.39
497.98	16.52
498.413	18.05
498.846	18.9
499.279	17.99
499.711	17
500.144	16.82
500.577	17.86
501.009	17.3
501.442	18.4
501.874	19.45
502.306	18.49
502.739	20.14
503.171	19.37
503.603	19.05
504.036	19.25
504.468	19.53
504.9	20.02
505.332	19.55
505.764	19.81
506.196	19.53
506.627	19.77
507.059	20.27
507.491	17.95
507.923	18.31
508.354	19.25
508.786	19.66
509.217	19.97
509.649	19.73
510.08	19.12
510.512	19.83
510.943	19.94
511.374	20.09
511.805	19.75
512.237	19.38
512.668	18.82
513.099	17.86
513.53	17.68
513.961	17.66
514.391	17.97
514.822	19.58
515.253	19.46
515.684	19.23
516.114	18.73
516.545	19.33
516.975	19.57
517.406	19.12
517.836	18.54
518.267	18.51
518.697	18.82
519.127	18.47
519.558	17.29
519.988	17.42
520.418	16.96
520.848	16.48
521.278	15.94
521.708	34.54
522.138	35.46
522.567	35.17
522.997	35.24
523.427	34.96
523.857	35.2
524.286	35.27
524.716	35.23
525.145	36.04
525.575	36.88
526.004	36.58
526.433	18.8
526.863	18.52
527.292	19.93
527.721	20.5
528.15	20.3
528.579	20.88
529.008	21.18
529.437	20.19
529.866	19.33
530.295	18.57
530.724	19.39
531.152	19.28
531.581	19.92
532.01	19.41
532.438	18.57
532.867	18.35
533.295	18.56
533.723	18.35
534.152	18.9
534.58	19.58
535.008	20.24
535.436	21.08
535.865	20.72
536.293	19.46
536.721	19.37
537.149	20.2
537.576	21.02
538.004	20.56
538.432	20.11
538.86	20.87
539.287	20.44
539.715	20.52
540.143	19.28
540.57	20.1
540.998	20.44
541.425	22.17
541.852	21.61
542.28	21.26
542.707	20.69
543.134	21.47
543.561	20.94
543.988	21.3
544.415	20.48
544.842	20.73
545.269	20.39
545.696	21.44
546.123	20.54
546.549	20.74
546.976	20.98
547.403	21.77
547.829	20.66
548.256	20.79
548.682	20.71
549.108	21.69
549.535	21.47
549.961	20.92
550.387	20.26
550.813	20.95
551.24	21.15
551.666	20.74
552.092	20.88
552.518	21.32
552.943	21.39
553.369	21.24
553.795	21.45
554.221	21.59
554.646	21.93
555.072	23.34
555.498	21.96
555.923	21.15
556.349	20.89
556.774	20.11
557.199	19.85
557.625	19.1
558.05	18.85
558.475	17.88
558.9	17.84
559.325	18.62
559.75	18.05
560.175	18.07
560.6	18.95
561.025	18.95
561.449	19.4
561.874	19.66
562.299	20.23
562.723	20.27
563.148	20.94
563.572	20.75
563.997	20.31
564.421	19.18
564.846	18.75
565.27	18.67
565.694	18.59
566.118	18.58
566.542	19.31
566.966	19.59
567.39	19.86
567.814	19.77
568.238	20.15
568.662	19.47
569.086	19.82
569.509	19.8
569.933	20.38
570.357	20.41
570.78	20.11
571.204	20.62
571.627	20.44
572.05	20.52
572.474	21.62
572.897	21.18
573.32	22.21
573.743	21.84
574.166	22.58
574.589	21.07
575.012	21.32
575.435	20.78
575.858	20.27
576.281	19.9
576.704	19.6
577.126	18.02
577.549	17.81
577.972	16.75
578.394	17.19
578.817	18.26
579.239	18.86
579.661	18.63
580.084	20.09
580.506	19.81
580.928	19.95
581.35	19.89
581.772	20.27
582.194	20.71
582.616	20.76
583.038	19.93
583.46	18.46
583.882	18.44
584.303	17.63
584.725	16.73
585.147	20.11
585.568	20.6
585.99	21.08
586.411	21.48
586.833	21.69
587.254	21.78
587.675	22.1
588.096	22.64
588.518	22.37
588.939	23.48
589.36	23.93
589.781	19.67
590.202	21.5
590.623	21.3
591.043	20.53
591.464	20.6
591.885	21.27
592.305	21
592.726	19.77
593.147	19.77
593.567	19.51
593.987	18.97
594.408	18.61
594.828	15.92
595.248	16.64
595.669	17.1
596.089	16.6
596.509	15.6
596.929	15.45
597.349	16.73
597.769	17.22
598.189	17.26
598.608	16.88
599.028	17.12
599.448	16.57
599.867	16.03
600.287	15.22
600.706	15.79
601.126	16.59
601.545	17.44
601.965	16.37
602.384	15.78
602.803	15.89
603.222	16.33
603.641	16.45
604.061	17.39
604.48	16.79
604.898	17.37
605.317	16.9
605.736	16.48
606.155	16.38
606.574	16.99
606.992	16.69
607.411	16.46
607.829	15.59
608.248	15.14
608.666	14.62
609.085	14.94
609.503	14.66
609.921	15.23
610.339	15.32
610.758	14.74
611.176	14.45
611.594	15.1
612.012	14.97
612.43	15.93
612.847	16.13
613.265	17
613.683	16.99
614.101	17.07
614.518	16.36
614.936	16
615.353	16.08
615.771	16.52
616.188	16.69
616.606	17.07
617.023	16.9
617.44	17.29
617.857	16.07
618.274	15.75
618.691	16.34
619.108	16.01
619.525	16.25
619.942	16.73
620.359	16.11
620.776	16.58
621.192	16.51
621.609	17.26
622.026	16.97
622.442	17.88
622.859	17.35
623.275	16.94
623.691	17.11
624.108	17.68
624.524	17.35
624.94	18.09
625.356	16.8
625.772	16.58
626.188	15.61
626.604	15.45
627.02	15.2
627.436	16.46
627.852	17.24
628.268	17.67
628.683	16.57
629.099	16.45
629.514	15.94
629.93	16.23
630.345	15.88
630.761	16.01
631.176	15.72
631.591	16.62
632.007	16.11
632.422	14.41
632.837	13.49
633.252	14.72
633.667	14.74
634.082	14.67
634.497	15.12
634.911	16.88
635.326	16.66
635.741	17.19
636.155	16.3
636.57	17.28
636.984	18.02
637.399	19.79
637.813	18.85
638.228	18.77
638.642	18.5
639.056	18.14
639.47	17.39
639.884	17.83
640.298	17.99
640.712	18.53
641.126	18.25
641.54	17.95
641.954	15.85
642.368	16.06
642.781	18.61
643.195	18.72
643.609	18.95
644.022	18.59
644.436	17.73
644.849	17.29
645.262	15.97
645.676	14.59
646.089	14.71
646.502	16.5
646.915	16.3
647.328	14.95
647.741	15.45
648.154	15.13
648.567	16.74
648.98	17.2
649.393	17.49
649.805	18.5
650.218	18.7
650.631	19.44
651.043	18.86
651.456	19.13
651.868	18.6
652.28	17.73
652.693	17.98
653.105	16.79
653.517	16.8
653.929	16.53
654.341	16.46
654.753	17.31
655.165	16.36
655.577	17.36
655.989	16.87
656.401	16.03
656.813	17.64
657.224	17.08
657.636	15.86
658.047	16.29
658.459	16.82
658.87	15.55
659.282	14.93
659.693	15.49
660.104	15.55
660.515	16.02
660.926	15.44
661.338	14.8
661.749	14.46
662.159	15.4
662.57	14.42
662.981	13.54
663.392	14.52
663.803	14.6
664.213	14.53
664.624	13.62
665.035	12.39
665.445	12.81
665.855	12.75
666.266	13.84
666.676	14.21
667.086	14.27
667.497	15.23
667.907	15.38
668.317	15.45
668.727	17.47
669.137	16.89
669.547	17.95
669.956	17.99
670.366	18.19
670.776	18.15
671.186	17.52
671.595	18.55
672.005	17.47
672.414	17.24
672.824	18.09
673.233	15.73
673.642	15.96
674.052	16.01
674.461	16.98
674.87	16.6
675.279	17.16
675.688	15.77
676.097	15.18
676.506	15.71
676.915	15.91
677.323	16.05
677.732	16.35
678.141	15.97
678.549	16.38
678.958	15.39
679.366	15.21
679.775	13.18
680.183	15.64
680.592	15.61
681	16.26
681.408	15.3
681.816	14.89
682.224	13.98
682.632	15.78
683.04	15.36
683.448	15.65
683.856	16.28
684.264	19.11
684.671	17.68
685.079	18.26
685.487	17.48
685.894	18.21
686.302	16.99
686.709	18.46
687.116	17.17
687.524	17.71
687.931	18.61
688.338	19.15
688.745	17.5
689.152	17.24
689.559	18.13
689.966	19.72
690.373	20.62
690.78	21.68
691.187	21.52
691.593	22.56
692	21.93
692.407	21.76
692.813	24.1
693.22	24.87
693.626	23.68
694.032	23.31
694.439	23.3
694.845	22.8
695.251	22.36
695.657	22.98
696.063	21.21
696.469	21.01
696.875	21.21
697.281	18.96
697.687	18.68
698.093	19.33
698.498	20.11
698.904	18.97
699.31	18.91
699.715	21.87
700.12	21.18
700.526	22.01
700.931	22.37
701.337	22.34
701.742	22.3
702.147	22.19
702.552	22.43
702.957	20.62
703.362	20.82
703.767	20.09
704.172	17.66
704.577	17.24
704.981	16.48
705.386	16.95
705.791	16.78
706.195	15.65
706.6	15.23
707.004	15.09
707.408	15.31
707.813	16.33
708.217	17.37
708.621	17.04
709.025	16.86
709.43	19.47
709.834	19.74
710.237	20.2
710.641	20.84
711.045	21.8
711.449	23.62
711.853	26.13
712.256	24.89
712.66	25.27
713.064	26.61
713.467	27.95
713.87	26.18
714.274	26.71
714.677	27.89
715.08	28.41
715.484	28.36
715.887	29.84
716.29	27.86
716.693	29.62
717.096	30.12
717.499	29.77
717.901	28.14
718.304	28.54
718.707	27.48
719.109	25.23
719.512	24.77
719.915	26.75
720.317	25.2
720.719	24.12
721.122	24.42
721.524	23.96
721.926	26.89
722.328	28.85
722.731	28.25
723.133	28.09
723.535	28.63
723.937	29.4
724.338	29.63
724.74	30.61
725.142	75.27
725.544	77.66
725.945	89.16
726.347	86.85
726.748	86.3
727.15	87.25
727.551	90.77
727.952	89.4
728.354	87.42
728.755	85.98
729.156	84
729.557	41.26
729.958	37.63
730.359	25.77
730.76	24.08
731.161	24.08
731.562	23.11
731.962	20.1
732.363	20.44
732.763	20.78
733.164	18.45
733.564	19.17
733.965	20.65
734.365	21.4
734.766	22.64
735.166	22.4
735.566	23.13
735.966	24.01
736.366	24.18
736.766	24.68
737.166	24.03
737.566	25.7
737.966	24.96
738.365	25.26
738.765	25.77
739.165	24.74
739.564	25.86
739.964	24.52
740.363	23.45
740.763	22.2
741.162	23.39
741.561	24.06
741.96	23.85
742.36	23.42
742.759	22.57
743.158	21
743.557	20.73
743.955	20.67
744.354	20.64
744.753	20.58
745.152	21.66
745.55	19.9
745.949	20.38
746.348	20.89
746.746	20.44
747.144	21.56
747.543	20.51
747.941	20.68
748.339	19.98
748.737	20.88
749.136	21.51
749.534	20.2
749.932	22.55
