Data from N_1_DEC_CT_2N_Splice17_11-34-28-078.txt Node
Date: Sat Mar 14 11:34:28 EDT 2020
User: sa697716
Spectrometer: FLMS03696
Trigger mode: 0
Integration Time (sec): 3.180400E-1
Scans to average: 20
Electric dark correction enabled: true
Nonlinearity correction enabled: true
Boxcar width: 5
XAxis mode: Wavelengths
Number of Pixels in Spectrum: 2048
>>>>>Begin Spectral Data<<<<<
187.83	-176544.53
188.298	1388.9
188.766	787.92
189.233	739.4
189.701	1083.15
190.169	1510.71
190.636	540.53
191.104	476.43
191.571	95.56
192.039	-17.6
192.506	15.16
192.974	381.63
193.441	-522.16
193.908	-123.6
194.375	33.13
194.842	136.63
195.31	209.47
195.777	161.25
196.244	279.82
196.711	160.73
197.177	117.59
197.644	75.56
198.111	88.21
198.578	96.53
199.045	37.18
199.511	-29.18
199.978	-116.38
200.445	-60.29
200.911	-94.38
201.378	-180.12
201.844	-130.61
202.31	-238.14
202.777	-204.25
203.243	-98.32
203.709	-108.39
204.176	-87.78
204.642	-56.91
205.108	-29.12
205.574	-40.93
206.04	-60.74
206.506	-41.57
206.972	-56.99
207.438	-57.41
207.903	-83.72
208.369	-48.15
208.835	-22.49
209.301	-29.64
209.766	-28.89
210.232	-22.04
210.697	-39.92
211.163	-64.61
211.628	-170.43
212.094	-104.55
212.559	-72.37
213.024	-31.8
213.49	-29.3
213.955	-51.1
214.42	-82.51
214.885	-70.51
215.35	-51.84
215.815	45.89
216.28	61.96
216.745	54.51
217.21	72.78
217.675	40.19
218.14	52.27
218.604	18.75
219.069	33.89
219.534	77.43
219.998	51.85
220.463	30.77
220.927	-70.44
221.392	-52.44
221.856	-26.7
222.32	-88.45
222.785	-102.02
223.249	-128.19
223.713	-111.75
224.177	-133.12
224.642	-241.68
225.106	-280.99
225.57	-257.6
226.034	-103.98
226.497	-196.23
226.961	-135.37
227.425	-113.11
227.889	-145.8
228.353	-163.72
228.816	-354.95
229.28	-292.79
229.744	-226.96
230.207	-44.15
230.671	-50.41
231.134	-287.62
231.597	-283.17
232.061	-366.55
232.524	-423.24
232.987	-235.2
233.45	-195.03
233.914	-193.12
234.377	-228.93
234.84	-200.86
235.303	-282.28
235.766	-325.76
236.229	-287.87
236.691	-192.01
237.154	-237.89
237.617	-140.41
238.08	-164.47
238.542	-204.06
239.005	-127.97
239.468	-113.31
239.93	-97.1
240.393	-77.07
240.855	-70.7
241.317	-83.78
241.78	-127.58
242.242	-112.3
242.704	-97.54
243.166	-74.3
243.629	-40.96
244.091	-53.54
244.553	-71.45
245.015	-80.49
245.477	-138.11
245.939	-227.39
246.4	-210.48
246.862	-192.05
247.324	-181.55
247.786	-277.06
248.247	-428.24
248.709	-537.91
249.17	-346.16
249.632	-236.5
250.093	-236.38
250.555	-180.53
251.016	-59.72
251.477	-59.73
251.939	-44.82
252.4	-63.05
252.861	-75.98
253.322	-28.62
253.783	-70.18
254.244	-174.82
254.705	-165.84
255.166	-185.13
255.627	-170.02
256.088	-221.34
256.549	-238.6
257.009	-217.6
257.47	-263.35
257.931	-232.93
258.391	-170.34
258.852	-154.22
259.312	-133.79
259.773	-187.58
260.233	-114.3
260.694	-78.71
261.154	-133.25
261.614	-47.36
262.074	-36.5
262.534	-35.88
262.994	-2.18
263.455	-28.06
263.915	2.7
264.374	-12.1
264.834	-13.03
265.294	-33.13
265.754	-25.72
266.214	-20.15
266.673	-24.65
267.133	-61.05
267.593	-57.23
268.052	-77.64
268.512	-68.39
268.971	-38.03
269.431	-24.05
269.89	-31.2
270.349	-16.42
270.809	-34.62
271.268	-53
271.727	-360.86
272.186	-140.9
272.645	-106.38
273.104	-124.22
273.563	-206.99
274.022	-248.66
274.481	-153.29
274.94	-100.28
275.399	-82.08
275.857	-122.02
276.316	-174.4
276.775	-156.35
277.233	-174.44
277.692	-140.31
278.15	-126.02
278.609	-69.83
279.067	-73.21
279.525	-77.93
279.984	-127.47
280.442	-155.42
280.9	-81.54
281.358	-30.84
281.816	-9.28
282.274	-6.75
282.732	-62.63
283.19	-93.96
283.648	-102.12
284.106	-113.07
284.564	-143.62
285.021	-119.91
285.479	-101.96
285.937	-121.66
286.394	-106.93
286.852	-117
287.309	-125.58
287.767	-78.28
288.224	-52.5
288.682	-67.41
289.139	-41.13
289.596	-15.41
290.053	-18.13
290.511	-35.36
290.968	-18.38
291.425	-38.17
291.882	21.31
292.339	44.26
292.796	25.19
293.252	-9.96
293.709	18.63
294.166	-8.7
294.623	-33.86
295.079	-50.73
295.536	-25.9
295.992	-24.33
296.449	-11.97
296.905	-19.02
297.362	-2.86
297.818	-33.49
298.274	-17.32
298.731	-40.05
299.187	-38.41
299.643	-34.92
300.099	-40.28
300.555	-51.21
301.011	-33.54
301.467	10.04
301.923	-18.58
302.379	-28.55
302.835	-9.59
303.291	1.54
303.746	-8.1
304.202	-14.85
304.658	-30.82
305.113	-2.9
305.569	-2.39
306.024	-48.19
306.479	-121.38
306.935	-76.4
307.39	-102.59
307.845	-89.13
308.301	-81.81
308.756	-86.79
309.211	-70.6
309.666	-66.93
310.121	-67.88
310.576	-101.45
311.031	-82.51
311.486	-107.06
311.94	-181.9
312.395	-270.32
312.85	-503.98
313.305	-3560.24
313.759	-12391.75
314.214	-869.89
314.668	-691
315.123	-463.32
315.577	-110.66
316.032	-124.49
316.486	-143.91
316.94	-71.9
317.394	-31.61
317.849	-19.52
318.303	-14.18
318.757	-14.91
319.211	-33.65
319.665	-27.15
320.119	-39.22
320.572	-86.82
321.026	-43.63
321.48	-42.2
321.934	-58.31
322.387	-66.09
322.841	-57.06
323.295	10.76
323.748	-41.54
324.202	-22.57
324.655	-20.19
325.108	26.63
325.562	43.9
326.015	25.84
326.468	44.7
326.921	54.48
327.374	78.1
327.827	95.43
328.28	57.89
328.733	54.55
329.186	38.47
329.639	22.51
330.092	-1.46
330.545	4.45
330.997	15.41
331.45	36.08
331.903	64.37
332.355	32.93
332.808	-13
333.26	-3.48
333.713	23.28
334.165	15.01
334.617	5.67
335.069	-75.42
335.522	-256.47
335.974	-321.63
336.426	-432.85
336.878	-403.55
337.33	-157.51
337.782	-165.17
338.234	-185.77
338.686	-255.52
339.137	-295.45
339.589	-279.34
340.041	-176.93
340.493	-148.82
340.944	-168.35
341.396	-139.85
341.847	-73.38
342.299	-72.93
342.75	-41.27
343.201	-74.26
343.653	-97.87
344.104	-131.7
344.555	-111.99
345.006	-229.34
345.457	-79.72
345.908	-63.02
346.359	-52.33
346.81	-37.14
347.261	-74.8
347.712	-94.09
348.163	-160.02
348.613	-101.7
349.064	-100.82
349.515	-60.88
349.965	-32.65
350.416	-73.68
350.866	-84.52
351.317	-139.58
351.767	-238.94
352.217	-297.94
352.668	-224.55
353.118	-136.51
353.568	-251.11
354.018	-127.5
354.468	-172.18
354.918	-121.5
355.368	-98.95
355.818	-140.76
356.268	-374.05
356.718	-1076.86
357.168	-224.71
357.617	-145.55
358.067	-172.23
358.517	-106.08
358.966	-119.89
359.416	-7.95
359.865	-37.33
360.315	-159.43
360.764	-58.58
361.213	-50.69
361.663	-113.3
362.112	-159.91
362.561	-301.04
363.01	-208.93
363.459	-189.33
363.908	-236.71
364.357	-175.3
364.806	-395.93
365.255	-263.49
365.703	-196.93
366.152	-186.65
366.601	-105.79
367.05	-75.1
367.498	-42.13
367.947	-55.96
368.395	-76.22
368.844	-49.85
369.292	-97.48
369.74	-29.08
370.189	-78.63
370.637	-134.84
371.085	-110.94
371.533	-187.9
371.981	-204.46
372.429	-161.66
372.877	-160.22
373.325	-124.63
373.773	-157.36
374.221	-172
374.669	-230.59
375.116	-172.17
375.564	-168.01
376.012	-185.41
376.459	-106.62
376.907	-104.72
377.354	-194.71
377.801	-145.65
378.249	-145.78
378.696	-216.25
379.143	-186.59
379.591	-244.58
380.038	-508.05
380.485	-296.5
380.932	-331.74
381.379	-256.74
381.826	-113.69
382.273	-52.15
382.72	-83.12
383.166	-80.42
383.613	-36.81
384.06	-52.71
384.506	-41.3
384.953	-5.52
385.4	-29.25
385.846	-28.86
386.292	-50.39
386.739	-76.52
387.185	-86.69
387.631	-84.38
388.078	-66
388.524	-67.42
388.97	-55.17
389.416	-37.69
389.862	-36.16
390.308	-34.28
390.754	-23.83
391.2	-26.33
391.645	-29.82
392.091	7.18
392.537	14.97
392.983	-1.91
393.428	25.01
393.874	21.7
394.319	32.86
394.765	38.7
395.21	41.6
395.655	33.91
396.101	31.76
396.546	35.42
396.991	14.92
397.436	10.69
397.881	13.14
398.326	-13.5
398.771	-5.26
399.216	-14.86
399.661	-15.28
400.106	-13.98
400.551	-6.51
400.995	-5.92
401.44	-8.81
401.885	-9.67
402.329	-8.79
402.774	-6.75
403.218	11.3
403.663	7.79
404.107	12.24
404.551	15.87
404.995	13.67
405.44	3.68
405.884	2.4
406.328	-2.01
406.772	-3.33
407.216	-1.51
407.66	-6.04
408.104	-15.52
408.547	-13.27
408.991	-11.79
409.435	-16.26
409.879	-11.21
410.322	-8.05
410.766	-4.34
411.209	0.28
411.653	1.38
412.096	5.04
412.54	4.26
412.983	2.73
413.426	5.17
413.869	0.23
414.312	6.51
414.756	3.09
415.199	2.05
415.642	2.77
416.085	4.21
416.527	3.14
416.97	-3.4
417.413	-1.01
417.856	-0.67
418.298	-3.43
418.741	-4.64
419.184	-10
419.626	-14.41
420.069	-14.33
420.511	-15.6
420.953	-14.08
421.396	-13.32
421.838	-12.33
422.28	-11.66
422.722	-11.02
423.164	-12.3
423.606	-11.89
424.048	-12.62
424.49	-9.31
424.932	-10.44
425.374	-11.74
425.816	-13.25
426.258	-14.33
426.699	-12.66
427.141	-9.73
427.582	-11.06
428.024	-10.59
428.465	-12.1
428.907	-10.77
429.348	-11.11
429.789	-8.26
430.231	-5.64
430.672	-6.82
431.113	-5.51
431.554	-6.18
431.995	-9.15
432.436	-5.64
432.877	-3.3
433.318	1.48
433.759	-0.31
434.2	0.75
434.64	0.16
435.081	0.61
435.522	1.48
435.962	0.12
436.403	1.85
436.843	-0.71
437.284	-2.35
437.724	-5.16
438.164	-9.92
438.604	-9.22
439.045	-8.07
439.485	-5.46
439.925	-6.31
440.365	-7.05
440.805	-6.34
441.245	-4.41
441.685	-1.57
442.125	-2.73
442.564	-3.61
443.004	-1.03
443.444	-1.92
443.883	-1.59
444.323	-4.85
444.762	-7.76
445.202	-9.15
445.641	-7.1
446.081	-11.33
446.52	-12.97
446.959	-12.04
447.398	-9.57
447.837	-9.17
448.276	-8.74
448.716	-8.17
449.154	-10.74
449.593	-8.65
450.032	-8.33
450.471	-10.18
450.91	-10.31
451.349	-7.17
451.787	-8.27
452.226	-9.28
452.664	-9.78
453.103	-9.48
453.541	-11.5
453.98	-7.64
454.418	-7.98
454.856	-5.15
455.295	-5.11
455.733	-2.81
456.171	-4.62
456.609	-2.55
457.047	-1.07
457.485	0.09
457.923	1.9
458.361	1.51
458.798	0.63
459.236	0.76
459.674	-0.48
460.111	-0.34
460.549	-0.67
460.987	-2.27
461.424	-2.99
461.862	-3.09
462.299	-2.54
462.736	-1.76
463.173	-1.19
463.611	1.84
464.048	2.99
464.485	3.37
464.922	3.2
465.359	2.56
465.796	11.24
466.233	12.33
466.67	13.87
467.106	15.45
467.543	13.09
467.98	13.08
468.416	10.6
468.853	9.52
469.29	8.95
469.726	8.85
470.162	9.24
470.599	3.1
471.035	2.01
471.471	1.14
471.907	-1.31
472.344	-0.82
472.78	-1.17
473.216	-1.35
473.652	-1.13
474.088	-2.2
474.523	-1.69
474.959	-2.86
475.395	-2.71
475.831	-2.77
476.266	-3.32
476.702	-3.44
477.138	-2.92
477.573	-2.76
478.008	-2.45
478.444	-2.08
478.879	-0.69
479.314	-0.81
479.75	-0.48
480.185	-1.47
480.62	-1.89
481.055	-1.83
481.49	-1.71
481.925	-1.65
482.36	0.14
482.795	-0.5
483.229	-1.05
483.664	-1.03
484.099	-0.6
484.534	-0.13
484.968	0.59
485.403	0.85
485.837	-0.07
486.271	0.2
486.706	-0.64
487.14	-2.25
487.574	-1.91
488.009	-1.9
488.443	-2.68
488.877	-2.24
489.311	-3.02
489.745	-2.96
490.179	-2.72
490.613	-0.45
491.046	-0.91
491.48	-0.6
491.914	-0.06
492.348	-0.33
492.781	-0.25
493.215	0.7
493.648	-0.78
494.082	-0.54
494.515	0.07
494.948	0.66
495.382	-0.95
495.815	-0.53
496.248	0.16
496.681	0.06
497.114	-0.07
497.547	0.25
497.98	0.15
498.413	2.25
498.846	2.96
499.279	2.1
499.711	1.65
500.144	1.46
500.577	2.14
501.009	1.13
501.442	2.24
501.874	2.98
502.306	2.99
502.739	5.48
503.171	4.78
503.603	4.71
504.036	4.61
504.468	4.66
504.9	4.79
505.332	4.52
505.764	5.4
506.196	4.35
506.627	4.26
507.059	4.12
507.491	1.15
507.923	1.34
508.354	1.29
508.786	1.28
509.217	0.99
509.649	1.08
510.08	0.61
510.512	0.82
510.943	1.01
511.374	0.62
511.805	0.34
512.237	0.16
512.668	-1.28
513.099	-2.2
513.53	-2.3
513.961	-1.88
514.391	-2.18
514.822	-0.73
515.253	-0.39
515.684	-0.24
516.114	-0.19
516.545	0.2
516.975	0.27
517.406	0.54
517.836	0.53
518.267	0.96
518.697	1.27
519.127	1.13
519.558	-0.47
519.988	-1.57
520.418	-2.34
520.848	-3.13
521.278	-3.9
521.708	24.57
522.138	25.93
522.567	25.61
522.997	25.48
523.427	25.05
523.857	25.19
524.286	25.35
524.716	25.84
525.145	26.74
525.575	27.82
526.004	27.65
526.433	-0.18
526.863	-1.05
527.292	0.14
527.721	0.74
528.15	0.32
528.579	0.6
529.008	0.46
529.437	-0.49
529.866	-0.93
530.295	-1.77
530.724	-0.76
531.152	-0.91
531.581	-0.33
532.01	-0.18
532.438	-0.94
532.867	-1
533.295	-0.65
533.723	-0.21
534.152	0.22
534.58	0.71
535.008	1.06
535.436	2.04
535.865	2.13
536.293	1.09
536.721	0.18
537.149	0.74
537.576	1.68
538.004	1.71
538.432	0.67
538.86	0.87
539.287	0.01
539.715	0.15
540.143	-0.92
540.57	-0.76
540.998	-0.27
541.425	1.92
541.852	1.33
542.28	0.96
542.707	0.42
543.134	0.79
543.561	0.92
543.988	1.32
544.415	1
544.842	0.13
545.269	0.2
545.696	-0.05
546.123	-0.86
546.549	-0.57
546.976	-0.77
547.403	-0.84
547.829	-1.29
548.256	-1.77
548.682	-1.83
549.108	-0.82
549.535	-0.19
549.961	-0.94
550.387	-0.98
550.813	-0.5
551.24	-0.65
551.666	-1.3
552.092	-1.38
552.518	-1.49
552.943	-0.71
553.369	-1.12
553.795	-1.31
554.221	-1.23
554.646	-0.8
555.072	-0.07
555.498	-1.53
555.923	-1.81
556.349	-1.6
556.774	-1.89
557.199	-1.26
557.625	-2.18
558.05	-1.4
558.475	-1.84
558.9	-2.25
559.325	-1.67
559.75	-2.03
560.175	-1.78
560.6	-1.54
561.025	-1.64
561.449	-1
561.874	-1.35
562.299	-0.45
562.723	-1.21
563.148	-1.29
563.572	-1.05
563.997	-1.22
564.421	-1.89
564.846	-2.21
565.27	-2.26
565.694	-1.93
566.118	-2.1
566.542	-1.18
566.966	-1.49
567.39	-1.39
567.814	-1.17
568.238	-0.97
568.662	-1.52
569.086	-1.07
569.509	-1.49
569.933	-0.31
570.357	-0.61
570.78	-0.48
571.204	0.45
571.627	0.31
572.05	0.24
572.474	1.04
572.897	1.47
573.32	2.24
573.743	1.88
574.166	3.13
574.589	2.06
575.012	2.36
575.435	2.17
575.858	1.4
576.281	1.4
576.704	1.41
577.126	-0.05
577.549	-0.84
577.972	-1.97
578.394	-1.38
578.817	0.23
579.239	-0.08
579.661	-0.03
580.084	0.83
580.506	0.63
580.928	0.41
581.35	0.73
581.772	1.59
582.194	1.5
582.616	1.4
583.038	0.32
583.46	-2.36
583.882	-2
584.303	-3.12
584.725	-4.24
585.147	-0.27
585.568	0.07
585.99	0.57
586.411	0.62
586.833	1.54
587.254	2.3
587.675	2.47
588.096	3.12
588.518	2.78
588.939	3.65
589.36	4.29
589.781	-0.77
590.202	1.87
590.623	1.65
591.043	1
591.464	0.37
591.885	0.79
592.305	0.68
592.726	0.13
593.147	0.11
593.567	0.97
593.987	0.64
594.408	0.8
594.828	-2.34
595.248	-2.18
595.669	-1.09
596.089	-0.79
596.509	-1.74
596.929	-1.58
597.349	-0.98
597.769	-0.71
598.189	-1.26
598.608	-1.03
599.028	-1.11
599.448	-1.09
599.867	-1.33
600.287	-2.6
600.706	-2.29
601.126	-1.32
601.545	-0.38
601.965	0.18
602.384	0.32
602.803	-0.1
603.222	-0.06
603.641	-0.3
604.061	0.35
604.48	0.25
604.898	0.63
605.317	-0.18
605.736	-0.36
606.155	-0.3
606.574	-1.06
606.992	-1.44
607.411	-1.35
607.829	-2.09
608.248	-2
608.666	-2.48
609.085	-2.26
609.503	-2.29
609.921	-1.41
610.339	-1.81
610.758	-2.27
611.176	-2.41
611.594	-1.6
612.012	-1.01
612.43	-0.1
612.847	-0.24
613.265	0.83
613.683	0.53
614.101	0.87
614.518	0.15
614.936	0.42
615.353	0.54
615.771	0.68
616.188	0.46
616.606	0.03
617.023	-0.1
617.44	0.44
617.857	-0.7
618.274	-0.97
618.691	-0.97
619.108	-1.25
619.525	-1.77
619.942	-1.57
620.359	-1.95
620.776	-2.27
621.192	-1.45
621.609	-0.43
622.026	-0.37
622.442	-0.15
622.859	-0.25
623.275	-0.55
623.691	-0.09
624.108	0.87
624.524	0.52
624.94	0.62
625.356	0.79
625.772	-0.03
626.188	-1.41
626.604	-1.55
627.02	-1.92
627.436	-1.05
627.852	-0.1
628.268	-0.32
628.683	-1.17
629.099	-0.95
629.514	-1.16
629.93	-1.13
630.345	-0.9
630.761	-1.61
631.176	-1.17
631.591	0.89
632.007	0.48
632.422	-0.51
632.837	-0.9
633.252	0.24
633.667	0.05
634.082	0.95
634.497	0.96
634.911	2.25
635.326	2.66
635.741	2.57
636.155	1.29
636.57	2.83
636.984	2.91
637.399	4.22
637.813	3.21
638.228	2.78
638.642	1.01
639.056	0.8
639.47	0.24
639.884	0.38
640.298	0.43
640.712	1.17
641.126	0.23
641.54	-0.59
641.954	-2.84
642.368	-2.89
642.781	-0
643.195	0.88
643.609	1.29
644.022	0.44
644.436	0.15
644.849	-0.67
645.262	-1.63
645.676	-2.95
646.089	-2.31
646.502	0.06
646.915	-0.27
647.328	-1.28
647.741	-0.56
648.154	-0.43
648.567	1.92
648.98	2.59
649.393	2.71
649.805	2.95
650.218	3.52
650.631	3.09
651.043	2.27
651.456	2.89
651.868	2.4
652.28	0.95
652.693	0.02
653.105	-1.71
653.517	-1.94
653.929	-1.81
654.341	-1.27
654.753	-0.79
655.165	-0.12
655.577	-0.29
655.989	-0.94
656.401	-2.47
656.813	-0.98
657.224	-1.19
657.636	-2.28
658.047	-1.43
658.459	-1.24
658.87	-3.27
659.282	-3.64
659.693	-3.16
660.104	-2.03
660.515	-1.88
660.926	-1.99
661.338	-2.03
661.749	-2.36
662.159	-0.22
662.57	-2.08
662.981	-2.66
663.392	-1.92
663.803	-2.36
664.213	-2.59
664.624	-3.61
665.035	-4.38
665.445	-4.77
665.855	-3.56
666.266	-2
666.676	-3.51
667.086	-2.82
667.497	-1.94
667.907	-2.18
668.317	-2.05
668.727	0.45
669.137	-0.53
669.547	-0.22
669.956	-0.51
670.366	-1.58
670.776	-1.81
671.186	-2.08
671.595	-1.89
672.005	-2.47
672.414	-1.81
672.824	-0.37
673.233	-3.08
673.642	-2.61
674.052	-1.93
674.461	-0.57
674.87	-1.35
675.279	-1.17
675.688	-1.92
676.097	-0.97
676.506	-1.03
676.915	-1.09
677.323	-1.68
677.732	-1.41
678.141	-1.3
678.549	-1.14
678.958	-2.59
679.366	-2.78
679.775	-3.83
680.183	-1.39
680.592	-2.79
681	-2.71
681.408	-2.7
681.816	-3.64
682.224	-4.68
682.632	-3.63
683.04	-4.12
683.448	-3.61
683.856	-2.38
684.264	-1.34
684.671	-3.7
685.079	-3.65
685.487	-3.86
685.894	-4.71
686.302	-5.56
686.709	-4.01
687.116	-4.54
687.524	-4.47
687.931	-2.57
688.338	-2.88
688.745	-4.56
689.152	-4.91
689.559	-3.95
689.966	-3.18
690.373	-2.13
690.78	-0.27
691.187	-1.04
691.593	-0.75
692	0.16
692.407	-0.3
692.813	1.89
693.22	3.43
693.626	3.09
694.032	3.17
694.439	2.9
694.845	2.69
695.251	1.61
695.657	1.6
696.063	-0.1
696.469	-1.29
696.875	-1.06
697.281	-2.94
697.687	-3.43
698.093	-2.37
698.498	-2.11
698.904	-2.6
699.31	-3.29
699.715	-1.43
700.12	-1.84
700.526	0.06
700.931	0.04
701.337	0.5
701.742	1.48
702.147	1.33
702.552	1.36
702.957	-0.13
703.362	-0.15
703.767	-0.07
704.172	-1.67
704.577	-1.22
704.981	-2.82
705.386	-2.77
705.791	-3.46
706.195	-5.62
706.6	-5.73
707.004	-6.9
707.408	-6.65
707.813	-5.91
708.217	-5.46
708.621	-5.66
709.025	-6.08
709.43	-3.49
709.834	-3.29
710.237	-3.48
710.641	-2.52
711.045	-1.9
711.449	-0.21
711.853	3.4
712.256	2.84
712.66	2.24
713.064	2.99
713.467	2.9
713.87	1.75
714.274	2.55
714.677	2.82
715.08	4
715.484	3.98
715.887	6.39
716.29	2.73
716.693	3.98
717.096	5.71
717.499	5.54
717.901	5.54
718.304	4.97
718.707	3.62
719.109	3.99
719.512	2.2
719.915	4.5
720.317	1.83
720.719	0.9
721.122	0.49
721.524	0.57
721.926	4.39
722.328	4.85
722.731	3.81
723.133	4.83
723.535	3.85
723.937	4.63
724.338	3.83
724.74	4.21
725.142	49.52
725.544	52.85
725.945	63.21
726.347	59.36
726.748	59.13
727.15	61
727.551	63.89
727.952	62.21
728.354	61.31
728.755	60.58
729.156	59.55
729.557	15.19
729.958	11.99
730.359	1.56
730.76	1.53
731.161	2.54
731.562	1.71
731.962	-2
732.363	-1.77
732.763	-1.41
733.164	-3.09
733.564	-2.47
733.965	-1
734.365	-1.48
734.766	-2.25
735.166	-1.58
735.566	-0.69
735.966	-0.15
736.366	0.96
736.766	1.58
737.166	0.09
737.566	-0.06
737.966	-0.25
738.365	0.32
738.765	1.86
739.165	2.8
739.564	2.05
739.964	-0.87
740.363	-2
740.763	-3.21
741.162	-1.91
741.561	-0.81
741.96	0.32
742.36	-0.53
742.759	-1.72
743.158	-4.03
743.557	-4.68
743.955	-5.81
744.354	-5.11
744.753	-5.72
745.152	-4.28
745.55	-6.84
745.949	-6.89
746.348	-6.69
746.746	-7.66
747.144	-4.49
747.543	-3.95
747.941	-4.53
748.339	-3.49
748.737	-2.52
749.136	-1.85
749.534	-3.96
749.932	-0.77
750.33	-1.75
750.727	-2.67
751.125	-1.35
751.523	-2.66
751.921	-0.32
752.318	1.22
752.716	1.71
753.113	1.5
753.511	1.18
753.908	2.93
754.305	6.2
754.703	7.02
