Data from N_1_DIV_PA_2N_Splice17_11-10-56-040.txt Node
Date: Sat Mar 14 11:10:56 EDT 2020
User: sa697716
Spectrometer: FLMS03696
Trigger mode: 0
Integration Time (sec): 3.180400E-1
Scans to average: 20
Electric dark correction enabled: true
Nonlinearity correction enabled: true
Boxcar width: 5
XAxis mode: Wavelengths
Number of Pixels in Spectrum: 2048
>>>>>Begin Spectral Data<<<<<
187.83	-86228.03
188.298	698.61
188.766	400.69
189.233	407.85
189.701	570.93
190.169	715.88
190.636	280.9
191.104	280.67
191.571	80.6
192.039	36.43
192.506	116.67
192.974	394.97
193.441	-497.04
193.908	-177.33
194.375	28.8
194.842	105.61
195.31	139.86
195.777	135.54
196.244	211.48
196.711	169.21
197.177	166.41
197.644	184.54
198.111	249.59
198.578	283.18
199.045	225.56
199.511	317.36
199.978	307.25
200.445	264.18
200.911	246.75
201.378	260.16
201.844	244.65
202.31	400.16
202.777	435.33
203.243	290.28
203.709	290.11
204.176	328.75
204.642	269.31
205.108	247.58
205.574	208.06
206.04	203.44
206.506	190.45
206.972	178.82
207.438	166.38
207.903	188.74
208.369	180.75
208.835	186.31
209.301	200.47
209.766	190.06
210.232	183.68
210.697	221.01
211.163	261.39
211.628	395.01
212.094	352.29
212.559	478.09
213.024	307.44
213.49	370.95
213.955	347.3
214.42	299.16
214.885	300.12
215.35	306.16
215.815	313.84
216.28	323.03
216.745	246.16
217.21	263.52
217.675	197.21
218.14	201.3
218.604	191.86
219.069	201.78
219.534	229.68
219.998	234.63
220.463	247.59
220.927	225.85
221.392	203.86
221.856	206.06
222.32	215.28
222.785	260.83
223.249	299.16
223.713	312.54
224.177	298.72
224.642	277.01
225.106	308.15
225.57	308.33
226.034	289.02
226.497	433.9
226.961	374.88
227.425	425.8
227.889	476.62
228.353	470.6
228.816	790.06
229.28	743.58
229.744	691.63
230.207	479.57
230.671	456.65
231.134	597.28
231.597	642.76
232.061	627.59
232.524	562.73
232.987	377.44
233.45	345.17
233.914	317.65
234.377	279.26
234.84	242.12
235.303	255.77
235.766	319.71
236.229	312.52
236.691	208.72
237.154	201.95
237.617	156.57
238.08	146.24
238.542	140.58
239.005	117.18
239.468	145.65
239.93	144.51
240.393	126.82
240.855	105.5
241.317	101.67
241.78	96.25
242.242	114.11
242.704	143.39
243.166	145.47
243.629	165.05
244.091	178.63
244.553	189.03
245.015	215.26
245.477	264.94
245.939	376.82
246.4	429.29
246.862	403.9
247.324	359.48
247.786	346.07
248.247	359.39
248.709	244.21
249.17	223.08
249.632	256.67
250.093	333.78
250.555	297.73
251.016	213.76
251.477	200.47
251.939	230.13
252.4	239.17
252.861	273.38
253.322	303.82
253.783	369.71
254.244	475.92
254.705	340.74
255.166	260.34
255.627	245.37
256.088	316.8
256.549	342.95
257.009	304.89
257.47	361.02
257.931	301.77
258.391	210.67
258.852	187.77
259.312	160.59
259.773	165.08
260.233	170.21
260.694	161.53
261.154	173.8
261.614	174.03
262.074	141.28
262.534	164.85
262.994	168.58
263.455	178.17
263.915	190.67
264.374	181.71
264.834	212.4
265.294	215.73
265.754	230.94
266.214	213.58
266.673	189.08
267.133	227.14
267.593	220.63
268.052	253.95
268.512	234.93
268.971	296.76
269.431	349.43
269.89	298.98
270.349	428.81
270.809	443.98
271.268	405.7
271.727	765.39
272.186	518.71
272.645	370.12
273.104	237.45
273.563	339.34
274.022	214.79
274.481	197.11
274.94	165.61
275.399	121.68
275.857	132.41
276.316	183.02
276.775	192.28
277.233	184.88
277.692	184.92
278.15	239.47
278.609	299.51
279.067	276.68
279.525	267.55
279.984	322.32
280.442	371.89
280.9	400.51
281.358	248.83
281.816	228.63
282.274	233.22
282.732	210.09
283.19	199.74
283.648	149.14
284.106	144.63
284.564	136.21
285.021	151.85
285.479	127.8
285.937	109.52
286.394	117.74
286.852	115.65
287.309	122.3
287.767	159.44
288.224	171.04
288.682	187.45
289.139	225.63
289.596	212.56
290.053	204.91
290.511	240.11
290.968	288.93
291.425	355.03
291.882	327
292.339	290.3
292.796	252.15
293.252	222.09
293.709	187.66
294.166	159.68
294.623	168.79
295.079	152.36
295.536	169.44
295.992	169.58
296.449	170.82
296.905	179.05
297.362	175.66
297.818	178.61
298.274	196.7
298.731	198.75
299.187	209.18
299.643	236.53
300.099	283.22
300.555	308.78
301.011	257.95
301.467	277.72
301.923	277.46
302.379	283.77
302.835	277.66
303.291	264.81
303.746	285.09
304.202	343.17
304.658	315.64
305.113	248.93
305.569	234.01
306.024	215.92
306.479	186.24
306.935	194.41
307.39	185.33
307.845	176.08
308.301	187.84
308.756	173.24
309.211	173.08
309.666	166.94
310.121	202.12
310.576	205.49
311.031	204.22
311.486	220.85
311.94	190.71
312.395	243.21
312.85	414.33
313.305	1450.3
313.759	11603.66
314.214	903.94
314.668	847.69
315.123	841.48
315.577	353.26
316.032	349.64
316.486	391.43
316.94	345.87
317.394	260.62
317.849	217.99
318.303	220.06
318.757	210.67
319.211	227.63
319.665	195.5
320.119	191.4
320.572	228.74
321.026	224.79
321.48	209.64
321.934	199.71
322.387	208.49
322.841	234.67
323.295	218.08
323.748	211.6
324.202	204.58
324.655	254.48
325.108	367.68
325.562	306.26
326.015	327.71
326.468	242.91
326.921	284.7
327.374	291.71
327.827	298.67
328.28	327.18
328.733	231.29
329.186	201.68
329.639	188.74
330.092	142.19
330.545	129.63
330.997	136.48
331.45	160.02
331.903	204.34
332.355	302.46
332.808	296.15
333.26	249.33
333.713	279.48
334.165	300.04
334.617	355.48
335.069	274.28
335.522	415.8
335.974	452.88
336.426	386.47
336.878	167.54
337.33	102.31
337.782	82.7
338.234	104.78
338.686	107.02
339.137	100
339.589	104.45
340.041	126.94
340.493	135.7
340.944	143.58
341.396	146.41
341.847	174.64
342.299	219.31
342.75	304.32
343.201	267.76
343.653	306.69
344.104	400.61
344.555	338.38
345.006	456.5
345.457	377.03
345.908	278.22
346.359	270.76
346.81	209.98
347.261	189.8
347.712	163.43
348.163	169.47
348.613	227.59
349.064	203.33
349.515	171.26
349.965	174.49
350.416	182.32
350.866	222.89
351.317	238.01
351.767	411.7
352.217	541.75
352.668	519.71
353.118	470.33
353.568	376.64
354.018	351.06
354.468	402.66
354.918	309.83
355.368	293.19
355.818	363.04
356.268	973.48
356.718	4362.62
357.168	1058.18
357.617	503.12
358.067	567.55
358.517	506.74
358.966	542.52
359.416	628.72
359.865	682.17
360.315	736.28
360.764	397.99
361.213	235.86
361.663	181.19
362.112	224.4
362.561	311.68
363.01	229.44
363.459	186.75
363.908	183.17
364.357	147.64
364.806	152.31
365.255	113.61
365.703	125.84
366.152	111.98
366.601	93.2
367.05	79.8
367.498	100.92
367.947	88.45
368.395	92.74
368.844	86.87
369.292	77.65
369.74	87.86
370.189	94.65
370.637	71.53
371.085	86.19
371.533	112.52
371.981	102.92
372.429	101.15
372.877	124.91
373.325	121.41
373.773	109.51
374.221	104.12
374.669	101.77
375.116	128.61
375.564	161.51
376.012	169.35
376.459	150.42
376.907	165.3
377.354	154.41
377.801	145.69
378.249	175.44
378.696	243.35
379.143	344.62
379.591	368.3
380.038	474.56
380.485	299.47
380.932	298.12
381.379	362.75
381.826	369.68
382.273	264.47
382.72	212.2
383.166	215.38
383.613	161.35
384.06	127.79
384.506	155.72
384.953	132.58
385.4	128.12
385.846	115.52
386.292	87.72
386.739	58.12
387.185	52.72
387.631	66.91
388.078	78.18
388.524	66.1
388.97	71.29
389.416	62.98
389.862	69.65
390.308	77.44
390.754	83.88
391.2	87.08
391.645	89.81
392.091	114.46
392.537	111.49
392.983	90.92
393.428	115.89
393.874	114.71
394.319	128.11
394.765	136.41
395.21	120.27
395.655	112.69
396.101	116.26
396.546	110.44
396.991	94.77
397.436	86.32
397.881	81.99
398.326	63.36
398.771	65.65
399.216	51.47
399.661	42.97
400.106	50.07
400.551	52.32
400.995	46.78
401.44	50.69
401.885	50.78
402.329	52.75
402.774	54.01
403.218	61.81
403.663	58.49
404.107	62.18
404.551	64.08
404.995	64.35
405.44	59.02
405.884	57.58
406.328	52.6
406.772	48.92
407.216	45.05
407.66	41.01
408.104	31.4
408.547	32.43
408.991	31.3
409.435	28.53
409.879	25.76
410.322	27.97
410.766	29.04
411.209	30.59
411.653	30.32
412.096	31.49
412.54	31.78
412.983	33.37
413.426	35.37
413.869	32.67
414.312	34.11
414.756	31.69
415.199	30.69
415.642	32
416.085	29.67
416.527	27.78
416.97	27.25
417.413	26.18
417.856	25.15
418.298	20.39
418.741	19.58
419.184	17.18
419.626	13.29
420.069	12.15
420.511	11.78
420.953	14.54
421.396	15.85
421.838	14.09
422.28	15.47
422.722	17.36
423.164	18.74
423.606	21.42
424.048	20.05
424.49	23.12
424.932	22.38
425.374	20.31
425.816	17.64
426.258	18.7
426.699	20.72
427.141	23.72
427.582	21.76
428.024	20.71
428.465	16.63
428.907	18.97
429.348	19.42
429.789	22.47
430.231	25.34
430.672	26.7
431.113	27.34
431.554	26
431.995	22.1
432.436	22.76
432.877	23.38
433.318	26.54
433.759	24
434.2	23.07
434.64	19.52
435.081	19.83
435.522	21.72
435.962	20.29
436.403	21.54
436.843	20.15
437.284	18.75
437.724	18.47
438.164	15.88
438.604	16.3
439.045	17.81
439.485	19.66
439.925	18.29
440.365	16.05
440.805	15.59
441.245	15.78
441.685	17.72
442.125	17.77
442.564	17.46
443.004	17.78
443.444	17.48
443.883	17.92
444.323	16.67
444.762	13.21
445.202	12.75
445.641	14.15
446.081	11.94
446.52	11.03
446.959	11.74
447.398	12.26
447.837	12.35
448.276	12.44
448.716	13.83
449.154	11.69
449.593	14.16
450.032	14.61
450.471	13.08
450.91	12.32
451.349	14.53
451.787	13.66
452.226	12.75
452.664	12.61
453.103	12.03
453.541	9.93
453.98	13.06
454.418	13.43
454.856	13.92
455.295	14.57
455.733	16.04
456.171	14.96
456.609	15.95
457.047	16.48
457.485	17.97
457.923	19.42
458.361	18.72
458.798	17.6
459.236	17.26
459.674	17.11
460.111	17.39
460.549	17.56
460.987	16.13
461.424	15.27
461.862	15.5
462.299	15.54
462.736	16.25
463.173	16.29
463.611	18.21
464.048	17.71
464.485	18.09
464.922	16.69
465.359	15.49
465.796	21.39
466.233	22.49
466.67	23.36
467.106	24.3
467.543	22.65
467.98	22.35
468.416	20.55
468.853	20.05
469.29	19.25
469.726	19.74
470.162	20.02
470.599	15.62
471.035	14.29
471.471	13.13
471.907	10.81
472.344	11.32
472.78	12.4
473.216	12.48
473.652	13.58
474.088	14.15
474.523	14.31
474.959	13.82
475.395	13.49
475.831	14.32
476.266	14.67
476.702	14.43
477.138	14.76
477.573	13.53
478.008	13.56
478.444	14.15
478.879	14.35
479.314	13.91
479.75	14.2
480.185	13.81
480.62	13
481.055	12.41
481.49	13.33
481.925	12.82
482.36	14.68
482.795	14.54
483.229	13.15
483.664	12.87
484.099	13.31
484.534	13.91
484.968	14.57
485.403	13.89
485.837	13.85
486.271	13.59
486.706	13.04
487.14	12.33
487.574	12.51
488.009	12.41
488.443	11.48
488.877	11.7
489.311	10.7
489.745	10.59
490.179	11.41
490.613	12.49
491.046	12.1
491.48	12.34
491.914	12.67
492.348	12.23
492.781	12.77
493.215	13
493.648	12.15
494.082	12.67
494.515	13.07
494.948	13.54
495.382	12.28
495.815	13.02
496.248	13.55
496.681	12.64
497.114	12.94
497.547	12.82
497.98	13.81
498.413	14.95
498.846	14.94
499.279	14.08
499.711	13.96
500.144	14.14
500.577	14.52
501.009	14.25
501.442	14.93
501.874	14.83
502.306	14.87
502.739	16.31
503.171	16.32
503.603	16.67
504.036	16.84
504.468	16.25
504.9	16.71
505.332	16.03
505.764	16.55
506.196	16.42
506.627	16.89
507.059	17.4
507.491	15.65
507.923	15.51
508.354	16.22
508.786	16.6
509.217	17.46
509.649	17.53
510.08	18
510.512	18.25
510.943	18.12
511.374	18.34
511.805	17.75
512.237	17.51
512.668	17.7
513.099	17.12
513.53	17.65
513.961	17.98
514.391	18.02
514.822	19.21
515.253	19.67
515.684	20.87
516.114	21.06
516.545	21.4
516.975	21.78
517.406	21.59
517.836	21.13
518.267	21.25
518.697	21.66
519.127	21.94
519.558	21.06
519.988	20.44
520.418	19.73
520.848	19.36
521.278	19.39
521.708	33.92
522.138	34.61
522.567	34.87
522.997	34.99
523.427	35.28
523.857	35.46
524.286	35.75
524.716	36.37
525.145	36.59
525.575	37.29
526.004	37.13
526.433	23.54
526.863	23.14
527.292	24.39
527.721	25.14
528.15	24.72
528.579	25.21
529.008	25.1
529.437	24.71
529.866	24.95
530.295	24.84
530.724	25.8
531.152	26.03
531.581	27.06
532.01	26.56
532.438	25.55
532.867	25.59
533.295	26.16
533.723	26.32
534.152	26.94
534.58	27.72
535.008	27.92
535.436	28.41
535.865	28.23
536.293	27.27
536.721	27.25
537.149	28.01
537.576	28.51
538.004	28.35
538.432	27.92
538.86	27.77
539.287	26.91
539.715	26.87
540.143	26.33
540.57	26.75
540.998	27.23
541.425	28.7
541.852	28.51
542.28	28.21
542.707	27.72
543.134	28.47
543.561	28.49
543.988	28.52
544.415	28.34
544.842	28.28
545.269	27.71
545.696	28.24
546.123	27.4
546.549	27.51
546.976	27.63
547.403	27.63
547.829	27.11
548.256	27.4
548.682	27.52
549.108	27.96
549.535	27.74
549.961	27.44
550.387	27.02
550.813	27.5
551.24	27.55
551.666	27.32
552.092	27.22
552.518	26.87
552.943	26.82
553.369	27.05
553.795	27.27
554.221	27.95
554.646	28.56
555.072	29.65
555.498	28.39
555.923	27.7
556.349	27.87
556.774	28.1
557.199	28.71
557.625	28.58
558.05	28.65
558.475	28.17
558.9	27.8
559.325	27.81
559.75	27.01
560.175	27.62
560.6	27.34
561.025	26.89
561.449	27.1
561.874	26.55
562.299	26.34
562.723	26.11
563.148	25.99
563.572	25.84
563.997	25.62
564.421	24.99
564.846	23.9
565.27	24.55
565.694	24.35
566.118	23.67
566.542	24.54
566.966	24.8
567.39	24.72
567.814	24.87
568.238	25.21
568.662	24.71
569.086	24.83
569.509	25.32
569.933	25.95
570.357	25.98
570.78	26.17
571.204	26.25
571.627	25.54
572.05	25.3
572.474	25.77
572.897	25.44
573.32	26.02
573.743	25.52
574.166	25.9
574.589	24.87
575.012	25.24
575.435	24.69
575.858	23.96
576.281	24.4
576.704	23.93
577.126	22.65
577.549	22.15
577.972	21.7
578.394	21.51
578.817	22.51
579.239	22.59
579.661	22.12
580.084	23.48
580.506	23.28
580.928	22.81
581.35	23.53
581.772	23.62
582.194	23.86
582.616	23.54
583.038	22.92
583.46	21.18
583.882	20.62
584.303	20.03
584.725	18.99
585.147	21.98
585.568	21.82
585.99	21.11
586.411	21.41
586.833	21.66
587.254	21.82
587.675	22.92
588.096	22.79
588.518	23.14
588.939	23.5
589.36	23.34
589.781	19.74
590.202	21.52
590.623	21.81
591.043	21.34
591.464	21.02
591.885	21.61
592.305	20.97
592.726	20.7
593.147	20.73
593.567	21.25
593.987	21.14
594.408	20.84
594.828	19.52
595.248	20.27
595.669	20.55
596.089	20.2
596.509	19.05
596.929	18.72
597.349	19.56
597.769	19.16
598.189	18.59
598.608	18.21
599.028	18.8
599.448	17.74
599.867	16.68
600.287	16.35
600.706	16.58
601.126	17.29
601.545	17.9
601.965	17.25
602.384	17.21
602.803	16.48
603.222	17.27
603.641	16.82
604.061	17.24
604.48	17.12
604.898	16.95
605.317	16.49
605.736	16.39
606.155	16.59
606.574	16.36
606.992	16.86
607.411	17.25
607.829	16.12
608.248	16.1
608.666	15.75
609.085	16.1
609.503	16.02
609.921	16.37
610.339	15.7
610.758	14.79
611.176	15.04
611.594	14.93
612.012	15.27
612.43	15.82
612.847	16.06
613.265	16.4
613.683	15.99
614.101	16.13
614.518	15.44
614.936	15.53
615.353	16.2
615.771	16.04
616.188	15.84
616.606	15.62
617.023	15.65
617.44	15.21
617.857	15.1
618.274	15
618.691	15.47
619.108	15.42
619.525	15.12
619.942	15.34
620.359	15.21
620.776	15.19
621.192	15.64
621.609	16.15
622.026	16.21
622.442	15.98
622.859	15.68
623.275	15.09
623.691	15.47
624.108	15.99
624.524	15.87
624.94	16.13
625.356	15.58
625.772	15
626.188	14.15
626.604	13.86
627.02	13.81
627.436	14.09
627.852	15.09
628.268	15.34
628.683	14.99
629.099	14.72
629.514	14.1
629.93	14.32
630.345	13.78
630.761	13.53
631.176	13.56
631.591	15.23
632.007	15.29
632.422	14.12
632.837	13.15
633.252	13.68
633.667	13.85
634.082	14.02
634.497	14.47
634.911	16.49
635.326	16.59
635.741	17.06
636.155	16.16
636.57	17.01
636.984	17.21
637.399	19.38
637.813	18.94
638.228	17.76
638.642	17.63
639.056	17.02
639.47	15.49
639.884	16.44
640.298	15.74
640.712	16.11
641.126	15.68
641.54	15.3
641.954	12.13
642.368	12.32
642.781	15.31
643.195	15.7
643.609	15.68
644.022	15.42
644.436	13.7
644.849	13.91
645.262	13.03
645.676	12.76
646.089	12.94
646.502	15.18
646.915	14.39
647.328	12.98
647.741	13.69
648.154	13.46
648.567	15.2
648.98	16.09
649.393	15.97
649.805	15.81
650.218	15.34
650.631	15.58
651.043	15.05
651.456	15.76
651.868	14.78
652.28	13.51
652.693	13.15
653.105	11.79
653.517	12.12
653.929	11.87
654.341	12.29
654.753	12.72
655.165	12.35
655.577	11.79
655.989	10.99
656.401	10.64
656.813	11.54
657.224	12.47
657.636	12.57
658.047	13.09
658.459	13.41
658.87	11.97
659.282	11.97
659.693	12.22
660.104	12.53
660.515	12.74
660.926	12.75
661.338	12.67
661.749	11.72
662.159	12.04
662.57	10.34
662.981	10.59
663.392	12.05
663.803	11.56
664.213	11.4
664.624	11.35
665.035	11.33
665.445	11.22
665.855	11.53
666.266	12.95
666.676	12.44
667.086	12.41
667.497	12.43
667.907	11.55
668.317	11.59
668.727	13.79
669.137	12.87
669.547	12.81
669.956	12.1
670.366	11.82
670.776	11.3
671.186	11.15
671.595	11.58
672.005	11.15
672.414	11.47
672.824	12.06
673.233	9.45
673.642	10.23
674.052	9.95
674.461	11.56
674.87	10.89
675.279	11.06
675.688	10.04
676.097	11.38
676.506	11.18
676.915	11.72
677.323	11.91
677.732	12.69
678.141	12.66
678.549	13.69
678.958	11.79
679.366	11.46
679.775	10.83
680.183	12.63
680.592	11.85
681	12.32
681.408	11.54
681.816	11.47
682.224	10.85
682.632	11.99
683.04	12.1
683.448	13.09
683.856	14.34
684.264	15.11
684.671	13.97
685.079	13.38
685.487	13.39
685.894	14.12
686.302	12.51
686.709	12.62
687.116	11.85
687.524	11.84
687.931	13.26
688.338	12.31
688.745	11.54
689.152	11.6
689.559	12.21
689.966	13.54
690.373	14.34
690.78	16.23
691.187	16.97
691.593	18.75
692	18.28
692.407	18.95
692.813	21.22
693.22	21.99
693.626	22.08
694.032	22.76
694.439	22.78
694.845	22.56
695.251	22.6
695.657	23.4
696.063	20.78
696.469	21.53
696.875	20.99
697.281	20.22
697.687	20.14
698.093	20.88
698.498	20.94
698.904	20.88
699.31	21.88
699.715	23.11
700.12	22.7
700.526	24.57
700.931	24.58
701.337	25.14
701.742	25.47
702.147	25.79
702.552	26.09
702.957	25.75
703.362	26.13
703.767	25.36
704.172	24.37
704.577	24.23
704.981	23.64
705.386	24.42
705.791	25.15
706.195	25.72
706.6	26.53
707.004	26.15
707.408	26.88
707.813	27.53
708.217	29.25
708.621	29.61
709.025	30.54
709.43	32.21
709.834	32.8
710.237	32.32
710.641	32.13
711.045	32.65
711.449	34.47
711.853	36.26
712.256	36.36
712.66	35.71
713.064	36.55
713.467	38.08
713.87	37.98
714.274	37.85
714.677	39.08
715.08	40.15
715.484	41.16
715.887	42.95
716.29	40.85
716.693	41.42
717.096	42.45
717.499	42.98
717.901	41.42
718.304	41.58
718.707	41.82
719.109	41.4
719.512	41.79
719.915	42.49
720.317	41.8
720.719	43.41
721.122	43.13
721.524	42.6
721.926	45.4
722.328	46.3
722.731	46.29
723.133	46.62
723.535	47.15
723.937	46.03
724.338	47.02
724.74	47.65
725.142	77.95
725.544	80.14
725.945	88.86
726.347	86.07
726.748	86.21
727.15	87.31
727.551	89.33
727.952	87.97
728.354	87.22
728.755	86.37
729.156	84.69
729.557	53.89
729.958	52.33
730.359	43.98
730.76	44.6
731.161	45.22
731.562	44.19
731.962	42.77
732.363	43.47
732.763	44.24
733.164	43.16
733.564	42.97
733.965	44.17
734.365	43.72
734.766	44.01
735.166	42.57
735.566	42.05
735.966	41.95
736.366	42.28
736.766	42.5
737.166	41.46
737.566	42.21
737.966	43.17
738.365	43.67
738.765	44.61
739.165	45.09
739.564	45.54
739.964	44.77
740.363	44.21
740.763	41.86
741.162	42.88
741.561	44.11
741.96	43.59
742.36	42.57
742.759	41.87
743.158	40.09
743.557	39
743.955	39.29
744.354	38.84
744.753	39.08
745.152	41.78
745.55	40.61
745.949	40.4
746.348	40.49
746.746	39.44
747.144	41.64
747.543	41.3
747.941	41.32
748.339	41.46
748.737	42.94
749.136	44.59
749.534	43.08
749.932	44.83
750.33	44.18
750.727	43.69
