Data from N_1_DEC_CT_2N_Splice17_11-34-39-056.txt Node
Date: Sat Mar 14 11:34:39 EDT 2020
User: sa697716
Spectrometer: FLMS03696
Trigger mode: 0
Integration Time (sec): 3.180400E-1
Scans to average: 20
Electric dark correction enabled: true
Nonlinearity correction enabled: true
Boxcar width: 5
XAxis mode: Wavelengths
Number of Pixels in Spectrum: 2048
>>>>>Begin Spectral Data<<<<<
187.83	-129068.89
188.298	1008.48
188.766	542.81
189.233	490.83
189.701	674.97
190.169	934.44
190.636	366.11
191.104	321.84
191.571	56.33
192.039	-35.88
192.506	-80.01
192.974	146.83
193.441	-215.77
193.908	27.96
194.375	-19.27
194.842	16.27
195.31	82.54
195.777	99.21
196.244	183.59
196.711	84.68
197.177	67.14
197.644	23.72
198.111	20.87
198.578	0.38
199.045	-22.57
199.511	-53.62
199.978	-128.37
200.445	-108.65
200.911	-138.93
201.378	-237.97
201.844	-154.1
202.31	-311.76
202.777	-307.58
203.243	-153.43
203.709	-148.55
204.176	-171.19
204.642	-121.08
205.108	-105.16
205.574	-97.61
206.04	-119.12
206.506	-110.68
206.972	-135.73
207.438	-139.58
207.903	-167.91
208.369	-123.66
208.835	-113.02
209.301	-113.85
209.766	-134.07
210.232	-132.69
210.697	-162.21
211.163	-188.9
211.628	-282.76
212.094	-187.65
212.559	-133.43
213.024	-74.15
213.49	-88.76
213.955	-82.15
214.42	-117.4
214.885	-88.38
215.35	-58.99
215.815	19.42
216.28	34.71
216.745	22.31
217.21	47.13
217.675	15.6
218.14	24.99
218.604	0.02
219.069	-4.12
219.534	39.45
219.998	26.67
220.463	20.24
220.927	-50.66
221.392	-50.57
221.856	-36.44
222.32	-116.7
222.785	-112.45
223.249	-133.92
223.713	-150.83
224.177	-143.1
224.642	-231.6
225.106	-289.94
225.57	-305.9
226.034	-171.72
226.497	-276.25
226.961	-158.67
227.425	-103.69
227.889	-151.14
228.353	-216.85
228.816	-509.13
229.28	-461.21
229.744	-414.97
230.207	-186.83
230.671	-189.62
231.134	-459.13
231.597	-423.49
232.061	-544.84
232.524	-622.9
232.987	-432.01
233.45	-266.49
233.914	-199.23
234.377	-213.92
234.84	-173.64
235.303	-247.62
235.766	-289.25
236.229	-302.96
236.691	-205.23
237.154	-238.98
237.617	-159.57
238.08	-168.07
238.542	-232.21
239.005	-164.08
239.468	-154.7
239.93	-146.41
240.393	-111.64
240.855	-86.48
241.317	-90.28
241.78	-123.73
242.242	-110.68
242.704	-86.58
243.166	-68.89
243.629	-44.33
244.091	-35.86
244.553	-48.91
245.015	-36.07
245.477	-82.9
245.939	-171.41
246.4	-162.23
246.862	-168.77
247.324	-161.59
247.786	-239.77
248.247	-372.69
248.709	-474.1
249.17	-360.89
249.632	-251.35
250.093	-239.5
250.555	-193.71
251.016	-68.35
251.477	-55.75
251.939	-49.6
252.4	-62.86
252.861	-92.27
253.322	-40.87
253.783	-80.31
254.244	-148.07
254.705	-167.85
255.166	-214.28
255.627	-224.07
256.088	-331.34
256.549	-343.44
257.009	-283.04
257.47	-371.29
257.931	-278.99
258.391	-184.46
258.852	-166.73
259.312	-168.87
259.773	-212.63
260.233	-108.21
260.694	-41.34
261.154	-44.9
261.614	-0.71
262.074	-5.42
262.534	19.62
262.994	29.66
263.455	-4.02
263.915	13.03
264.374	11.76
264.834	14.24
265.294	-24.11
265.754	-25.3
266.214	-19.85
266.673	-28.51
267.133	-53.31
267.593	-74.28
268.052	-107.52
268.512	-98.44
268.971	-71.74
269.431	-67.54
269.89	-65.04
270.349	-91.53
270.809	-107.43
271.268	-115.64
271.727	-390.32
272.186	-240.42
272.645	-174.54
273.104	-167.83
273.563	-232.69
274.022	-257.49
274.481	-196.4
274.94	-122.71
275.399	-98.17
275.857	-149.12
276.316	-219.26
276.775	-189.41
277.233	-180.38
277.692	-130.56
278.15	-98.42
278.609	-68.71
279.067	-62.63
279.525	-47.65
279.984	-101.82
280.442	-115.86
280.9	-9.27
281.358	-10.12
281.816	-14.39
282.274	-32.75
282.732	-79.6
283.19	-111.15
283.648	-127.76
284.106	-160.37
284.564	-173.63
285.021	-131.41
285.479	-121.58
285.937	-152.4
286.394	-122.86
286.852	-129.65
287.309	-136.84
287.767	-96.19
288.224	-79
288.682	-89.55
289.139	-68.98
289.596	-66.29
290.053	-102.04
290.511	-122.19
290.968	-129.76
291.425	-196.01
291.882	-100.06
292.339	-53.98
292.796	-93.51
293.252	-103.44
293.709	-44.49
294.166	-50.95
294.623	-68.79
295.079	-53.7
295.536	-32.65
295.992	-22.38
296.449	-14.63
296.905	-14.44
297.362	15.01
297.818	8.56
298.274	36.3
298.731	22.78
299.187	21.27
299.643	32.65
300.099	14.61
300.555	5.57
301.011	32.49
301.467	77.6
301.923	51.13
302.379	28.86
302.835	25.75
303.291	11.08
303.746	-3.72
304.202	-34.25
304.658	-60.95
305.113	-8.55
305.569	-12.74
306.024	-61.15
306.479	-127.09
306.935	-99.26
307.39	-148.91
307.845	-118.78
308.301	-100.24
308.756	-96.27
309.211	-67.71
309.666	-76.73
310.121	-51.28
310.576	-57.72
311.031	-82.56
311.486	-119.05
311.94	-151.55
312.395	-227.01
312.85	-538.66
313.305	-3379.39
313.759	-15047.19
314.214	-1128.83
314.668	-827.27
315.123	-769.33
315.577	-238.63
316.032	-204.47
316.486	-235.9
316.94	-127.29
317.394	-30.72
317.849	-8.72
318.303	-15.76
318.757	-13.69
319.211	-23.55
319.665	-13.66
320.119	-28.32
320.572	-71.94
321.026	-36.45
321.48	-28.2
321.934	-56.99
322.387	-79.67
322.841	-80.9
323.295	-29.36
323.748	-64.02
324.202	-37.64
324.655	-47.7
325.108	11.99
325.562	37.73
326.015	6.15
326.468	11.96
326.921	26.71
327.374	31.39
327.827	48.11
328.28	43.98
328.733	44.22
329.186	19.16
329.639	20.65
330.092	-2.34
330.545	-3.68
330.997	6.78
331.45	29.27
331.903	43.39
332.355	29.97
332.808	-5.58
333.26	7.97
333.713	-4.01
334.165	-48.83
334.617	-100.7
335.069	-139.46
335.522	-326.84
335.974	-410.95
336.426	-481.97
336.878	-394.38
337.33	-182.49
337.782	-183.35
338.234	-242.68
338.686	-315.12
339.137	-344.32
339.589	-333.52
340.041	-241
340.493	-203.49
340.944	-173.82
341.396	-176.52
341.847	-104.33
342.299	-98.3
342.75	-88.29
343.201	-118.77
343.653	-116.47
344.104	-148.99
344.555	-86
345.006	-195.64
345.457	-53.56
345.908	-115.25
346.359	-80.19
346.81	-86.96
347.261	-107.5
347.712	-129.88
348.163	-158.42
348.613	-122.73
349.064	-98.4
349.515	-96.81
349.965	-73.26
350.416	-124
350.866	-106.76
351.317	-143.39
351.767	-240.35
352.217	-318.14
352.668	-232.78
353.118	-197.5
353.568	-291.06
354.018	-214.35
354.468	-169.66
354.918	-104.45
355.368	-104.65
355.818	-166.68
356.268	-686.81
356.718	-2648.78
357.168	-601.62
357.617	-309.11
358.067	-373.91
358.517	-299.92
358.966	-361.47
359.416	-402.68
359.865	-534.59
360.315	-624.1
360.764	-263.11
361.213	-75.05
361.663	-110.1
362.112	-151.22
362.561	-304.91
363.01	-224.09
363.459	-212.46
363.908	-242.26
364.357	-172.58
364.806	-326.98
365.255	-245.1
365.703	-190.28
366.152	-203.85
366.601	-134.82
367.05	-76.23
367.498	-61.26
367.947	-72.05
368.395	-79.33
368.844	-64.65
369.292	-134.4
369.74	-60.97
370.189	-116.86
370.637	-166.39
371.085	-167.19
371.533	-250.88
371.981	-275.82
372.429	-200.4
372.877	-174.69
373.325	-110.14
373.773	-110.21
374.221	-104.88
374.669	-152.97
375.116	-106.48
375.564	-101.96
376.012	-125.04
376.459	-74.62
376.907	-121.89
377.354	-206.52
377.801	-202.81
378.249	-246.46
378.696	-358.07
379.143	-408.56
379.591	-435.34
380.038	-792.99
380.485	-492.76
380.932	-591.84
381.379	-487.91
381.826	-247.84
382.273	-149.95
382.72	-148.51
383.166	-126.5
383.613	-58.5
384.06	-62.16
384.506	-51.13
384.953	-28.71
385.4	-52.88
385.846	-35.46
386.292	-40.93
386.739	-64.28
387.185	-74.33
387.631	-79.62
388.078	-73.93
388.524	-89.29
388.97	-67.78
389.416	-52.37
389.862	-56.84
390.308	-53.1
390.754	-47.85
391.2	-58.78
391.645	-63.26
392.091	-28.83
392.537	-11.62
392.983	-23.58
393.428	6.21
393.874	-1.72
394.319	9.71
394.765	36.36
395.21	34.26
395.655	34.81
396.101	28.18
396.546	34.7
396.991	10.88
397.436	3.6
397.881	1.59
398.326	-17.04
398.771	-7.48
399.216	-16.23
399.661	-25.78
400.106	-17.86
400.551	-15.42
400.995	-9.21
401.44	-10.73
401.885	-4.27
402.329	-2.77
402.774	4.03
403.218	18.59
403.663	12.73
404.107	14.13
404.551	19.67
404.995	13.72
405.44	6.91
405.884	5.17
406.328	0.99
406.772	-4.69
407.216	-3.39
407.66	-9.16
408.104	-21.27
408.547	-19.95
408.991	-23.57
409.435	-26.97
409.879	-23.06
410.322	-20.26
410.766	-18.73
411.209	-13.03
411.653	-11.86
412.096	-8.82
412.54	-10.9
412.983	-7.54
413.426	-3.21
413.869	-2.18
414.312	1.78
414.756	-0.37
415.199	-0.26
415.642	3.46
416.085	3.35
416.527	2.67
416.97	0.29
417.413	3.71
417.856	1.35
418.298	-0.89
418.741	-2.61
419.184	-5.57
419.626	-11.19
420.069	-10.74
420.511	-13.39
420.953	-11.47
421.396	-9.22
421.838	-9.88
422.28	-9.18
422.722	-5.86
423.164	-8.84
423.606	-6.29
424.048	-8.55
424.49	-3.16
424.932	-5.87
425.374	-6.11
425.816	-9.29
426.258	-10.85
426.699	-10.1
427.141	-7.84
427.582	-12.58
428.024	-12.38
428.465	-17.71
428.907	-15.71
429.348	-16.13
429.789	-13.95
430.231	-10.74
430.672	-11.9
431.113	-12.02
431.554	-12.78
431.995	-15.64
432.436	-11.01
432.877	-10.22
433.318	-3.33
433.759	-4.06
434.2	-4.26
434.64	-4.04
435.081	-5.09
435.522	-3.72
435.962	-3.55
436.403	-0.51
436.843	-3.54
437.284	-5.19
437.724	-5.89
438.164	-9.72
438.604	-10.39
439.045	-9.61
439.485	-5.31
439.925	-6.19
440.365	-6.34
440.805	-6.1
441.245	-4.74
441.685	-3.31
442.125	-3.99
442.564	-3.63
443.004	-1.69
443.444	-0.32
443.883	-0.12
444.323	-5.96
444.762	-10.34
445.202	-10.37
445.641	-10.19
446.081	-13.44
446.52	-12.55
446.959	-10.85
447.398	-8.81
447.837	-9.92
448.276	-10.84
448.716	-9.21
449.154	-9.56
449.593	-5.46
450.032	-5.38
450.471	-6.69
450.91	-7.21
451.349	-5.33
451.787	-6.69
452.226	-9.38
452.664	-9.46
453.103	-9.83
453.541	-12.18
453.98	-9.45
454.418	-9.97
454.856	-8.11
455.295	-7.01
455.733	-6.47
456.171	-8.12
456.609	-6.01
457.047	-4.17
457.485	-3.01
457.923	-0.48
458.361	-0.59
458.798	-1.23
459.236	-1.05
459.674	-2.41
460.111	-1.1
460.549	-0.33
460.987	-1.05
461.424	-2.57
461.862	-2.34
462.299	-1.47
462.736	-1.23
463.173	-1.21
463.611	3.01
464.048	3.83
464.485	4
464.922	3.29
465.359	2.38
465.796	10.36
466.233	11.62
466.67	13.98
467.106	14.83
467.543	13.21
467.98	12.52
468.416	9.52
468.853	8.22
469.29	8.02
469.726	6.93
470.162	6.74
470.599	1.01
471.035	-0.62
471.471	-2.06
471.907	-4.62
472.344	-4.19
472.78	-2.62
473.216	-3.33
473.652	-2.93
474.088	-4.31
474.523	-3.39
474.959	-3.97
475.395	-4.26
475.831	-2.98
476.266	-3.06
476.702	-3.61
477.138	-3.9
477.573	-4.48
478.008	-3.82
478.444	-3.11
478.879	-0.82
479.314	-0.83
479.75	-0.22
480.185	-0.54
480.62	-1.19
481.055	-1.79
481.49	-0.49
481.925	0.23
482.36	2.01
482.795	0.63
483.229	-0.68
483.664	-1.17
484.099	-0.78
484.534	-0.16
484.968	-0.27
485.403	-0.53
485.837	-1.39
486.271	-2
486.706	-2.59
487.14	-4.12
487.574	-3.23
488.009	-2.85
488.443	-3.38
488.877	-2.84
489.311	-3.29
489.745	-2.4
490.179	-1.86
490.613	0.24
491.046	0.36
491.48	0.41
491.914	0.93
492.348	0.62
492.781	0.79
493.215	0.95
493.648	-0.36
494.082	-0.49
494.515	-0.28
494.948	0.37
495.382	-1.16
495.815	-0.95
496.248	-0.73
496.681	-1.08
497.114	-1.79
497.547	-1.16
497.98	-0.17
498.413	1.56
498.846	1.88
499.279	0.61
499.711	0.05
500.144	0.06
500.577	0.66
501.009	0.35
501.442	1.34
501.874	2.81
502.306	2.22
502.739	3.72
503.171	2.71
503.603	3.04
504.036	3.1
504.468	2.96
504.9	2.93
505.332	2.08
505.764	2.75
506.196	2.29
506.627	1.93
507.059	1.77
507.491	-0.93
507.923	-0.72
508.354	-0.44
508.786	0.04
509.217	0.24
509.649	0.03
510.08	-0.26
510.512	0.57
510.943	0.33
511.374	0.41
511.805	0.22
512.237	0.41
512.668	-0.3
513.099	-1.56
513.53	-1.7
513.961	-1.41
514.391	-0.84
514.822	1.01
515.253	0.26
515.684	0.38
516.114	0.31
516.545	1.01
516.975	1.22
517.406	0.95
517.836	0.53
518.267	0.82
518.697	0.78
519.127	0.69
519.558	-0.76
519.988	-1.37
520.418	-1.93
520.848	-3.14
521.278	-3.77
521.708	15.83
522.138	16.51
522.567	16.5
522.997	16.03
523.427	15.53
523.857	15.48
524.286	15.84
524.716	16.15
525.145	16.61
525.575	17.81
526.004	17.77
526.433	-1.27
526.863	-1.44
527.292	0.14
527.721	1.14
528.15	0.81
528.579	1.25
529.008	1.51
529.437	0.76
529.866	0.28
530.295	-0.62
530.724	0.25
531.152	-0.19
531.581	0.36
532.01	-0.56
532.438	-1.43
532.867	-1.51
533.295	-1.37
533.723	-1.79
534.152	-1.53
534.58	-0.97
535.008	-0.36
535.436	0.15
535.865	0.22
536.293	-0.99
536.721	-1.27
537.149	-0.99
537.576	-0.25
538.004	-0.39
538.432	-0.84
538.86	-0.54
539.287	-1.2
539.715	-1.07
540.143	-2.42
540.57	-2.27
540.998	-1.92
541.425	-0.21
541.852	-0.43
542.28	-0.84
542.707	-1.29
543.134	-0.89
543.561	-0.59
543.988	0.12
544.415	-0.09
544.842	0.06
545.269	0.02
545.696	0.78
546.123	0.02
546.549	0.18
546.976	0.77
547.403	1.13
547.829	0.7
548.256	-0.05
548.682	-0.14
549.108	0.7
549.535	0.73
549.961	0.73
550.387	0.5
550.813	1.48
551.24	1.52
551.666	0.84
552.092	0.18
552.518	0.4
552.943	1.42
553.369	1.02
553.795	0.55
554.221	0.46
554.646	0.11
555.072	1.22
555.498	-0.9
555.923	-1.23
556.349	-1.46
556.774	-1.62
557.199	-2.11
557.625	-3.3
558.05	-2.64
558.475	-3.14
558.9	-2.8
559.325	-1.92
559.75	-2.29
560.175	-1.77
560.6	-2.01
561.025	-2.07
561.449	-1.53
561.874	-1.58
562.299	-0.86
562.723	-1.8
563.148	-1.82
563.572	-2.26
563.997	-2.49
564.421	-4.01
564.846	-4.22
565.27	-3.66
565.694	-3.72
566.118	-4.01
566.542	-3.33
566.966	-2.97
567.39	-2.61
567.814	-2.34
568.238	-2
568.662	-2.91
569.086	-2.36
569.509	-2.48
569.933	-1.39
570.357	-1.3
570.78	-0.98
571.204	0.15
571.627	-0.51
572.05	-0.68
572.474	0.34
572.897	0.56
573.32	1.75
573.743	1.46
574.166	2.13
574.589	0.44
575.012	0.12
575.435	-0.31
575.858	-0.86
576.281	-0.64
576.704	-0.76
577.126	-2.01
577.549	-2.7
577.972	-3.94
578.394	-3.27
578.817	-1.81
579.239	-1.27
579.661	-0.33
580.084	1.12
580.506	1.47
580.928	1.15
581.35	1.74
581.772	2.07
582.194	2.32
582.616	2.09
583.038	0.82
583.46	-0.82
583.882	-0.37
584.303	-1.45
584.725	-2.53
585.147	0.72
585.568	0.93
585.99	1.55
586.411	2.06
586.833	2.42
587.254	2.81
587.675	3.08
588.096	2.76
588.518	2.58
588.939	3.14
589.36	3.46
589.781	-1.55
590.202	1.58
590.623	0.97
591.043	0.23
591.464	-0.21
591.885	0.27
592.305	0.31
592.726	0.41
593.147	0.47
593.567	0.81
593.987	0.69
594.408	0.62
594.828	-3.03
595.248	-2.52
595.669	-1.72
596.089	-1.33
596.509	-2.09
596.929	-2.42
597.349	-1.7
597.769	-2.21
598.189	-2.81
598.608	-3.06
599.028	-3.11
599.448	-3.16
599.867	-3.84
600.287	-4.48
600.706	-4.22
601.126	-3.32
601.545	-2.07
601.965	-2.6
602.384	-2.33
602.803	-1.99
603.222	-1.37
603.641	-1.35
604.061	-0.49
604.48	-0.79
604.898	-0.96
605.317	-1.65
605.736	-1.89
606.155	-1.68
606.574	-1.57
606.992	-1.74
607.411	-1.75
607.829	-2.98
608.248	-3.02
608.666	-3.7
609.085	-3.5
609.503	-3.97
609.921	-3.02
610.339	-3.06
610.758	-4.22
611.176	-4.12
611.594	-3.42
612.012	-3.16
612.43	-2.19
612.847	-2.18
613.265	-1.42
613.683	-0.68
614.101	0.05
614.518	-0.53
614.936	-0.22
615.353	0.22
615.771	0.46
616.188	-0.17
616.606	-0.48
617.023	-0.17
617.44	0.01
617.857	-0.51
618.274	-1.76
618.691	-1.21
619.108	-1.18
619.525	-1.68
619.942	-1.05
620.359	-1.7
620.776	-1.56
621.192	-1.1
621.609	-0.87
622.026	-0.61
622.442	-0.76
622.859	-0.41
623.275	-1.57
623.691	-1.65
624.108	-1.2
624.524	-2.28
624.94	-1.99
625.356	-2.21
625.772	-2.83
626.188	-3.76
626.604	-3.42
627.02	-3.42
627.436	-3.03
627.852	-1.69
628.268	-1.29
628.683	-2.24
629.099	-1.72
629.514	-2.37
629.93	-2.51
630.345	-2.86
630.761	-3.21
631.176	-3.77
631.591	-1.86
632.007	-1.32
632.422	-2.49
632.837	-3.2
633.252	-1.93
633.667	-1.65
634.082	-1.02
634.497	-0.45
634.911	1.89
635.326	2.36
635.741	3.09
636.155	1.49
636.57	2.36
636.984	2.75
637.399	4.12
637.813	3.47
638.228	3.05
638.642	2.74
639.056	2.76
639.47	1.09
639.884	1.46
640.298	1.13
640.712	2.43
641.126	1.44
641.54	1.37
641.954	-0.8
642.368	-0.38
642.781	1.73
643.195	1.97
643.609	2.56
644.022	2.73
644.436	1.58
644.849	0.34
645.262	-0.51
645.676	-0.71
646.089	-0.6
646.502	1.42
646.915	0.58
647.328	-0.23
647.741	0.52
648.154	-0.07
648.567	2.05
648.98	2.94
649.393	3.94
649.805	3.69
650.218	2.88
650.631	4.1
651.043	2.61
651.456	3.34
651.868	2.51
652.28	1.38
652.693	1.14
653.105	-0.87
653.517	-1.83
653.929	-2.13
654.341	-1.64
654.753	-1.06
655.165	-2.41
655.577	-1.44
655.989	-1.19
656.401	-1.68
656.813	-0.88
657.224	-0.81
657.636	-1.03
658.047	-0.23
658.459	-0.1
658.87	-1.65
659.282	-1.63
659.693	-0.62
660.104	-0.47
660.515	-1.24
660.926	-1.52
661.338	-1.75
661.749	-2.51
662.159	-2.07
662.57	-2.58
662.981	-2.51
663.392	-1.93
663.803	-2.21
664.213	-3.64
664.624	-3.82
665.035	-4.07
665.445	-4.15
665.855	-3.36
666.266	-2.54
666.676	-2.26
667.086	-1.97
667.497	-1.78
667.907	-1.23
668.317	-0.92
668.727	2.54
669.137	1.48
669.547	1.63
669.956	0.97
670.366	0.19
670.776	0.17
671.186	-0.54
671.595	-0.54
672.005	-1.32
672.414	-0.99
672.824	-0.88
673.233	-4.02
673.642	-3.81
674.052	-3.67
674.461	-2.75
674.87	-3.44
675.279	-2.83
675.688	-3.64
676.097	-2.93
676.506	-3.11
676.915	-4.33
677.323	-4.22
677.732	-4.11
678.141	-3.6
678.549	-4.29
678.958	-4.95
679.366	-4.59
679.775	-5.71
680.183	-3.2
680.592	-3.54
681	-2.6
681.408	-2.33
681.816	-2.91
682.224	-3.18
682.632	-1.99
683.04	-1.42
683.448	-1.59
683.856	-0.84
684.264	-0.04
684.671	-2.3
685.079	-2.83
685.487	-4.28
685.894	-5.68
686.302	-7.13
686.709	-6.25
687.116	-7.41
687.524	-5.93
687.931	-3.39
688.338	-3.91
688.745	-5.23
689.152	-4.99
689.559	-4.38
689.966	-1.93
690.373	0.4
690.78	2.05
691.187	1.31
691.593	1.97
692	0.98
692.407	0.18
692.813	3.04
693.22	4.19
693.626	2.45
694.032	2.31
694.439	1.68
694.845	-0.02
695.251	-0.38
695.657	-0.15
696.063	-1.75
696.469	-2
696.875	-2.31
697.281	-4.56
697.687	-5.55
698.093	-4.79
698.498	-4.45
698.904	-5.33
699.31	-5.01
699.715	-3.61
700.12	-4.02
700.526	-3.03
700.931	-3.1
701.337	-2.61
701.742	-2.02
702.147	-2.02
702.552	-0.78
702.957	-2.09
703.362	-1.83
703.767	-1.72
704.172	-3.29
704.577	-4.56
704.981	-5.71
705.386	-5.78
705.791	-6.26
706.195	-7.63
706.6	-6.98
707.004	-8.89
707.408	-8.84
707.813	-8.63
708.217	-7.97
708.621	-8.19
709.025	-7.23
709.43	-5
709.834	-4.46
710.237	-4.61
710.641	-4.71
711.045	-4.45
711.449	-2.39
711.853	1.93
712.256	1.59
712.66	0.68
713.064	1.34
713.467	2.1
713.87	1.42
714.274	1.46
714.677	2.19
715.08	3.54
715.484	3.7
715.887	6.51
716.29	2.18
716.693	3.53
717.096	4.68
717.499	4.58
717.901	4.06
718.304	2.72
718.707	1.72
719.109	1.51
719.512	-0.25
719.915	2.01
720.317	-1.64
720.719	-2.26
721.122	-3.73
721.524	-2.88
721.926	1.81
722.328	1.85
722.731	1.98
723.133	1.53
723.535	1.27
723.937	2.75
724.338	2.48
724.74	4.33
725.142	48.44
725.544	51.59
725.945	62.48
726.347	58.85
726.748	59.4
727.15	60.38
727.551	64.54
727.952	63.27
728.354	60.77
728.755	59.57
729.156	57.36
729.557	14.21
729.958	10.75
730.359	0.01
730.76	-0.99
731.161	-1.66
731.562	-3.7
731.962	-6.77
732.363	-6.35
732.763	-6.28
733.164	-9.41
733.564	-7.71
733.965	-6.59
734.365	-5.3
734.766	-4.85
735.166	-5.07
735.566	-3.17
735.966	-1.77
736.366	-1.22
736.766	-0.92
737.166	-1.22
737.566	0.4
737.966	-1.04
738.365	-0.73
738.765	0.15
739.165	-0.69
739.564	-0.71
739.964	-3.32
740.363	-3.71
740.763	-5.22
741.162	-3.91
741.561	-3.81
741.96	-3.66
742.36	-3.96
742.759	-4.19
743.158	-5.44
743.557	-5.68
743.955	-5.56
744.354	-5.1
744.753	-5.61
745.152	-4.14
745.55	-6.05
745.949	-5.09
746.348	-4.45
746.746	-4.72
747.144	-1.85
747.543	-2.22
747.941	-3.19
748.339	-3.03
748.737	-1.88
749.136	-1.08
749.534	-3.23
749.932	-1.73
750.33	-2.09
