Data from N_1_DEC_OH_4N_Splice17_11-20-53-946.txt Node
Date: Sat Mar 14 11:20:53 EDT 2020
User: sa697716
Spectrometer: FLMS03696
Trigger mode: 0
Integration Time (sec): 3.180400E-1
Scans to average: 20
Electric dark correction enabled: true
Nonlinearity correction enabled: true
Boxcar width: 5
XAxis mode: Wavelengths
Number of Pixels in Spectrum: 2048
>>>>>Begin Spectral Data<<<<<
187.83	-164628.27
188.298	1280.54
188.766	719.97
189.233	603.92
189.701	822.47
190.169	1191.22
190.636	502.5
191.104	438.73
191.571	109.83
192.039	12.93
192.506	-21.81
192.974	411.91
193.441	-587.62
193.908	-192.54
194.375	-33.36
194.842	1.47
195.31	18.81
195.777	83.06
196.244	148.85
196.711	113.74
197.177	139.11
197.644	144.32
198.111	243.88
198.578	314.13
199.045	247.21
199.511	350.2
199.978	391.41
200.445	356.14
200.911	386.82
201.378	397.92
201.844	379.48
202.31	576.36
202.777	587.07
203.243	328.25
203.709	338.83
204.176	407.84
204.642	331.57
205.108	308.9
205.574	259.04
206.04	232.56
206.506	217.48
206.972	186.07
207.438	169.08
207.903	196.26
208.369	194.19
208.835	189.95
209.301	198.9
209.766	210.41
210.232	196.25
210.697	215.26
211.163	219.12
211.628	306.08
212.094	291.54
212.559	423.61
213.024	262.89
213.49	327.54
213.955	304.48
214.42	261.63
214.885	212.99
215.35	208.39
215.815	251.04
216.28	287.55
216.745	225.84
217.21	258.31
217.675	199.53
218.14	214.52
218.604	204.67
219.069	212.77
219.534	231.57
219.998	252.85
220.463	278.52
220.927	267.29
221.392	214.57
221.856	217.76
222.32	207.88
222.785	270.21
223.249	296.9
223.713	300.14
224.177	302.32
224.642	328.47
225.106	347.05
225.57	355.58
226.034	306.3
226.497	499.44
226.961	470.64
227.425	545.33
227.889	547.59
228.353	553.75
228.816	1008.06
229.28	928.16
229.744	771.72
230.207	534.12
230.671	500.39
231.134	660.95
231.597	753.59
232.061	672.3
232.524	633.37
232.987	427.35
233.45	391.15
233.914	340.12
234.377	300.33
234.84	285.28
235.303	297.53
235.766	350.4
236.229	330.35
236.691	177.48
237.154	171.09
237.617	121.26
238.08	106.97
238.542	99.46
239.005	115.2
239.468	132.04
239.93	118.21
240.393	112.69
240.855	88.69
241.317	79.68
241.78	78.54
242.242	105.14
242.704	149.59
243.166	141.6
243.629	147.62
244.091	152.4
244.553	155.78
245.015	166.16
245.477	193.61
245.939	292.16
246.4	355.55
246.862	376.58
247.324	346.9
247.786	341.31
248.247	416.13
248.709	355.56
249.17	267.27
249.632	319.23
250.093	420.54
250.555	371.47
251.016	239.59
251.477	224.08
251.939	244.1
252.4	243.76
252.861	268.38
253.322	286.85
253.783	313.86
254.244	398.58
254.705	257.71
255.166	162.86
255.627	148.78
256.088	236
256.549	264.33
257.009	208.03
257.47	263.37
257.931	183.33
258.391	141.97
258.852	162.3
259.312	146.31
259.773	184.68
260.233	216.24
260.694	213.18
261.154	230.54
261.614	236.98
262.074	219.98
262.534	234.2
262.994	244.05
263.455	283.83
263.915	260.5
264.374	247
264.834	272.16
265.294	270.19
265.754	265.12
266.214	240.38
266.673	198.2
267.133	218.82
267.593	189.56
268.052	236.42
268.512	220.72
268.971	299.56
269.431	340.93
269.89	316.14
270.349	509.56
270.809	579.27
271.268	505.78
271.727	990.67
272.186	692.55
272.645	522.04
273.104	326.22
273.563	433.07
274.022	269.56
274.481	254.39
274.94	197.94
275.399	140.03
275.857	133.83
276.316	183.11
276.775	178.39
277.233	167.29
277.692	178.68
278.15	244.04
278.609	274.92
279.067	233.55
279.525	236.22
279.984	276.95
280.442	335.03
280.9	412.8
281.358	256.63
281.816	247.4
282.274	226.12
282.732	197.32
283.19	151.95
283.648	125.87
284.106	137.39
284.564	123.41
285.021	152.61
285.479	108.44
285.937	79.96
286.394	88.57
286.852	81.09
287.309	83.94
287.767	117.43
288.224	133.02
288.682	145.47
289.139	174.26
289.596	165.54
290.053	137.18
290.511	139.93
290.968	158.44
291.425	184.96
291.882	194.03
292.339	202.24
292.796	158.71
293.252	151.63
293.709	139.29
294.166	127.33
294.623	121.34
295.079	118.51
295.536	162.66
295.992	168.08
296.449	181.48
296.905	186.94
297.362	197.97
297.818	212.47
298.274	219.12
298.731	212.69
299.187	211.97
299.643	230.04
300.099	289.27
300.555	284.02
301.011	236.83
301.467	276.51
301.923	291.8
302.379	292.51
302.835	285.37
303.291	278.56
303.746	299.23
304.202	336.05
304.658	329.83
305.113	221.3
305.569	240.33
306.024	223.89
306.479	152.89
306.935	142.61
307.39	127.59
307.845	133.89
308.301	150.52
308.756	146.77
309.211	165.42
309.666	164.34
310.121	229.3
310.576	196.81
311.031	205.47
311.486	205.18
311.94	235.98
312.395	280.05
312.85	441.23
313.305	1663.35
313.759	13658.61
314.214	1006.16
314.668	906.1
315.123	853.65
315.577	395.33
316.032	395.27
316.486	481.73
316.94	381.37
317.394	290.03
317.849	244.74
318.303	218.52
318.757	202.25
319.211	214.69
319.665	187.07
320.119	169.04
320.572	195.51
321.026	174
321.48	160.21
321.934	150.13
322.387	133.37
322.841	146.55
323.295	174.17
323.748	142.39
324.202	161.29
324.655	197.28
325.108	353.65
325.562	268.37
326.015	272.01
326.468	215.56
326.921	248.6
327.374	275.81
327.827	281.89
328.28	325.58
328.733	257.01
329.186	219.45
329.639	211.36
330.092	157.38
330.545	164.32
330.997	197.22
331.45	232.56
331.903	285.21
332.355	402.03
332.808	396.73
333.26	291.32
333.713	317.25
334.165	323.64
334.617	427.36
335.069	284.09
335.522	420.83
335.974	380.2
336.426	266.81
336.878	130.17
337.33	119.38
337.782	106.63
338.234	158.47
338.686	179.27
339.137	173.82
339.589	147.82
340.041	183.31
340.493	149.27
340.944	166.43
341.396	173.68
341.847	185.01
342.299	240.45
342.75	334.77
343.201	277.51
343.653	306.78
344.104	394.38
344.555	315.05
345.006	379.39
345.457	374.1
345.908	283.08
346.359	289.37
346.81	231.64
347.261	198.82
347.712	153.9
348.163	140.03
348.613	180.18
349.064	176.27
349.515	160.92
349.965	179.39
350.416	172.81
350.866	170.06
351.317	180.98
351.767	277.07
352.217	382.38
352.668	347.71
353.118	346.91
353.568	243.72
354.018	204.33
354.468	192.87
354.918	156.11
355.368	169.96
355.818	214.29
356.268	590.62
356.718	2831.11
357.168	812.94
357.617	440.88
358.067	484.13
358.517	478.64
358.966	630.51
359.416	870.67
359.865	928.24
360.315	997.31
360.764	515.33
361.213	292.9
361.663	244.72
362.112	238.82
362.561	353.89
363.01	272.44
363.459	203.9
363.908	171.45
364.357	117.79
364.806	132.51
365.255	90.43
365.703	131.5
366.152	113.2
366.601	117.71
367.05	125.12
367.498	130.76
367.947	129.49
368.395	140.91
368.844	133.93
369.292	125.8
369.74	105.22
370.189	155.7
370.637	151.14
371.085	140.18
371.533	128.8
371.981	111.69
372.429	97.55
372.877	106.69
373.325	97.3
373.773	96.52
374.221	78.84
374.669	81.99
375.116	74.42
375.564	58.66
376.012	70.64
376.459	86.52
376.907	103.62
377.354	123.74
377.801	147.84
378.249	213.62
378.696	210.61
379.143	307.42
379.591	401.81
380.038	656.17
380.485	559.02
380.932	533.97
381.379	540.58
381.826	444.86
382.273	292.94
382.72	228.81
383.166	206.13
383.613	157.31
384.06	136.16
384.506	133.01
384.953	102.21
385.4	86.25
385.846	86.1
386.292	58.98
386.739	43.53
387.185	43.4
387.631	40.14
388.078	55.1
388.524	64.17
388.97	72.42
389.416	69.03
389.862	70.53
390.308	75.8
390.754	77.68
391.2	73.03
391.645	63.29
392.091	90.4
392.537	105.28
392.983	87.05
393.428	108.9
393.874	106.64
394.319	126.53
394.765	139.11
395.21	138.42
395.655	125.76
396.101	135.23
396.546	130.27
396.991	113.21
397.436	93.69
397.881	85.63
398.326	59.93
398.771	63.03
399.216	44.57
399.661	34.85
400.106	34.92
400.551	38.37
400.995	33.43
401.44	35.18
401.885	33.45
402.329	35.15
402.774	40.9
403.218	53.96
403.663	49.46
404.107	55.11
404.551	56.92
404.995	52.22
405.44	50.19
405.884	49.37
406.328	44.03
406.772	40.94
407.216	37.55
407.66	29.89
408.104	18.69
408.547	18.09
408.991	18.02
409.435	15.32
409.879	18.28
410.322	16.33
410.766	17.34
411.209	20.27
411.653	21.32
412.096	25.29
412.54	25.22
412.983	26.43
413.426	28.96
413.869	24.2
414.312	26.24
414.756	24.69
415.199	25.24
415.642	26.03
416.085	25.65
416.527	25.11
416.97	23.8
417.413	26.59
417.856	23.68
418.298	21.43
418.741	20.71
419.184	17.96
419.626	12.59
420.069	10.59
420.511	9.42
420.953	11.6
421.396	11.75
421.838	10.21
422.28	9.02
422.722	13.2
423.164	10.81
423.606	12.51
424.048	12.16
424.49	16.74
424.932	17.37
425.374	15.51
425.816	12.89
426.258	13.49
426.699	13.39
427.141	15.62
427.582	13.16
428.024	13.46
428.465	10.64
428.907	10.95
429.348	11.47
429.789	12.25
430.231	16.04
430.672	17.49
431.113	16.33
431.554	16.25
431.995	12.94
432.436	13.36
432.877	14.25
433.318	16.64
433.759	16.06
434.2	13.51
434.64	12.67
435.081	11.51
435.522	10.13
435.962	10.85
436.403	12.65
436.843	12.99
437.284	12.79
437.724	12.13
438.164	8.99
438.604	8.62
439.045	10.84
439.485	13.98
439.925	12.69
440.365	13.18
440.805	11.92
441.245	12.59
441.685	12.34
442.125	11.47
442.564	11.41
443.004	13.45
443.444	13.76
443.883	13.03
444.323	9.79
444.762	7.1
445.202	5.81
445.641	7.4
446.081	4.1
446.52	4.43
446.959	5.92
447.398	7.17
447.837	6.43
448.276	6.32
448.716	7.3
449.154	5.84
449.593	8.99
450.032	8.94
450.471	7.46
450.91	8.18
451.349	8.9
451.787	8.07
452.226	6.52
452.664	7.77
453.103	7.74
453.541	5.73
453.98	9.15
454.418	8.96
454.856	10.82
455.295	11.26
455.733	10.74
456.171	9.25
456.609	9.99
457.047	10.13
457.485	10.2
457.923	11.47
458.361	11.06
458.798	9.28
459.236	8.8
459.674	6.95
460.111	6.96
460.549	8.01
460.987	7.93
461.424	6.88
461.862	7.79
462.299	8.41
462.736	8.39
463.173	8.76
463.611	11.46
464.048	12.9
464.485	14.03
464.922	13.19
465.359	12.15
465.796	18.5
466.233	19.55
466.67	21.53
467.106	22.81
467.543	21.18
467.98	20.95
468.416	18.78
468.853	17.11
469.29	16.95
469.726	17.2
470.162	17.05
470.599	11.81
471.035	10.57
471.471	9.25
471.907	6.36
472.344	6.22
472.78	6.39
473.216	5.81
473.652	5.47
474.088	3.9
474.523	3.81
474.959	3.55
475.395	3.74
475.831	4.24
476.266	3.55
476.702	3.98
477.138	4.59
477.573	3.96
478.008	4.26
478.444	5.82
478.879	7.57
479.314	7.99
479.75	8.53
480.185	7.95
480.62	7.57
481.055	7.6
481.49	7.95
481.925	8.07
482.36	10.18
482.795	10.02
483.229	8.76
483.664	7.78
484.099	6.91
484.534	6.12
484.968	6.32
485.403	5.96
485.837	5
486.271	4.78
486.706	4.82
487.14	3.53
487.574	3.52
488.009	3.37
488.443	3.51
488.877	4.48
489.311	4.15
489.745	4.21
490.179	4.58
490.613	6.29
491.046	5.93
491.48	5.83
491.914	5.76
492.348	5.75
492.781	5.8
493.215	6.06
493.648	4.7
494.082	4.75
494.515	5.38
494.948	5.96
495.382	4.64
495.815	4.99
496.248	5.23
496.681	5.58
497.114	5.29
497.547	6
497.98	6.5
498.413	8.48
498.846	9.04
499.279	8.43
499.711	7.86
500.144	8.12
500.577	9.01
501.009	8.46
501.442	9.53
501.874	9.82
502.306	9.22
502.739	10.44
503.171	9.7
503.603	10.01
504.036	10.34
504.468	10.71
504.9	10.4
505.332	9.8
505.764	10.76
506.196	9.66
506.627	10.01
507.059	10.09
507.491	8.18
507.923	8.34
508.354	8.73
508.786	8.5
509.217	8.74
509.649	9.01
510.08	8.69
510.512	8.75
510.943	9.12
511.374	9.48
511.805	9.46
512.237	9.43
512.668	9.47
513.099	8.67
513.53	9.02
513.961	9.46
514.391	9.18
514.822	10.47
515.253	10.32
515.684	10.53
516.114	10.34
516.545	10.88
516.975	10.96
517.406	10.93
517.836	10.73
518.267	10.86
518.697	11.37
519.127	12.1
519.558	10.82
519.988	10.97
520.418	10.5
520.848	9.62
521.278	9.32
521.708	26.27
522.138	26.54
522.567	26.56
522.997	27.05
523.427	26.22
523.857	26.34
524.286	27.02
524.716	26.91
525.145	27.62
525.575	29.04
526.004	28.85
526.433	13.1
526.863	13.26
527.292	14.53
527.721	14.33
528.15	14.6
528.579	14.87
529.008	14.67
529.437	14.04
529.866	13.72
530.295	13.15
530.724	14.03
531.152	13.5
531.581	13.87
532.01	13.62
532.438	13.62
532.867	13.08
533.295	13.48
533.723	13.91
534.152	14.71
534.58	15.41
535.008	15.89
535.436	17.09
535.865	17.09
536.293	16
536.721	15.42
537.149	15.53
537.576	16.79
538.004	16.75
538.432	16.12
538.86	16.24
539.287	15.21
539.715	15.11
540.143	14.12
540.57	14.55
540.998	14.94
541.425	16.41
541.852	15.91
542.28	15.07
542.707	14.48
543.134	14.79
543.561	14.99
543.988	15.03
544.415	14.66
544.842	14.17
545.269	13.94
545.696	14.79
546.123	14.37
546.549	14.99
546.976	15.29
547.403	15.51
547.829	15.1
548.256	14.53
548.682	15.14
549.108	15.82
549.535	15.87
549.961	15.74
550.387	15.21
550.813	15.58
551.24	15.43
551.666	14.69
552.092	14.88
552.518	15.01
552.943	15.55
553.369	15.01
553.795	14.81
554.221	14.97
554.646	15.17
555.072	15.9
555.498	14.71
555.923	13.91
556.349	14.14
556.774	14.11
557.199	14.09
557.625	13.24
558.05	13.5
558.475	13.33
558.9	13.26
559.325	13.58
559.75	13.54
560.175	13.73
560.6	14.23
561.025	14.27
561.449	14.1
561.874	13.78
562.299	14.54
562.723	14.59
563.148	14.12
563.572	14.12
563.997	14.01
564.421	12.95
564.846	12.63
565.27	12.76
565.694	12.41
566.118	12.33
566.542	13.73
566.966	13.8
567.39	13.55
567.814	14.09
568.238	14.1
568.662	13.34
569.086	13.9
569.509	14
569.933	14.61
570.357	15
570.78	14.55
571.204	14.13
571.627	13.67
572.05	13.64
572.474	13.99
572.897	14.03
573.32	15.01
573.743	14.43
574.166	14.23
574.589	13.55
575.012	13.18
575.435	13.53
575.858	13.57
576.281	13.82
576.704	13.47
577.126	12.51
577.549	11.76
577.972	11
578.394	10.98
578.817	13.07
579.239	12.83
579.661	13.27
580.084	13.89
580.506	13.66
580.928	12.72
581.35	12.54
581.772	12.69
582.194	12.82
582.616	12.44
583.038	12.29
583.46	10.62
583.882	10.71
584.303	9.75
584.725	8.73
585.147	11.87
585.568	12.6
585.99	13.43
586.411	13.92
586.833	14.2
587.254	14.52
587.675	13.85
588.096	13.14
588.518	13.44
588.939	13.78
589.36	14.1
589.781	10.07
590.202	12.22
590.623	11.87
591.043	11.37
591.464	11.09
591.885	11.8
592.305	11.98
592.726	12.1
593.147	11.6
593.567	12.31
593.987	12.5
594.408	12.25
594.828	9.43
595.248	10.26
595.669	10.7
596.089	10.48
596.509	9.24
596.929	8.83
597.349	9.1
597.769	8.98
598.189	8.15
598.608	7.66
599.028	7.79
599.448	7.52
599.867	6.63
600.287	6.29
600.706	6.87
601.126	7.72
601.545	8.65
601.965	8.27
602.384	8.53
602.803	8.49
603.222	8.75
603.641	8.88
604.061	9.47
604.48	9.29
604.898	8.76
605.317	8.65
605.736	8.24
606.155	8.5
606.574	8.76
606.992	8.94
607.411	9.44
607.829	8.57
608.248	8.3
608.666	7.96
609.085	8.19
609.503	8.4
609.921	8.3
610.339	8.37
610.758	7.48
611.176	7.27
611.594	7.5
612.012	7.34
612.43	8.61
612.847	8.66
613.265	9.45
613.683	9.66
614.101	9.77
614.518	9.37
614.936	9.73
615.353	10.46
615.771	11.31
616.188	11.19
616.606	11.02
617.023	10.74
617.44	10.44
617.857	9.43
618.274	8.97
618.691	9.39
619.108	9.44
619.525	8.63
619.942	8.27
620.359	7.65
620.776	7.41
621.192	7.98
621.609	8.18
622.026	8.71
622.442	9.65
622.859	9.29
623.275	8.52
623.691	8.74
624.108	9.43
624.524	9.31
624.94	9.4
625.356	8.97
625.772	8.39
626.188	7.21
626.604	7.25
627.02	6.72
627.436	7.91
627.852	8.74
628.268	9.25
628.683	8.29
629.099	8.66
629.514	8.26
629.93	8.09
630.345	8.27
630.761	8.47
631.176	8.37
631.591	9.72
632.007	9.57
632.422	8.48
632.837	7.49
633.252	8.39
633.667	7.95
634.082	8.22
634.497	8.89
634.911	10.18
635.326	10.65
635.741	10.71
636.155	9.27
636.57	9.91
636.984	10.26
637.399	11.34
637.813	11.18
638.228	10.97
638.642	10.76
639.056	10.58
639.47	9.35
639.884	9.35
640.298	9.06
640.712	10.4
641.126	9.54
641.54	9.13
641.954	6.95
642.368	7
642.781	9.54
643.195	9.34
643.609	9.25
644.022	8.99
644.436	8.03
644.849	8
645.262	6.77
645.676	6.62
646.089	6.9
646.502	8.93
646.915	8.14
647.328	6.47
647.741	6.8
648.154	6.51
648.567	8.63
648.98	9.64
649.393	9.74
649.805	10.7
650.218	10.28
650.631	11.34
651.043	10.91
651.456	12.05
651.868	12.2
652.28	12.08
652.693	12.79
653.105	11.18
653.517	10.86
653.929	11.72
654.341	11.16
654.753	11.52
655.165	10.12
655.577	10.46
655.989	9.61
656.401	8.37
656.813	8.9
657.224	8.38
657.636	8.14
658.047	8.14
658.459	8.11
658.87	6.98
659.282	6.69
659.693	7.73
660.104	8.38
660.515	7.67
660.926	7.6
661.338	7.22
661.749	6.33
662.159	7.03
662.57	6.81
662.981	6.34
663.392	6.81
663.803	7.41
664.213	7.43
664.624	6.05
665.035	6.78
665.445	6.85
665.855	7.68
666.266	8.74
666.676	7.99
667.086	7.69
667.497	7.82
667.907	8.05
668.317	7.57
668.727	9.36
669.137	9.48
669.547	9.35
669.956	8.44
670.366	7.76
670.776	7.9
671.186	7.92
671.595	9.11
672.005	8.41
672.414	8.74
672.824	8.82
673.233	6.34
673.642	6.27
674.052	6.58
674.461	8.63
674.87	9.04
675.279	9.86
675.688	8.16
676.097	8.53
676.506	8.19
676.915	7.42
677.323	7.8
677.732	7.57
678.141	7.19
678.549	7.81
678.958	6.12
679.366	4.75
679.775	3.79
680.183	6.74
680.592	5.95
681	6.67
681.408	7.64
681.816	7.58
682.224	8.32
682.632	10.26
683.04	8.97
683.448	9.38
683.856	10.84
684.264	11.37
684.671	9.73
685.079	9.5
685.487	9.22
685.894	8.41
686.302	7.97
686.709	7.6
687.116	6.43
687.524	9.03
687.931	11.7
688.338	11.71
688.745	11.24
689.152	12.01
689.559	13.14
689.966	14.31
690.373	14.65
690.78	15.76
691.187	16.54
691.593	17.35
692	16.68
692.407	16.13
692.813	18.12
693.22	19.37
693.626	18.14
694.032	18.04
694.439	18.37
694.845	18.58
695.251	17.36
695.657	18.19
696.063	17.27
696.469	16.39
696.875	15.96
697.281	13.87
697.687	13.2
698.093	14.52
698.498	15.16
698.904	13.93
699.31	13.95
699.715	16.53
700.12	15.57
700.526	16.69
700.931	17.08
701.337	17.5
701.742	18.66
702.147	18.66
702.552	19.32
702.957	18.04
703.362	19.06
703.767	19.1
704.172	17.49
704.577	16.98
704.981	15.18
705.386	15.95
705.791	16.39
706.195	15.59
706.6	16.14
707.004	14.45
707.408	14.32
707.813	15.42
708.217	15.83
708.621	16.02
709.025	16.55
709.43	18.22
709.834	17.97
710.237	17.13
710.641	17.46
711.045	18.32
711.449	20.07
711.853	23.47
712.256	21.5
712.66	21.26
713.064	21.96
713.467	23.42
713.87	23.73
714.274	24.82
714.677	26.28
715.08	27.17
715.484	27.28
715.887	29.56
716.29	27.03
716.693	29.44
717.096	30.45
717.499	30.07
717.901	28.73
718.304	28.58
718.707	27.05
719.109	26.87
719.512	25.69
719.915	27.79
720.317	26.41
720.719	26.47
721.122	25.77
721.524	26.32
721.926	30.36
722.328	31.64
722.731	31.08
723.133	31.73
723.535	30.8
723.937	31.9
724.338	31.76
724.74	32.65
725.142	69.91
725.544	72.3
725.945	80.47
726.347	77.03
726.748	75.81
727.15	77.52
727.551	80.41
727.952	79.48
728.354	78.33
728.755	76.89
729.156	74.89
729.557	38.46
729.958	35.39
730.359	26.96
730.76	26.7
731.161	27.37
731.562	26.04
731.962	23.13
732.363	23.51
732.763	23.89
733.164	22.08
733.564	22.75
733.965	23.34
734.365	24.21
734.766	24.99
735.166	24.35
735.566	25.21
735.966	25.66
736.366	26.55
736.766	26.93
737.166	26.18
737.566	26.9
737.966	27.25
738.365	27.41
738.765	27.8
739.165	27.36
739.564	27.4
739.964	25.82
740.363	25.48
740.763	24.4
741.162	25.58
741.561	25.29
741.96	25.74
742.36	25.01
742.759	24.95
743.158	23.93
743.557	23.32
743.955	23.38
744.354	22.43
744.753	22.32
745.152	22.98
745.55	21.51
745.949	22
746.348	22.07
746.746	20.86
747.144	23.01
747.543	23.07
747.941	22.71
748.339	22.49
748.737	24.37
749.136	24.65
749.534	22.84
749.932	24.31
750.33	24.49
750.727	23.28
751.125	24.61
751.523	22.35
751.921	25.1
752.318	26.26
752.716	27.66
753.113	26.73
753.511	26.51
753.908	28.53
754.305	30.52
754.703	30.49
755.1	31.21
755.497	30.67
755.894	31.55
756.291	28.94
756.688	30.24
757.085	29.32
757.482	31.47
757.878	34.06
758.275	35.1
758.672	31.46
759.068	31.92
759.465	32.46
759.861	32.25
