Data from N_1_DIV_PA_2N_Splice17_11-11-32-974.txt Node
Date: Sat Mar 14 11:11:32 EDT 2020
User: sa697716
Spectrometer: FLMS03696
Trigger mode: 0
Integration Time (sec): 3.180400E-1
Scans to average: 20
Electric dark correction enabled: true
Nonlinearity correction enabled: true
Boxcar width: 5
XAxis mode: Wavelengths
Number of Pixels in Spectrum: 2048
>>>>>Begin Spectral Data<<<<<
187.83	-186936.09
188.298	1269.61
188.766	644.87
189.233	560.65
189.701	824.87
190.169	1109.7
190.636	453.77
191.104	410.94
191.571	138.92
192.039	107.58
192.506	114.19
192.974	362.3
193.441	-487.72
193.908	-125.42
194.375	-74.97
194.842	-1.55
195.31	41.58
195.777	100.51
196.244	180.97
196.711	154.55
197.177	156.27
197.644	147.28
198.111	190.82
198.578	202.07
199.045	147.07
199.511	229.58
199.978	193.38
200.445	173.15
200.911	205.87
201.378	206.22
201.844	226.57
202.31	334.83
202.777	392.3
203.243	202.93
203.709	186.65
204.176	221.31
204.642	184.55
205.108	210.04
205.574	165.93
206.04	132.9
206.506	124.23
206.972	94.24
207.438	94.09
207.903	76.39
208.369	111.8
208.835	130.77
209.301	137.94
209.766	129.97
210.232	119.82
210.697	151.66
211.163	161.8
211.628	223.31
212.094	199.73
212.559	299.08
213.024	214.9
213.49	237.98
213.955	208.52
214.42	176.69
214.885	181.92
215.35	193.24
215.815	205.16
216.28	221.19
216.745	180.4
217.21	200.79
217.675	143.79
218.14	144.1
218.604	140.92
219.069	158.94
219.534	178.14
219.998	171.73
220.463	167.12
220.927	143.9
221.392	136.15
221.856	135.33
222.32	121.12
222.785	150.78
223.249	188.31
223.713	190.16
224.177	155.37
224.642	140.24
225.106	142.66
225.57	139.85
226.034	151.78
226.497	155.96
226.961	168.4
227.425	225.95
227.889	270.96
228.353	234.49
228.816	388.96
229.28	435.35
229.744	349.02
230.207	303.55
230.671	297.19
231.134	323.28
231.597	430.58
232.061	343.01
232.524	273.02
232.987	162.9
233.45	150.55
233.914	144.43
234.377	125.11
234.84	126.47
235.303	79
235.766	93.82
236.229	128.31
236.691	72.14
237.154	64.4
237.617	76.33
238.08	79.58
238.542	104.57
239.005	80.65
239.468	97.75
239.93	86.93
240.393	99.4
240.855	82.63
241.317	77.71
241.78	84.87
242.242	102.09
242.704	127.09
243.166	119.68
243.629	114.1
244.091	140.35
244.553	134.47
245.015	158.36
245.477	163.72
245.939	244.84
246.4	263.27
246.862	255.86
247.324	250.33
247.786	216.48
248.247	242.91
248.709	209.25
249.17	146.4
249.632	217.15
250.093	262.44
250.555	257.55
251.016	195.33
251.477	194.28
251.939	210.77
252.4	198.07
252.861	219.99
253.322	236.11
253.783	234.11
254.244	298.47
254.705	183.77
255.166	128.9
255.627	100.96
256.088	105.46
256.549	97.03
257.009	87.52
257.47	120.33
257.931	104.73
258.391	84.14
258.852	95.43
259.312	90.59
259.773	104.59
260.233	151.1
260.694	152.16
261.154	146.67
261.614	156.49
262.074	140.58
262.534	142.15
262.994	146.97
263.455	158.37
263.915	153.34
264.374	140.09
264.834	148.54
265.294	120.09
265.754	136.13
266.214	139.08
266.673	117.7
267.133	123.22
267.593	111.26
268.052	129.38
268.512	99.22
268.971	168.37
269.431	188.47
269.89	182.62
270.349	292.47
270.809	329.71
271.268	318.54
271.727	610.65
272.186	427.54
272.645	355.32
273.104	222.22
273.563	348.87
274.022	184.91
274.481	193.57
274.94	146.27
275.399	101.96
275.857	93.97
276.316	98.18
276.775	90.36
277.233	82.34
277.692	87.15
278.15	123.95
278.609	167.32
279.067	192.79
279.525	189.26
279.984	215.65
280.442	255.06
280.9	320.75
281.358	220.21
281.816	223.68
282.274	227.19
282.732	213.45
283.19	208.06
283.648	165.47
284.106	145.62
284.564	114.65
285.021	131.46
285.479	102.85
285.937	73.42
286.394	76.75
286.852	59.46
287.309	51.49
287.767	68.04
288.224	76.54
288.682	75.23
289.139	97.44
289.596	124.25
290.053	124.51
290.511	135.07
290.968	182.16
291.425	222.34
291.882	243.65
292.339	225.92
292.796	203.69
293.252	178.11
293.709	160.04
294.166	149.25
294.623	126.17
295.079	108.83
295.536	127.17
295.992	100.91
296.449	93.98
296.905	109.77
297.362	134.4
297.818	136.66
298.274	150.57
298.731	145.73
299.187	141.66
299.643	155.22
300.099	196.33
300.555	208.39
301.011	191.81
301.467	222.99
301.923	210.68
302.379	188.32
302.835	192.69
303.291	176.04
303.746	194.97
304.202	229.73
304.658	218.29
305.113	143.64
305.569	159.58
306.024	124.63
306.479	84.61
306.935	89.64
307.39	76.15
307.845	75.53
308.301	100.78
308.756	96.25
309.211	95.92
309.666	101.78
310.121	151.97
310.576	120.44
311.031	126.76
311.486	123.18
311.94	83.88
312.395	109.89
312.85	70.74
313.305	-303.67
313.759	169.6
314.214	11.59
314.668	118.73
315.123	159.4
315.577	110.81
316.032	109.31
316.486	156.02
316.94	141.08
317.394	110.91
317.849	102.38
318.303	98.35
318.757	112.75
319.211	130.98
319.665	106.72
320.119	109.39
320.572	111.02
321.026	133.54
321.48	110.37
321.934	117.94
322.387	118.68
322.841	143.93
323.295	159.76
323.748	125.91
324.202	128.27
324.655	158.4
325.108	234.58
325.562	226.07
326.015	233.27
326.468	192.53
326.921	220.53
327.374	225.18
327.827	254.88
328.28	252.36
328.733	209.83
329.186	183.17
329.639	181.49
330.092	141.26
330.545	123.41
330.997	132.83
331.45	152.06
331.903	198.61
332.355	289.72
332.808	263.44
333.26	220.99
333.713	225.58
334.165	201.93
334.617	212.97
335.069	139.78
335.522	235.09
335.974	203.39
336.426	156.79
336.878	55.47
337.33	39.89
337.782	26.94
338.234	49.85
338.686	8.97
339.137	17.97
339.589	43.63
340.041	71.48
340.493	65.94
340.944	85.62
341.396	76.28
341.847	90.08
342.299	126.23
342.75	189.67
343.201	156.36
343.653	188.46
344.104	218.01
344.555	147.39
345.006	143.03
345.457	154.17
345.908	96.16
346.359	118.98
346.81	82.63
347.261	66.31
347.712	34.08
348.163	11.48
348.613	75.69
349.064	72.46
349.515	86.79
349.965	99.87
350.416	90.24
350.866	96.47
351.317	87.28
351.767	135.37
352.217	203.73
352.668	223.29
353.118	198.07
353.568	100.6
354.018	110.24
354.468	99.82
354.918	99.04
355.368	99.45
355.818	161.79
356.268	342.58
356.718	1593.85
357.168	369.82
357.617	150.43
358.067	205.9
358.517	182.31
358.966	251.44
359.416	359.76
359.865	335.29
360.315	346.35
360.764	185.66
361.213	106.91
361.663	87.31
362.112	82.25
362.561	119.79
363.01	93.83
363.459	84.84
363.908	57.47
364.357	80.82
364.806	122.66
365.255	77.35
365.703	85.92
366.152	108.06
366.601	102.45
367.05	95.21
367.498	94.06
367.947	82.77
368.395	72.01
368.844	69.12
369.292	31.83
369.74	31.59
370.189	34.52
370.637	28.68
371.085	19.32
371.533	8.8
371.981	5.1
372.429	28.88
372.877	42.87
373.325	48.26
373.773	35.5
374.221	38.81
374.669	45.8
375.116	32.97
375.564	32.05
376.012	32.87
376.459	30.59
376.907	38.4
377.354	22.12
377.801	40.5
378.249	61.97
378.696	75.31
379.143	113.25
379.591	120.7
380.038	246.17
380.485	219
380.932	283.81
381.379	363.16
381.826	317.04
382.273	231.34
382.72	189.34
383.166	203.75
383.613	163.07
384.06	139.7
384.506	143.22
384.953	97.4
385.4	94.71
385.846	75.68
386.292	45.38
386.739	33.55
387.185	19.67
387.631	24.04
388.078	32.83
388.524	21.47
388.97	20.58
389.416	19.49
389.862	32.25
390.308	23.06
390.754	27.36
391.2	34.03
391.645	30.9
392.091	60.25
392.537	57.59
392.983	38.01
393.428	60.9
393.874	56.83
394.319	74.7
394.765	84.11
395.21	83.24
395.655	78.5
396.101	73.79
396.546	71.95
396.991	51.41
397.436	45.94
397.881	46.51
398.326	30.74
398.771	40.48
399.216	34.87
399.661	25.17
400.106	31.06
400.551	33.94
400.995	35.39
401.44	35.42
401.885	36.14
402.329	36.74
402.774	39.26
403.218	47.94
403.663	41.75
404.107	39.49
404.551	41.23
404.995	36.67
405.44	35.52
405.884	31.9
406.328	24.32
406.772	21.16
407.216	19.45
407.66	14.62
408.104	7.01
408.547	7.44
408.991	9.29
409.435	9.53
409.879	11.12
410.322	13.53
410.766	15.66
411.209	20.5
411.653	21.83
412.096	25.11
412.54	23.23
412.983	23.79
413.426	27.34
413.869	23.16
414.312	25.49
414.756	21.89
415.199	19.01
415.642	19.52
416.085	19.72
416.527	18.55
416.97	15.29
417.413	17.8
417.856	13.63
418.298	11.56
418.741	11.69
419.184	7.55
419.626	4.49
420.069	2.05
420.511	0.86
420.953	3.54
421.396	3.81
421.838	4.75
422.28	5.89
422.722	10.2
423.164	9.39
423.606	9.17
424.048	7.74
424.49	8.91
424.932	10.32
425.374	8.41
425.816	4.89
426.258	4.53
426.699	5.07
427.141	6.35
427.582	4.2
428.024	1.81
428.465	2.32
428.907	4.5
429.348	6.09
429.789	5.78
430.231	8.17
430.672	8.47
431.113	7.41
431.554	6.35
431.995	2.71
432.436	3.56
432.877	6.26
433.318	8.52
433.759	6.73
434.2	6.76
434.64	6.06
435.081	6.36
435.522	7.77
435.962	8.74
436.403	10.01
436.843	7.7
437.284	7.37
437.724	4.67
438.164	1.36
438.604	2.17
439.045	4.52
439.485	6.28
439.925	5.79
440.365	3.94
440.805	3.95
441.245	4.94
441.685	8.26
442.125	8.07
442.564	9.28
443.004	11.22
443.444	10.51
443.883	10.9
444.323	9.15
444.762	6.52
445.202	6.36
445.641	7.53
446.081	3.46
446.52	2.27
446.959	2.63
447.398	3.82
447.837	2.05
448.276	2.64
448.716	2.6
449.154	0.69
449.593	2.99
450.032	3.3
450.471	1.07
450.91	2.07
451.349	3.34
451.787	3.2
452.226	1.64
452.664	2.78
453.103	2.99
453.541	0.85
453.98	4.91
454.418	4.99
454.856	6.37
455.295	7.81
455.733	8.59
456.171	7.85
456.609	7.71
457.047	8.79
457.485	10.84
457.923	11.12
458.361	11.02
458.798	9.21
459.236	9.2
459.674	8.49
460.111	8.26
460.549	7.57
460.987	6.02
461.424	6.2
461.862	6.15
462.299	5.38
462.736	6.45
463.173	6.74
463.611	8.94
464.048	8.57
464.485	8.73
464.922	8.85
465.359	8.66
465.796	15.19
466.233	15.96
466.67	18.31
467.106	18.97
467.543	17.41
467.98	17.16
468.416	15.36
468.853	14.22
469.29	13.01
469.726	11.9
470.162	12.38
470.599	7.76
471.035	6.38
471.471	5.25
471.907	2.84
472.344	2.82
472.78	3.51
473.216	2.86
473.652	3.49
474.088	3.9
474.523	4.78
474.959	4.11
475.395	3.01
475.831	3.39
476.266	1.9
476.702	1.74
477.138	2.24
477.573	2.05
478.008	2.61
478.444	3.89
478.879	4.68
479.314	5.08
479.75	5.57
480.185	6.35
480.62	6.22
481.055	6.54
481.49	7.55
481.925	7.37
482.36	8.24
482.795	7.98
483.229	6.78
483.664	5.9
484.099	5.83
484.534	6.23
484.968	6.42
485.403	5.8
485.837	5.45
486.271	5.36
486.706	5.7
487.14	4.97
487.574	5.18
488.009	5.07
488.443	5.34
488.877	5.16
489.311	4.55
489.745	4.76
490.179	5.13
490.613	6.5
491.046	5.83
491.48	5.67
491.914	5.74
492.348	5.14
492.781	5.29
493.215	5.33
493.648	4.36
494.082	4.54
494.515	4.79
494.948	5.51
495.382	4.21
495.815	4.8
496.248	4.84
496.681	4.29
497.114	4.45
497.547	4.97
497.98	5.1
498.413	6.81
498.846	6.83
499.279	6.68
499.711	6.04
500.144	5.79
500.577	6.29
501.009	6.1
501.442	7.17
501.874	7.9
502.306	7.53
502.739	8.82
503.171	8.82
503.603	8.7
504.036	8.15
504.468	8.69
504.9	9.37
505.332	9.05
505.764	9.34
506.196	8.79
506.627	8.49
507.059	8.74
507.491	7.42
507.923	7.36
508.354	7.8
508.786	8.2
509.217	7.88
509.649	7.95
510.08	7.79
510.512	8.27
510.943	8.56
511.374	9.17
511.805	8.7
512.237	8.67
512.668	7.78
513.099	7.29
513.53	6.97
513.961	7.52
514.391	7.29
514.822	8.62
515.253	8.39
515.684	8.14
516.114	7.55
516.545	8.07
516.975	7.88
517.406	8.03
517.836	8.15
518.267	8.51
518.697	9.08
519.127	9.36
519.558	8.31
519.988	7.76
520.418	7.22
520.848	7.12
521.278	7.02
521.708	21.38
522.138	21.8
522.567	21.34
522.997	21.1
523.427	20.23
523.857	20.36
524.286	20.45
524.716	21.1
525.145	21.9
525.575	22.8
526.004	22.7
526.433	9.38
526.863	9
527.292	10.13
527.721	10.87
528.15	11.05
528.579	11.32
529.008	11.14
529.437	10.49
529.866	10.3
530.295	9.51
530.724	10.2
531.152	9.88
531.581	11.13
532.01	11.33
532.438	10.8
532.867	10.65
533.295	10.55
533.723	11.01
534.152	11.69
534.58	12.01
535.008	12.2
535.436	12.65
535.865	12.5
536.293	11.14
536.721	10.91
537.149	11.06
537.576	11.97
538.004	12.57
538.432	12.3
538.86	12.22
539.287	11.78
539.715	12.03
540.143	11.31
540.57	11.55
540.998	12.06
541.425	13.37
541.852	13.46
542.28	13.41
542.707	13
543.134	13.18
543.561	13.47
543.988	13.72
544.415	13.9
544.842	13.75
545.269	13.96
545.696	14.27
546.123	13.66
546.549	14.13
546.976	13.84
547.403	13.54
547.829	13.13
548.256	12.67
548.682	12.89
549.108	12.43
549.535	12.38
549.961	11.94
550.387	11.88
550.813	12.27
551.24	12.62
551.666	12.2
552.092	12.44
552.518	12.57
552.943	13
553.369	12.42
553.795	12.67
554.221	13.12
554.646	13.46
555.072	13.95
555.498	12.89
555.923	12.01
556.349	11.78
556.774	11.75
557.199	11.77
557.625	11.43
558.05	11.97
558.475	11.62
558.9	11.09
559.325	11.42
559.75	11.51
560.175	11.25
560.6	10.45
561.025	10.26
561.449	10.05
561.874	9.79
562.299	9.61
562.723	9.51
563.148	9.6
563.572	9.72
563.997	9.18
564.421	7.82
564.846	7.84
565.27	8.25
565.694	8.64
566.118	8.69
566.542	9.66
566.966	10.41
567.39	10.24
567.814	10.2
568.238	9.93
568.662	9.86
569.086	10.64
569.509	10.49
569.933	11.57
570.357	11.61
570.78	11.49
571.204	11.81
571.627	11.27
572.05	11.36
572.474	12.25
572.897	12.55
573.32	13.12
573.743	12.56
574.166	12.66
574.589	11.67
575.012	11.78
575.435	10.91
575.858	10.67
576.281	10.95
576.704	11.1
577.126	9.98
577.549	10.03
577.972	8.99
578.394	8.93
578.817	10.32
579.239	10.44
579.661	9.92
580.084	11.46
580.506	11.16
580.928	10.93
581.35	10.5
581.772	10.69
582.194	10.44
582.616	10.79
583.038	10.68
583.46	9.65
583.882	9.7
584.303	9.11
584.725	7.98
585.147	10.38
585.568	10.44
585.99	10.81
586.411	11.34
586.833	11.31
587.254	11.18
587.675	11.46
588.096	10.97
588.518	10.55
588.939	11.66
589.36	11.78
589.781	8.27
590.202	9.62
590.623	9.52
591.043	8.71
591.464	8.92
591.885	9.2
592.305	8.94
592.726	8.93
593.147	9.19
593.567	9.21
593.987	8.75
594.408	8.98
594.828	7.39
595.248	7.63
595.669	8.42
596.089	8.37
596.509	7.71
596.929	7.83
597.349	7.9
597.769	7.98
598.189	7.75
598.608	8.34
599.028	7.8
599.448	7.23
599.867	6.88
600.287	6.03
600.706	6.68
601.126	7
601.545	7.39
601.965	7.1
602.384	6.82
602.803	6.78
603.222	6.78
603.641	6.76
604.061	7.4
604.48	7.25
604.898	7.41
605.317	6.29
605.736	6.13
606.155	5.97
606.574	6.17
606.992	6.39
607.411	6.48
607.829	5.93
608.248	5.55
608.666	5.09
609.085	5.5
609.503	5.11
609.921	5.57
610.339	6.13
610.758	5.45
611.176	5.32
611.594	5.62
612.012	6
612.43	6.39
612.847	7.35
613.265	8.24
613.683	8.39
614.101	9.18
614.518	9.26
614.936	9.04
615.353	10.06
615.771	10.41
616.188	9.74
616.606	9.32
617.023	9.8
617.44	9.45
617.857	8.01
618.274	7.09
618.691	6.93
619.108	6.92
619.525	6.39
619.942	5.71
620.359	5.32
620.776	5.42
621.192	5.85
621.609	6.33
622.026	6.44
622.442	7.09
622.859	7.03
623.275	6.33
623.691	6.12
624.108	6.77
624.524	6.95
624.94	7.33
625.356	7.21
625.772	6.53
626.188	5.01
626.604	5.3
627.02	5.31
627.436	5.85
627.852	7.34
628.268	7.09
628.683	6.64
629.099	6.85
629.514	6.73
629.93	7.29
630.345	7.12
630.761	7.06
631.176	7.36
631.591	7.96
632.007	8.08
632.422	7.26
632.837	7.03
633.252	7.5
633.667	7.56
634.082	7.57
634.497	7.76
634.911	9.33
635.326	10.51
635.741	10
636.155	9.2
636.57	9.7
636.984	9.46
637.399	10.29
637.813	9.56
638.228	8.92
638.642	8.8
639.056	8.72
639.47	7.57
639.884	7.5
640.298	7.79
640.712	8.72
641.126	8.59
641.54	7.8
641.954	6.46
642.368	7.04
642.781	8.86
643.195	8.6
643.609	8.24
644.022	8.35
644.436	7.59
644.849	6.86
645.262	6.17
645.676	4.98
646.089	5.48
646.502	6.95
646.915	6.38
647.328	4.85
647.741	5.7
648.154	5.8
648.567	7.19
648.98	7.47
649.393	7.66
649.805	7.5
650.218	8.05
650.631	8.49
651.043	7.26
651.456	7.48
651.868	7.98
652.28	7.21
652.693	7
653.105	5.77
653.517	5.95
653.929	5.71
654.341	6.15
654.753	6.11
655.165	6.29
655.577	7.54
655.989	7.01
656.401	6.62
656.813	7.27
657.224	7.3
657.636	6.29
658.047	6.86
658.459	7.06
658.87	5.63
659.282	5.47
659.693	5.71
660.104	5.37
660.515	5.8
660.926	5.16
661.338	5.12
661.749	4.78
662.159	6.26
662.57	5.09
662.981	4.52
663.392	4.78
663.803	4.16
664.213	4.51
664.624	4.73
665.035	3.55
665.445	3.57
665.855	4.32
666.266	4.69
666.676	3.67
667.086	3.33
667.497	4.52
667.907	5.94
668.317	6.45
668.727	8.51
669.137	7.2
669.547	7.96
669.956	7.68
670.366	6.85
670.776	6.97
671.186	7.12
671.595	7.67
672.005	6.64
672.414	7.09
672.824	7.99
673.233	5.14
673.642	6.27
674.052	6.83
674.461	7.35
674.87	6.62
675.279	7.46
675.688	5.84
676.097	6.63
676.506	7.23
676.915	5.57
677.323	5.5
677.732	5.93
678.141	5.28
678.549	5.14
678.958	4.18
679.366	4.24
679.775	3.24
680.183	5.66
680.592	4.88
681	5.55
681.408	6.11
681.816	5.67
682.224	5.23
682.632	6.63
683.04	6.67
683.448	7.69
683.856	8.69
684.264	9.28
684.671	7.45
685.079	7.26
685.487	5.87
685.894	5.3
686.302	4.62
686.709	5.51
687.116	4.63
687.524	4.9
687.931	6.18
688.338	6.14
688.745	5.27
689.152	5.87
689.559	6.79
689.966	9.19
690.373	9.8
690.78	11.16
691.187	10.86
691.593	11.86
692	11.57
692.407	10.8
692.813	12.03
693.22	12.45
693.626	12.21
694.032	11.79
694.439	10.97
694.845	11.98
695.251	11.02
695.657	11.7
696.063	10.75
696.469	11.17
696.875	11.82
697.281	11.27
697.687	10.69
698.093	11.03
698.498	12.59
698.904	11.43
699.31	10.63
699.715	11.82
700.12	11.62
700.526	12.11
700.931	11.8
701.337	12.65
701.742	13.1
702.147	14.6
702.552	15.23
702.957	13.57
703.362	14.61
703.767	14.68
704.172	14.26
704.577	13.99
704.981	13.7
705.386	14.52
705.791	13.74
706.195	12.78
706.6	11.83
707.004	11.57
707.408	11.16
707.813	12.17
708.217	13.28
708.621	13.62
709.025	13.03
709.43	14.31
709.834	14.12
710.237	13.46
710.641	13.99
711.045	14.77
711.449	15.9
711.853	19.43
712.256	18.79
712.66	18.19
713.064	18.46
713.467	19.88
713.87	19.45
714.274	20.27
714.677	22.65
715.08	22.67
715.484	23.13
715.887	24.07
716.29	20.98
716.693	21.57
717.096	21.95
717.499	22.03
717.901	22.11
718.304	22.11
718.707	20.95
719.109	19.52
719.512	18.36
719.915	20.91
720.317	19.66
720.719	20.01
721.122	19.04
721.524	20.37
721.926	23.38
722.328	22.83
722.731	22.86
723.133	22.8
723.535	22.35
723.937	23.41
724.338	23.09
724.74	24.7
725.142	57.62
725.544	61.68
725.945	68.87
726.347	65.51
726.748	66.39
727.15	67.32
727.551	69.71
727.952	69.79
728.354	69.7
728.755	68.4
729.156	67.38
729.557	35.47
729.958	31.58
730.359	24.1
730.76	24.6
731.161	23.45
731.562	22.72
731.962	21.53
732.363	21.09
732.763	20.99
733.164	19.08
733.564	19.05
733.965	20.18
734.365	20.36
734.766	20.59
735.166	20.26
735.566	22.09
735.966	22.18
736.366	22.42
736.766	22.59
737.166	22.3
737.566	23.23
737.966	23.05
738.365	22.91
738.765	23.47
739.165	22.46
739.564	22.75
739.964	20.97
740.363	20.03
740.763	18.45
741.162	19.75
741.561	20.74
741.96	21
742.36	20.45
742.759	20.4
743.158	19.33
743.557	19.83
743.955	18.95
744.354	18.68
744.753	18.26
745.152	19.09
745.55	17.09
745.949	15.93
746.348	16.44
746.746	15.41
747.144	16.37
747.543	17.05
747.941	15.91
748.339	16.71
748.737	17.49
749.136	19
749.534	18.18
749.932	20.27
750.33	20.33
750.727	19.14
751.125	20.56
751.523	19.86
751.921	21.53
752.318	23.08
752.716	24.08
753.113	24.26
753.511	23.63
753.908	25.02
754.305	26.87
754.703	26.86
755.1	27.7
755.497	27.12
755.894	26.63
756.291	24.76
756.688	24.34
757.085	23.23
757.482	24.2
757.878	26.23
758.275	27.25
758.672	22.26
759.068	23.22
759.465	23.48
759.861	23.88
760.258	23.34
760.654	26.32
761.05	31.33
761.447	29.93
761.843	28.1
762.239	26.5
762.635	22.53
763.031	23.93
763.427	24.22
763.822	25.34
764.218	24.37
764.614	24.73
765.01	21.44
765.405	18.6
765.801	19.84
766.196	18.71
766.592	17.64
766.987	18.48
