Data from N_1_HIR_IL_4N_Splice17_11-27-02-846.txt Node
Date: Sat Mar 14 11:27:02 EDT 2020
User: sa697716
Spectrometer: FLMS03696
Trigger mode: 0
Integration Time (sec): 3.180400E-1
Scans to average: 20
Electric dark correction enabled: true
Nonlinearity correction enabled: true
Boxcar width: 5
XAxis mode: Wavelengths
Number of Pixels in Spectrum: 2048
>>>>>Begin Spectral Data<<<<<
187.83	-101354.08
188.298	657.13
188.766	427.23
189.233	342.28
189.701	466.75
190.169	583.17
190.636	177.5
191.104	88.42
191.571	-61.41
192.039	-114.8
192.506	-110.49
192.974	296.18
193.441	-854.31
193.908	-375.2
194.375	-105.37
194.842	-72.88
195.31	-99.15
195.777	77.91
196.244	176.23
196.711	160.5
197.177	179.71
197.644	213.49
198.111	357.07
198.578	486.28
199.045	364.7
199.511	534.02
199.978	573.31
200.445	479.65
200.911	510.65
201.378	538.3
201.844	514
202.31	818.15
202.777	842.77
203.243	473.21
203.709	482.54
204.176	600.76
204.642	495.86
205.108	470.88
205.574	405.39
206.04	343.61
206.506	320.85
206.972	293.56
207.438	284.41
207.903	330.06
208.369	308.83
208.835	297.11
209.301	303.07
209.766	293.48
210.232	281.93
210.697	328.29
211.163	372.79
211.628	536.02
212.094	440.92
212.559	632.42
213.024	388.97
213.49	478.76
213.955	455.03
214.42	415.22
214.885	396.27
215.35	393.63
215.815	414.41
216.28	463.11
216.745	355.48
217.21	373.5
217.675	292.18
218.14	308.3
218.604	293.46
219.069	318.26
219.534	339.92
219.998	356.18
220.463	384.69
220.927	369.94
221.392	319.04
221.856	327.59
222.32	334.94
222.785	394.41
223.249	449.4
223.713	472.84
224.177	440.7
224.642	472.31
225.106	526.36
225.57	550.55
226.034	413.98
226.497	595.44
226.961	534.89
227.425	659.2
227.889	679.93
228.353	650.42
228.816	1272.32
229.28	1237.11
229.744	1025.76
230.207	706.27
230.671	672.96
231.134	1023.1
231.597	1193.26
232.061	1094.39
232.524	1022.14
232.987	730.45
233.45	661.76
233.914	569.83
234.377	522.61
234.84	468.88
235.303	462.5
235.766	504.19
236.229	575.17
236.691	342.4
237.154	355.18
237.617	279.39
238.08	249.24
238.542	274.26
239.005	212.29
239.468	218.87
239.93	207.2
240.393	206.28
240.855	184.65
241.317	152.7
241.78	154.29
242.242	173.81
242.704	212.61
243.166	202.86
243.629	210.91
244.091	239.24
244.553	262.92
245.015	295.88
245.477	368.58
245.939	504.71
246.4	586.69
246.862	565.11
247.324	530.56
247.786	535
248.247	651.45
248.709	564.35
249.17	427.08
249.632	467.62
250.093	575.27
250.555	478.48
251.016	323.69
251.477	310.35
251.939	354.87
252.4	361.83
252.861	412.67
253.322	411.99
253.783	462.08
254.244	592.23
254.705	417.92
255.166	321.03
255.627	315.89
256.088	444.55
256.549	437.15
257.009	367.71
257.47	416.48
257.931	331.99
258.391	255.64
258.852	261.32
259.312	273.61
259.773	306.73
260.233	322.92
260.694	301.7
261.154	314.74
261.614	303.81
262.074	268.9
262.534	304.7
262.994	304.36
263.455	375.28
263.915	324.11
264.374	293.87
264.834	314.03
265.294	304.26
265.754	302.29
266.214	277.91
266.673	232.67
267.133	273.62
267.593	237.13
268.052	267.82
268.512	230.56
268.971	329.91
269.431	356.6
269.89	339.35
270.349	510.87
270.809	567.88
271.268	556
271.727	1174.55
272.186	791.57
272.645	622.39
273.104	428.81
273.563	585.25
274.022	399.84
274.481	370.71
274.94	287.19
275.399	226.38
275.857	239.7
276.316	305.17
276.775	287.97
277.233	286.91
277.692	282.9
278.15	330.65
278.609	394.58
279.067	363.07
279.525	362.2
279.984	439.68
280.442	513.4
280.9	577.85
281.358	365.98
281.816	355.11
282.274	341.29
282.732	320.01
283.19	327.56
283.648	257.21
284.106	277.55
284.564	267.18
285.021	285.47
285.479	199.14
285.937	160.06
286.394	165.25
286.852	144.61
287.309	155.79
287.767	199.16
288.224	197.78
288.682	211.42
289.139	245.98
289.596	231.8
290.053	210.51
290.511	263.48
290.968	330.3
291.425	411.96
291.882	414.13
292.339	370.35
292.796	321.14
293.252	302.71
293.709	279.58
294.166	257.94
294.623	273.47
295.079	263.67
295.536	268.61
295.992	254.17
296.449	245.56
296.905	256.74
297.362	267.49
297.818	273.12
298.274	286.57
298.731	271.6
299.187	255.75
299.643	261.46
300.099	324.84
300.555	370.59
301.011	329.59
301.467	373.96
301.923	401.04
302.379	392.19
302.835	390.61
303.291	393.74
303.746	445.99
304.202	548.2
304.658	556.67
305.113	382.04
305.569	365.7
306.024	351.69
306.479	264.85
306.935	251.63
307.39	244.77
307.845	232.05
308.301	246.87
308.756	231.49
309.211	250.32
309.666	261.47
310.121	346.24
310.576	327.36
311.031	309.55
311.486	367.66
311.94	308.7
312.395	408.12
312.85	758.18
313.305	2900.09
313.759	19514.72
314.214	1384.48
314.668	1133.22
315.123	1086.77
315.577	464.85
316.032	448.89
316.486	567.6
316.94	495.09
317.394	353.29
317.849	278.23
318.303	262.81
318.757	255.5
319.211	284.24
319.665	255.41
320.119	241.6
320.572	307.43
321.026	303.41
321.48	252.2
321.934	251.58
322.387	243.5
322.841	283.76
323.295	294.32
323.748	277.05
324.202	262.49
324.655	318.9
325.108	480.07
325.562	377.96
326.015	405.41
326.468	305.64
326.921	352.69
327.374	370.32
327.827	373.32
328.28	410.65
328.733	303.69
329.186	291.07
329.639	259.38
330.092	203.34
330.545	205.08
330.997	220.01
331.45	269.2
331.903	330.78
332.355	476.09
332.808	450.01
333.26	383.02
333.713	459.04
334.165	452.62
334.617	597.26
335.069	468.6
335.522	750.54
335.974	852.34
336.426	681.19
336.878	406.51
337.33	274.84
337.782	250.55
338.234	320.57
338.686	329.66
339.137	387.81
339.589	368.69
340.041	320.89
340.493	255.41
340.944	258.2
341.396	297.27
341.847	293.06
342.299	349.31
342.75	500.32
343.201	384.57
343.653	415.4
344.104	486.79
344.555	413.03
345.006	567.32
345.457	547.02
345.908	437.84
346.359	418.26
346.81	328.88
347.261	289.25
347.712	242.2
348.163	272.57
348.613	335.22
349.064	320.51
349.515	267.32
349.965	284.93
350.416	302.1
350.866	282.36
351.317	301.4
351.767	475.14
352.217	667.11
352.668	566.79
353.118	518.34
353.568	395.47
354.018	344.97
354.468	395.51
354.918	296.9
355.368	283.41
355.818	406.33
356.268	1110.23
356.718	5238.55
357.168	1448.04
357.617	728.67
358.067	804.45
358.517	794.09
358.966	952.71
359.416	1165.7
359.865	1243.2
360.315	1360.66
360.764	688.49
361.213	395.4
361.663	315.96
362.112	322.02
362.561	496.72
363.01	385.66
363.459	289.35
363.908	290.08
364.357	256.44
364.806	370.57
365.255	263.42
365.703	268.88
366.152	280.09
366.601	270.74
367.05	254.02
367.498	252.7
367.947	249.95
368.395	268.7
368.844	245.46
369.292	253.69
369.74	198.63
370.189	286.04
370.637	301.07
371.085	266.9
371.533	305.17
371.981	268.83
372.429	277.31
372.877	285.27
373.325	258.97
373.773	225.47
374.221	204.64
374.669	241.37
375.116	212.4
375.564	226.01
376.012	212.86
376.459	197.75
376.907	228.88
377.354	241.91
377.801	265.6
378.249	303.86
378.696	376.72
379.143	483.19
379.591	502.66
380.038	828.35
380.485	603.59
380.932	731.23
381.379	753.5
381.826	640.96
382.273	450.17
382.72	348.48
383.166	352.23
383.613	262.13
384.06	219.05
384.506	251.69
384.953	183.73
385.4	186.18
385.846	165.13
386.292	125.47
386.739	107.32
387.185	97.64
387.631	99.51
388.078	113.62
388.524	114.92
388.97	105.07
389.416	103.47
389.862	123.27
390.308	109.42
390.754	111.91
391.2	132.79
391.645	131.71
392.091	160.7
392.537	164.85
392.983	136.77
393.428	157.01
393.874	173.06
394.319	178.19
394.765	181.87
395.21	179.8
395.655	162.56
396.101	147.89
396.546	137.79
396.991	110.58
397.436	106.71
397.881	102.01
398.326	81.28
398.771	78.54
399.216	63.72
399.661	48.66
400.106	55.02
400.551	62.68
400.995	57.28
401.44	55.64
401.885	59.47
402.329	55.47
402.774	57.3
403.218	68.91
403.663	65.42
404.107	67.36
404.551	74.6
404.995	67.39
405.44	60.99
405.884	59.48
406.328	53.1
406.772	49.04
407.216	48.58
407.66	45.9
408.104	33.65
408.547	32.94
408.991	31.48
409.435	26.52
409.879	29.98
410.322	29.9
410.766	30.18
411.209	33.46
411.653	34.59
412.096	35.44
412.54	33
412.983	32.86
413.426	34.51
413.869	32.8
414.312	34.09
414.756	29.99
415.199	28.59
415.642	31.03
416.085	30.59
416.527	27.87
416.97	26.51
417.413	29.99
417.856	30.22
418.298	28.41
418.741	24.88
419.184	22.69
419.626	20.21
420.069	19.93
420.511	18.33
420.953	20.8
421.396	22.3
421.838	20.18
422.28	17.99
422.722	18.61
423.164	16.21
423.606	19.15
424.048	18.04
424.49	18.91
424.932	17.58
425.374	15.52
425.816	12.04
426.258	12.74
426.699	14.7
427.141	18.68
427.582	17.9
428.024	17.83
428.465	14.48
428.907	14.73
429.348	14.18
429.789	18.49
430.231	21.93
430.672	23.66
431.113	21.23
431.554	19.68
431.995	16.94
432.436	18.44
432.877	18.68
433.318	23.91
433.759	21.5
434.2	22.8
434.64	19.99
435.081	20.19
435.522	18.88
435.962	18.9
436.403	21.44
436.843	20.3
437.284	18.82
437.724	18.7
438.164	14.89
438.604	16.88
439.045	18.1
439.485	19.98
439.925	18.04
440.365	16.3
440.805	15.86
441.245	15.04
441.685	15.16
442.125	13.72
442.564	14.04
443.004	16.03
443.444	15.58
443.883	16.06
444.323	13.96
444.762	10.31
445.202	11.79
445.641	12.89
446.081	11.08
446.52	12.46
446.959	14.39
447.398	15.18
447.837	14.21
448.276	13.18
448.716	14.2
449.154	11.73
449.593	14.58
450.032	14.09
450.471	12.83
450.91	12.58
451.349	12.21
451.787	11.35
452.226	11
452.664	9.92
453.103	10.76
453.541	7.97
453.98	11.04
454.418	11.53
454.856	12.47
455.295	11.72
455.733	12.25
456.171	12.49
456.609	13.37
457.047	13.04
457.485	15.63
457.923	16.89
458.361	16.22
458.798	15.66
459.236	14.48
459.674	13.13
460.111	14.33
460.549	14.44
460.987	11.97
461.424	10.54
461.862	9.57
462.299	8.84
462.736	8.52
463.173	9.67
463.611	12.77
464.048	13.76
464.485	14.16
464.922	13.33
465.359	11.65
465.796	18.86
466.233	19.84
466.67	23.34
467.106	24.86
467.543	22.8
467.98	22.14
468.416	18.91
468.853	17.36
469.29	16.69
469.726	16.37
470.162	17.07
470.599	11.97
471.035	10.42
471.471	7.97
471.907	5.53
472.344	6.33
472.78	6.51
473.216	5.85
473.652	6.23
474.088	5.16
474.523	6.01
474.959	5.45
475.395	4.81
475.831	4.85
476.266	4.96
476.702	4.49
477.138	4.69
477.573	3.86
478.008	4.64
478.444	6.49
478.879	8.47
479.314	8.18
479.75	8.39
480.185	8.52
480.62	8.51
481.055	8.25
481.49	8.57
481.925	8.83
482.36	10.56
482.795	9.41
483.229	7.44
483.664	6.85
484.099	6.83
484.534	7.14
484.968	8.17
485.403	7.95
485.837	7.37
486.271	6.98
486.706	6.03
487.14	4.97
487.574	5.41
488.009	5.85
488.443	4.99
488.877	5.79
489.311	5.1
489.745	5.01
490.179	5.15
490.613	6.96
491.046	7.01
491.48	7.67
491.914	8
492.348	7.93
492.781	8.25
493.215	9.28
493.648	8.28
494.082	8.44
494.515	8.26
494.948	9.01
495.382	6.63
495.815	7.06
496.248	7.07
496.681	6.67
497.114	6.12
497.547	6.04
497.98	6.48
498.413	8
498.846	8.48
499.279	7.72
499.711	6.91
500.144	7.89
500.577	8.63
501.009	8.03
501.442	8.7
501.874	10
502.306	9.69
502.739	11.75
503.171	10.79
503.603	10.64
504.036	10.7
504.468	10.61
504.9	10.34
505.332	9.75
505.764	10.26
506.196	10
506.627	9.53
507.059	9.06
507.491	5.99
507.923	6.21
508.354	6.58
508.786	6.69
509.217	7.03
509.649	7.47
510.08	6.81
510.512	7.32
510.943	7.25
511.374	7.4
511.805	7.3
512.237	7.29
512.668	6.47
513.099	5.4
513.53	5.18
513.961	5.45
514.391	5.08
514.822	6.51
515.253	6.48
515.684	6.17
516.114	6.24
516.545	7.26
516.975	7.51
517.406	7.46
517.836	7.22
518.267	7.35
518.697	8.12
519.127	8.44
519.558	7.54
519.988	7.12
520.418	6.8
520.848	6.17
521.278	5.24
521.708	32.13
522.138	33.19
522.567	33.09
522.997	32.89
523.427	32.21
523.857	31.74
524.286	31.77
524.716	31.74
525.145	32.23
525.575	32.68
526.004	32.51
526.433	5.61
526.863	4.3
527.292	5.48
527.721	6.36
528.15	6.41
528.579	6.97
529.008	6.63
529.437	5.83
529.866	5.62
530.295	5.07
530.724	6.3
531.152	6.93
531.581	8.05
532.01	7.92
532.438	7.46
532.867	6.82
533.295	6.89
533.723	6.94
534.152	7.55
534.58	8.09
535.008	8.3
535.436	8.66
535.865	8.08
536.293	7.16
536.721	6.51
537.149	6.12
537.576	6.72
538.004	6.33
538.432	5.93
538.86	6.72
539.287	5.67
539.715	5.88
540.143	4.75
540.57	5.1
540.998	5.39
541.425	7.18
541.852	7.39
542.28	7.26
542.707	7.56
543.134	8.22
543.561	7.48
543.988	7.89
544.415	7.65
544.842	7.53
545.269	7.29
545.696	7.76
546.123	7.01
546.549	7.44
546.976	7.32
547.403	7.41
547.829	6.9
548.256	6.58
548.682	6.55
549.108	7.02
549.535	7.24
549.961	6.99
550.387	6.48
550.813	6.96
551.24	6.77
551.666	6.6
552.092	6.28
552.518	6.36
552.943	7.24
553.369	6.85
553.795	6.69
554.221	6.69
554.646	6.68
555.072	7.53
555.498	6.47
555.923	5.82
556.349	6.13
556.774	5.96
557.199	6.21
557.625	5.68
558.05	6.25
558.475	6.09
558.9	6.01
559.325	6.95
559.75	6.74
560.175	6.57
560.6	6.66
561.025	5.99
561.449	5.72
561.874	4.97
562.299	5.1
562.723	4.68
563.148	4.67
563.572	4.85
563.997	4.73
564.421	3.99
564.846	3.45
565.27	3.8
565.694	4.12
566.118	4.19
566.542	5.46
566.966	5.35
567.39	5.58
567.814	5.87
568.238	5.79
568.662	4.82
569.086	4.69
569.509	4.82
569.933	6.05
570.357	5.91
570.78	5.96
571.204	6.24
571.627	6.23
572.05	5.89
572.474	6.17
572.897	6.05
573.32	6.77
573.743	6.62
574.166	7.4
574.589	6.22
575.012	6.04
575.435	6.01
575.858	5.64
576.281	6.06
576.704	5.97
577.126	4.98
577.549	5.3
577.972	4.57
578.394	5.1
578.817	6.75
579.239	6.18
579.661	6.78
580.084	7.73
580.506	7.63
580.928	7.02
581.35	7.39
581.772	8.02
582.194	7.61
582.616	7.52
583.038	7.02
583.46	4.94
583.882	5.58
584.303	4.66
584.725	3.21
585.147	6.74
585.568	7.14
585.99	7.4
586.411	7.72
586.833	8.19
587.254	8.45
587.675	8.64
588.096	9.31
588.518	8.95
588.939	9.22
589.36	10.09
589.781	5.68
590.202	7.99
590.623	7.57
591.043	6.64
591.464	6.66
591.885	7.56
592.305	6.69
592.726	5.95
593.147	6.36
593.567	6.61
593.987	7.1
594.408	7.07
594.828	4.75
595.248	5.96
595.669	6.71
596.089	6.43
596.509	5.68
596.929	5.84
597.349	6.23
597.769	5.86
598.189	5.95
598.608	4.92
599.028	5.04
599.448	4.61
599.867	3.85
600.287	3.43
600.706	3.47
601.126	3.81
601.545	5.15
601.965	4.98
602.384	4.96
602.803	4.63
603.222	5.12
603.641	5
604.061	5.35
604.48	5.33
604.898	5.01
605.317	5.03
605.736	4.79
606.155	4.63
606.574	4.84
606.992	5.08
607.411	5.43
607.829	5
608.248	4.88
608.666	4.56
609.085	5.42
609.503	5.79
609.921	6.14
610.339	6.19
610.758	5.06
611.176	4.84
611.594	5.27
612.012	5.31
612.43	5.99
612.847	5.94
613.265	6.71
613.683	5.67
614.101	5.8
614.518	5.03
614.936	5.2
615.353	6.37
615.771	7.16
616.188	6.75
616.606	7.01
617.023	7.36
617.44	7.63
617.857	7.01
618.274	6.93
618.691	7.53
619.108	7.94
619.525	8.03
619.942	7.2
620.359	6.96
620.776	7.14
621.192	7.64
621.609	8.03
622.026	8.55
622.442	8.78
622.859	8.77
623.275	7.8
623.691	7.36
624.108	7.18
624.524	7.14
624.94	6.8
625.356	6
625.772	5.68
626.188	5.04
626.604	4.78
627.02	4.31
627.436	4.93
627.852	6.23
628.268	7.06
628.683	6.9
629.099	7.24
629.514	6.82
629.93	7.3
630.345	6.9
630.761	6.33
631.176	6.25
631.591	7.9
632.007	7.7
632.422	6.48
632.837	6.19
633.252	7.37
633.667	7.1
634.082	7.46
634.497	8.44
634.911	10.03
635.326	9.67
635.741	10.2
636.155	9
636.57	9.74
636.984	9.7
637.399	10.4
637.813	9.11
638.228	9.45
638.642	9.33
639.056	8.57
639.47	7.04
639.884	8.09
640.298	7.81
640.712	8.33
641.126	7.77
641.54	7.81
641.954	5.3
642.368	5.91
642.781	7.92
643.195	7.87
643.609	8.21
644.022	8.38
644.436	7.7
644.849	6.69
645.262	6.78
645.676	5.92
646.089	6.35
646.502	9.23
646.915	8.11
647.328	7.09
647.741	7.75
648.154	7.56
648.567	8.98
648.98	9.86
649.393	10.43
649.805	11.04
650.218	11.26
650.631	11.29
651.043	10.52
651.456	12.04
651.868	11.72
652.28	11.06
652.693	10.22
653.105	8.98
653.517	8.94
653.929	9.93
654.341	9.18
654.753	10.06
655.165	9.78
655.577	9.32
655.989	8.6
656.401	7.7
656.813	8.55
657.224	9.22
657.636	9.01
658.047	9.38
658.459	8.39
658.87	6.64
659.282	5.96
659.693	6.45
660.104	6.79
660.515	6.81
660.926	6.5
661.338	5.99
661.749	5.42
662.159	6.38
662.57	4.8
662.981	5.27
663.392	6.32
663.803	6.92
664.213	6.71
664.624	6.57
665.035	5.43
665.445	5.35
665.855	5.59
666.266	6.74
666.676	5.79
667.086	6.54
667.497	6.99
667.907	7.01
668.317	5.91
668.727	8.76
669.137	7.87
669.547	8.53
669.956	8.53
670.366	8.6
670.776	8.27
671.186	8.24
671.595	8.32
672.005	7.88
672.414	8.78
672.824	10.86
673.233	8.39
673.642	9.3
674.052	9.54
674.461	10.81
674.87	11.1
675.279	12.01
675.688	10.6
676.097	12.01
676.506	11.45
676.915	10.73
677.323	10.5
677.732	9.86
678.141	10.31
678.549	10.49
678.958	9.81
679.366	8.09
679.775	7.54
680.183	10.79
680.592	10.41
681	10.91
681.408	11.1
681.816	10.69
682.224	10.46
682.632	11.35
683.04	11.15
683.448	11.68
683.856	13.8
684.264	14.15
684.671	12.43
685.079	10.83
685.487	9.96
685.894	9.79
686.302	8.52
686.709	9.82
687.116	8.9
687.524	10.29
687.931	10.76
688.338	10.19
688.745	9.2
689.152	7.96
689.559	8.91
689.966	10.41
690.373	11.37
690.78	12.57
691.187	12.59
691.593	13.07
692	12.86
692.407	12.29
692.813	14.42
693.22	15.18
693.626	14.98
694.032	15.91
694.439	16.57
694.845	16.06
695.251	15.43
695.657	14.7
696.063	13.44
696.469	13.95
696.875	13.7
697.281	12.31
697.687	11.67
698.093	12.24
698.498	11.44
698.904	9.79
699.31	9.44
699.715	10.95
700.12	11.3
700.526	12.25
700.931	10.29
701.337	10.96
701.742	11.33
702.147	11.41
702.552	13.12
702.957	12.2
703.362	13.38
703.767	13.22
704.172	12.34
704.577	12.02
704.981	11.23
705.386	12.47
705.791	12.7
706.195	10.9
706.6	11.58
707.004	9.27
707.408	9.85
707.813	9.86
708.217	11.07
708.621	10.51
709.025	9.67
709.43	10.89
709.834	10.44
710.237	10.02
710.641	10.28
711.045	10.53
711.449	12.39
711.853	15.1
712.256	14.16
712.66	12.8
713.064	12.56
713.467	14.61
713.87	14.48
714.274	15.7
714.677	16.17
715.08	17.51
715.484	17.58
715.887	19.55
716.29	17.15
716.693	19.34
717.096	20.91
717.499	23.38
717.901	21.79
718.304	20.58
718.707	19.38
719.109	19.29
719.512	18.02
719.915	19.66
720.317	18.38
720.719	17.97
721.122	16.37
721.524	16.36
721.926	19.43
722.328	20.66
722.731	20.26
723.133	20.6
723.535	20.34
723.937	21.45
724.338	22.04
724.74	23.06
725.142	62.49
725.544	66.22
725.945	76.95
726.347	72.78
726.748	71.73
727.15	74.01
727.551	76.35
727.952	74.91
728.354	73.87
728.755	72.26
729.156	70.28
729.557	31.19
729.958	27.02
730.359	16.41
730.76	16.34
731.161	17.1
731.562	14.68
731.962	12.05
732.363	13.21
732.763	13.57
733.164	12.06
733.564	12.11
733.965	13.25
734.365	14.15
734.766	14.82
735.166	14.13
735.566	14.28
735.966	16.24
736.366	16.79
736.766	16.19
737.166	15.08
737.566	15.22
737.966	15.21
738.365	14.75
738.765	15.89
739.165	15.64
739.564	15.86
739.964	14.73
740.363	12.97
740.763	11.61
741.162	12.5
741.561	13.08
741.96	13.64
742.36	12.22
742.759	12.74
743.158	9.62
743.557	8.42
743.955	7.78
744.354	8.14
744.753	7.7
745.152	9.18
745.55	7.8
745.949	7.78
746.348	8.56
746.746	8.55
747.144	11.09
747.543	12.38
747.941	12.66
748.339	13.72
748.737	14.45
749.136	16.03
749.534	14.35
749.932	16.75
750.33	16.99
750.727	15.37
751.125	16.33
751.523	13.84
751.921	16.93
752.318	17.86
752.716	18.53
753.113	18.19
753.511	17.66
753.908	18.59
754.305	21.61
754.703	21.99
755.1	22.72
755.497	22.07
755.894	21.79
756.291	19.93
756.688	20.32
757.085	20.31
757.482	21.88
757.878	24.66
758.275	27.13
758.672	20.57
759.068	21.72
759.465	22.88
759.861	25.2
760.258	26.95
760.654	26.05
761.05	28.54
761.447	24.93
761.843	24.61
762.239	23.73
762.635	20.48
763.031	17.73
