Data from N_1_DEC_CT_2N_Splice17_11-34-27-182.txt Node
Date: Sat Mar 14 11:34:27 EDT 2020
User: sa697716
Spectrometer: FLMS03696
Trigger mode: 0
Integration Time (sec): 3.180400E-1
Scans to average: 20
Electric dark correction enabled: true
Nonlinearity correction enabled: true
Boxcar width: 5
XAxis mode: Wavelengths
Number of Pixels in Spectrum: 2048
>>>>>Begin Spectral Data<<<<<
187.83	-167418.12
188.298	1350.08
188.766	780.68
189.233	672.17
189.701	967.12
190.169	1263.95
190.636	427.29
191.104	293.56
191.571	-11.53
192.039	-61.56
192.506	-58.54
192.974	287.11
193.441	-255.14
193.908	149.9
194.375	79.31
194.842	58.61
195.31	109.33
195.777	119.99
196.244	205.46
196.711	82.13
197.177	96.46
197.644	66.63
198.111	79.52
198.578	81.26
199.045	53.8
199.511	38.51
199.978	46.81
200.445	58.14
200.911	46.49
201.378	-7.35
201.844	71.06
202.31	36.53
202.777	25.57
203.243	26.48
203.709	10.08
204.176	14.93
204.642	12.68
205.108	3.13
205.574	-4.4
206.04	-25.92
206.506	-24.54
206.972	-54.69
207.438	-61.03
207.903	-71.97
208.369	-51.42
208.835	-33.39
209.301	-42.39
209.766	-58.28
210.232	-59.72
210.697	-109.62
211.163	-142.89
211.628	-252.64
212.094	-162.33
212.559	-70.97
213.024	-43.39
213.49	-32.08
213.955	-51.54
214.42	-86.83
214.885	-62.54
215.35	-45.78
215.815	42.57
216.28	35.59
216.745	45.65
217.21	60.6
217.675	2.74
218.14	19.21
218.604	2.99
219.069	14.44
219.534	57.72
219.998	40.3
220.463	50.38
220.927	-8.87
221.392	-1.74
221.856	-3.91
222.32	-51.81
222.785	-39.66
223.249	-63.29
223.713	-83.6
224.177	-79.76
224.642	-180.33
225.106	-216.5
225.57	-268.67
226.034	-164.55
226.497	-229.92
226.961	-145.96
227.425	-85.19
227.889	-94.74
228.353	-82.05
228.816	-227.5
229.28	-170.84
229.744	-87.3
230.207	14.1
230.671	64.74
231.134	0.16
231.597	33.64
232.061	-63.64
232.524	-167.73
232.987	-114.65
233.45	-95.13
233.914	-72.94
234.377	-127.04
234.84	-129.18
235.303	-225.2
235.766	-269.92
236.229	-256.2
236.691	-170.4
237.154	-201.34
237.617	-120.74
238.08	-153.47
238.542	-200.95
239.005	-124.46
239.468	-104.19
239.93	-83.91
240.393	-58.15
240.855	-52.15
241.317	-76.93
241.78	-115.51
242.242	-104.47
242.704	-91.82
243.166	-54.46
243.629	-14.47
244.091	-24.08
244.553	-23.44
245.015	-10.26
245.477	-20.12
245.939	-57.44
246.4	-11.03
246.862	-9.21
247.324	-6.94
247.786	-24.86
248.247	-75.74
248.709	-239.11
249.17	-150.13
249.632	-83.11
250.093	-60.24
250.555	-40.6
251.016	23.01
251.477	17.74
251.939	30.18
252.4	10.29
252.861	-35.3
253.322	-13.56
253.783	-5.01
254.244	-56.44
254.705	-96.48
255.166	-133.3
255.627	-149.71
256.088	-218.45
256.549	-224.17
257.009	-185.32
257.47	-228.24
257.931	-177.01
258.391	-105.87
258.852	-122.23
259.312	-110.1
259.773	-137.09
260.233	-64.78
260.694	-15.89
261.154	-23.04
261.614	28.82
262.074	15.61
262.534	40
262.994	47.5
263.455	36.9
263.915	68.17
264.374	60.14
264.834	83.06
265.294	57.62
265.754	56.09
266.214	37.18
266.673	27.06
267.133	21.91
267.593	-0.82
268.052	-6.87
268.512	-17.8
268.971	21.07
269.431	18.01
269.89	-19
270.349	-4.6
270.809	7.95
271.268	7.74
271.727	-218.63
272.186	-116.59
272.645	-63.38
273.104	-94.26
273.563	-138.06
274.022	-214.26
274.481	-120.89
274.94	-74.39
275.399	-75.59
275.857	-133.99
276.316	-204.76
276.775	-160.02
277.233	-162.54
277.692	-143.75
278.15	-140.67
278.609	-110.88
279.067	-84.94
279.525	-83.36
279.984	-148.23
280.442	-158.92
280.9	-49.96
281.358	-19.25
281.816	-6.89
282.274	-5
282.732	-51.85
283.19	-53.34
283.648	-62.32
284.106	-87.34
284.564	-110.63
285.021	-77.54
285.479	-71.09
285.937	-96.65
286.394	-70.4
286.852	-89.35
287.309	-101.17
287.767	-46.54
288.224	-34.2
288.682	-50.33
289.139	-29.5
289.596	-18.55
290.053	-44
290.511	-64.25
290.968	-65.45
291.425	-134.32
291.882	-73.06
292.339	-32.01
292.796	-82.77
293.252	-84.25
293.709	-34.56
294.166	-35
294.623	-58.76
295.079	-49.07
295.536	-18.03
295.992	-8.01
296.449	6
296.905	15.24
297.362	26.62
297.818	23.54
298.274	32.6
298.731	19.09
299.187	2.5
299.643	7.15
300.099	18.01
300.555	-4.38
301.011	12.3
301.467	76.69
301.923	57.08
302.379	64.55
302.835	53.41
303.291	49.39
303.746	36.96
304.202	44.67
304.658	32.73
305.113	21.01
305.569	32.44
306.024	1.5
306.479	-85.43
306.935	-54.67
307.39	-93.27
307.845	-79.21
308.301	-57.33
308.756	-49.63
309.211	-32.36
309.666	-20.11
310.121	9.84
310.576	-17.64
311.031	-61.25
311.486	-91.11
311.94	-118.52
312.395	-196.85
312.85	-406.88
313.305	-3085.79
313.759	-12059.31
314.214	-911.49
314.668	-831.09
315.123	-700.76
315.577	-187.23
316.032	-111.28
316.486	-135.54
316.94	-59.5
317.394	-12.85
317.849	20.07
318.303	37.45
318.757	34.53
319.211	36.61
319.665	41.55
320.119	42.75
320.572	27.32
321.026	48.79
321.48	42.18
321.934	15.45
322.387	12.11
322.841	8.89
323.295	42.82
323.748	-12.26
324.202	-3.84
324.655	13.57
325.108	70.44
325.562	71.46
326.015	60.9
326.468	42.42
326.921	61.12
327.374	93.5
327.827	91.65
328.28	68.55
328.733	105.99
329.186	97.52
329.639	90.64
330.092	53.81
330.545	52.19
330.997	59.92
331.45	94.12
331.903	122.22
332.355	120.8
332.808	94.53
333.26	78.58
333.713	46.06
334.165	29.2
334.617	-22.95
335.069	-66.17
335.522	-203.23
335.974	-311.71
336.426	-395.45
336.878	-323.66
337.33	-124.19
337.782	-118.24
338.234	-139.39
338.686	-183.81
339.137	-223.78
339.589	-179.99
340.041	-119.3
340.493	-103.1
340.944	-79.56
341.396	-50.7
341.847	-4.09
342.299	10.81
342.75	47.76
343.201	13.5
343.653	16.53
344.104	-2.96
344.555	-19.59
345.006	-93.35
345.457	39.31
345.908	21.9
346.359	39.07
346.81	35.97
347.261	9.64
347.712	-10.44
348.163	-28.12
348.613	23.37
349.064	39.03
349.515	46.02
349.965	64.77
350.416	35.46
350.866	13.72
351.317	-20.3
351.767	-98.45
352.217	-107.59
352.668	-88.88
353.118	-49.03
353.568	-174.5
354.018	-104.67
354.468	-61.26
354.918	-11.81
355.368	-25.13
355.818	-3.99
356.268	-188.6
356.718	-127.29
357.168	29.27
357.617	1.41
358.067	-35.63
358.517	-11.34
358.966	-30.45
359.416	23.82
359.865	-31.94
360.315	-86.01
360.764	-55.01
361.213	2.19
361.663	-72.47
362.112	-143.72
362.561	-224.74
363.01	-165.53
363.459	-122.66
363.908	-146.2
364.357	-123.85
364.806	-277.25
365.255	-172.07
365.703	-151.2
366.152	-121.07
366.601	-63.08
367.05	-7.58
367.498	-2.52
367.947	-10.21
368.395	-30.78
368.844	-25.04
369.292	-86.38
369.74	-36.61
370.189	-107.04
370.637	-150.16
371.085	-155.6
371.533	-180.3
371.981	-221.75
372.429	-160.99
372.877	-135.63
373.325	-85.2
373.773	-103.71
374.221	-97.67
374.669	-127.33
375.116	-66.45
375.564	-42.91
376.012	-65.39
376.459	-47.42
376.907	-47.75
377.354	-133.29
377.801	-131.86
378.249	-140.39
378.696	-202.53
379.143	-210.39
379.591	-223.54
380.038	-425.49
380.485	-280.78
380.932	-264.89
381.379	-218.61
381.826	-76.34
382.273	-27.63
382.72	-14.96
383.166	-0.95
383.613	22.89
384.06	19.97
384.506	12.95
384.953	15.79
385.4	-0.99
385.846	-2.46
386.292	-19.8
386.739	-39.39
387.185	-42.74
387.631	-56.53
388.078	-51.25
388.524	-70.42
388.97	-59.36
389.416	-35.15
389.862	-36.33
390.308	-32.53
390.754	-30.06
391.2	-32.29
391.645	-41.83
392.091	-6.21
392.537	3.82
392.983	-11.58
393.428	29.52
393.874	28.76
394.319	38.46
394.765	60.36
395.21	68.31
395.655	70.87
396.101	62.47
396.546	60.71
396.991	31.62
397.436	29.35
397.881	27.53
398.326	2.64
398.771	10.39
399.216	-0.29
399.661	-8.4
400.106	-8.37
400.551	-7.3
400.995	1.14
401.44	-0.8
401.885	1.66
402.329	-0.39
402.774	2.11
403.218	14.91
403.663	10.53
404.107	14.94
404.551	20.11
404.995	15.19
405.44	13
405.884	12.5
406.328	9.54
406.772	11.8
407.216	14.18
407.66	13.67
408.104	5.93
408.547	3.41
408.991	4.22
409.435	2.57
409.879	8.21
410.322	9.31
410.766	6.73
411.209	12.55
411.653	10.85
412.096	13.19
412.54	12.75
412.983	12.46
413.426	19.5
413.869	14.98
414.312	17.07
414.756	11.91
415.199	10.16
415.642	13.66
416.085	11.21
416.527	10.45
416.97	7.25
417.413	7.26
417.856	6.39
418.298	3.18
418.741	2.6
419.184	-1.26
419.626	-3.68
420.069	-2.27
420.511	-3.59
420.953	1
421.396	0.47
421.838	0.67
422.28	1.36
422.722	4.67
423.164	1.99
423.606	3.6
424.048	2.82
424.49	6.36
424.932	3.76
425.374	2.81
425.816	-0.76
426.258	-1.01
426.699	-1.17
427.141	2.44
427.582	-1.2
428.024	-2.07
428.465	-5.19
428.907	-4.06
429.348	-5.37
429.789	-2.69
430.231	0.01
430.672	-0.03
431.113	3.56
431.554	3.21
431.995	-1.76
432.436	1.8
432.877	3.13
433.318	7.86
433.759	5.82
434.2	5.59
434.64	2.07
435.081	1.16
435.522	2.91
435.962	0.64
436.403	2.33
436.843	0.38
437.284	-1.63
437.724	-3.14
438.164	-7.02
438.604	-5.65
439.045	-2.98
439.485	3.61
439.925	2.79
440.365	1.85
440.805	2.81
441.245	4
441.685	6.79
442.125	5.1
442.564	5.98
443.004	7.02
443.444	6.44
443.883	6.49
444.323	0.78
444.762	-4.08
445.202	-5.84
445.641	-4.23
446.081	-6.39
446.52	-7.24
446.959	-5.4
447.398	-4.37
447.837	-4.47
448.276	-4.88
448.716	-4.56
449.154	-5.57
449.593	-0.82
450.032	1.05
450.471	-2.3
450.91	-3.57
451.349	-1.57
451.787	-2.25
452.226	-1.87
452.664	-2.71
453.103	-2.42
453.541	-4.4
453.98	-0.8
454.418	-1.63
454.856	-1.06
455.295	-0.59
455.733	0.98
456.171	-0.3
456.609	1.88
457.047	1.1
457.485	3.19
457.923	5.13
458.361	5.88
458.798	5.2
459.236	5.01
459.674	4.38
460.111	4.83
460.549	4.65
460.987	3.5
461.424	2.54
461.862	3.23
462.299	2.88
462.736	3.6
463.173	3.12
463.611	5.8
464.048	7.18
464.485	7.17
464.922	6.02
465.359	5.38
465.796	12.99
466.233	13.25
466.67	15.76
467.106	16.82
467.543	13.55
467.98	13.3
468.416	11.31
468.853	10.5
469.29	9.59
469.726	10.18
470.162	9.9
470.599	4.04
471.035	2.4
471.471	-0.17
471.907	-2.15
472.344	-1.38
472.78	-1.54
473.216	-3.9
473.652	-4.02
474.088	-4.37
474.523	-3.39
474.959	-2.96
475.395	-2.4
475.831	-0.93
476.266	-0.25
476.702	-0.47
477.138	0.21
477.573	0.03
478.008	1.06
478.444	1.64
478.879	3.1
479.314	3.21
479.75	3.57
480.185	3.27
480.62	2.39
481.055	1.92
481.49	2.55
481.925	2.66
482.36	4.76
482.795	4.17
483.229	3.35
483.664	3.61
484.099	2.87
484.534	2.65
484.968	3.06
485.403	3.3
485.837	2.85
486.271	3.13
486.706	2.32
487.14	0.94
487.574	1.92
488.009	1.82
488.443	0.76
488.877	1.75
489.311	1.35
489.745	1.34
490.179	1.71
490.613	3.29
491.046	2.83
491.48	3.12
491.914	3.45
492.348	3.34
492.781	4.06
493.215	4.24
493.648	3.06
494.082	3.29
494.515	3.59
494.948	3.77
495.382	2.84
495.815	3.2
496.248	4.07
496.681	3.65
497.114	2.56
497.547	3.02
497.98	4.22
498.413	6.02
498.846	6.21
499.279	5.32
499.711	4.57
500.144	4.2
500.577	4.97
501.009	4.03
501.442	5.39
501.874	6.51
502.306	6.12
502.739	7.56
503.171	6.8
503.603	7.36
504.036	7.64
504.468	8.43
504.9	8.63
505.332	7.63
505.764	8.29
506.196	7.75
506.627	8.39
507.059	8.82
507.491	6.64
507.923	6.69
508.354	6.62
508.786	6.23
509.217	5.82
509.649	6.36
510.08	6.65
510.512	7.39
510.943	7.33
511.374	7.06
511.805	6.43
512.237	6.58
512.668	6.39
513.099	5.34
513.53	5.66
513.961	5.83
514.391	5.47
514.822	7.24
515.253	7.09
515.684	7.11
516.114	7.01
516.545	7.69
516.975	7.65
517.406	7.4
517.836	7.86
518.267	8.51
518.697	9.63
519.127	9.82
519.558	8.32
519.988	7.77
520.418	7.35
520.848	7.06
521.278	6.94
521.708	35.97
522.138	37.35
522.567	37.24
522.997	37.23
523.427	36.69
523.857	36.72
524.286	36.92
524.716	37.38
525.145	38.26
525.575	38.98
526.004	38.65
526.433	10.7
526.863	9.34
527.292	10.88
527.721	11.52
528.15	11.32
528.579	11.84
529.008	12.03
529.437	11.27
529.866	11
530.295	10.7
530.724	11.56
531.152	11.55
531.581	12.75
532.01	11.84
532.438	11.36
532.867	11.15
533.295	11.66
533.723	11.56
534.152	12.14
534.58	12.39
535.008	12.88
535.436	13.72
535.865	13.1
536.293	12.53
536.721	12.35
537.149	12.29
537.576	13.26
538.004	12.88
538.432	12.38
538.86	13.17
539.287	13.07
539.715	12.84
540.143	11.5
540.57	11.98
540.998	11.57
541.425	13.42
541.852	13.32
542.28	13.12
542.707	13.33
543.134	13.85
543.561	12.83
543.988	12.66
544.415	12.26
544.842	12.32
545.269	12.72
545.696	13.29
546.123	12.27
546.549	12.32
546.976	12
547.403	12.03
547.829	11.98
548.256	12.14
548.682	12.24
549.108	12.96
549.535	12.59
549.961	11.82
550.387	11.79
550.813	13.24
551.24	13.91
551.666	14.27
552.092	13.29
552.518	13.46
552.943	14.07
553.369	14.08
553.795	13.69
554.221	14.21
554.646	14.38
555.072	15.24
555.498	13.1
555.923	12.32
556.349	11.67
556.774	12.08
557.199	11.8
557.625	11.21
558.05	11.36
558.475	11.26
558.9	11.6
559.325	11.99
559.75	11.69
560.175	12.15
560.6	12.3
561.025	11.98
561.449	12.28
561.874	11.56
562.299	12.49
562.723	12.44
563.148	12.14
563.572	11.44
563.997	11.08
564.421	9.98
564.846	9.58
565.27	9.66
565.694	10.03
566.118	9.86
566.542	10.65
566.966	9.85
567.39	9.46
567.814	10.14
568.238	10.42
568.662	9.78
569.086	10.35
569.509	10.09
569.933	11.03
570.357	10.23
570.78	10.2
571.204	11.11
571.627	10.91
572.05	11.37
572.474	12.07
572.897	12.06
573.32	13.59
573.743	13.06
574.166	13.86
574.589	12.54
575.012	13.65
575.435	12.73
575.858	11.8
576.281	12.53
576.704	11.58
577.126	10.46
577.549	10.25
577.972	8.69
578.394	9.03
578.817	10.37
579.239	10.2
579.661	10.06
580.084	12
580.506	12.66
580.928	11.64
581.35	11.97
581.772	11.8
582.194	11.97
582.616	12.05
583.038	11.06
583.46	9
583.882	8.96
584.303	8.18
584.725	7.07
585.147	10.62
585.568	11.06
585.99	11.98
586.411	12.61
586.833	12.53
587.254	13.14
587.675	13.47
588.096	14.45
588.518	14.77
588.939	15.14
589.36	15.8
589.781	10.52
590.202	12.94
590.623	12.13
591.043	11.14
591.464	11.24
591.885	11.56
592.305	11.43
592.726	10.63
593.147	9.92
593.567	9.85
593.987	8.73
594.408	8.96
594.828	6.28
595.248	6.61
595.669	7.7
596.089	6.73
596.509	6.26
596.929	6.41
597.349	6.94
597.769	7.29
598.189	7.47
598.608	7.72
599.028	7.5
599.448	7.26
599.867	7.13
600.287	6.22
600.706	6.82
601.126	7.28
601.545	7.78
601.965	7.19
602.384	7.81
602.803	7.48
603.222	7.59
603.641	7.56
604.061	7.99
604.48	8.1
604.898	8.07
605.317	8.25
605.736	7.6
606.155	7.71
606.574	7.6
606.992	7.17
607.411	7.26
607.829	6.71
608.248	6.57
608.666	6.29
609.085	5.94
609.503	5.97
609.921	6.22
610.339	6.39
610.758	5.39
611.176	5.35
611.594	5.75
612.012	6.09
612.43	7
612.847	7.13
613.265	7.82
613.683	7.59
614.101	7.46
614.518	6.27
614.936	6.16
615.353	6.92
615.771	7.57
616.188	7.26
616.606	6.9
617.023	6.32
617.44	6.53
617.857	5.57
618.274	5.5
618.691	6.27
619.108	7.29
619.525	7.07
619.942	7.44
620.359	7.31
620.776	7.33
621.192	7.75
621.609	8.49
622.026	8.88
622.442	9.27
622.859	8.86
623.275	8.53
623.691	7.72
624.108	7.95
624.524	7.22
624.94	7.44
625.356	7.02
625.772	6.09
626.188	5.1
626.604	4.36
627.02	4.19
627.436	4.65
627.852	5.49
628.268	6.29
628.683	6.28
629.099	6.06
629.514	5.08
629.93	5.28
630.345	5.7
630.761	5.28
631.176	5.94
631.591	7.98
632.007	8.49
632.422	7.29
632.837	6.27
633.252	6.68
633.667	7.05
634.082	7.77
634.497	7.91
634.911	9.22
635.326	10.28
635.741	10.28
636.155	8.81
636.57	9.95
636.984	9.79
637.399	11.31
637.813	10.53
638.228	10.36
638.642	9.63
639.056	9.53
639.47	8.27
639.884	7.43
640.298	6.93
640.712	7.57
641.126	6.3
641.54	6.07
641.954	3.59
642.368	3.83
642.781	6.16
643.195	6.24
643.609	6.8
644.022	6.89
644.436	6.55
644.849	5.79
645.262	4.38
645.676	3.41
646.089	3.85
646.502	5.79
646.915	5.82
647.328	4.88
647.741	5.1
648.154	4.7
648.567	6.54
648.98	7.19
649.393	7.91
649.805	8.75
650.218	9.24
650.631	9.27
651.043	9.57
651.456	9.74
651.868	8.62
652.28	7.49
652.693	6.22
653.105	4.69
653.517	4.65
653.929	5.37
654.341	5.16
654.753	5.93
655.165	5.44
655.577	4.68
655.989	4.55
656.401	3.45
656.813	5.15
657.224	5.94
657.636	4.86
658.047	5.21
658.459	4.33
658.87	2.54
659.282	2.01
659.693	3.1
660.104	3.46
660.515	2.69
660.926	2.63
661.338	2.13
661.749	1.28
662.159	2.1
662.57	1.17
662.981	0.92
663.392	1.22
663.803	1.44
664.213	0.2
664.624	-0.99
665.035	-0.78
665.445	-0.56
665.855	-0.32
666.266	1.9
666.676	1.44
667.086	1.31
667.497	2.48
667.907	3.5
668.317	2.97
668.727	6.11
669.137	6.46
669.547	6.28
669.956	5.76
670.366	5.28
670.776	4.28
671.186	4.54
671.595	4.61
672.005	2.84
672.414	3.02
672.824	3.37
673.233	-0.01
673.642	0.09
674.052	0.61
674.461	1.55
674.87	2.06
675.279	2.78
675.688	0.8
676.097	2.34
676.506	3.12
676.915	2.61
677.323	2.64
677.732	3.3
678.141	2.77
678.549	2.33
678.958	1.63
679.366	0.37
679.775	-1.13
680.183	2.3
680.592	0.86
681	0.57
681.408	0.5
681.816	0.41
682.224	-0.47
682.632	1.23
683.04	1.96
683.448	2.1
683.856	3.64
684.264	4.73
684.671	2.65
685.079	2.34
685.487	2.08
685.894	1.41
686.302	0.06
686.709	1.43
687.116	1.15
687.524	1.45
687.931	2.96
688.338	3.08
688.745	2.44
689.152	2.44
689.559	3.27
689.966	5.44
690.373	6.7
690.78	8.45
691.187	8.11
691.593	8.66
692	8.41
692.407	8.26
692.813	10.45
693.22	10.81
693.626	9.68
694.032	10.71
694.439	10.3
694.845	10.47
695.251	9.2
695.657	10.07
696.063	8.43
696.469	8.62
696.875	8.53
697.281	6.45
697.687	6.24
698.093	8.31
698.498	8
698.904	6.74
699.31	6.35
699.715	9.75
700.12	9.97
700.526	11.78
700.931	10.52
701.337	10.58
701.742	10.95
702.147	10.97
702.552	10.95
702.957	9.83
703.362	10.8
703.767	10.28
704.172	8.05
704.577	6.66
704.981	5.48
705.386	6.54
705.791	7.43
706.195	6.45
706.6	6.32
707.004	5.03
707.408	5.83
707.813	6.14
708.217	6.7
708.621	6.36
709.025	7.53
709.43	8.36
709.834	8.97
710.237	8.2
710.641	9.38
711.045	10.77
711.449	12.01
711.853	15.05
712.256	15.07
712.66	15.06
713.064	15.46
713.467	16.48
713.87	16.6
714.274	16.53
714.677	17.23
715.08	17.79
715.484	17.4
715.887	19.68
716.29	16.48
716.693	17.56
717.096	18.87
717.499	19.54
717.901	18.17
718.304	17.23
718.707	17.07
719.109	17.1
719.512	15.94
719.915	18.81
720.317	17.66
720.719	17.08
721.122	15.64
721.524	15.78
721.926	19.69
722.328	19.69
722.731	19.61
723.133	20.58
723.535	19.91
723.937	20.19
724.338	19.28
724.74	20.99
725.142	66.65
725.544	71.01
725.945	81.92
726.347	78.8
726.748	79.68
727.15	81.52
727.551	82.61
727.952	80.79
728.354	78.89
728.755	78.1
729.156	74.75
729.557	30.46
729.958	25.9
730.359	14.86
730.76	14.01
731.161	13.69
731.562	11.98
731.962	9.03
732.363	11.78
732.763	12.99
733.164	11.14
733.564	12.03
733.965	13.52
734.365	14.59
734.766	15.37
735.166	15.54
735.566	16.3
735.966	17.82
736.366	18.77
736.766	17.99
737.166	16.88
737.566	17.9
737.966	17.9
738.365	17.76
738.765	18.95
739.165	17.82
739.564	18.06
739.964	15.62
740.363	14.35
740.763	13.49
741.162	14.39
741.561	15.18
741.96	15.43
742.36	14.63
742.759	14.54
743.158	12.78
743.557	13.28
743.955	12.66
744.354	14.28
744.753	13.28
745.152	15.18
745.55	13.13
745.949	13.24
746.348	14.27
746.746	13.47
747.144	15.76
747.543	15.67
747.941	14.98
748.339	15.58
748.737	16.01
749.136	17.45
749.534	15.45
749.932	17.82
750.33	17.84
750.727	16.67
751.125	18.75
751.523	16.98
751.921	20.44
752.318	21.69
752.716	22.75
753.113	22.47
753.511	23.08
753.908	25.02
754.305	27.62
754.703	27.47
755.1	27.89
755.497	27.12
755.894	26.23
756.291	23.93
756.688	24.67
757.085	23.36
757.482	25.01
757.878	25.6
758.275	25.69
758.672	19.31
759.068	19.43
759.465	17.28
759.861	16.35
760.258	15.48
760.654	15.11
761.05	14.86
761.447	13.66
761.843	11.6
762.239	10.73
762.635	7.79
763.031	7.43
763.427	7.96
763.822	9.64
764.218	9
764.614	9.8
765.01	8.17
765.405	7.78
