Data from N_1_DIV_PA_2N_Splice17_11-11-24-065.txt Node
Date: Sat Mar 14 11:11:24 EDT 2020
User: sa697716
Spectrometer: FLMS03696
Trigger mode: 0
Integration Time (sec): 3.180400E-1
Scans to average: 20
Electric dark correction enabled: true
Nonlinearity correction enabled: true
Boxcar width: 5
XAxis mode: Wavelengths
Number of Pixels in Spectrum: 2048
>>>>>Begin Spectral Data<<<<<
187.83	-99856.44
188.298	756.62
188.766	446.7
189.233	410.22
189.701	501.33
190.169	709.18
190.636	276.93
191.104	254.74
191.571	83.17
192.039	23.07
192.506	42.43
192.974	263.26
193.441	-366.88
193.908	-93.34
194.375	-2.23
194.842	10.92
195.31	3.55
195.777	56.22
196.244	162.14
196.711	139.98
197.177	146.92
197.644	143.74
198.111	231.47
198.578	280.03
199.045	212.33
199.511	285.15
199.978	291.32
200.445	232.21
200.911	244.72
201.378	230.17
201.844	250.91
202.31	396.97
202.777	421.32
203.243	238.48
203.709	230.46
204.176	284.49
204.642	281.24
205.108	285
205.574	271.95
206.04	266.37
206.506	248.98
206.972	226.86
207.438	208.35
207.903	239.04
208.369	222.54
208.835	237.44
209.301	237.52
209.766	227.32
210.232	203.26
210.697	232.41
211.163	278.4
211.628	416.05
212.094	369.69
212.559	500.63
213.024	323.01
213.49	372.36
213.955	330.54
214.42	318.14
214.885	308.3
215.35	312.42
215.815	341.55
216.28	343.27
216.745	246.71
217.21	264.44
217.675	221.74
218.14	227.19
218.604	232.64
219.069	259.13
219.534	267.94
219.998	269.86
220.463	284.28
220.927	268.99
221.392	226.42
221.856	236.02
222.32	207.76
222.785	233.84
223.249	258.61
223.713	274.04
224.177	253.69
224.642	264.48
225.106	280.28
225.57	284.87
226.034	234.2
226.497	333.77
226.961	317.87
227.425	420.12
227.889	407.65
228.353	392.9
228.816	689.75
229.28	705.26
229.744	532.02
230.207	392.17
230.671	380.9
231.134	496.03
231.597	643.57
232.061	553.22
232.524	481.77
232.987	342.39
233.45	348.05
233.914	306.85
234.377	265.87
234.84	276.71
235.303	266.91
235.766	291.88
236.229	273.55
236.691	154.18
237.154	171.81
237.617	147.79
238.08	138.19
238.542	149.06
239.005	129.03
239.468	124.02
239.93	109.13
240.393	105.94
240.855	96.12
241.317	98.67
241.78	96.04
242.242	101.18
242.704	127.4
243.166	127.36
243.629	131.45
244.091	143.16
244.553	158.54
245.015	193.4
245.477	238.34
245.939	341.93
246.4	411.09
246.862	395.89
247.324	395.81
247.786	402.52
248.247	472.4
248.709	393.77
249.17	290.98
249.632	352
250.093	413.99
250.555	371.44
251.016	240.32
251.477	219.85
251.939	242.04
252.4	230.53
252.861	253.46
253.322	275.5
253.783	317.56
254.244	365.98
254.705	233.84
255.166	166.64
255.627	157.17
256.088	223.62
256.549	213.52
257.009	173.6
257.47	204.12
257.931	168.7
258.391	120.84
258.852	125.89
259.312	159.34
259.773	155.75
260.233	185.87
260.694	177.39
261.154	197.31
261.614	208.39
262.074	189.51
262.534	214.86
262.994	209.25
263.455	229.13
263.915	213.27
264.374	186.64
264.834	221.77
265.294	225.19
265.754	231.81
266.214	223.32
266.673	188.5
267.133	216.67
267.593	190.97
268.052	244.26
268.512	220.36
268.971	281.68
269.431	318.74
269.89	269.08
270.349	374.49
270.809	389.84
271.268	332.19
271.727	638.65
272.186	424.26
272.645	301.63
273.104	160.71
273.563	235.33
274.022	142.37
274.481	148.23
274.94	119.03
275.399	89.92
275.857	91.62
276.316	93.99
276.775	86.99
277.233	97.43
277.692	122.94
278.15	170.63
278.609	221.71
279.067	189.67
279.525	199.47
279.984	271.07
280.442	349.03
280.9	398.79
281.358	266.32
281.816	255.94
282.274	235.34
282.732	219.31
283.19	223.95
283.648	170.72
284.106	200.31
284.564	189.69
285.021	169.21
285.479	115.46
285.937	88.51
286.394	102.41
286.852	101.09
287.309	120.15
287.767	136.7
288.224	135.38
288.682	147.98
289.139	162.55
289.596	156.03
290.053	153.51
290.511	178.29
290.968	210.45
291.425	256.04
291.882	264.53
292.339	232.71
292.796	217.69
293.252	187.3
293.709	156.63
294.166	137.66
294.623	136.85
295.079	132.52
295.536	167.58
295.992	156.34
296.449	160.16
296.905	150.8
297.362	177.52
297.818	183.09
298.274	207.35
298.731	212.05
299.187	219.27
299.643	234.96
300.099	290.4
300.555	304.53
301.011	276.21
301.467	304.03
301.923	328.4
302.379	305.17
302.835	282.42
303.291	277.97
303.746	313.9
304.202	365.92
304.658	364.72
305.113	246.54
305.569	236.88
306.024	211.06
306.479	154.35
306.935	145.87
307.39	122.97
307.845	124.42
308.301	138.78
308.756	141.9
309.211	166.04
309.666	152.28
310.121	215.59
310.576	177.21
311.031	182.17
311.486	190.55
311.94	212
312.395	264.64
312.85	474.39
313.305	1435.98
313.759	8306.78
314.214	521.22
314.668	427.51
315.123	380.89
315.577	178.79
316.032	183.95
316.486	219.49
316.94	172.77
317.394	137.79
317.849	130.99
318.303	125.49
318.757	125.29
319.211	139.98
319.665	131.41
320.119	123.99
320.572	160.52
321.026	175.13
321.48	146.38
321.934	128.09
322.387	131.82
322.841	131.3
323.295	159.32
323.748	154.06
324.202	154.26
324.655	187.38
325.108	311.49
325.562	243.8
326.015	246.45
326.468	206.89
326.921	260.87
327.374	254.11
327.827	258.34
328.28	244.55
328.733	187.33
329.186	172.18
329.639	174.09
330.092	124.74
330.545	129.46
330.997	149.33
331.45	178.09
331.903	222.98
332.355	353.53
332.808	354.9
333.26	327.17
333.713	356.52
334.165	334.94
334.617	409.91
335.069	304.93
335.522	474.57
335.974	474.81
336.426	358.77
336.878	191.26
337.33	120.09
337.782	129.63
338.234	163.06
338.686	174.38
339.137	211.27
339.589	222.15
340.041	243.19
340.493	204.7
340.944	200.77
341.396	236.58
341.847	232.98
342.299	306.72
342.75	384.4
343.201	323.06
343.653	355.52
344.104	417.72
344.555	312.11
345.006	359.96
345.457	345.48
345.908	272.36
346.359	259.59
346.81	189.63
347.261	161.67
347.712	136.32
348.163	129.05
348.613	184.53
349.064	172.17
349.515	156.43
349.965	164.66
350.416	138.1
350.866	118.93
351.317	124.47
351.767	175.52
352.217	253.17
352.668	223.42
353.118	194.25
353.568	82.41
354.018	121.83
354.468	155.57
354.918	156.24
355.368	171.68
355.818	238.91
356.268	528.76
356.718	3074.95
357.168	743.57
357.617	353.2
358.067	454.07
358.517	442.55
358.966	474
359.416	525.71
359.865	610.01
360.315	666.72
360.764	389.4
361.213	222.92
361.663	180.68
362.112	205.25
362.561	307.13
363.01	177.75
363.459	146.87
363.908	137.84
364.357	148.92
364.806	165.93
365.255	126.66
365.703	135.19
366.152	150.32
366.601	118.61
367.05	153.71
367.498	157.15
367.947	165.84
368.395	160.61
368.844	158.22
369.292	156.28
369.74	130.72
370.189	180.72
370.637	173.29
371.085	156.15
371.533	178.16
371.981	92.31
372.429	117.04
372.877	130.03
373.325	136.95
373.773	115.61
374.221	77.41
374.669	83.4
375.116	90.75
375.564	105.76
376.012	106.74
376.459	132.7
376.907	179.64
377.354	182.5
377.801	190.9
378.249	227.62
378.696	292.99
379.143	385.76
379.591	347.5
380.038	505.74
380.485	369.67
380.932	414.82
381.379	390.61
381.826	345.94
382.273	207.79
382.72	163.25
383.166	135.36
383.613	111.57
384.06	113.28
384.506	152.13
384.953	116.63
385.4	106.29
385.846	95.33
386.292	66.96
386.739	38.23
387.185	40.96
387.631	38.27
388.078	65.21
388.524	51.64
388.97	51.01
389.416	43.17
389.862	54.77
390.308	57.94
390.754	58.59
391.2	54.42
391.645	53.58
392.091	78.5
392.537	80.14
392.983	57.01
393.428	85.6
393.874	84.87
394.319	94.91
394.765	99.14
395.21	92.39
395.655	88.48
396.101	91.04
396.546	84.74
396.991	69.8
397.436	72.19
397.881	65.26
398.326	44.3
398.771	48.2
399.216	39.59
399.661	30.08
400.106	36.31
400.551	37
400.995	33.08
401.44	35.72
401.885	34.45
402.329	33.27
402.774	38.12
403.218	46.12
403.663	44.5
404.107	47.07
404.551	49.67
404.995	43.37
405.44	38.81
405.884	41.48
406.328	34.06
406.772	30.17
407.216	27.78
407.66	24.11
408.104	15.8
408.547	15.4
408.991	15.27
409.435	12.79
409.879	15.05
410.322	20.91
410.766	20.03
411.209	24.7
411.653	25.26
412.096	27.59
412.54	27.1
412.983	28.15
413.426	28.21
413.869	25.49
414.312	28.12
414.756	25.78
415.199	22.63
415.642	23.49
416.085	22.12
416.527	19.66
416.97	18.36
417.413	19.85
417.856	19.04
418.298	16.84
418.741	15.89
419.184	12.81
419.626	9.76
420.069	9.51
420.511	9.45
420.953	11.24
421.396	14.68
421.838	12.76
422.28	12.03
422.722	14.31
423.164	14.8
423.606	16.77
424.048	15.49
424.49	17.28
424.932	16.09
425.374	16.34
425.816	14.7
426.258	13.73
426.699	15.02
427.141	17.18
427.582	14.24
428.024	12.64
428.465	9.78
428.907	10.26
429.348	10.44
429.789	12.32
430.231	13.77
430.672	12.93
431.113	11.67
431.554	11.55
431.995	8.1
432.436	10.08
432.877	11.02
433.318	13.65
433.759	13.55
434.2	14.22
434.64	11.54
435.081	9.29
435.522	10.22
435.962	12.76
436.403	14.8
436.843	13.97
437.284	12.79
437.724	12.73
438.164	10.34
438.604	10.43
439.045	10.7
439.485	12.69
439.925	13.57
440.365	12.78
440.805	10.1
441.245	8.72
441.685	9.72
442.125	9.69
442.564	9.14
443.004	10.72
443.444	10.28
443.883	11.39
444.323	9.87
444.762	7.03
445.202	7.16
445.641	8.83
446.081	7.36
446.52	7.55
446.959	8.57
447.398	10.91
447.837	10.63
448.276	11.66
448.716	10.93
449.154	8.51
449.593	10.5
450.032	11.67
450.471	10.1
450.91	9.82
451.349	11.03
451.787	9.79
452.226	6.42
452.664	6.02
453.103	5.55
453.541	4.26
453.98	8.87
454.418	8.37
454.856	9.02
455.295	9.06
455.733	10.35
456.171	9.03
456.609	10.87
457.047	12.67
457.485	14.07
457.923	15.19
458.361	15.11
458.798	13.29
459.236	13.57
459.674	10.85
460.111	11.74
460.549	11.04
460.987	10.42
461.424	9.51
461.862	8.54
462.299	6.88
462.736	6.71
463.173	5.82
463.611	8.66
464.048	9.28
464.485	10.54
464.922	9.48
465.359	8.41
465.796	14.21
466.233	13.84
466.67	16.79
467.106	18.61
467.543	17.11
467.98	17.48
468.416	16.46
468.853	15.7
469.29	15.98
469.726	16.17
470.162	16.74
470.599	12.74
471.035	12.69
471.471	10.44
471.907	8.58
472.344	9.26
472.78	9.45
473.216	7.35
473.652	6.85
474.088	7.36
474.523	7.71
474.959	6.6
475.395	5.94
475.831	7.07
476.266	7.15
476.702	7.37
477.138	8.09
477.573	8.02
478.008	8.04
478.444	9.66
478.879	9.48
479.314	9.75
479.75	10.43
480.185	10.05
480.62	8.72
481.055	9.26
481.49	9.69
481.925	9.05
482.36	10.62
482.795	10.21
483.229	8.79
483.664	8.62
484.099	8.61
484.534	8.9
484.968	10.17
485.403	10.33
485.837	9.25
486.271	8.62
486.706	8.37
487.14	7.32
487.574	8.01
488.009	7.76
488.443	6.92
488.877	6.86
489.311	6.06
489.745	6.37
490.179	6.71
490.613	8.31
491.046	8.21
491.48	8.28
491.914	8.02
492.348	7.51
492.781	7.9
493.215	8.48
493.648	7.81
494.082	7.84
494.515	6.96
494.948	7.32
495.382	5.7
495.815	6.18
496.248	6.63
496.681	6.73
497.114	6.61
497.547	6.79
497.98	7.13
498.413	8.69
498.846	9.53
499.279	9.28
499.711	8.64
500.144	8.83
500.577	9.36
501.009	8.71
501.442	8.96
501.874	9.75
502.306	9.48
502.739	10.66
503.171	9.95
503.603	9.6
504.036	9.35
504.468	9.3
504.9	9.75
505.332	9.4
505.764	10.19
506.196	10.27
506.627	10.55
507.059	10.44
507.491	9.25
507.923	9.31
508.354	9.21
508.786	9.92
509.217	10.34
509.649	9.93
510.08	9.21
510.512	9.37
510.943	9.78
511.374	9.6
511.805	9.5
512.237	9.18
512.668	9.09
513.099	8.87
513.53	8.83
513.961	8.66
514.391	8.71
514.822	10.15
515.253	10.42
515.684	9.96
516.114	9.93
516.545	10.57
516.975	10.75
517.406	10.62
517.836	11.03
518.267	10.84
518.697	11.93
519.127	12.18
519.558	11.38
519.988	10.74
520.418	10.44
520.848	9.79
521.278	9.35
521.708	23.8
522.138	24.05
522.567	23.75
522.997	23.83
523.427	23.2
523.857	23.22
524.286	23.24
524.716	23.79
525.145	24.51
525.575	25.63
526.004	25.48
526.433	11.62
526.863	11.36
527.292	13
527.721	13.79
528.15	13.69
528.579	14.01
529.008	14.36
529.437	13.81
529.866	13.64
530.295	13.22
530.724	13.75
531.152	13.93
531.581	14.5
532.01	13.97
532.438	13.89
532.867	14.19
533.295	14.79
533.723	15.04
534.152	15.35
534.58	15.45
535.008	15.4
535.436	15.95
535.865	15.48
536.293	15.03
536.721	14.23
537.149	13.48
537.576	13.64
538.004	13.61
538.432	12.62
538.86	12.78
539.287	12.74
539.715	12.9
540.143	12.05
540.57	12.39
540.998	12.25
541.425	13.86
541.852	14.14
542.28	14.03
542.707	13.89
543.134	14.49
543.561	14.69
543.988	15.07
544.415	15.16
544.842	15.31
545.269	15.34
545.696	16.63
546.123	16.26
546.549	16.53
546.976	16.39
547.403	16.01
547.829	15.66
548.256	15.33
548.682	15.29
549.108	15.63
549.535	15.61
549.961	15.24
550.387	14.12
550.813	14.37
551.24	14.45
551.666	13.99
552.092	14.23
552.518	14.24
552.943	14.37
553.369	13.72
553.795	13.46
554.221	14.04
554.646	13.85
555.072	14.93
555.498	13.81
555.923	13.34
556.349	13.79
556.774	13.5
557.199	13.66
557.625	12.65
558.05	13.14
558.475	13.25
558.9	13.01
559.325	13.71
559.75	13.02
560.175	13.58
560.6	13.64
561.025	13.08
561.449	12.98
561.874	12.92
562.299	13.91
562.723	13.61
563.148	13.01
563.572	12.5
563.997	12.01
564.421	11.5
564.846	10.76
565.27	10.8
565.694	10.74
566.118	11.21
566.542	11.56
566.966	11.74
567.39	11.84
567.814	12.42
568.238	12.74
568.662	11.98
569.086	12.39
569.509	12
569.933	13.18
570.357	13.79
570.78	13.33
571.204	13.52
571.627	12.84
572.05	12.6
572.474	13
572.897	13.2
573.32	14.32
573.743	14.03
574.166	14.66
574.589	13.28
575.012	12.92
575.435	12.37
575.858	12.26
576.281	12.98
576.704	12.84
577.126	11.73
577.549	11.49
577.972	10.69
578.394	10.68
578.817	11.41
579.239	10.98
579.661	11.23
580.084	11.92
580.506	11.95
580.928	11.53
581.35	11.79
581.772	12.09
582.194	11.81
582.616	11.98
583.038	11.41
583.46	10.38
583.882	11.32
584.303	10.76
584.725	10.49
585.147	12.77
585.568	12.41
585.99	12.48
586.411	12.6
586.833	13.01
587.254	13.16
587.675	13.38
588.096	13.83
588.518	13.37
588.939	13.15
589.36	13.44
589.781	10.38
590.202	12.64
590.623	12.55
591.043	12.07
591.464	11.86
591.885	12.05
592.305	12.2
592.726	11.31
593.147	11.06
593.567	11.74
593.987	11.62
594.408	11.34
594.828	9.15
595.248	9.21
595.669	9.88
596.089	9.46
596.509	8.98
596.929	8.68
597.349	9.21
597.769	9.61
598.189	9.39
598.608	9.34
599.028	9.43
599.448	9.16
599.867	9.11
600.287	8.55
600.706	9.37
601.126	10.24
601.545	11.42
601.965	11.39
602.384	11.17
602.803	10.53
603.222	10.51
603.641	10.31
604.061	10.99
604.48	11.01
604.898	11
605.317	10.83
605.736	9.77
606.155	9.28
606.574	9.18
606.992	9.23
607.411	9.67
607.829	8.92
608.248	8.81
608.666	8.18
609.085	8.44
609.503	8.31
609.921	7.83
610.339	8.62
610.758	7.93
611.176	7.96
611.594	8.22
612.012	8.34
612.43	9.19
612.847	9.45
613.265	10.18
613.683	9.81
614.101	10.05
614.518	10.2
614.936	9.32
615.353	10.14
615.771	10.54
616.188	10
616.606	10.01
617.023	10.08
617.44	10.19
617.857	9.34
618.274	9.32
618.691	9.49
619.108	9.17
619.525	9.92
619.942	9.53
620.359	8.9
620.776	8.81
621.192	9.2
621.609	9.71
622.026	10.01
622.442	9.85
622.859	9.27
623.275	9.16
623.691	8.99
624.108	8.54
624.524	8.47
624.94	8.94
625.356	8.59
625.772	7.93
626.188	6.88
626.604	6.15
627.02	6.39
627.436	6.44
627.852	7.14
628.268	7.5
628.683	7.42
629.099	7.35
629.514	6.99
629.93	7.17
630.345	7.54
630.761	7.13
631.176	7.44
631.591	8.99
632.007	9.63
632.422	8.63
632.837	8.9
633.252	9.38
633.667	9.62
634.082	9.52
634.497	10.14
634.911	10.9
635.326	11.34
635.741	11.25
636.155	10.24
636.57	10.58
636.984	10.83
637.399	10.72
637.813	10.04
638.228	9.43
638.642	9.74
639.056	9.42
639.47	8.77
639.884	9.29
640.298	9.16
640.712	9.36
641.126	8.63
641.54	8.02
641.954	6.99
642.368	7.52
642.781	9.74
643.195	9.75
643.609	10.28
644.022	9.94
644.436	8.98
644.849	8.94
645.262	8.5
645.676	8.2
646.089	8.26
646.502	9.56
646.915	9.48
647.328	7.61
647.741	7.67
648.154	7.25
648.567	8.94
648.98	9.45
649.393	10.01
649.805	10.1
650.218	10.01
650.631	10.81
651.043	10.59
651.456	10.18
651.868	10.44
652.28	9.87
652.693	9.64
653.105	8.91
653.517	9.51
653.929	8.45
654.341	9.33
654.753	10.68
655.165	9.71
655.577	10.03
655.989	10.61
656.401	10.17
656.813	11.32
657.224	11.15
657.636	10.57
658.047	10.74
658.459	11.61
658.87	10.4
659.282	9.88
659.693	10.73
660.104	10.76
660.515	10.77
660.926	10.58
661.338	9.94
661.749	10.22
662.159	10.41
662.57	8.54
662.981	8.92
663.392	8.45
663.803	7.34
664.213	7.08
664.624	6.88
665.035	5.61
665.445	5.18
665.855	5.71
666.266	6.2
666.676	6.41
667.086	6.67
667.497	5.77
667.907	6.5
668.317	7.06
668.727	9.82
669.137	8.89
669.547	9.81
669.956	10.1
670.366	9.38
670.776	8.42
671.186	7.59
671.595	8
672.005	7.74
672.414	8.35
672.824	8.91
673.233	5.7
673.642	6.61
674.052	6.91
674.461	7.88
674.87	7.57
675.279	8.14
675.688	7.05
676.097	8.29
676.506	8.16
676.915	6.32
677.323	6.85
677.732	6.83
678.141	6.75
678.549	6.52
678.958	4.76
679.366	4.84
679.775	4.35
680.183	6.59
680.592	5.9
681	6.88
681.408	7.88
681.816	6.77
682.224	6.69
682.632	7.14
683.04	7.28
683.448	7.55
683.856	7.77
684.264	8.59
684.671	7.24
685.079	6.81
685.487	6.83
685.894	7.23
686.302	6.38
686.709	7.5
687.116	7.61
687.524	8.79
687.931	11.2
688.338	12.7
688.745	12.14
689.152	11.76
689.559	12.94
689.966	13.76
690.373	14.06
690.78	15.79
691.187	15.57
691.593	16.91
692	15.94
692.407	16.52
692.813	17.97
693.22	18.35
693.626	18.03
694.032	17.79
694.439	17.9
694.845	18.02
695.251	17.26
695.657	18.46
696.063	16.01
696.469	16.92
696.875	15.88
697.281	14.11
697.687	13.97
698.093	14.56
698.498	14.74
698.904	14.19
699.31	13.93
699.715	16.84
700.12	15.85
700.526	17.53
700.931	16.86
701.337	17.7
701.742	17.87
702.147	18.87
702.552	20.06
702.957	19.7
703.362	19.28
703.767	18.95
704.172	16.69
704.577	16.2
704.981	15.67
705.386	16.44
705.791	15.96
706.195	15.48
706.6	15.08
707.004	13.85
707.408	13.62
707.813	13.83
708.217	14.93
708.621	14.85
709.025	15.46
709.43	15.88
709.834	16.06
710.237	16.67
710.641	17.6
711.045	18.61
711.449	19.68
711.853	22.47
712.256	23.31
712.66	22.9
713.064	23.61
713.467	24.72
713.87	24.89
714.274	25.18
714.677	25.65
715.08	26.36
715.484	26.36
715.887	28.82
716.29	27.41
716.693	28.84
717.096	29.07
717.499	29.95
717.901	29.42
718.304	29.57
718.707	28.63
719.109	28.63
719.512	27.66
719.915	28.58
720.317	26.84
720.719	25.86
721.122	24.38
721.524	25.3
721.926	27.76
722.328	27.72
722.731	27.3
723.133	26.79
723.535	26.12
723.937	26.12
724.338	26.46
724.74	26.76
725.142	59.79
725.544	64.23
725.945	71.7
726.347	68.53
726.748	68.16
727.15	69.19
727.551	70.7
727.952	68.96
728.354	68.01
728.755	66.61
729.156	66
729.557	33.28
729.958	29.52
730.359	22.18
730.76	22.44
731.161	23.34
731.562	22.58
731.962	22.87
732.363	23.76
732.763	24.36
733.164	23.83
733.564	24.72
733.965	26.23
734.365	26.11
734.766	26.33
735.166	26.6
735.566	27.26
735.966	27.43
736.366	28.12
736.766	27.78
737.166	26.53
737.566	26.96
737.966	25.98
738.365	25.98
738.765	26.33
739.165	25.96
739.564	25.58
739.964	22.98
740.363	22.23
740.763	20.1
741.162	21.13
741.561	22.01
741.96	22.28
742.36	21.93
742.759	22.22
743.158	21.75
743.557	21.67
743.955	21.74
744.354	22.62
744.753	22.95
745.152	24.72
745.55	24.75
745.949	25.07
746.348	25.43
746.746	25.34
747.144	26.68
747.543	25.79
747.941	25.59
748.339	25.93
748.737	27.14
749.136	28.12
749.534	25.88
749.932	26.34
750.33	26.63
750.727	26.61
751.125	27.2
751.523	25.62
751.921	28.5
752.318	28.5
752.716	29.12
753.113	29.12
753.511	29.62
753.908	31.32
754.305	34.29
754.703	34.02
755.1	33.79
755.497	33.44
755.894	33.48
756.291	31.79
756.688	33.77
757.085	33.69
757.482	33.71
757.878	34.99
758.275	36.79
758.672	30.97
759.068	34.15
