Data from N_1_DIV_OH_2N_Splice17_11-29-35-493.txt Node
Date: Sat Mar 14 11:29:35 EDT 2020
User: sa697716
Spectrometer: FLMS03696
Trigger mode: 0
Integration Time (sec): 3.180400E-1
Scans to average: 20
Electric dark correction enabled: true
Nonlinearity correction enabled: true
Boxcar width: 5
XAxis mode: Wavelengths
Number of Pixels in Spectrum: 2048
>>>>>Begin Spectral Data<<<<<
187.83	-169030.64
188.298	1281.22
188.766	724.28
189.233	631.3
189.701	910.08
190.169	1328.26
190.636	513.92
191.104	375.48
191.571	72
192.039	27.63
192.506	80.74
192.974	454.5
193.441	-688.69
193.908	-151.25
194.375	-41.49
194.842	44.49
195.31	68.78
195.777	92.51
196.244	172.05
196.711	151.65
197.177	173.42
197.644	208.72
198.111	326.82
198.578	423.3
199.045	305.7
199.511	456.96
199.978	490.43
200.445	475.23
200.911	509.54
201.378	515.04
201.844	471
202.31	823.64
202.777	829.91
203.243	465.58
203.709	458.63
204.176	586.22
204.642	502.11
205.108	469.98
205.574	365.88
206.04	323.94
206.506	316.66
206.972	293.33
207.438	276.34
207.903	311.25
208.369	293.71
208.835	292.44
209.301	301.21
209.766	302.65
210.232	294.38
210.697	353.15
211.163	415.92
211.628	570.3
212.094	507.62
212.559	658.77
213.024	431
213.49	516.38
213.955	474.38
214.42	414.22
214.885	381.17
215.35	372.31
215.815	407.9
216.28	430.51
216.745	342.22
217.21	368.39
217.675	293.16
218.14	303.69
218.604	292.28
219.069	324.59
219.534	351.77
219.998	362.61
220.463	403.35
220.927	386.34
221.392	334.28
221.856	335.33
222.32	327.97
222.785	400.8
223.249	472.94
223.713	518.13
224.177	473.28
224.642	513.67
225.106	583.69
225.57	549.57
226.034	451.88
226.497	685.39
226.961	624.76
227.425	764.02
227.889	793.83
228.353	742.12
228.816	1357.16
229.28	1314.86
229.744	1055.33
230.207	677.45
230.671	665.43
231.134	863.95
231.597	985.34
232.061	851.03
232.524	752.46
232.987	524.14
233.45	487.91
233.914	430.5
234.377	394.75
234.84	370.91
235.303	386.44
235.766	412.15
236.229	489.65
236.691	289.06
237.154	314.5
237.617	255.98
238.08	226.97
238.542	247.26
239.005	195.92
239.468	211
239.93	189.98
240.393	172.87
240.855	162.36
241.317	146.66
241.78	161.79
242.242	180.82
242.704	219.66
243.166	211.9
243.629	208.67
244.091	234.3
244.553	243.3
245.015	282.66
245.477	381.58
245.939	531.67
246.4	579.53
246.862	557.11
247.324	514.27
247.786	503.87
248.247	591.15
248.709	502.69
249.17	375.19
249.632	434.73
250.093	528.64
250.555	434.7
251.016	306.15
251.477	311.91
251.939	341.79
252.4	350.37
252.861	405.9
253.322	432.11
253.783	513.8
254.244	630.5
254.705	444.61
255.166	361.89
255.627	341.29
256.088	479.35
256.549	471.11
257.009	401.69
257.47	460.69
257.931	352.23
258.391	247.2
258.852	258.83
259.312	270.08
259.773	331.83
260.233	324.74
260.694	305.13
261.154	309.48
261.614	301.04
262.074	260.79
262.534	292.66
262.994	293.51
263.455	371.55
263.915	313.15
264.374	299.59
264.834	322.5
265.294	303.31
265.754	306.81
266.214	288.53
266.673	246.71
267.133	304.49
267.593	275.16
268.052	337.9
268.512	266.17
268.971	382.5
269.431	404.03
269.89	357.16
270.349	584.23
270.809	690.51
271.268	618.26
271.727	1213.94
272.186	846.84
272.645	634.13
273.104	419.12
273.563	618.71
274.022	379.57
274.481	378.11
274.94	292.2
275.399	205.27
275.857	213.29
276.316	268.2
276.775	239.35
277.233	202.74
277.692	229.23
278.15	279.58
278.609	332.97
279.067	337.22
279.525	326.27
279.984	394.78
280.442	485.22
280.9	541.87
281.358	380.32
281.816	353.79
282.274	357.08
282.732	307.9
283.19	302.66
283.648	253.67
284.106	264.07
284.564	238.82
285.021	252.84
285.479	174.8
285.937	121.36
286.394	112.07
286.852	115.93
287.309	122.25
287.767	160.62
288.224	167.39
288.682	174.31
289.139	200.34
289.596	200.56
290.053	183.08
290.511	223.6
290.968	291.6
291.425	378.5
291.882	374.63
292.339	345.38
292.796	322
293.252	299.5
293.709	273.31
294.166	241.84
294.623	242.2
295.079	240.52
295.536	248.43
295.992	222.09
296.449	226.24
296.905	248.18
297.362	259.23
297.818	259.41
298.274	276.08
298.731	249.22
299.187	253.85
299.643	277.63
300.099	346.88
300.555	399.93
301.011	362.86
301.467	391.97
301.923	404.25
302.379	398.81
302.835	398.47
303.291	386.53
303.746	446.49
304.202	550.39
304.658	524.02
305.113	364.21
305.569	361.85
306.024	363.7
306.479	281.33
306.935	253.5
307.39	227.46
307.845	210.17
308.301	222.5
308.756	216.03
309.211	214.02
309.666	235.48
310.121	314.48
310.576	284.85
311.031	259.2
311.486	297.44
311.94	265.99
312.395	375.67
312.85	618.57
313.305	2385.76
313.759	15751.5
314.214	1207.14
314.668	955.36
315.123	911.18
315.577	408.32
316.032	380.65
316.486	483.73
316.94	433.62
317.394	319.46
317.849	268.37
318.303	266.29
318.757	261.13
319.211	293.91
319.665	261.48
320.119	231.33
320.572	299.02
321.026	293.12
321.48	244.98
321.934	247.26
322.387	239.48
322.841	261.54
323.295	259.31
323.748	242.49
324.202	231.97
324.655	284.87
325.108	484.72
325.562	373.25
326.015	417.43
326.468	338.94
326.921	380.37
327.374	394.12
327.827	455.26
328.28	491.17
328.733	355.23
329.186	315.08
329.639	312.88
330.092	253.74
330.545	248.68
330.997	269.3
331.45	313.22
331.903	381.4
332.355	593.03
332.808	528.91
333.26	444.97
333.713	481.38
334.165	470.65
334.617	568.91
335.069	387.08
335.522	589.18
335.974	592.99
336.426	437.02
336.878	234.68
337.33	142.63
337.782	134.26
338.234	180.38
338.686	179.41
339.137	216.83
339.589	226.58
340.041	221
340.493	199.92
340.944	182.04
341.396	191.22
341.847	189.13
342.299	271.48
342.75	374.53
343.201	311.32
343.653	367.82
344.104	440.41
344.555	344.74
345.006	450.71
345.457	443.44
345.908	374.25
346.359	373.91
346.81	325.16
347.261	287.66
347.712	252.36
348.163	265.86
348.613	324.5
349.064	299.55
349.515	273.3
349.965	302.69
350.416	313.6
350.866	329.86
351.317	357.44
351.767	559.12
352.217	698.96
352.668	619.89
353.118	554.19
353.568	422.69
354.018	370.48
354.468	370.12
354.918	265.54
355.368	226.79
355.818	332.73
356.268	762.68
356.718	3213.65
357.168	904.87
357.617	451.06
358.067	513.81
358.517	471.23
358.966	620.18
359.416	760.33
359.865	851.99
360.315	1009.58
360.764	500.35
361.213	341.92
361.663	299.69
362.112	313.78
362.561	501.9
363.01	399.35
363.459	362.66
363.908	352.35
364.357	323.18
364.806	462.9
365.255	304.65
365.703	320.58
366.152	307.63
366.601	265.52
367.05	260.02
367.498	236.93
367.947	218.62
368.395	229.93
368.844	205.55
369.292	213.15
369.74	183.21
370.189	252.03
370.637	245.16
371.085	211.22
371.533	243.93
371.981	209.16
372.429	225.79
372.877	240.32
373.325	211.37
373.773	217.94
374.221	187.94
374.669	228.27
375.116	217.57
375.564	222.78
376.012	222.52
376.459	215.72
376.907	233.98
377.354	256.56
377.801	272.91
378.249	325.68
378.696	381.66
379.143	492.54
379.591	510.69
380.038	850.23
380.485	595.83
380.932	708.97
381.379	674.29
381.826	579.23
382.273	409.33
382.72	317.76
383.166	297.33
383.613	209.08
384.06	179.13
384.506	188.85
384.953	144.99
385.4	154.82
385.846	135.04
386.292	126.18
386.739	108.96
387.185	99.69
387.631	114.67
388.078	123.99
388.524	132.1
388.97	132.67
389.416	117.96
389.862	132.16
390.308	123.55
390.754	131.19
391.2	127.73
391.645	122.19
392.091	151.36
392.537	151.83
392.983	142.04
393.428	176.34
393.874	180.37
394.319	205.27
394.765	223.19
395.21	237.6
395.655	229.71
396.101	230.67
396.546	228.8
396.991	216.9
397.436	210.88
397.881	207.38
398.326	179.27
398.771	188.83
399.216	167.8
399.661	147.11
400.106	158.07
400.551	172.25
400.995	160.83
401.44	167.68
401.885	167.16
402.329	172.09
402.774	177.1
403.218	189.27
403.663	182.39
404.107	191.1
404.551	198.8
404.995	185.42
405.44	176.27
405.884	183.74
406.328	174.65
406.772	176.53
407.216	163.16
407.66	156.08
408.104	144.82
408.547	139.89
408.991	137.47
409.435	133.19
409.879	136.14
410.322	139.95
410.766	138.76
411.209	140.94
411.653	137.08
412.096	142.22
412.54	146.53
412.983	149.97
413.426	156.28
413.869	158.65
414.312	162.96
414.756	159.42
415.199	155.99
415.642	154.07
416.085	155.11
416.527	156.56
416.97	158.14
417.413	154.02
417.856	149.3
418.298	147.69
418.741	144.94
419.184	142.71
419.626	143.64
420.069	141.52
420.511	143.07
420.953	143.07
421.396	143.54
421.838	139.39
422.28	141.56
422.722	148.48
423.164	150.61
423.606	151.98
424.048	152.57
424.49	149.87
424.932	149.24
425.374	147.71
425.816	147.58
426.258	146.41
426.699	148.72
427.141	145.32
427.582	141.76
428.024	137.95
428.465	135.19
428.907	134.63
429.348	134.3
429.789	139.96
430.231	142.02
430.672	144.68
431.113	146.07
431.554	148.47
431.995	148.31
432.436	151.93
432.877	155.08
433.318	159.55
433.759	159.19
434.2	161.27
434.64	160.8
435.081	161.89
435.522	156.38
435.962	153.1
436.403	152.29
436.843	155.5
437.284	151.84
437.724	147.26
438.164	146.04
438.604	145.01
439.045	142.94
439.485	141.98
439.925	141.57
440.365	140.39
440.805	140.22
441.245	140.53
441.685	137.58
442.125	137.14
442.564	139.75
443.004	137.33
443.444	137.64
443.883	138.63
444.323	134.64
444.762	131.97
445.202	133.66
445.641	137.39
446.081	135.09
446.52	138
446.959	139.19
447.398	137.63
447.837	138.79
448.276	137.61
448.716	139.24
449.154	139.99
449.593	138.75
450.032	138.28
450.471	134.07
450.91	134.47
451.349	133.95
451.787	131.81
452.226	134.06
452.664	131.81
453.103	130.71
453.541	129.59
453.98	132.51
454.418	132.92
454.856	132.1
455.295	133.24
455.733	134.36
456.171	134.31
456.609	135.36
457.047	134.55
457.485	138.15
457.923	139.78
458.361	136.41
458.798	134.84
459.236	134.99
459.674	135.26
460.111	135.49
460.549	133.94
460.987	131.91
461.424	130.43
461.862	129.65
462.299	127.1
462.736	127.62
463.173	129.92
463.611	130.98
464.048	130.97
464.485	133.96
464.922	133.7
465.359	132.52
465.796	138.67
466.233	140.56
466.67	142.64
467.106	144.35
467.543	142.71
467.98	141.42
468.416	138.52
468.853	138.84
469.29	134.43
469.726	134.48
470.162	133
470.599	128.64
471.035	127.21
471.471	124.33
471.907	123.11
472.344	123.28
472.78	125.09
473.216	125.68
473.652	124.35
474.088	124.17
474.523	123.9
474.959	125.21
475.395	123.54
475.831	122.75
476.266	122.6
476.702	122.62
477.138	121.41
477.573	120.03
478.008	120.26
478.444	122.38
478.879	124.41
479.314	124.89
479.75	124.94
480.185	125.47
480.62	125.65
481.055	125.8
481.49	126.58
481.925	127.5
482.36	129.42
482.795	130.09
483.229	129.41
483.664	128.75
484.099	126.53
484.534	126.51
484.968	125.97
485.403	125.02
485.837	122.28
486.271	120.18
486.706	119.83
487.14	117.35
487.574	115.91
488.009	114.98
488.443	114.46
488.877	115.87
489.311	115.5
489.745	116.49
490.179	117.18
490.613	121.1
491.046	121.48
491.48	121
491.914	121.14
492.348	121.71
492.781	122.53
493.215	122.83
493.648	122.91
494.082	123.7
494.515	123.44
494.948	125.14
495.382	124.39
495.815	124.7
496.248	125.64
496.681	126.06
497.114	126.51
497.547	127.25
497.98	128.63
498.413	129.2
498.846	129.55
499.279	129.46
499.711	128.58
500.144	127.38
500.577	128.39
501.009	128.02
501.442	129.26
501.874	129.58
502.306	128.99
502.739	130.76
503.171	131.91
503.603	132.04
504.036	133.1
504.468	132.99
504.9	133.75
505.332	133.52
505.764	133.79
506.196	134.21
506.627	135.2
507.059	136.13
507.491	134.26
507.923	133.23
508.354	134.45
508.786	134.25
509.217	135.55
509.649	136.68
510.08	137.66
510.512	138.77
510.943	138.82
511.374	138.79
511.805	139.13
512.237	139.6
512.668	140.77
513.099	140.63
513.53	141.37
513.961	140.81
514.391	141.75
514.822	143.95
515.253	145.33
515.684	145.68
516.114	146.9
516.545	148.28
516.975	149.9
517.406	150.43
517.836	150.39
518.267	151.44
518.697	154.57
519.127	154.61
519.558	154.22
519.988	154.58
520.418	155.94
520.848	156.41
521.278	156.9
521.708	172.47
522.138	173.65
522.567	175.25
522.997	176.1
523.427	175.47
523.857	176.05
524.286	175.77
524.716	176.45
525.145	177.45
525.575	178.8
526.004	178.66
526.433	163.6
526.863	162.75
527.292	163.27
527.721	164.27
528.15	165.45
528.579	166.43
529.008	167.56
529.437	168.41
529.866	168.27
530.295	168
530.724	169.07
531.152	170.2
531.581	171.21
532.01	171.89
532.438	171.46
532.867	171.35
533.295	172.2
533.723	172.1
534.152	172.14
534.58	172.57
535.008	171.44
535.436	172.15
535.865	171.98
536.293	171.86
536.721	171.98
537.149	172.75
537.576	172.17
538.004	172.11
538.432	172.04
538.86	171.97
539.287	171.58
539.715	172.71
540.143	171.62
540.57	172.05
540.998	172.92
541.425	172.1
541.852	171.48
542.28	172.19
542.707	171.43
543.134	171.4
543.561	171.33
543.988	171.09
544.415	170.67
544.842	169.91
545.269	169.21
545.696	169.26
546.123	170.15
546.549	169.4
546.976	168.09
547.403	168.68
547.829	168.72
548.256	168.83
548.682	169.26
549.108	169.78
549.535	170.94
549.961	171.26
550.387	170.44
550.813	171.19
551.24	172.12
551.666	172.77
552.092	171.71
552.518	171.3
552.943	171.21
553.369	171.67
553.795	172.07
554.221	171.6
554.646	171.29
555.072	172.54
555.498	171.08
555.923	171.37
556.349	172.31
556.774	171.92
557.199	171.44
557.625	170.79
558.05	170.76
558.475	170.64
558.9	170.5
559.325	169.62
559.75	168.87
560.175	168.39
560.6	167.81
561.025	166.98
561.449	167.43
561.874	167.59
562.299	168.93
562.723	168.44
563.148	167.31
563.572	167.12
563.997	167.63
564.421	167.1
564.846	166.29
565.27	166
565.694	165.47
566.118	165.89
566.542	166.84
566.966	165.24
567.39	164.09
567.814	163.15
568.238	162.63
568.662	162.1
569.086	162.41
569.509	163.2
569.933	163.19
570.357	163.33
570.78	162.39
571.204	161.63
571.627	160.55
572.05	160.92
572.474	162.38
572.897	162.4
573.32	163.23
573.743	162.27
574.166	161.83
574.589	161.29
575.012	160.41
575.435	160.01
575.858	159.53
576.281	159.23
576.704	158.5
577.126	156.72
577.549	155.95
577.972	155.01
578.394	154.95
578.817	155.84
579.239	155.01
579.661	155.21
580.084	155.55
580.506	154.8
580.928	154.66
581.35	154.6
581.772	155.03
582.194	154.13
582.616	152.84
583.038	151.31
583.46	148.87
583.882	148.35
584.303	146.91
584.725	145.47
585.147	147.97
585.568	148.56
585.99	148.12
586.411	147.76
586.833	147.98
587.254	147.6
587.675	147.66
588.096	148.64
588.518	147.49
588.939	146.47
589.36	145.47
589.781	140.98
590.202	141.05
590.623	140.49
591.043	140.15
591.464	139.34
591.885	139.04
592.305	138.75
592.726	136.98
593.147	137.12
593.567	136.87
593.987	136.7
594.408	135.61
594.828	132.49
595.248	132.12
595.669	130.97
596.089	130.13
596.509	129.55
596.929	128.38
597.349	128.75
597.769	127.32
598.189	126.47
598.608	125.61
599.028	126.19
599.448	126.24
599.867	124.99
600.287	124.27
600.706	124.12
601.126	124.04
601.545	124.38
601.965	124.02
602.384	123.47
602.803	123.4
603.222	123.43
603.641	122.54
604.061	122.52
604.48	122.26
604.898	122.49
605.317	122.39
605.736	122
606.155	121.8
606.574	120.85
606.992	121.2
607.411	120.76
607.829	119.69
608.248	119.64
608.666	119.12
609.085	118.84
609.503	118.17
609.921	117.89
610.339	117.67
610.758	116.64
611.176	116.22
611.594	115.96
612.012	115.25
612.43	115.94
612.847	116.17
613.265	117.07
613.683	117.24
614.101	117.17
614.518	116.89
614.936	115.87
615.353	115.55
615.771	116.01
616.188	115.35
616.606	115.97
617.023	115.47
617.44	114.43
617.857	112.73
618.274	112.25
618.691	112.36
619.108	111.17
619.525	110.17
619.942	110.05
620.359	109.2
620.776	109.45
621.192	109.69
621.609	109.57
622.026	109.88
622.442	110.22
622.859	109.59
623.275	108.68
623.691	109.19
624.108	110.41
624.524	111.46
624.94	111.06
625.356	110.81
625.772	110.49
626.188	110.48
626.604	109.57
627.02	108.81
627.436	108.93
627.852	109.92
628.268	110.65
628.683	109.08
629.099	107.81
629.514	106.91
629.93	107.03
630.345	107.24
630.761	106.35
631.176	106.89
631.591	108.31
632.007	108.32
632.422	106.74
632.837	104.76
633.252	105.94
633.667	105.66
634.082	105.63
634.497	105.41
634.911	105.18
635.326	106.25
635.741	106.27
636.155	104.87
636.57	105.77
636.984	106.48
637.399	108.37
637.813	107.79
638.228	107.5
638.642	107.44
639.056	106.38
639.47	105.7
639.884	105.28
640.298	104.24
640.712	104.68
641.126	103.83
641.54	102.92
641.954	101.21
642.368	100.67
642.781	103.05
643.195	102.29
643.609	103.79
644.022	103.19
644.436	102.42
644.849	101.7
645.262	99.84
645.676	99.39
646.089	99.12
646.502	99.11
646.915	99.39
647.328	97.12
647.741	98.3
648.154	96.6
648.567	97.92
648.98	97.46
649.393	97.46
649.805	97.76
650.218	96.78
650.631	96.34
651.043	95.85
651.456	95.16
651.868	93.95
652.28	93.64
652.693	93.79
653.105	93.22
653.517	92.85
653.929	92.67
654.341	92.67
654.753	92.19
655.165	92.06
655.577	92.74
655.989	92.21
656.401	92.1
656.813	91.57
657.224	91.19
657.636	89.56
658.047	90
658.459	89.53
658.87	89.96
659.282	89.84
659.693	89.59
660.104	89.12
660.515	88.56
660.926	88.89
661.338	88.17
661.749	88.12
662.159	87.47
662.57	85.94
662.981	85.29
663.392	84.03
663.803	83.89
664.213	83.56
664.624	82.98
665.035	83.45
665.445	81.74
665.855	81.68
666.266	81.64
666.676	82.13
667.086	81.59
667.497	81.99
667.907	82.32
668.317	82.29
668.727	84.33
669.137	83.4
669.547	83.72
669.956	83.15
670.366	83.23
670.776	82.82
671.186	82.55
671.595	83.28
672.005	82.78
672.414	82.74
672.824	82.5
673.233	79.83
673.642	80.04
674.052	79.69
674.461	81.26
674.87	81.31
675.279	81.52
675.688	80.39
676.097	81.29
676.506	80.79
676.915	80.27
677.323	79.84
677.732	79.16
678.141	78.8
678.549	77.62
678.958	75.6
679.366	74.26
679.775	72.2
680.183	73.67
680.592	73.14
681	74.22
681.408	74.33
681.816	74.15
682.224	74
682.632	74.94
683.04	76.85
683.448	78.24
683.856	80.13
684.264	82.19
684.671	81.48
685.079	81.09
685.487	81.36
685.894	82.76
686.302	83.31
686.709	84.55
687.116	84.91
687.524	85.36
687.931	87.49
688.338	87.53
688.745	87.26
689.152	88.5
689.559	89.81
689.966	91.71
690.373	92
690.78	93.11
691.187	94.05
691.593	95.12
692	94.11
692.407	94.58
692.813	97.92
693.22	100.24
693.626	100.28
694.032	101.36
694.439	102.16
694.845	102.67
695.251	104
695.657	105.51
696.063	106.67
696.469	108.32
696.875	109.82
697.281	107.33
697.687	106.71
698.093	106.68
698.498	107.01
698.904	106.13
699.31	107.47
699.715	109.6
700.12	111.5
700.526	112.51
700.931	113.18
701.337	114.29
701.742	116.92
702.147	119.1
702.552	120.91
702.957	123.21
703.362	125.23
703.767	127.24
704.172	126.53
704.577	124.57
704.981	124.43
705.386	126.26
705.791	125.39
706.195	125.52
706.6	126.36
707.004	128.1
707.408	125.86
707.813	126.78
708.217	125.55
708.621	126.04
709.025	128.85
709.43	130.68
709.834	131.85
710.237	133.9
710.641	133.64
711.045	133.54
711.449	133.11
711.853	136.7
712.256	136.81
712.66	137.42
713.064	139.14
713.467	140.01
713.87	140.66
714.274	140.06
714.677	140.69
715.08	142.78
715.484	143.87
715.887	148.8
716.29	146.89
716.693	148.92
717.096	151.63
717.499	151.75
717.901	149.43
718.304	149.29
718.707	150.12
719.109	147.68
719.512	147.04
719.915	148.06
720.317	146.17
720.719	147.9
721.122	147.24
721.524	146.01
721.926	149.54
722.328	153.36
722.731	152.1
723.133	151.94
723.535	155.66
723.937	156.67
724.338	155.95
724.74	156.18
725.142	196.36
725.544	199.81
725.945	209.51
726.347	205
726.748	204.68
727.15	206.09
727.551	206.71
727.952	205.73
728.354	202.97
728.755	203.96
729.156	201.95
729.557	162.88
729.958	157.82
730.359	149.72
730.76	150.28
731.161	149.67
731.562	149.25
731.962	149.85
732.363	150.28
