Data from N_1_DIV_IL_4N_Splice17_11-16-06-026.txt Node
Date: Sat Mar 14 11:16:06 EDT 2020
User: sa697716
Spectrometer: FLMS03696
Trigger mode: 0
Integration Time (sec): 3.180400E-1
Scans to average: 20
Electric dark correction enabled: true
Nonlinearity correction enabled: true
Boxcar width: 5
XAxis mode: Wavelengths
Number of Pixels in Spectrum: 2048
>>>>>Begin Spectral Data<<<<<
187.83	-42778.32
188.298	513.81
188.766	276.17
189.233	188.84
189.701	249.18
190.169	501.03
190.636	157.42
191.104	155.68
191.571	43.07
192.039	-16.65
192.506	-4
192.974	115.54
193.441	4.29
193.908	93.65
194.375	-30.3
194.842	-3.85
195.31	102.2
195.777	108.56
196.244	193.26
196.711	155.29
197.177	175.65
197.644	161.92
198.111	253.48
198.578	317.83
199.045	250.01
199.511	409.72
199.978	422.69
200.445	352.72
200.911	387.9
201.378	405.05
201.844	442.53
202.31	699.31
202.777	773.17
203.243	444.7
203.709	439.63
204.176	528.78
204.642	428.01
205.108	410.21
205.574	341.46
206.04	288.8
206.506	265.64
206.972	216.8
207.438	195.74
207.903	229.89
208.369	213.94
208.835	213.74
209.301	210.52
209.766	219.29
210.232	224.84
210.697	273.67
211.163	325.66
211.628	444.73
212.094	397.73
212.559	535.92
213.024	338.31
213.49	391.26
213.955	370.27
214.42	344.6
214.885	328.36
215.35	312.13
215.815	333.32
216.28	364.85
216.745	298.28
217.21	322.28
217.675	262.17
218.14	262.07
218.604	254.71
219.069	264.38
219.534	282.07
219.998	288.89
220.463	311.72
220.927	287.68
221.392	242.96
221.856	252.48
222.32	247.97
222.785	299.92
223.249	361.62
223.713	379.83
224.177	362.56
224.642	408.74
225.106	443.56
225.57	407.24
226.034	341.26
226.497	456.84
226.961	389.77
227.425	473.07
227.889	461.2
228.353	440.95
228.816	783.15
229.28	777.5
229.744	583.37
230.207	392.09
230.671	440.27
231.134	566.53
231.597	716.25
232.061	643.59
232.524	535.46
232.987	400.38
233.45	386.58
233.914	366.84
234.377	326.21
234.84	313.42
235.303	338.32
235.766	362.67
236.229	429.21
236.691	252.81
237.154	279.68
237.617	253.96
238.08	247.14
238.542	264.95
239.005	199.84
239.468	218.97
239.93	188.4
240.393	189.26
240.855	166.19
241.317	159.07
241.78	161.5
242.242	178.72
242.704	195.87
243.166	182.5
243.629	181.17
244.091	196.31
244.553	201.24
245.015	246.02
245.477	289.33
245.939	404.39
246.4	431.93
246.862	456.3
247.324	417.57
247.786	466.66
248.247	567.91
248.709	502.3
249.17	395.43
249.632	418.63
250.093	517.6
250.555	447.95
251.016	289.16
251.477	268.51
251.939	286.6
252.4	293.41
252.861	301.07
253.322	314.43
253.783	367.36
254.244	443
254.705	321.46
255.166	252.22
255.627	252.45
256.088	359.4
256.549	422.46
257.009	376.65
257.47	431.65
257.931	334.88
258.391	233.54
258.852	240.28
259.312	286.79
259.773	338.97
260.233	314.98
260.694	281.09
261.154	290.44
261.614	254.3
262.074	210.21
262.534	216.1
262.994	226.2
263.455	289.58
263.915	250.49
264.374	204.72
264.834	216.37
265.294	214.01
265.754	211.12
266.214	205.35
266.673	181.37
267.133	240.04
267.593	246.49
268.052	275.7
268.512	226.77
268.971	317.53
269.431	363.22
269.89	347.52
270.349	506.52
270.809	565.27
271.268	512.69
271.727	1018.74
272.186	636.66
272.645	459.71
273.104	310.96
273.563	440.95
274.022	288.91
274.481	300.02
274.94	230.62
275.399	169.37
275.857	188.25
276.316	242.18
276.775	213.38
277.233	206.22
277.692	221.7
278.15	276.16
278.609	329.26
279.067	306.39
279.525	296.07
279.984	391.96
280.442	476.26
280.9	529.42
281.358	341.45
281.816	325.51
282.274	335.9
282.732	314.85
283.19	301.03
283.648	249.23
284.106	260.9
284.564	238.01
285.021	229.89
285.479	189.28
285.937	146.31
286.394	159.41
286.852	158.35
287.309	156.9
287.767	181.49
288.224	189.5
288.682	197.42
289.139	234.87
289.596	217.88
290.053	208.45
290.511	220.7
290.968	281.77
291.425	321.26
291.882	324.4
292.339	284.89
292.796	246.54
293.252	219.89
293.709	202.98
294.166	172.4
294.623	175.27
295.079	150.81
295.536	184.44
295.992	177.04
296.449	188.09
296.905	199.31
297.362	221.84
297.818	233.28
298.274	266.12
298.731	260.12
299.187	255.66
299.643	274.73
300.099	354.19
300.555	359.7
301.011	292.64
301.467	315.46
301.923	317.43
302.379	299.5
302.835	300.33
303.291	276.72
303.746	295.21
304.202	319.93
304.658	334.02
305.113	235.44
305.569	244.33
306.024	237.72
306.479	176.42
306.935	168.06
307.39	155.96
307.845	149.52
308.301	166.64
308.756	153.86
309.211	207.42
309.666	209.48
310.121	277.27
310.576	255.57
311.031	275.33
311.486	325.91
311.94	321.97
312.395	401.74
312.85	685.72
313.305	2640.58
313.759	18446.64
314.214	1147.62
314.668	855.03
315.123	744.82
315.577	333.52
316.032	286.79
316.486	349.69
316.94	310.47
317.394	254.68
317.849	211.12
318.303	202.06
318.757	180.4
319.211	200.62
319.665	191.39
320.119	196.39
320.572	240.49
321.026	233.23
321.48	193.87
321.934	173.21
322.387	170.09
322.841	199.8
323.295	221.32
323.748	214.44
324.202	224.41
324.655	273.76
325.108	410.57
325.562	312.1
326.015	331.16
326.468	245.4
326.921	299.74
327.374	311.75
327.827	344.2
328.28	370.97
328.733	280.15
329.186	243.28
329.639	219.4
330.092	170.99
330.545	174.84
330.997	202.03
331.45	242.89
331.903	304.5
332.355	458.38
332.808	399.19
333.26	330.07
333.713	369.52
334.165	379.37
334.617	518.65
335.069	367.4
335.522	578.69
335.974	612.79
336.426	495.94
336.878	284.6
337.33	173.3
337.782	158.17
338.234	197.93
338.686	209.38
339.137	233.23
339.589	178.61
340.041	202.86
340.493	195.91
340.944	194.97
341.396	200.02
341.847	206.79
342.299	238.75
342.75	344.32
343.201	277.91
343.653	319.38
344.104	322.39
344.555	274.77
345.006	340.76
345.457	324.85
345.908	260.49
346.359	277.61
346.81	213.85
347.261	221.4
347.712	199.15
348.163	200.17
348.613	226.9
349.064	242.46
349.515	221.16
349.965	241.98
350.416	259.66
350.866	262.17
351.317	267.13
351.767	441.59
352.217	512.73
352.668	467.74
353.118	441.7
353.568	314.31
354.018	326.53
354.468	356.2
354.918	255.51
355.368	220.59
355.818	324.13
356.268	813.36
356.718	3365.96
357.168	915.27
357.617	424.14
358.067	487.54
358.517	555.65
358.966	631.15
359.416	727.98
359.865	756.56
360.315	833.55
360.764	399.38
361.213	271.56
361.663	228.71
362.112	254.53
362.561	371.71
363.01	258.33
363.459	209.64
363.908	185.22
364.357	188.64
364.806	305.21
365.255	238.36
365.703	235.9
366.152	222.85
366.601	211.75
367.05	209.79
367.498	217.79
367.947	231.69
368.395	225.81
368.844	209.12
369.292	209.64
369.74	163.47
370.189	205.99
370.637	237.57
371.085	210.57
371.533	228.02
371.981	187.17
372.429	178.93
372.877	178.72
373.325	179.52
373.773	175.49
374.221	150.49
374.669	179.71
375.116	159.8
375.564	166.63
376.012	173.68
376.459	165.91
376.907	196.88
377.354	215.76
377.801	205.93
378.249	259.5
378.696	311.33
379.143	420.21
379.591	438.62
380.038	803.06
380.485	566.07
380.932	605.28
381.379	565.78
381.826	466.01
382.273	329.53
382.72	289.2
383.166	265.87
383.613	198.32
384.06	164.84
384.506	179.6
384.953	153.6
385.4	155.57
385.846	136.38
386.292	124
386.739	99.29
387.185	93.65
387.631	99.87
388.078	105.65
388.524	109.57
388.97	114.7
389.416	104.11
389.862	107.79
390.308	103.6
390.754	105.51
391.2	107.27
391.645	108.19
392.091	120.45
392.537	125.48
392.983	107.46
393.428	121.77
393.874	123.05
394.319	133.23
394.765	139.92
395.21	130.72
395.655	131.6
396.101	131.49
396.546	124.39
396.991	108.58
397.436	94.65
397.881	95.17
398.326	76
398.771	79.28
399.216	64.37
399.661	47.74
400.106	52.3
400.551	48.63
400.995	42.74
401.44	40.75
401.885	43.5
402.329	44.33
402.774	44.15
403.218	52.19
403.663	44.34
404.107	47.06
404.551	51.88
404.995	48.4
405.44	47.42
405.884	44.66
406.328	38.3
406.772	36.31
407.216	35.55
407.66	29.4
408.104	20.45
408.547	21.79
408.991	21.13
409.435	17.45
409.879	19.32
410.322	18.55
410.766	19.56
411.209	24.71
411.653	23.99
412.096	23.75
412.54	25.27
412.983	26.58
413.426	28.9
413.869	24.5
414.312	27.5
414.756	23.54
415.199	22.46
415.642	23.61
416.085	24.12
416.527	23.94
416.97	21.4
417.413	22.51
417.856	21.23
418.298	19.79
418.741	18.94
419.184	15.75
419.626	12.75
420.069	13.09
420.511	13.3
420.953	16.12
421.396	16.8
421.838	17.55
422.28	14.28
422.722	14.87
423.164	11.6
423.606	14.33
424.048	12.71
424.49	15.48
424.932	14.51
425.374	14.9
425.816	10.75
426.258	10.4
426.699	10.89
427.141	15.2
427.582	13.83
428.024	15.9
428.465	12.68
428.907	12.14
429.348	12.67
429.789	15.13
430.231	14.71
430.672	13.62
431.113	13.94
431.554	13.82
431.995	13.95
432.436	15.14
432.877	16.35
433.318	19.96
433.759	20.92
434.2	20.88
434.64	17.76
435.081	18.67
435.522	20.57
435.962	20.39
436.403	21.48
436.843	18.31
437.284	16.66
437.724	13.83
438.164	8.57
438.604	8.62
439.045	11.25
439.485	14.45
439.925	14.78
440.365	14.44
440.805	13.64
441.245	13.79
441.685	14.15
442.125	14.3
442.564	14.78
443.004	16.78
443.444	16.9
443.883	15.01
444.323	11.52
444.762	7.37
445.202	4.74
445.641	5.44
446.081	3.16
446.52	4.27
446.959	6.02
447.398	7.47
447.837	8.11
448.276	6.81
448.716	8.11
449.154	6.86
449.593	8.32
450.032	9.75
450.471	6.64
450.91	6.07
451.349	6.4
451.787	6.68
452.226	5.8
452.664	5.08
453.103	5.99
453.541	3.13
453.98	6.98
454.418	7.35
454.856	8.64
455.295	9.32
455.733	10.57
456.171	9.44
456.609	9.33
457.047	9.31
457.485	11.1
457.923	12.52
458.361	13.35
458.798	11.47
459.236	11.47
459.674	10.1
460.111	11.36
460.549	11.12
460.987	10.27
461.424	9.03
461.862	9.53
462.299	9.54
462.736	9.03
463.173	9.27
463.611	11.88
464.048	12.29
464.485	12.05
464.922	10.93
465.359	9.88
465.796	15.96
466.233	16.54
466.67	17.36
467.106	18.17
467.543	17.81
467.98	16.78
468.416	15.3
468.853	14.32
469.29	14.89
469.726	14.9
470.162	15.21
470.599	10.17
471.035	9.58
471.471	8.29
471.907	5.82
472.344	4.71
472.78	5.16
473.216	3.95
473.652	4.68
474.088	5
474.523	5.16
474.959	4.88
475.395	5.37
475.831	5.43
476.266	5.46
476.702	4.99
477.138	5.71
477.573	5.12
478.008	5.5
478.444	6.46
478.879	6.22
479.314	6.43
479.75	6.08
480.185	5.54
480.62	5.08
481.055	4.82
481.49	6.08
481.925	6.14
482.36	8.82
482.795	8.16
483.229	6.89
483.664	6.32
484.099	6.46
484.534	7.45
484.968	8.08
485.403	7.7
485.837	7.28
486.271	6.97
486.706	6.27
487.14	4.02
487.574	4.91
488.009	4.17
488.443	4.21
488.877	4.19
489.311	3.59
489.745	3.37
490.179	3.56
490.613	4.58
491.046	3.94
491.48	4.51
491.914	5.12
492.348	4.81
492.781	5.58
493.215	5.51
493.648	4.87
494.082	4.22
494.515	4.55
494.948	5.49
495.382	4.49
495.815	4.94
496.248	5.28
496.681	4.88
497.114	4.69
497.547	4.76
497.98	5.65
498.413	6.88
498.846	7.75
499.279	7.37
499.711	6.77
500.144	7.08
500.577	7.63
501.009	6.74
501.442	7.07
501.874	7.28
502.306	6.62
502.739	7.83
503.171	7.15
503.603	7.15
504.036	7.04
504.468	7.56
504.9	7.43
505.332	7.15
505.764	8.06
506.196	7.92
506.627	8.11
507.059	8.5
507.491	6.81
507.923	7.11
508.354	7.48
508.786	7.29
509.217	6.84
509.649	6.71
510.08	6.32
510.512	6.52
510.943	6.53
511.374	6.43
511.805	6.02
512.237	5.56
512.668	4.8
513.099	4.09
513.53	4.67
513.961	5.1
514.391	5.44
514.822	6.18
515.253	6.07
515.684	5.85
516.114	5.61
516.545	5.91
516.975	5.42
517.406	5.49
517.836	5.09
518.267	4.79
518.697	5.15
519.127	4.91
519.558	3.87
519.988	2.85
520.418	2.51
520.848	1.71
521.278	1.92
521.708	18.2
522.138	19.05
522.567	18.46
522.997	18.43
523.427	17.76
523.857	17.95
524.286	18.33
524.716	18.86
525.145	19.51
525.575	21
526.004	20.46
526.433	5.16
526.863	4.19
527.292	5.48
527.721	5.78
528.15	5.5
528.579	5.49
529.008	5.79
529.437	5.24
529.866	4.46
530.295	3.45
530.724	4.14
531.152	4.18
531.581	5.2
532.01	4.72
532.438	4.27
532.867	4.01
533.295	4.25
533.723	4.09
534.152	4.91
534.58	5.5
535.008	6.01
535.436	6.9
535.865	6.53
536.293	5.49
536.721	5.43
537.149	5.54
537.576	6.21
538.004	6.19
538.432	5.94
538.86	5.71
539.287	5.51
539.715	5.49
540.143	4.33
540.57	4.72
540.998	4.85
541.425	6.57
541.852	6.72
542.28	6.5
542.707	6.47
543.134	6.88
543.561	6.75
543.988	7.23
544.415	6.61
544.842	6.54
545.269	6.68
545.696	7.68
546.123	6.75
546.549	6.56
546.976	6.5
547.403	6.31
547.829	5.53
548.256	5.31
548.682	4.83
549.108	5.66
549.535	5.28
549.961	4.89
550.387	4.02
550.813	4.43
551.24	5.07
551.666	4.58
552.092	4.29
552.518	4.27
552.943	4.4
553.369	4.2
553.795	3.98
554.221	4.35
554.646	4.31
555.072	5.37
555.498	4.13
555.923	3.2
556.349	3.66
556.774	3.79
557.199	4.13
557.625	3.28
558.05	3.98
558.475	3.83
558.9	4.13
559.325	4.08
559.75	3.46
560.175	3.95
560.6	4
561.025	3.54
561.449	3.62
561.874	3.48
562.299	4.62
562.723	4.21
563.148	4.18
563.572	3.38
563.997	3.1
564.421	2.19
564.846	1.54
565.27	1.72
565.694	1.77
566.118	2.16
566.542	2.97
566.966	3.18
567.39	3.01
567.814	3.7
568.238	4.39
568.662	4.14
569.086	4.51
569.509	4.39
569.933	5.44
570.357	5.55
570.78	5.13
571.204	5.17
571.627	4.67
572.05	4.75
572.474	4.95
572.897	5.04
573.32	6.33
573.743	6.71
574.166	7.47
574.589	6.58
575.012	6.36
575.435	6.08
575.858	5.54
576.281	5.88
576.704	5.03
577.126	4.44
577.549	3.83
577.972	2.79
578.394	2.67
578.817	4.13
579.239	4.05
579.661	4.14
580.084	4.87
580.506	5.02
580.928	4.81
581.35	5.81
581.772	5.84
582.194	6.13
582.616	6.23
583.038	5.55
583.46	3.97
583.882	4.29
584.303	4.11
584.725	3.7
585.147	6.75
585.568	6.98
585.99	7.17
586.411	7.03
586.833	7.16
587.254	7.06
587.675	7.31
588.096	7.32
588.518	6.85
588.939	7.15
589.36	7.13
589.781	3.38
590.202	5.41
590.623	5.19
591.043	4.52
591.464	4.5
591.885	5.33
592.305	5.14
592.726	4.84
593.147	5.03
593.567	5.51
593.987	5.67
594.408	5.85
594.828	3.28
595.248	3.81
595.669	4.83
596.089	4.66
596.509	4.01
596.929	4.51
597.349	4.92
597.769	4.35
598.189	4.35
598.608	4.3
599.028	4.26
599.448	4.36
599.867	3.75
600.287	3.18
600.706	3.78
601.126	4.38
601.545	4.62
601.965	4.41
602.384	4.37
602.803	3.87
603.222	3.56
603.641	3.76
604.061	3.82
604.48	3.88
604.898	3.94
605.317	3.05
605.736	2.52
606.155	2.76
606.574	2.78
606.992	3.1
607.411	3.84
607.829	3.77
608.248	3.25
608.666	3.27
609.085	3.68
609.503	3.76
609.921	4.23
610.339	4.78
610.758	3.87
611.176	3.81
611.594	4.35
612.012	4.07
612.43	4.84
612.847	5.27
613.265	5.65
613.683	5.39
614.101	5.67
614.518	5.55
614.936	4.88
615.353	5.87
615.771	6.21
616.188	6.21
616.606	5.96
617.023	6.04
617.44	6.4
617.857	5.68
618.274	5.37
618.691	5.62
619.108	5.79
619.525	5.8
619.942	5.25
620.359	5.01
620.776	4.85
621.192	5.72
621.609	5.72
622.026	5.64
622.442	5.9
622.859	5.28
623.275	4.91
623.691	5.14
624.108	5.79
624.524	5.52
624.94	5.5
625.356	4.73
625.772	4.19
626.188	3.58
626.604	3.35
627.02	3.16
627.436	4.12
627.852	5.03
628.268	4.92
628.683	4.22
629.099	4.56
629.514	4.57
629.93	4.91
630.345	4.08
630.761	3.96
631.176	4.37
631.591	6.2
632.007	6.51
632.422	5.47
632.837	4.91
633.252	5.76
633.667	5.6
634.082	5.93
634.497	6.69
634.911	8.23
635.326	8.44
635.741	7.83
636.155	6.31
636.57	6.82
636.984	6.76
637.399	8.24
637.813	7.33
638.228	7
638.642	6.5
639.056	5.78
639.47	4.79
639.884	4.73
640.298	4.78
640.712	6.12
641.126	5.85
641.54	5.97
641.954	3.66
642.368	4.35
642.781	7.32
643.195	7.65
643.609	8.26
644.022	8.68
644.436	8.76
644.849	8.73
645.262	8.39
645.676	7.43
646.089	7.13
646.502	8.75
646.915	8.59
647.328	6.94
647.741	7.18
648.154	7.63
648.567	8.5
648.98	9.37
649.393	9.86
649.805	9.67
650.218	9.68
650.631	10.11
651.043	10.34
651.456	11.12
651.868	10.65
652.28	10.31
652.693	9.28
653.105	8.59
653.517	8.34
653.929	8.42
654.341	8.47
654.753	9.93
655.165	9.73
655.577	9.25
655.989	8.97
656.401	8.85
656.813	9.41
657.224	10.03
657.636	9.92
658.047	10.21
658.459	9.52
658.87	8.5
659.282	7.81
659.693	8.43
660.104	8.95
660.515	7.96
660.926	6.92
661.338	7.14
661.749	6.25
662.159	6.63
662.57	5.75
662.981	6.19
663.392	7
663.803	6.48
664.213	5.58
664.624	5.12
665.035	5.91
665.445	6.2
665.855	6.37
666.266	7.61
666.676	7.73
667.086	7.52
667.497	7.92
667.907	6.93
668.317	6.78
668.727	10.04
669.137	9.56
669.547	9.07
669.956	9.47
670.366	8.93
670.776	9.23
671.186	8.67
671.595	8.79
672.005	7.93
672.414	9.26
672.824	10.52
673.233	7.87
673.642	8.16
674.052	8.78
674.461	9.96
674.87	10.28
675.279	10.07
675.688	9.67
676.097	10.56
676.506	11.29
676.915	10.81
677.323	10.84
677.732	9.99
678.141	9.88
678.549	9.44
678.958	7.59
679.366	6.32
679.775	5.25
680.183	6.76
680.592	6.44
681	6.52
681.408	6.43
681.816	5.99
682.224	6.09
682.632	7.33
683.04	6.95
683.448	8.03
683.856	10
684.264	11.14
684.671	9.93
685.079	9.73
685.487	9.2
685.894	8.79
686.302	7.33
686.709	8.2
687.116	7.4
687.524	7.26
687.931	8.36
688.338	7.62
688.745	6.94
689.152	6.72
689.559	6.8
689.966	8.57
690.373	8.41
690.78	9.69
691.187	9.84
691.593	11.25
692	12.57
692.407	12.07
692.813	13.87
693.22	14.38
693.626	13.62
694.032	14.28
694.439	13.35
694.845	13.75
695.251	13.13
695.657	13.38
696.063	11.97
696.469	11.53
696.875	11.11
697.281	9.86
697.687	9.5
698.093	10.26
698.498	10.85
698.904	9.95
699.31	10.92
699.715	12.84
700.12	12.18
700.526	12.47
700.931	11.53
701.337	12.32
701.742	12.34
702.147	12.05
702.552	13.17
702.957	11.34
703.362	12.22
703.767	11.1
704.172	9.19
704.577	9.46
704.981	7.68
705.386	7.86
705.791	8.03
706.195	7.06
706.6	7.54
707.004	4.64
707.408	4.65
707.813	4.99
708.217	6.04
708.621	6.66
709.025	5.71
709.43	7.88
709.834	8.98
710.237	7.81
710.641	8.18
711.045	8.82
711.449	10.46
711.853	13.38
712.256	12.63
712.66	11.99
713.064	12.13
713.467	13.95
713.87	13.86
714.274	13.86
714.677	14.89
715.08	15.78
715.484	15.95
715.887	19.35
716.29	17.71
716.693	19.22
717.096	20.31
717.499	20.45
717.901	18.33
718.304	17.24
718.707	16.21
719.109	15.35
719.512	13.66
719.915	14.33
720.317	12.41
720.719	11.34
721.122	10.73
721.524	11.45
721.926	15.41
722.328	17.25
722.731	17.63
723.133	18.54
723.535	19.41
723.937	21.64
724.338	22.97
724.74	23.63
725.142	59.57
725.544	63.62
725.945	72.57
726.347	69.06
726.748	68.54
727.15	69.72
727.551	71.1
727.952	69.97
728.354	67.07
728.755	65.69
729.156	63.32
729.557	28.01
729.958	23.3
730.359	13.84
730.76	13.77
731.161	13.43
731.562	11.25
731.962	9.7
732.363	9.71
732.763	10.65
733.164	9.7
733.564	10.83
733.965	11.63
734.365	11.85
734.766	11.83
735.166	11.16
735.566	12.03
735.966	13.61
736.366	13.87
736.766	14.44
737.166	13.95
737.566	13.23
737.966	13.07
738.365	13.65
738.765	13.9
739.165	14.41
739.564	14.62
739.964	13.44
740.363	12.37
740.763	10.87
741.162	10.67
741.561	10.49
741.96	10.61
742.36	9.06
742.759	8.76
743.158	7.92
743.557	6.53
743.955	5.37
744.354	5.65
744.753	5.33
745.152	6.17
745.55	5.86
745.949	6.76
746.348	7.43
746.746	7.99
747.144	9.62
747.543	9.22
747.941	9.03
748.339	9.89
748.737	10.05
749.136	10.39
749.534	9.33
749.932	10.62
750.33	10
750.727	8.54
751.125	8.48
751.523	7.7
751.921	10.51
752.318	10.81
752.716	11.27
753.113	11
753.511	11.25
753.908	13.13
754.305	15.13
754.703	15.75
755.1	17.88
755.497	19.2
755.894	18.3
756.291	17.17
756.688	17.79
757.085	19.41
757.482	21.53
757.878	24.39
758.275	24.62
758.672	21.15
759.068	21.4
759.465	21.4
759.861	22.62
760.258	23.01
760.654	24.9
761.05	30.09
761.447	25.69
761.843	23.2
762.239	20.59
762.635	18.47
763.031	14.8
763.427	14.9
763.822	14.46
764.218	12.41
764.614	13.21
765.01	9.4
765.405	6.79
765.801	7.38
766.196	7.26
