Data from N_1_HIR_IL_4N_Splice17_11-27-10-880.txt Node
Date: Sat Mar 14 11:27:10 EDT 2020
User: sa697716
Spectrometer: FLMS03696
Trigger mode: 0
Integration Time (sec): 3.180400E-1
Scans to average: 20
Electric dark correction enabled: true
Nonlinearity correction enabled: true
Boxcar width: 5
XAxis mode: Wavelengths
Number of Pixels in Spectrum: 2048
>>>>>Begin Spectral Data<<<<<
187.83	-235791.26
188.298	1760.77
188.766	947.93
189.233	842.5
189.701	1164.34
190.169	1519.11
190.636	609.22
191.104	433.25
191.571	102.79
192.039	10.46
192.506	-12.19
192.974	295.36
193.441	-466.4
193.908	-118.98
194.375	-3.53
194.842	55.89
195.31	70.04
195.777	119.31
196.244	197.25
196.711	187.24
197.177	184.89
197.644	183.18
198.111	300.5
198.578	413.12
199.045	315.68
199.511	446.33
199.978	465.08
200.445	414.84
200.911	426.76
201.378	427.25
201.844	416.66
202.31	676.05
202.777	757.32
203.243	448.15
203.709	432.14
204.176	523.71
204.642	457.03
205.108	410.94
205.574	337.37
206.04	297.63
206.506	277.22
206.972	234.71
207.438	247.7
207.903	282.01
208.369	246.95
208.835	250.24
209.301	250.16
209.766	233.99
210.232	252.4
210.697	288.04
211.163	361.02
211.628	506.47
212.094	430.96
212.559	538.74
213.024	316.73
213.49	381.64
213.955	365.75
214.42	351.84
214.885	332.81
215.35	325.34
215.815	367
216.28	375.11
216.745	303.58
217.21	340.08
217.675	256.95
218.14	275.41
218.604	266.45
219.069	272.02
219.534	286.95
219.998	305.9
220.463	322.57
220.927	296.74
221.392	259.95
221.856	252.41
222.32	243.12
222.785	309.62
223.249	349.93
223.713	375.09
224.177	376.8
224.642	409.87
225.106	436.41
225.57	465.98
226.034	384.51
226.497	566.16
226.961	539.16
227.425	643.08
227.889	674.43
228.353	637.15
228.816	1187.22
229.28	1025.63
229.744	832
230.207	558.77
230.671	523.35
231.134	748.64
231.597	899.04
232.061	824.26
232.524	724.48
232.987	490.59
233.45	456.97
233.914	412.55
234.377	388.27
234.84	348.78
235.303	386.03
235.766	393.31
236.229	384.31
236.691	226.01
237.154	226.64
237.617	196.03
238.08	183.85
238.542	208.38
239.005	164.08
239.468	183.39
239.93	183.46
240.393	170.69
240.855	158.9
241.317	154.04
241.78	165.13
242.242	185.88
242.704	227.56
243.166	213.56
243.629	218.39
244.091	245.33
244.553	257.17
245.015	283.59
245.477	315.63
245.939	451.1
246.4	486.33
246.862	470.18
247.324	439.38
247.786	422.78
248.247	492.45
248.709	421.81
249.17	334.44
249.632	377.02
250.093	439.17
250.555	437.35
251.016	293.86
251.477	283.17
251.939	312.5
252.4	315.82
252.861	356.93
253.322	353.81
253.783	363.82
254.244	432.62
254.705	303.1
255.166	246.14
255.627	214.87
256.088	298.23
256.549	323.63
257.009	268.08
257.47	291.86
257.931	237.23
258.391	208.92
258.852	235.19
259.312	237.66
259.773	298.31
260.233	297.21
260.694	277.25
261.154	289.31
261.614	262.83
262.074	220.84
262.534	264.32
262.994	253.3
263.455	296.81
263.915	269.06
264.374	253.4
264.834	274.62
265.294	274.62
265.754	268.93
266.214	249.95
266.673	219.06
267.133	282.06
267.593	243.01
268.052	300.01
268.512	244.06
268.971	326.65
269.431	384.55
269.89	325.89
270.349	452.37
270.809	538.54
271.268	503.99
271.727	1027.33
272.186	678.08
272.645	512.49
273.104	325.58
273.563	475.56
274.022	325.47
274.481	298.37
274.94	252.71
275.399	193.72
275.857	203.58
276.316	254.84
276.775	238.45
277.233	220.02
277.692	232.09
278.15	310.29
278.609	384.31
279.067	358.6
279.525	343.12
279.984	404.82
280.442	484.81
280.9	562.53
281.358	356.03
281.816	328
282.274	332.35
282.732	303.23
283.19	288.24
283.648	218.44
284.106	213.68
284.564	199.25
285.021	220.51
285.479	177.29
285.937	131.19
286.394	142.55
286.852	134.09
287.309	147.22
287.767	182.41
288.224	193.04
288.682	208.35
289.139	258.6
289.596	248.15
290.053	235.87
290.511	267.64
290.968	328.85
291.425	429.48
291.882	429.65
292.339	385.19
292.796	353.87
293.252	323.46
293.709	287.19
294.166	260.12
294.623	274.92
295.079	247.96
295.536	270.8
295.992	249.24
296.449	236.35
296.905	242
297.362	244.14
297.818	241.2
298.274	248.06
298.731	243.44
299.187	233.21
299.643	249.27
300.099	315.01
300.555	337.08
301.011	315.27
301.467	368.46
301.923	397.94
302.379	378.16
302.835	381.44
303.291	383.29
303.746	416.46
304.202	501.65
304.658	493
305.113	353.6
305.569	347.19
306.024	304.61
306.479	210.86
306.935	185.02
307.39	193.71
307.845	192.47
308.301	221.12
308.756	200.57
309.211	203.99
309.666	194.35
310.121	262.47
310.576	249.39
311.031	255.11
311.486	286.98
311.94	295.83
312.395	341.63
312.85	563.79
313.305	1579.56
313.759	12356.95
314.214	940.79
314.668	873.84
315.123	743.23
315.577	315.01
316.032	285.37
316.486	357.32
316.94	281.84
317.394	230.57
317.849	193.19
318.303	198.48
318.757	192.98
319.211	196.79
319.665	169.2
320.119	175.87
320.572	207.82
321.026	222.12
321.48	191.74
321.934	192.6
322.387	195.13
322.841	215.05
323.295	237.43
323.748	220.18
324.202	244.51
324.655	302.97
325.108	418.74
325.562	354
326.015	374.49
326.468	288.03
326.921	351.58
327.374	350.11
327.827	377.45
328.28	418.12
328.733	316.63
329.186	277.28
329.639	275.76
330.092	240.51
330.545	231.17
330.997	264.86
331.45	328.62
331.903	396.47
332.355	631.01
332.808	583.91
333.26	459.24
333.713	506.27
334.165	497.16
334.617	597.3
335.069	421.13
335.522	665.16
335.974	668.29
336.426	508.44
336.878	281.12
337.33	161.52
337.782	170.89
338.234	223.78
338.686	232.97
339.137	271.83
339.589	284.13
340.041	253.14
340.493	228.1
340.944	235.65
341.396	260.11
341.847	266.23
342.299	325.83
342.75	427.21
343.201	331.92
343.653	377.28
344.104	457.43
344.555	341.48
345.006	451.48
345.457	423.73
345.908	327.68
346.359	324.88
346.81	243.61
347.261	225.27
347.712	177.59
348.163	198.17
348.613	233.76
349.064	208.83
349.515	189.85
349.965	216.13
350.416	216.91
350.866	232.44
351.317	233.72
351.767	398.18
352.217	552.92
352.668	518.92
353.118	508.64
353.568	393.09
354.018	378.45
354.468	426.86
354.918	335.7
355.368	320.34
355.818	428.13
356.268	1146.98
356.718	5055.55
357.168	1232.82
357.617	568.18
358.067	535.8
358.517	543.86
358.966	647.03
359.416	732.45
359.865	757.56
360.315	776.56
360.764	416.58
361.213	250.43
361.663	182.83
362.112	220.44
362.561	384.74
363.01	315.53
363.459	288.89
363.908	287.75
364.357	303.59
364.806	434.67
365.255	292.65
365.703	303.09
366.152	275.68
366.601	246.67
367.05	243.21
367.498	241.73
367.947	241.02
368.395	251.47
368.844	230.27
369.292	214.72
369.74	180.43
370.189	248.32
370.637	244.95
371.085	221.99
371.533	272.18
371.981	191.96
372.429	163.32
372.877	200.62
373.325	161.69
373.773	135.57
374.221	118.76
374.669	130.78
375.116	130.99
375.564	146.09
376.012	129.11
376.459	129.26
376.907	154.12
377.354	171.41
377.801	145.57
378.249	192.46
378.696	256.56
379.143	333.98
379.591	355.95
380.038	527.23
380.485	375.22
380.932	495.35
381.379	488.68
381.826	459.94
382.273	326.04
382.72	270.71
383.166	254.25
383.613	168.45
384.06	148.95
384.506	159.07
384.953	135.03
385.4	132.32
385.846	113.8
386.292	81.67
386.739	58
387.185	55.11
387.631	53.81
388.078	65.27
388.524	82.6
388.97	87.57
389.416	85.13
389.862	95.27
390.308	91.82
390.754	106.66
391.2	122.12
391.645	121.61
392.091	140.9
392.537	145.71
392.983	128.07
393.428	141.26
393.874	140.97
394.319	151.51
394.765	147.05
395.21	145.02
395.655	135.94
396.101	129.08
396.546	124.45
396.991	111.76
397.436	106.38
397.881	103.71
398.326	78.18
398.771	77.2
399.216	57.56
399.661	53.72
400.106	56.52
400.551	57.95
400.995	55.54
401.44	58.03
401.885	51.82
402.329	47.65
402.774	48.74
403.218	61.5
403.663	62.73
404.107	67.93
404.551	70.51
404.995	65.78
405.44	59.21
405.884	55.21
406.328	46.9
406.772	45.84
407.216	44.47
407.66	38.47
408.104	29.45
408.547	24.33
408.991	22.02
409.435	14.56
409.879	15.57
410.322	14.07
410.766	17.5
411.209	21.83
411.653	20.71
412.096	21.49
412.54	21.94
412.983	21.94
413.426	25.17
413.869	23.04
414.312	28.01
414.756	26.24
415.199	26.3
415.642	28.59
416.085	27.44
416.527	28.66
416.97	26.78
417.413	27.3
417.856	25.03
418.298	22.13
418.741	21.08
419.184	20.14
419.626	15.41
420.069	16.1
420.511	13.11
420.953	14.11
421.396	13.07
421.838	13.78
422.28	11.77
422.722	13.71
423.164	13.81
423.606	15.76
424.048	15.02
424.49	17.28
424.932	15.5
425.374	13.26
425.816	10.98
426.258	12.12
426.699	12.01
427.141	16.54
427.582	14.55
428.024	13.61
428.465	10.1
428.907	9.89
429.348	10.81
429.789	13.79
430.231	16.4
430.672	17.22
431.113	18.8
431.554	18.95
431.995	17.02
432.436	20.37
432.877	20.07
433.318	24.54
433.759	21.67
434.2	20.41
434.64	18.57
435.081	18.55
435.522	19.82
435.962	18.11
436.403	18.6
436.843	16.53
437.284	14.72
437.724	12.95
438.164	7.84
438.604	10.94
439.045	12.4
439.485	16.96
439.925	16.21
440.365	14.54
440.805	14
441.245	15.12
441.685	15.89
442.125	15.22
442.564	16.99
443.004	20.08
443.444	19.22
443.883	19.7
444.323	13.45
444.762	10.37
445.202	8.87
445.641	9.56
446.081	7.12
446.52	7.28
446.959	7.56
447.398	7.3
447.837	6.8
448.276	5.83
448.716	6.76
449.154	6.18
449.593	7.53
450.032	8.67
450.471	6.89
450.91	6.6
451.349	8.14
451.787	7.39
452.226	7.22
452.664	6.22
453.103	5.79
453.541	4.67
453.98	8.54
454.418	8.46
454.856	9.59
455.295	10.56
455.733	11.9
456.171	10.65
456.609	12.79
457.047	13.48
457.485	15.06
457.923	16.8
458.361	15.79
458.798	13.79
459.236	14.06
459.674	12.72
460.111	12.31
460.549	11.91
460.987	10.22
461.424	8.2
461.862	7.45
462.299	7.62
462.736	7.92
463.173	8.4
463.611	12.31
464.048	12.19
464.485	13.37
464.922	13.24
465.359	12.57
465.796	19.91
466.233	21.04
466.67	22.85
467.106	23.63
467.543	22
467.98	20.84
468.416	17.82
468.853	17.58
469.29	15.84
469.726	15.14
470.162	14.64
470.599	9.29
471.035	7.19
471.471	5.89
471.907	3.63
472.344	3.37
472.78	5
473.216	3.86
473.652	3.92
474.088	3.31
474.523	3.46
474.959	3.27
475.395	3.2
475.831	4.13
476.266	4.15
476.702	3.78
477.138	4.36
477.573	3.16
478.008	3.77
478.444	5.13
478.879	6.68
479.314	7.41
479.75	7.51
480.185	6.75
480.62	5.68
481.055	5.97
481.49	6.77
481.925	7.03
482.36	8.45
482.795	7.9
483.229	6.39
483.664	5.83
484.099	5.44
484.534	5.84
484.968	6.95
485.403	7.63
485.837	6.74
486.271	5.86
486.706	5.37
487.14	4.71
487.574	4.95
488.009	5.11
488.443	4.55
488.877	4.86
489.311	4.31
489.745	4.54
490.179	4.64
490.613	6.16
491.046	5.72
491.48	5.51
491.914	5.19
492.348	5.38
492.781	5.23
493.215	5.67
493.648	4.97
494.082	5.52
494.515	5.3
494.948	5.83
495.382	4.53
495.815	5.56
496.248	5.83
496.681	5.92
497.114	5.07
497.547	5.64
497.98	6.22
498.413	7.48
498.846	7.45
499.279	7.21
499.711	6.56
500.144	6.43
500.577	6.64
501.009	6.1
501.442	6.49
501.874	7.58
502.306	6.74
502.739	8.17
503.171	7.48
503.603	7.77
504.036	6.99
504.468	7.31
504.9	7.49
505.332	7
505.764	7.46
506.196	7.23
506.627	6.65
507.059	7.22
507.491	5.16
507.923	5.44
508.354	5.63
508.786	5.91
509.217	5.56
509.649	5.96
510.08	5.71
510.512	6.62
510.943	6.46
511.374	6.8
511.805	6.62
512.237	6.32
512.668	5.55
513.099	4.1
513.53	4.13
513.961	4.87
514.391	4.34
514.822	5.31
515.253	4.76
515.684	4.86
516.114	5.06
516.545	4.96
516.975	5.23
517.406	5.23
517.836	5.28
518.267	5.49
518.697	5.97
519.127	5.73
519.558	5.07
519.988	4.65
520.418	4.08
520.848	3.01
521.278	2.99
521.708	30.11
522.138	31.1
522.567	31.48
522.997	31.51
523.427	30.81
523.857	31.08
524.286	31.28
524.716	31.07
525.145	31.25
525.575	32.05
526.004	31.76
526.433	4.79
526.863	3.68
527.292	4.21
527.721	4.7
528.15	4.35
528.579	4.86
529.008	4.87
529.437	4.71
529.866	5.24
530.295	4.85
530.724	5.79
531.152	6.15
531.581	6.86
532.01	6.68
532.438	5.87
532.867	6.04
533.295	5.39
533.723	5.55
534.152	6.08
534.58	6.29
535.008	6.59
535.436	7.25
535.865	7.07
536.293	6.24
536.721	5.82
537.149	6.49
537.576	7.06
538.004	7.96
538.432	7.27
538.86	7.78
539.287	7.13
539.715	7.23
540.143	5.85
540.57	6.08
540.998	6.29
541.425	7.87
541.852	7.33
542.28	6.83
542.707	6.08
543.134	6.45
543.561	6.14
543.988	6.3
544.415	6.09
544.842	5.69
545.269	5.39
545.696	5.68
546.123	5.24
546.549	5.68
546.976	5.45
547.403	5.33
547.829	4.57
548.256	3.58
548.682	3.96
549.108	4.75
549.535	5.2
549.961	5.61
550.387	5.57
550.813	5.9
551.24	5.51
551.666	5.41
552.092	5.02
552.518	5.4
552.943	6.66
553.369	5.98
553.795	5.46
554.221	5.81
554.646	5.15
555.072	6.07
555.498	4.66
555.923	4.21
556.349	4.12
556.774	4.55
557.199	4.22
557.625	3.02
558.05	3.6
558.475	3.45
558.9	3.62
559.325	3.99
559.75	4.06
560.175	4.68
560.6	4.54
561.025	4.25
561.449	4.36
561.874	4.68
562.299	5.47
562.723	4.78
563.148	4.26
563.572	3.16
563.997	3.17
564.421	2.27
564.846	1.44
565.27	2.13
565.694	2.55
566.118	2.34
566.542	3.08
566.966	2.58
567.39	2.65
567.814	3.48
568.238	4.21
568.662	3.54
569.086	3.43
569.509	3.51
569.933	3.94
570.357	3.88
570.78	3.9
571.204	4.2
571.627	4.54
572.05	5.04
572.474	5.77
572.897	5.95
573.32	7.23
573.743	7.03
574.166	8.03
574.589	7.86
575.012	8.15
575.435	8.01
575.858	7.65
576.281	7.95
576.704	7.32
577.126	6.04
577.549	5.02
577.972	3.78
578.394	4.32
578.817	5.13
579.239	4.73
579.661	4.98
580.084	5.85
580.506	5.94
580.928	5.22
581.35	5.8
581.772	6.15
582.194	6.95
582.616	7.19
583.038	5.8
583.46	4.27
583.882	4.78
584.303	3.98
584.725	3.3
585.147	6.95
585.568	7.49
585.99	7.7
586.411	7.54
586.833	8.09
587.254	8.57
587.675	9.44
588.096	9.41
588.518	9.5
588.939	9.97
589.36	10.76
589.781	5.76
590.202	7.76
590.623	7.47
591.043	7.6
591.464	7.37
591.885	7.69
592.305	7.35
592.726	7.37
593.147	6.93
593.567	6.98
593.987	6.51
594.408	6.82
594.828	4.84
595.248	5.41
595.669	5.89
596.089	5.52
596.509	4.8
596.929	5.01
597.349	4.76
597.769	4.61
598.189	4.64
598.608	4.53
599.028	4.71
599.448	4.34
599.867	3.81
600.287	2.56
600.706	2.77
601.126	3.15
601.545	3.95
601.965	4.19
602.384	4.5
602.803	3.95
603.222	4
603.641	3.71
604.061	4.28
604.48	4.41
604.898	3.98
605.317	3.77
605.736	3.5
606.155	3.64
606.574	3.63
606.992	3.16
607.411	3.74
607.829	3.05
608.248	3.28
608.666	2.45
609.085	2.23
609.503	2.97
609.921	3.27
610.339	3.59
610.758	2.37
611.176	2.38
611.594	3.32
612.012	3.1
612.43	4.25
612.847	4.05
613.265	4.9
613.683	5.08
614.101	5.91
614.518	5.2
614.936	5.19
615.353	6.01
615.771	6.42
616.188	6
616.606	5.97
617.023	5.87
617.44	5.93
617.857	5.3
618.274	5.57
618.691	5.65
619.108	5.62
619.525	5.29
619.942	5.59
620.359	5.11
620.776	4.71
621.192	5.34
621.609	6.04
622.026	6.38
622.442	6.8
622.859	6.16
623.275	5.7
623.691	6.3
624.108	6.53
624.524	6.1
624.94	6.47
625.356	6.48
625.772	5.8
626.188	4.52
626.604	4.3
627.02	4.13
627.436	4.42
627.852	5.42
628.268	5.44
628.683	4.6
629.099	4.23
629.514	3.64
629.93	3.8
630.345	3.43
630.761	3.46
631.176	3.32
631.591	4.83
632.007	5.4
632.422	3.62
632.837	3.39
633.252	4.48
633.667	5.19
634.082	5.81
634.497	6.27
634.911	8.38
635.326	8.41
635.741	9.4
636.155	8.21
636.57	8.6
636.984	9.38
637.399	10.27
637.813	9.82
638.228	9.4
638.642	8.59
639.056	8.05
639.47	6.21
639.884	6.45
640.298	5.88
640.712	6.73
641.126	6.27
641.54	6.29
641.954	4.18
642.368	4.61
642.781	6.69
643.195	7.82
643.609	8.04
644.022	8.52
644.436	8.54
644.849	8.74
645.262	8.18
645.676	7.64
646.089	7.64
646.502	9.61
646.915	9.11
647.328	8.06
647.741	8.06
648.154	7.81
648.567	9.66
648.98	10.06
649.393	9
649.805	9.03
650.218	8.56
650.631	9.19
651.043	9.03
651.456	10.12
651.868	9.6
652.28	8.11
652.693	8.03
653.105	6.35
653.517	6.15
653.929	6.64
654.341	6.08
654.753	7.35
655.165	6.49
655.577	6.23
655.989	5.92
656.401	4.35
656.813	6.79
657.224	7.32
657.636	7.38
658.047	7.88
658.459	8.06
658.87	7.41
659.282	6.84
659.693	7.83
660.104	8.06
660.515	7.32
660.926	7.97
661.338	7.13
661.749	6.09
662.159	7.33
662.57	6.32
662.981	6.3
663.392	6.57
663.803	6.61
664.213	5.85
664.624	6.12
665.035	5.99
665.445	6.05
665.855	6.89
666.266	7.59
666.676	6.47
667.086	5.55
667.497	6.2
667.907	6.71
668.317	6.41
668.727	9.37
669.137	8.52
669.547	8.31
669.956	7.59
670.366	6.6
670.776	7.01
671.186	7.39
671.595	8.56
672.005	7.81
672.414	7.78
672.824	8.36
673.233	4.79
673.642	4.61
674.052	5.07
674.461	6.7
674.87	7.13
675.279	7.7
675.688	5.89
676.097	7.08
676.506	6.88
676.915	6.19
677.323	5.46
677.732	5.67
678.141	6.05
678.549	6.4
678.958	5.13
679.366	4.64
679.775	3.68
680.183	6.41
680.592	5.45
681	5.74
681.408	7.04
681.816	7.7
682.224	7.39
682.632	8.48
683.04	8.53
683.448	8.51
683.856	8.85
684.264	10.95
684.671	9.74
685.079	8.79
685.487	9.1
685.894	8
686.302	5.71
686.709	6.55
687.116	5.45
687.524	6.97
687.931	8.26
688.338	8.77
688.745	6.59
689.152	5.15
689.559	6.38
689.966	6.81
690.373	7.66
690.78	10.51
691.187	10.79
691.593	12.2
692	10.68
692.407	10.89
692.813	12.88
693.22	13.59
693.626	13.73
694.032	14.38
694.439	15.06
694.845	14.03
695.251	12.78
695.657	13.06
696.063	11.27
696.469	11.81
696.875	11.39
697.281	9.35
697.687	8.68
698.093	9.66
698.498	10.24
698.904	8.22
699.31	9.4
699.715	11.24
700.12	11.26
700.526	12.7
700.931	11.5
701.337	12.7
701.742	13.56
702.147	13.9
702.552	13.74
702.957	11.85
703.362	12.86
703.767	12.15
704.172	10.54
704.577	10.13
704.981	7.75
705.386	8.48
705.791	7.82
706.195	6.41
706.6	6.3
707.004	4.61
707.408	4.73
707.813	5.98
708.217	7.42
708.621	7.46
709.025	6.43
709.43	9.43
709.834	9.12
710.237	8.24
710.641	8.47
711.045	9.3
711.449	11.22
711.853	13.99
712.256	12.7
712.66	11.15
713.064	11.2
713.467	12.59
713.87	11.76
714.274	12.69
714.677	13.87
715.08	14.83
715.484	14.96
715.887	17.17
716.29	15.26
716.693	16.96
717.096	18.28
717.499	19.93
717.901	19.73
718.304	18.33
718.707	17.88
719.109	17.1
719.512	15.34
719.915	17.45
720.317	15.81
720.719	14.37
721.122	12.31
721.524	12.1
721.926	15.36
722.328	16.71
722.731	17.43
723.133	16.99
723.535	17.52
723.937	19.9
724.338	19.03
724.74	19.05
725.142	61.96
725.544	66.13
725.945	77.35
726.347	74.41
726.748	73.2
727.15	74.82
727.551	77.86
727.952	76.92
728.354	74.51
728.755	74.2
729.156	72.37
729.557	31.23
729.958	27.65
730.359	16.94
730.76	15.43
731.161	15.53
731.562	13.94
731.962	12.22
732.363	12.83
732.763	13.58
733.164	10.72
733.564	11.85
733.965	12.56
734.365	13.08
734.766	14.12
735.166	15
735.566	15.79
735.966	16.07
736.366	16.39
736.766	15.34
737.166	14.38
737.566	15.45
737.966	14.96
738.365	15.5
738.765	16.76
739.165	15.84
739.564	15.46
739.964	12.77
740.363	11.37
740.763	8.88
741.162	10.29
741.561	10.75
741.96	11.43
742.36	10.64
742.759	10.51
743.158	7.64
743.557	7.59
743.955	6.33
744.354	7.84
744.753	8.29
745.152	10.59
745.55	9.21
745.949	8.43
746.348	7.19
746.746	6.13
747.144	7.77
747.543	8.65
747.941	8.29
748.339	9.36
748.737	9.66
749.136	9.8
749.534	8.13
749.932	10.39
750.33	10.74
750.727	10.79
751.125	12.43
751.523	10.92
751.921	13.8
752.318	14.95
752.716	16.19
753.113	16.18
753.511	16.17
753.908	17.95
754.305	20.31
754.703	20.86
755.1	22.62
755.497	22.63
755.894	21.56
756.291	19.13
756.688	18.27
757.085	17.73
757.482	18.79
757.878	22.9
758.275	23.23
758.672	17.15
759.068	18.68
759.465	16.7
759.861	15.06
760.258	15.57
760.654	16.95
761.05	20.13
761.447	16.84
761.843	17.02
762.239	15
762.635	12.58
763.031	10.24
763.427	8.04
763.822	8.82
764.218	10.08
764.614	11.45
765.01	9.71
765.405	8.09
765.801	8.46
766.196	6.37
