Data from N_1_DEC_NC_4N_Splice17_11-36-37-785.txt Node
Date: Sat Mar 14 11:36:37 EDT 2020
User: sa697716
Spectrometer: FLMS03696
Trigger mode: 0
Integration Time (sec): 3.180400E-1
Scans to average: 20
Electric dark correction enabled: true
Nonlinearity correction enabled: true
Boxcar width: 5
XAxis mode: Wavelengths
Number of Pixels in Spectrum: 2048
>>>>>Begin Spectral Data<<<<<
187.83	-104039.93
188.298	805.99
188.766	427.28
189.233	392.83
189.701	561.39
190.169	780.15
190.636	192.28
191.104	84.38
191.571	-73.83
192.039	-111.76
192.506	-77.52
192.974	385.02
193.441	-944.07
193.908	-516.34
194.375	-147.95
194.842	-85.1
195.31	-88.23
195.777	53.96
196.244	143.6
196.711	75.71
197.177	60.71
197.644	31.67
198.111	39.69
198.578	83.78
199.045	36.57
199.511	26.33
199.978	-44.56
200.445	-2.73
200.911	-45.53
201.378	-124.74
201.844	-54.68
202.31	-84.87
202.777	-85.34
203.243	-41.85
203.709	-53.97
204.176	-41.71
204.642	-33.89
205.108	-26.46
205.574	-29.34
206.04	-38.54
206.506	-33.04
206.972	-66.62
207.438	-72.34
207.903	-70.62
208.369	-32.14
208.835	-16.7
209.301	-15.86
209.766	-23.19
210.232	-21.01
210.697	-58.64
211.163	-102.7
211.628	-179.71
212.094	-110.11
212.559	-70.73
213.024	-50.2
213.49	-77.91
213.955	-99.4
214.42	-139.03
214.885	-131.52
215.35	-117.12
215.815	-9.54
216.28	19.03
216.745	30.5
217.21	67.99
217.675	24.7
218.14	44.57
218.604	34.32
219.069	44.25
219.534	83.78
219.998	76.11
220.463	90.4
220.927	-13.03
221.392	-26.06
221.856	-28.44
222.32	-108.89
222.785	-99.51
223.249	-151.48
223.713	-180.12
224.177	-168.55
224.642	-293.39
225.106	-377.65
225.57	-445.49
226.034	-211.78
226.497	-273
226.961	-180.72
227.425	-123.04
227.889	-180.66
228.353	-173.1
228.816	-386.39
229.28	-308.48
229.744	-211.01
230.207	-5.63
230.671	4.04
231.134	-208.56
231.597	-241.3
232.061	-323.08
232.524	-412.98
232.987	-220.49
233.45	-171.36
233.914	-136.04
234.377	-218.7
234.84	-213.93
235.303	-280.39
235.766	-305.9
236.229	-241.61
236.691	-183.16
237.154	-229.94
237.617	-145.2
238.08	-170.13
238.542	-213.76
239.005	-132.2
239.468	-93.15
239.93	-77.05
240.393	-75.03
240.855	-53.15
241.317	-73.4
241.78	-102.25
242.242	-90.18
242.704	-75.31
243.166	-54.2
243.629	-11.17
244.091	-18.33
244.553	-31.89
245.015	-20.59
245.477	-52.54
245.939	-142.05
246.4	-129.09
246.862	-127.37
247.324	-91.29
247.786	-159.45
248.247	-276.47
248.709	-442.57
249.17	-294.29
249.632	-178.42
250.093	-192.43
250.555	-161.46
251.016	-52.18
251.477	-49.4
251.939	-41.91
252.4	-72.88
252.861	-89.13
253.322	-51.16
253.783	-74.91
254.244	-158.21
254.705	-192.39
255.166	-202.71
255.627	-189.85
256.088	-237.22
256.549	-249.09
257.009	-215.99
257.47	-265.75
257.931	-237.23
258.391	-177.05
258.852	-191.5
259.312	-186.65
259.773	-241.07
260.233	-152.65
260.694	-85.13
261.154	-136.66
261.614	-61.6
262.074	-55.01
262.534	-25.24
262.994	-8.77
263.455	-30.17
263.915	15.29
264.374	20.65
264.834	36.47
265.294	31.88
265.754	16.25
266.214	23.61
266.673	11.45
267.133	-13.17
267.593	-41.77
268.052	-34.63
268.512	-23.21
268.971	1.27
269.431	-4.32
269.89	-17.77
270.349	-51.79
270.809	-20.34
271.268	-12.51
271.727	-180.07
272.186	-9.15
272.645	-10.99
273.104	-73.5
273.563	-138.9
274.022	-177.35
274.481	-120.1
274.94	-64.77
275.399	-69.64
275.857	-123.46
276.316	-177.37
276.775	-155.06
277.233	-166.09
277.692	-131.96
278.15	-108.72
278.609	-31.15
279.067	-30.1
279.525	-28.51
279.984	-81.81
280.442	-78.62
280.9	7.16
281.358	-3.24
281.816	0.79
282.274	5.34
282.732	-33.22
283.19	-60.36
283.648	-84.8
284.106	-98.48
284.564	-119.96
285.021	-93.15
285.479	-80.78
285.937	-111.97
286.394	-81.13
286.852	-81.5
287.309	-93.58
287.767	-56.29
288.224	-33.33
288.682	-55.7
289.139	-39.88
289.596	-26.21
290.053	-45.53
290.511	-69.26
290.968	-79.05
291.425	-171.8
291.882	-105.34
292.339	-73.86
292.796	-110.53
293.252	-113.75
293.709	-51.36
294.166	-56.9
294.623	-84.19
295.079	-82.64
295.536	-55.2
295.992	-34.88
296.449	-26.65
296.905	-17.41
297.362	7.93
297.818	9.35
298.274	20.49
298.731	6.71
299.187	9.48
299.643	22.72
300.099	28.61
300.555	43.8
301.011	70.47
301.467	132.18
301.923	93.26
302.379	73.31
302.835	66.94
303.291	59.95
303.746	32.77
304.202	16.79
304.658	-18.05
305.113	4.1
305.569	11.31
306.024	-47.9
306.479	-116.25
306.935	-63.03
307.39	-82.33
307.845	-71.97
308.301	-58.78
308.756	-63.51
309.211	-48.57
309.666	-51.3
310.121	-59.18
310.576	-83.27
311.031	-98.67
311.486	-139.6
311.94	-213.8
312.395	-346.48
312.85	-752.69
313.305	-4599.75
313.759	-18403.38
314.214	-1453.35
314.668	-1032.74
315.123	-699.16
315.577	-235.97
316.032	-184.05
316.486	-210.42
316.94	-105.64
317.394	-43.59
317.849	-15.77
318.303	1.71
318.757	2.57
319.211	17.95
319.665	16.9
320.119	15.78
320.572	-2.48
321.026	18.86
321.48	22
321.934	10.35
322.387	-3.83
322.841	7.45
323.295	49.43
323.748	5.63
324.202	15.9
324.655	5.94
325.108	27.07
325.562	26.93
326.015	-11.85
326.468	3.28
326.921	15.06
327.374	43.16
327.827	51.81
328.28	12.43
328.733	50.02
329.186	32.45
329.639	36.78
330.092	6.92
330.545	19.56
330.997	37
331.45	58.57
331.903	66.19
332.355	23.16
332.808	0.59
333.26	-15.5
333.713	-34.5
334.165	-33.62
334.617	-100.58
335.069	-124.86
335.522	-329.9
335.974	-455.01
336.426	-496.87
336.878	-410.07
337.33	-157.94
337.782	-160.85
338.234	-167.93
338.686	-224.14
339.137	-274.59
339.589	-255
340.041	-149.92
340.493	-131.74
340.944	-111.99
341.396	-126.28
341.847	-45.95
342.299	-26.18
342.75	42.91
343.201	3.81
343.653	-19.05
344.104	-59.36
344.555	-32.09
345.006	-162.41
345.457	-10.44
345.908	-25.68
346.359	-3.28
346.81	-25.73
347.261	-55.96
347.712	-114.03
348.163	-150.51
348.613	-88.14
349.064	-85.74
349.515	-62.19
349.965	-32.73
350.416	-88.54
350.866	-119.16
351.317	-160.26
351.767	-262.04
352.217	-375.46
352.668	-228.74
353.118	-178.9
353.568	-281.97
354.018	-142.87
354.468	-136.24
354.918	-105.56
355.368	-81.13
355.818	-83.52
356.268	-344.53
356.718	-962.95
357.168	-151.46
357.617	-163.02
358.067	-198.95
358.517	-131.27
358.966	-126.55
359.416	-54.79
359.865	-13.4
360.315	-180.27
360.764	-91.52
361.213	-13.12
361.663	-74.67
362.112	-83.98
362.561	-131.41
363.01	-75.47
363.459	-92.63
363.908	-157.6
364.357	-119.52
364.806	-290.76
365.255	-172.28
365.703	-96.07
366.152	-125.36
366.601	-78.11
367.05	-47.8
367.498	-18.15
367.947	-33.83
368.395	-48.05
368.844	-31.07
369.292	-103.97
369.74	-55.12
370.189	-96.42
370.637	-155.63
371.085	-135.55
371.533	-170.79
371.981	-226.15
372.429	-189.37
372.877	-203.06
373.325	-147.39
373.773	-163.79
374.221	-144.93
374.669	-151.33
375.116	-118.94
375.564	-101.64
376.012	-123.75
376.459	-85.88
376.907	-79.01
377.354	-131.99
377.801	-102.67
378.249	-92.41
378.696	-113.28
379.143	-66.18
379.591	-132.55
380.038	-276.62
380.485	-185.43
380.932	-128.32
381.379	14.86
381.826	72.62
382.273	31.61
382.72	3.9
383.166	-5.38
383.613	16.83
384.06	14.72
384.506	9.16
384.953	6.35
385.4	-10.3
385.846	-11.71
386.292	-44.82
386.739	-48.22
387.185	-54.9
387.631	-58.96
388.078	-38.17
388.524	-57.41
388.97	-41.62
389.416	-20.88
389.862	-12.62
390.308	-0.42
390.754	-0.54
391.2	4.16
391.645	-17.6
392.091	17.12
392.537	28.39
392.983	12.08
393.428	44.36
393.874	22.4
394.319	36.87
394.765	50.63
395.21	45.81
395.655	39.21
396.101	36.44
396.546	49.28
396.991	27.93
397.436	30.12
397.881	25.6
398.326	4.2
398.771	17.88
399.216	-1.69
399.661	-8
400.106	-8.22
400.551	-0.08
400.995	1.07
401.44	-0.47
401.885	5.89
402.329	5.66
402.774	9.91
403.218	23.43
403.663	15.94
404.107	24
404.551	28.08
404.995	24.66
405.44	17.62
405.884	15.75
406.328	7.41
406.772	4.85
407.216	4.3
407.66	1.42
408.104	-8.17
408.547	-3.41
408.991	-1.3
409.435	-3
409.879	0.04
410.322	-0.43
410.766	2.31
411.209	7.04
411.653	3.6
412.096	4.87
412.54	3.33
412.983	3.64
413.426	4.16
413.869	-2.52
414.312	-0.41
414.756	-2.26
415.199	-1.25
415.642	-0.57
416.085	-0.3
416.527	2.25
416.97	1.41
417.413	2.25
417.856	0.83
418.298	0.33
418.741	1.25
419.184	-3.6
419.626	-10.94
420.069	-10.71
420.511	-10.55
420.953	-9.03
421.396	-9.53
421.838	-9.57
422.28	-8.14
422.722	-4.59
423.164	-8.55
423.606	-8.6
424.048	-9
424.49	-2.89
424.932	-4.67
425.374	-4.69
425.816	-6.23
426.258	-5.93
426.699	-4.28
427.141	-2.87
427.582	-7.4
428.024	-6.07
428.465	-7.11
428.907	-5.89
429.348	-7.55
429.789	-3.75
430.231	0.23
430.672	-0.47
431.113	0.78
431.554	-0.73
431.995	-2.29
432.436	1.42
432.877	2.02
433.318	6.36
433.759	6.65
434.2	8.35
434.64	5.76
435.081	2.54
435.522	5.48
435.962	3.1
436.403	4.73
436.843	3.42
437.284	1.83
437.724	1.3
438.164	-3.43
438.604	-4.51
439.045	-4.15
439.485	-0.38
439.925	-0.7
440.365	-1.53
440.805	-0.14
441.245	1.33
441.685	1.19
442.125	0.11
442.564	-0.12
443.004	2.56
443.444	3.27
443.883	4.68
444.323	0.66
444.762	-3.77
445.202	-6.54
445.641	-4.83
446.081	-8
446.52	-6.63
446.959	-4.52
447.398	-2.45
447.837	-3.52
448.276	-4.75
448.716	-4.25
449.154	-4.64
449.593	-1.92
450.032	-1.64
450.471	-4.96
450.91	-5.94
451.349	-4.13
451.787	-4.67
452.226	-6.81
452.664	-7.1
453.103	-6.08
453.541	-8.19
453.98	-4.82
454.418	-5.02
454.856	-1.98
455.295	-1.44
455.733	0.72
456.171	-1.43
456.609	-0.99
457.047	-0.32
457.485	2.48
457.923	3.81
458.361	4.31
458.798	2.94
459.236	3.9
459.674	1.83
460.111	2.33
460.549	2.45
460.987	2.09
461.424	1.23
461.862	1.03
462.299	-0.28
462.736	0.52
463.173	0.41
463.611	3.16
464.048	3.95
464.485	4.76
464.922	4.31
465.359	2.97
465.796	11.69
466.233	13.52
466.67	16.14
467.106	17.46
467.543	15.71
467.98	15
468.416	12.67
468.853	11
469.29	10.55
469.726	10.42
470.162	9.49
470.599	1.89
471.035	0.01
471.471	-0.99
471.907	-3.38
472.344	-3.35
472.78	-2.65
473.216	-3.44
473.652	-2.83
474.088	-3.83
474.523	-2.55
474.959	-2.45
475.395	-1.62
475.831	-1.37
476.266	-1.75
476.702	-1.58
477.138	-1.63
477.573	-1.62
478.008	-1.12
478.444	-0.38
478.879	1.53
479.314	1.82
479.75	2.32
480.185	2.02
480.62	1.84
481.055	2.04
481.49	2.57
481.925	3
482.36	5.04
482.795	4.01
483.229	2.34
483.664	1.99
484.099	0.88
484.534	1.33
484.968	2.07
485.403	1.71
485.837	0.95
486.271	0.94
486.706	1.09
487.14	-0.88
487.574	0
488.009	0.75
488.443	-0.41
488.877	0.2
489.311	-0.36
489.745	-0.59
490.179	0.25
490.613	1.98
491.046	1.4
491.48	1.15
491.914	1.16
492.348	1.34
492.781	1.87
493.215	2.26
493.648	1.58
494.082	1.54
494.515	2.05
494.948	2.85
495.382	1.03
495.815	1.45
496.248	1.71
496.681	1.53
497.114	0.52
497.547	0.48
497.98	1.63
498.413	2.86
498.846	2.99
499.279	2.54
499.711	1.52
500.144	1.48
500.577	2.72
501.009	2.66
501.442	4.24
501.874	5.05
502.306	4.85
502.739	6.64
503.171	5.75
503.603	5.89
504.036	5.04
504.468	5.3
504.9	5.48
505.332	4.46
505.764	4.75
506.196	3.22
506.627	3.37
507.059	3.38
507.491	0.67
507.923	1.25
508.354	1.84
508.786	2.29
509.217	2.17
509.649	2.07
510.08	2.07
510.512	2.91
510.943	3.8
511.374	3.9
511.805	3.1
512.237	2.84
512.668	1.9
513.099	0.52
513.53	0.21
513.961	0.83
514.391	1.15
514.822	2.74
515.253	2.35
515.684	1.54
516.114	1.42
516.545	2.34
516.975	2.67
517.406	2.38
517.836	2.85
518.267	3.06
518.697	3.58
519.127	3.43
519.558	1.61
519.988	0.74
520.418	0.86
520.848	0.07
521.278	-0.6
521.708	19.97
522.138	20.85
522.567	20.32
522.997	20.47
523.427	19.64
523.857	19.99
524.286	20.31
524.716	21.17
525.145	21.6
525.575	22.75
526.004	22.71
526.433	2.64
526.863	2.24
527.292	3.37
527.721	3.61
528.15	3.62
528.579	3.85
529.008	3.91
529.437	2.28
529.866	1.88
530.295	1.27
530.724	2.25
531.152	2.63
531.581	3.3
532.01	3.15
532.438	2.71
532.867	2.35
533.295	2.6
533.723	2.34
534.152	3.2
534.58	3.35
535.008	3.83
535.436	4.44
535.865	3.86
536.293	3.3
536.721	2.87
537.149	2.91
537.576	3.63
538.004	3.73
538.432	3.6
538.86	4.08
539.287	3.88
539.715	3.28
540.143	2.2
540.57	2.73
540.998	2.15
541.425	3.75
541.852	4.18
542.28	3.91
542.707	3.47
543.134	4.04
543.561	4.1
543.988	4.38
544.415	4.56
544.842	4.53
545.269	4.32
545.696	5.37
546.123	4.66
546.549	4.41
546.976	4.09
547.403	4.09
547.829	3.55
548.256	2.53
548.682	2.31
549.108	3.35
549.535	2.99
549.961	2.33
550.387	2.45
550.813	2.94
551.24	3.13
551.666	2.65
552.092	2.56
552.518	2.4
552.943	3.61
553.369	3.59
553.795	2.81
554.221	3.26
554.646	3.69
555.072	4.46
555.498	3.55
555.923	2.66
556.349	2.68
556.774	2.33
557.199	2.2
557.625	0.88
558.05	1.14
558.475	1.3
558.9	1.19
559.325	1.83
559.75	1.26
560.175	1.48
560.6	1.3
561.025	1.3
561.449	1.76
561.874	1.06
562.299	1.98
562.723	1.8
563.148	1.08
563.572	0.56
563.997	0.23
564.421	-1.19
564.846	-1.72
565.27	-1.12
565.694	-1
566.118	-1.75
566.542	0.33
566.966	0.53
567.39	0.28
567.814	1.03
568.238	1.6
568.662	0.62
569.086	1.39
569.509	1.34
569.933	2.81
570.357	3.03
570.78	3.43
571.204	3.42
571.627	2.57
572.05	2.68
572.474	3.46
572.897	3.75
573.32	4.69
573.743	4.39
574.166	5.18
574.589	3.74
575.012	3.67
575.435	3.29
575.858	2.9
576.281	3.38
576.704	2.85
577.126	1.71
577.549	0.93
577.972	0.55
578.394	0.76
578.817	2.14
579.239	2.59
579.661	3.29
580.084	4.71
580.506	4.78
580.928	4.47
581.35	4.97
581.772	4.93
582.194	5.31
582.616	5.09
583.038	4.08
583.46	2.41
583.882	2.27
584.303	0.87
584.725	-0.7
585.147	3.13
585.568	3.49
585.99	4.2
586.411	5.17
586.833	5.16
587.254	5.63
587.675	5.78
588.096	5.31
588.518	5.02
588.939	5.98
589.36	6.52
589.781	1.47
590.202	4.1
590.623	3.74
591.043	1.93
591.464	2.17
591.885	2.47
592.305	2.82
592.726	3.14
593.147	3.16
593.567	3.2
593.987	3.17
594.408	3.44
594.828	0.18
595.248	0.4
595.669	2.17
596.089	1.75
596.509	0.64
596.929	0.24
597.349	0.61
597.769	0.66
598.189	0.13
598.608	0.01
599.028	0
599.448	0.43
599.867	-0.03
600.287	-0.97
600.706	-0.22
601.126	0.65
601.545	2.21
601.965	1.38
602.384	1.22
602.803	1.21
603.222	1.85
603.641	1.55
604.061	2.01
604.48	2.1
604.898	1.82
605.317	1.09
605.736	0.73
606.155	0.67
606.574	0.8
606.992	0.91
607.411	1.45
607.829	0.41
608.248	0.67
608.666	0.24
609.085	0.85
609.503	1.22
609.921	2.12
610.339	2.27
610.758	0.9
611.176	1.13
611.594	1.71
612.012	1.47
612.43	2.27
612.847	1.99
613.265	3.01
613.683	2.46
614.101	2.63
614.518	1.88
614.936	1.78
615.353	3.14
615.771	3.34
616.188	3.15
616.606	2.81
617.023	3.07
617.44	3.21
617.857	1.84
618.274	1.66
618.691	1.73
619.108	2.22
619.525	1.68
619.942	1.47
620.359	1.51
620.776	1.4
621.192	2.62
621.609	2.92
622.026	3.13
622.442	3.53
622.859	2.91
623.275	2.7
623.691	2.15
624.108	3.09
624.524	2.42
624.94	2.33
625.356	2.18
625.772	0.86
626.188	-0.17
626.604	-0.62
627.02	-1.05
627.436	-0.49
627.852	-0.15
628.268	0.38
628.683	-0.44
629.099	-0.29
629.514	-0.9
629.93	-1.3
630.345	-1.27
630.761	-1.46
631.176	-0.78
631.591	1.02
632.007	1.59
632.422	0.78
632.837	-0.58
633.252	0.28
633.667	0.12
634.082	0.15
634.497	0.82
634.911	2.91
635.326	3.19
635.741	3.12
636.155	1.75
636.57	3.07
636.984	3.64
637.399	5.9
637.813	5.24
638.228	5.32
638.642	5.42
639.056	5.27
639.47	3.69
639.884	3.77
640.298	3.38
640.712	4.46
641.126	3.18
641.54	3.05
641.954	0.37
642.368	0.44
642.781	3.34
643.195	3.44
643.609	3.87
644.022	3.63
644.436	2.91
644.849	2.75
645.262	1.28
645.676	0.88
646.089	0.37
646.502	2.13
646.915	2.02
647.328	0.44
647.741	1.3
648.154	0.84
648.567	3.14
648.98	4.13
649.393	4.57
649.805	5.81
650.218	4.87
650.631	4.93
651.043	4.13
651.456	4.22
651.868	3.42
652.28	1.69
652.693	0.97
653.105	-0.44
653.517	-1.18
653.929	-1.76
654.341	-1.48
654.753	-0.05
655.165	0.05
655.577	0.35
655.989	1.62
656.401	0.55
656.813	2.05
657.224	2.39
657.636	0.61
658.047	1.61
658.459	2.29
658.87	0.97
659.282	0.46
659.693	1.73
660.104	1.84
660.515	0.41
660.926	0.58
661.338	0.27
661.749	-0.12
662.159	2.09
662.57	1.15
662.981	0.7
663.392	0.66
663.803	0.72
664.213	-0.45
664.624	-0.24
665.035	-0.35
665.445	-0.32
665.855	0.01
666.266	1.46
666.676	0.02
667.086	-0.15
667.497	0.16
667.907	0.23
668.317	0.33
668.727	2.99
669.137	1.3
669.547	2.06
669.956	1.06
670.366	1.2
670.776	0.75
671.186	0.88
671.595	1.04
672.005	-0.46
672.414	-0.14
672.824	0.13
673.233	-3.2
673.642	-2
674.052	-1.99
674.461	0.07
674.87	-0.73
675.279	0.5
675.688	-0.55
676.097	1.15
676.506	3.01
676.915	2.57
677.323	2.19
677.732	2.64
678.141	2.24
678.549	1.04
678.958	-0.29
679.366	-0.86
679.775	-3.31
680.183	-0.87
680.592	-2.43
681	-3.31
681.408	-3.1
681.816	-3.26
682.224	-3.65
682.632	-1.82
683.04	-0.45
683.448	-0.14
683.856	0.96
684.264	1.72
684.671	0.49
685.079	-0.25
685.487	-0.46
685.894	-1.06
686.302	-1.97
686.709	-0.99
687.116	-1.58
687.524	-1.72
687.931	-0.28
688.338	-0.67
688.745	-2.16
689.152	-2.25
689.559	-0.8
689.966	1.13
690.373	1.95
690.78	3.24
691.187	3.2
691.593	3.65
692	3.26
692.407	2.15
692.813	4.4
693.22	6.41
693.626	5.13
694.032	5.9
694.439	5.06
694.845	5.1
695.251	3.82
695.657	3.84
696.063	1.58
696.469	2.89
696.875	2.48
697.281	0.8
697.687	0.02
698.093	1.32
698.498	0.46
698.904	-1.01
699.31	-1.23
699.715	1.38
700.12	1.12
700.526	2.86
700.931	1.15
701.337	3.22
701.742	4.06
702.147	4.44
702.552	4.13
702.957	3.37
703.362	4.19
703.767	3.52
704.172	1.89
704.577	1.48
704.981	0.19
705.386	-0.08
705.791	-0.95
706.195	-2.29
706.6	-2.34
707.004	-4.1
707.408	-4.65
707.813	-3.35
708.217	-2.34
708.621	-1.94
709.025	-2.38
709.43	-0.34
709.834	0.53
710.237	-0.45
710.641	0.15
711.045	0.73
711.449	2.75
711.853	6.73
712.256	5.01
712.66	4.81
713.064	4.2
713.467	5.62
713.87	5.03
714.274	4.95
714.677	5.79
715.08	7.09
715.484	7.32
715.887	9.91
716.29	6.34
716.693	7.83
717.096	7.53
717.499	8.31
717.901	8.05
718.304	7.1
718.707	7.37
719.109	6.79
719.512	4.05
719.915	6.29
720.317	4.29
720.719	3.79
721.122	2.72
721.524	3.81
721.926	7.87
722.328	7.54
722.731	7.33
723.133	6.52
723.535	5.82
723.937	6.37
724.338	6.38
724.74	6.91
725.142	55.73
725.544	59.48
725.945	71.42
726.347	68.12
726.748	68.23
727.15	69.2
727.551	71.9
727.952	71.71
728.354	70.53
728.755	69.03
729.156	67.53
729.557	20.48
729.958	17.18
730.359	5.71
730.76	4.47
731.161	4.46
731.562	2.77
731.962	0.53
732.363	1.04
732.763	2.74
733.164	1.21
733.564	1.76
733.965	2.62
734.365	2.91
734.766	2.77
735.166	3.53
735.566	4.12
735.966	5.54
736.366	6.48
736.766	6.24
737.166	5.12
737.566	5.49
737.966	4.57
738.365	4.73
738.765	5.97
739.165	5.52
739.564	4.65
739.964	3.07
740.363	1.85
740.763	0.26
741.162	1.47
741.561	1.1
741.96	1.46
742.36	0.77
742.759	0.66
743.158	-0.84
743.557	-1.35
743.955	-1.6
744.354	-1.34
744.753	-1.92
745.152	-0.45
745.55	-1.95
745.949	-1.78
746.348	-2.53
746.746	-3.03
747.144	-0.55
747.543	-0.57
747.941	-1.02
748.339	-0.45
748.737	0.26
749.136	1.53
749.534	-0.47
749.932	2.86
750.33	3.34
750.727	3.08
751.125	4.61
751.523	3.04
751.921	5.33
752.318	6.44
752.716	7.96
753.113	8.87
753.511	9.29
753.908	10.08
754.305	12.11
754.703	11.76
755.1	12.68
755.497	12.14
755.894	10.7
756.291	8.53
756.688	8.73
757.085	6.88
757.482	6.67
757.878	8.11
758.275	10.98
758.672	3.94
759.068	4.11
759.465	2.11
759.861	2.97
760.258	2.25
760.654	0.63
761.05	3.21
761.447	2.59
761.843	4.5
762.239	2.07
762.635	-3.15
763.031	-6.76
763.427	-5.98
763.822	-4.58
764.218	-5.81
764.614	-4.23
765.01	-2.68
765.405	-4.43
765.801	-3.47
766.196	-4.17
766.592	-4.9
