Data from N_1_DEC_ON_6N_Splice17_11-22-40-794.txt Node
Date: Sat Mar 14 11:22:40 EDT 2020
User: sa697716
Spectrometer: FLMS03696
Trigger mode: 0
Integration Time (sec): 3.180400E-1
Scans to average: 20
Electric dark correction enabled: true
Nonlinearity correction enabled: true
Boxcar width: 5
XAxis mode: Wavelengths
Number of Pixels in Spectrum: 2048
>>>>>Begin Spectral Data<<<<<
187.83	-61648.76
188.298	569.34
188.766	389.06
189.233	340.89
189.701	544.28
190.169	753.86
190.636	322.04
191.104	305.35
191.571	90.08
192.039	3.45
192.506	29.19
192.974	364.9
193.441	-516.91
193.908	-108.42
194.375	26.24
194.842	60.52
195.31	130.48
195.777	127.36
196.244	183.02
196.711	131.91
197.177	155.7
197.644	169.52
198.111	233.4
198.578	312.18
199.045	234.02
199.511	342.73
199.978	383.65
200.445	314.25
200.911	324.52
201.378	347.35
201.844	327.95
202.31	472.64
202.777	461.43
203.243	256.75
203.709	242.2
204.176	300.66
204.642	247.62
205.108	221.26
205.574	181
206.04	154.08
206.506	148.6
206.972	130.1
207.438	130.79
207.903	154.39
208.369	152.53
208.835	155.71
209.301	156
209.766	134.49
210.232	141.95
210.697	183.26
211.163	212.09
211.628	293.45
212.094	293.92
212.559	410.41
213.024	253.5
213.49	326.52
213.955	319.35
214.42	282.58
214.885	285.64
215.35	274.02
215.815	296.23
216.28	304.75
216.745	226.09
217.21	232.3
217.675	173.52
218.14	190.14
218.604	169.17
219.069	173.68
219.534	208.02
219.998	212.16
220.463	225.11
220.927	192.32
221.392	166.2
221.856	169.41
222.32	157.43
222.785	186.32
223.249	204.36
223.713	219.87
224.177	202.74
224.642	180.54
225.106	141.92
225.57	146.64
226.034	122.68
226.497	185.45
226.961	233.68
227.425	296.92
227.889	296.23
228.353	271.8
228.816	457.57
229.28	416.05
229.744	304.44
230.207	300.1
230.671	291.89
231.134	410.24
231.597	505.72
232.061	390.21
232.524	351.84
232.987	277.08
233.45	278.2
233.914	268.91
234.377	241.01
234.84	229.97
235.303	236.57
235.766	280.78
236.229	297.48
236.691	193.81
237.154	192.08
237.617	153.16
238.08	145.65
238.542	153.23
239.005	123.88
239.468	134.97
239.93	134.04
240.393	111.22
240.855	95.73
241.317	71.87
241.78	58.1
242.242	77.72
242.704	113.86
243.166	95.82
243.629	113.25
244.091	132.83
244.553	143.02
245.015	171.74
245.477	242.7
245.939	336.04
246.4	400.04
246.862	394.62
247.324	366.69
247.786	335.83
248.247	401.61
248.709	296.54
249.17	215.09
249.632	273.89
250.093	343.87
250.555	265.48
251.016	187.94
251.477	198.72
251.939	206.81
252.4	189.51
252.861	232.65
253.322	252.46
253.783	290.71
254.244	333.43
254.705	217.42
255.166	132.23
255.627	128.65
256.088	178.39
256.549	151.95
257.009	142.6
257.47	189.84
257.931	140.64
258.391	119.97
258.852	114.65
259.312	127.06
259.773	130.21
260.233	185.45
260.694	184.04
261.154	174.11
261.614	191.32
262.074	170.1
262.534	189.69
262.994	195.22
263.455	235.59
263.915	228.06
264.374	206.39
264.834	225.19
265.294	210.11
265.754	216.57
266.214	216.45
266.673	185.91
267.133	211.64
267.593	189.65
268.052	210.94
268.512	163.27
268.971	243.82
269.431	292.32
269.89	249.54
270.349	370.27
270.809	397.32
271.268	346.86
271.727	622.03
272.186	464.13
272.645	349.35
273.104	210.53
273.563	308.26
274.022	154.79
274.481	168.48
274.94	164
275.399	102.62
275.857	90.05
276.316	110.44
276.775	115.2
277.233	96.41
277.692	110.9
278.15	156.63
278.609	201.53
279.067	202.49
279.525	192.05
279.984	217.2
280.442	286.61
280.9	361.43
281.358	236.7
281.816	224.49
282.274	225.05
282.732	203.3
283.19	188.7
283.648	137.25
284.106	122.24
284.564	104.87
285.021	130.92
285.479	92.93
285.937	62.25
286.394	81.04
286.852	81.8
287.309	78.03
287.767	115.78
288.224	119.43
288.682	131.08
289.139	184.43
289.596	173.54
290.053	144.33
290.511	167.2
290.968	218.41
291.425	270.49
291.882	257.17
292.339	259.88
292.796	215.35
293.252	188.64
293.709	182.8
294.166	148.52
294.623	146.16
295.079	142.68
295.536	149.16
295.992	136.58
296.449	130.35
296.905	143.69
297.362	149.43
297.818	148.86
298.274	177.76
298.731	165.8
299.187	147.88
299.643	177.09
300.099	216.53
300.555	261.31
301.011	239.26
301.467	274.56
301.923	265.26
302.379	261.98
302.835	276.29
303.291	268.55
303.746	285.01
304.202	308.5
304.658	285.78
305.113	223.48
305.569	215.26
306.024	201.85
306.479	131.03
306.935	141.67
307.39	122.65
307.845	115.56
308.301	118.83
308.756	117.92
309.211	164.04
309.666	162.12
310.121	213.11
310.576	202.57
311.031	164.42
311.486	163.21
311.94	117.6
312.395	135.48
312.85	140.93
313.305	186.69
313.759	6515.86
314.214	329.83
314.668	263.77
315.123	191.27
315.577	131.25
316.032	133.97
316.486	167.57
316.94	172.37
317.394	160.9
317.849	130.87
318.303	126.85
318.757	103.02
319.211	113.82
319.665	119.76
320.119	125.84
320.572	134.96
321.026	156.11
321.48	142.93
321.934	138.3
322.387	120.19
322.841	165.1
323.295	186.61
323.748	186.65
324.202	208.49
324.655	257.5
325.108	394.67
325.562	309.54
326.015	326.41
326.468	253.05
326.921	318.84
327.374	341.41
327.827	348.29
328.28	368.21
328.733	253.89
329.186	216.59
329.639	195.77
330.092	150.74
330.545	150.53
330.997	173.84
331.45	209.18
331.903	245.8
332.355	322.69
332.808	285.21
333.26	238.49
333.713	282.99
334.165	299.01
334.617	370.04
335.069	248.75
335.522	395.59
335.974	339.96
336.426	222.13
336.878	73.06
337.33	74.55
337.782	67.47
338.234	92.92
338.686	82.83
339.137	51.49
339.589	4.52
340.041	40.8
340.493	12.58
340.944	30.92
341.396	54.56
341.847	85.48
342.299	125.69
342.75	207.23
343.201	148.15
343.653	142.79
344.104	185.98
344.555	170.39
345.006	214.56
345.457	260.16
345.908	180.33
346.359	178.72
346.81	136.84
347.261	116.85
347.712	82.91
348.163	76.67
348.613	123.01
349.064	107.46
349.515	101.07
349.965	116.39
350.416	93.27
350.866	112.69
351.317	91.93
351.767	134.99
352.217	169.03
352.668	154.36
353.118	179.43
353.568	74.78
354.018	125.55
354.468	155.6
354.918	127.95
355.368	126.36
355.818	172.66
356.268	447.87
356.718	2000.58
357.168	608.29
357.617	276.78
358.067	275.42
358.517	301.43
358.966	387.87
359.416	467.67
359.865	484.22
360.315	515.45
360.764	281.47
361.213	188.47
361.663	161.96
362.112	157.68
362.561	250.33
363.01	222
363.459	183.84
363.908	151.51
364.357	144.62
364.806	145.71
365.255	109.67
365.703	83.24
366.152	52.54
366.601	39.7
367.05	60.13
367.498	89.18
367.947	61.35
368.395	57.29
368.844	74.43
369.292	55.6
369.74	69.77
370.189	84.12
370.637	127.63
371.085	138.58
371.533	167.98
371.981	112.68
372.429	121.87
372.877	134.9
373.325	118.51
373.773	86.29
374.221	58.2
374.669	57.95
375.116	55.15
375.564	31.83
376.012	5
376.459	21.76
376.907	55.93
377.354	33.09
377.801	81.6
378.249	131.92
378.696	156.55
379.143	248.37
379.591	275.58
380.038	461.58
380.485	404.14
380.932	441.73
381.379	506.57
381.826	440.79
382.273	284.86
382.72	208.12
383.166	193.07
383.613	144.2
384.06	121.59
384.506	137.61
384.953	112.23
385.4	98.4
385.846	85.11
386.292	60.08
386.739	34.18
387.185	30.23
387.631	30.08
388.078	46.77
388.524	41.59
388.97	45.47
389.416	41.33
389.862	43.03
390.308	39.26
390.754	56.68
391.2	56.59
391.645	47.55
392.091	81.97
392.537	89.85
392.983	78.49
393.428	105.08
393.874	104
394.319	118.9
394.765	132.23
395.21	130.2
395.655	113
396.101	110.97
396.546	114.48
396.991	91.34
397.436	89.38
397.881	78.1
398.326	58.21
398.771	65.21
399.216	54.63
399.661	42.18
400.106	45.82
400.551	48.55
400.995	44.91
401.44	47.31
401.885	47
402.329	46.25
402.774	48.04
403.218	54.09
403.663	50.81
404.107	53.14
404.551	55.47
404.995	50.38
405.44	45.49
405.884	46.24
406.328	40.12
406.772	35.8
407.216	31.4
407.66	29.97
408.104	20.83
408.547	18.6
408.991	16.72
409.435	15.03
409.879	20.4
410.322	22.03
410.766	21.93
411.209	22.06
411.653	21.42
412.096	22.37
412.54	19.04
412.983	19.57
413.426	22.07
413.869	20.34
414.312	22.09
414.756	19.98
415.199	20.15
415.642	20.62
416.085	20.33
416.527	20.74
416.97	18.69
417.413	21.59
417.856	19.83
418.298	17.8
418.741	17
419.184	14.53
419.626	8.5
420.069	7.76
420.511	6.91
420.953	10.17
421.396	11.65
421.838	11.16
422.28	10.37
422.722	12.77
423.164	12.89
423.606	12.32
424.048	10.76
424.49	14.14
424.932	12.14
425.374	10.57
425.816	7.76
426.258	6.74
426.699	6.96
427.141	6.33
427.582	6.36
428.024	5.46
428.465	3.52
428.907	4.66
429.348	4.82
429.789	5.31
430.231	9.8
430.672	8.85
431.113	8.18
431.554	9.66
431.995	9.94
432.436	11.16
432.877	11.48
433.318	14.29
433.759	12.23
434.2	10.84
434.64	11.64
435.081	9.61
435.522	11.51
435.962	13.04
436.403	13.48
436.843	12.4
437.284	9.79
437.724	8.12
438.164	5.59
438.604	7.37
439.045	10.18
439.485	10.96
439.925	10.53
440.365	10.15
440.805	8.19
441.245	8.96
441.685	8.48
442.125	7.79
442.564	7.24
443.004	8.15
443.444	8.01
443.883	7.55
444.323	5.56
444.762	2.88
445.202	1.34
445.641	3.86
446.081	0.17
446.52	1.19
446.959	2.04
447.398	4.5
447.837	5.02
448.276	4.09
448.716	4.33
449.154	2.56
449.593	4.39
450.032	4.28
450.471	0.84
450.91	1.2
451.349	2.16
451.787	2.09
452.226	0.26
452.664	0.02
453.103	-0.5
453.541	-1.56
453.98	2
454.418	1.96
454.856	4.38
455.295	5.86
455.733	6.76
456.171	5.88
456.609	7.65
457.047	8.83
457.485	9.2
457.923	11.05
458.361	9.61
458.798	8.84
459.236	9.12
459.674	7.37
460.111	7.7
460.549	7.68
460.987	7.69
461.424	5.88
461.862	5.76
462.299	6.42
462.736	6.97
463.173	7.66
463.611	9.83
464.048	9.64
464.485	10.31
464.922	9.29
465.359	9.49
465.796	15.46
466.233	16.68
466.67	18.3
467.106	19.5
467.543	18.08
467.98	17.13
468.416	14.84
468.853	14.32
469.29	13.91
469.726	14.55
470.162	13.75
470.599	8.19
471.035	6.56
471.471	5.87
471.907	2.83
472.344	2.79
472.78	3.49
473.216	2.64
473.652	2.66
474.088	1.45
474.523	1.24
474.959	0.8
475.395	1.01
475.831	2.22
476.266	1.34
476.702	1.62
477.138	2.56
477.573	2.17
478.008	2.58
478.444	3.93
478.879	5.27
479.314	5.97
479.75	6.55
480.185	6.26
480.62	5.1
481.055	5.55
481.49	6.45
481.925	6.24
482.36	8.33
482.795	7.5
483.229	5.81
483.664	5.28
484.099	4.69
484.534	5.01
484.968	5.12
485.403	5.18
485.837	4.03
486.271	3.8
486.706	3.54
487.14	2.19
487.574	3.2
488.009	3.17
488.443	2.84
488.877	3.26
489.311	2.3
489.745	2.33
490.179	2.76
490.613	4.43
491.046	3.77
491.48	3.49
491.914	4.09
492.348	3.52
492.781	3.79
493.215	4.07
493.648	3.11
494.082	2.93
494.515	3.48
494.948	3.67
495.382	1.92
495.815	2.44
496.248	2.29
496.681	1.3
497.114	0.92
497.547	1.32
497.98	1.98
498.413	3.07
498.846	3.78
499.279	3.06
499.711	3
500.144	3.25
500.577	4.04
501.009	3.89
501.442	4.84
501.874	5.55
502.306	5.07
502.739	6.4
503.171	6.39
503.603	6.31
504.036	6.77
504.468	7
504.9	7.72
505.332	6.77
505.764	7.35
506.196	6.84
506.627	6.43
507.059	6.2
507.491	4.24
507.923	3.87
508.354	4.35
508.786	4.06
509.217	3.73
509.649	3.13
510.08	3.24
510.512	3.8
510.943	3.79
511.374	4.28
511.805	4.14
512.237	3.87
512.668	3.3
513.099	2.43
513.53	2.24
513.961	2.63
514.391	2.77
514.822	3.68
515.253	3.45
515.684	3.47
516.114	3.31
516.545	3.77
516.975	4.16
517.406	4.2
517.836	4.06
518.267	4.44
518.697	4.81
519.127	4.74
519.558	3.82
519.988	3.49
520.418	3.37
520.848	2.97
521.278	2.88
521.708	30.93
522.138	32.15
522.567	31.79
522.997	31.75
523.427	30.87
523.857	30.8
524.286	30.96
524.716	30.84
525.145	31.08
525.575	31.6
526.004	31.18
526.433	3.49
526.863	2.39
527.292	3.68
527.721	4.11
528.15	4.31
528.579	4.77
529.008	4.65
529.437	4.15
529.866	3.86
530.295	3.48
530.724	4.32
531.152	4.12
531.581	5
532.01	4.42
532.438	3.57
532.867	3
533.295	3.07
533.723	3.41
534.152	4
534.58	4.28
535.008	4.11
535.436	4.86
535.865	5.43
536.293	4.25
536.721	4.31
537.149	4.52
537.576	5.33
538.004	5.44
538.432	4.85
538.86	5.35
539.287	5.13
539.715	5.49
540.143	4.46
540.57	4.42
540.998	4.87
541.425	6.19
541.852	6.23
542.28	6.24
542.707	5.49
543.134	5.57
543.561	5.3
543.988	5.35
544.415	5.03
544.842	4.8
545.269	4.47
545.696	4.92
546.123	3.97
546.549	3.86
546.976	4
547.403	4.29
547.829	4.23
548.256	3.69
548.682	3.68
549.108	4.8
549.535	4.95
549.961	4.76
550.387	4.52
550.813	5.65
551.24	5.79
551.666	5.2
552.092	4.93
552.518	4.7
552.943	5.51
553.369	5.35
553.795	4.93
554.221	4.86
554.646	4.56
555.072	5.23
555.498	3.27
555.923	2.81
556.349	3.09
556.774	3.33
557.199	3.42
557.625	2.54
558.05	3.05
558.475	2.93
558.9	3.1
559.325	4.05
559.75	3.87
560.175	4.5
560.6	5.04
561.025	4.57
561.449	4.22
561.874	4.22
562.299	5.35
562.723	4.97
563.148	4.72
563.572	4.34
563.997	3.85
564.421	2.62
564.846	2.67
565.27	2.72
565.694	2.96
566.118	3.34
566.542	4.18
566.966	4.1
567.39	4.19
567.814	4.75
568.238	4.77
568.662	4.12
569.086	4.49
569.509	4.09
569.933	5.34
570.357	5.13
570.78	5.09
571.204	5.57
571.627	4.75
572.05	4.65
572.474	4.83
572.897	5.25
573.32	6.24
573.743	6.22
574.166	6.82
574.589	5.39
575.012	5.81
575.435	5.81
575.858	4.85
576.281	4.95
576.704	4.77
577.126	3.71
577.549	3.61
577.972	2.76
578.394	3.48
578.817	4.65
579.239	4.36
579.661	3.93
580.084	4.77
580.506	5.14
580.928	4.71
581.35	4.77
581.772	4.94
582.194	4.67
582.616	4.72
583.038	3.62
583.46	2.26
583.882	2.52
584.303	2.31
584.725	1.5
585.147	4.8
585.568	5.22
585.99	5.58
586.411	6.65
586.833	7.08
587.254	7.75
587.675	7.33
588.096	7.51
588.518	7.6
588.939	8.04
589.36	8.07
589.781	3.95
590.202	6.17
590.623	6.55
591.043	5.17
591.464	5
591.885	4.7
592.305	5.05
592.726	4.44
593.147	4.44
593.567	4.26
593.987	3.8
594.408	3.38
594.828	1.01
595.248	0.92
595.669	1.39
596.089	1.08
596.509	1.33
596.929	1.41
597.349	2.3
597.769	2.5
598.189	3
598.608	3.38
599.028	3.73
599.448	3.63
599.867	3.39
600.287	3.09
600.706	3.65
601.126	3.68
601.545	4.58
601.965	3.92
602.384	3.98
602.803	3.65
603.222	3.86
603.641	3.79
604.061	4.23
604.48	4.45
604.898	4.3
605.317	3.7
605.736	3.26
606.155	3.21
606.574	3.34
606.992	3.03
607.411	2.92
607.829	2.71
608.248	2.52
608.666	1.68
609.085	1.19
609.503	1.69
609.921	2
610.339	2.06
610.758	1.57
611.176	1.78
611.594	2.16
612.012	2.26
612.43	2.28
612.847	2.1
613.265	3.42
613.683	3.83
614.101	4.13
614.518	3.56
614.936	3.42
615.353	3.99
615.771	4.03
616.188	3.91
616.606	3.67
617.023	3.95
617.44	4.61
617.857	3.15
618.274	2.8
618.691	2.55
619.108	3.1
619.525	3
619.942	2.43
620.359	2.45
620.776	2.82
621.192	3.6
621.609	4.24
622.026	4.63
622.442	5.41
622.859	5.26
623.275	5.4
623.691	5.49
624.108	6.41
624.524	6.61
624.94	6.48
625.356	5.78
625.772	5.02
626.188	3.8
626.604	3.54
627.02	3.4
627.436	3.51
627.852	4.2
628.268	4.4
628.683	4.25
629.099	4.25
629.514	3.44
629.93	3.16
630.345	3.13
630.761	3.3
631.176	2.93
631.591	4.58
632.007	4.82
632.422	3.34
632.837	2.78
633.252	3.45
633.667	3.31
634.082	4.31
634.497	5.1
634.911	6.32
635.326	6.56
635.741	6.83
636.155	5.24
636.57	5.77
636.984	6.52
637.399	7.91
637.813	6.97
638.228	6.61
638.642	6.17
639.056	5.74
639.47	4.87
639.884	4.93
640.298	4.67
640.712	6.03
641.126	5.62
641.54	5.09
641.954	2.75
642.368	3.02
642.781	5.94
643.195	6.8
643.609	7.75
644.022	8.2
644.436	8.22
644.849	7.58
645.262	6.18
645.676	5.61
646.089	5.9
646.502	7.62
646.915	7.31
647.328	5.91
647.741	5.55
648.154	5.49
648.567	7.16
648.98	8.05
649.393	8.22
649.805	8.83
650.218	9.16
650.631	9.28
651.043	9.04
651.456	9.29
651.868	8.56
652.28	8.13
652.693	7.23
653.105	5.99
653.517	5.07
653.929	6.28
654.341	6.17
654.753	6.56
655.165	6.93
655.577	7.12
655.989	6.79
656.401	6.12
656.813	7.24
657.224	7.79
657.636	6.89
658.047	7.24
658.459	6.41
658.87	4.97
659.282	5.07
659.693	5.36
660.104	5.07
660.515	4.86
660.926	5.3
661.338	4.69
661.749	3.95
662.159	4.51
662.57	3.72
662.981	4.45
663.392	5.22
663.803	5.06
664.213	3.83
664.624	4.2
665.035	3.7
665.445	3.26
665.855	3.6
666.266	4.56
666.676	4.18
667.086	3.98
667.497	3.54
667.907	3.96
668.317	4.12
668.727	7.53
669.137	6.49
669.547	6.91
669.956	6.44
670.366	5.87
670.776	5.97
671.186	6.52
671.595	7.04
672.005	6.68
672.414	6.86
672.824	7.17
673.233	4.51
673.642	5.36
674.052	5.91
674.461	7.16
674.87	7.63
675.279	8.52
675.688	6.96
676.097	7.19
676.506	7.58
676.915	6.75
677.323	6.87
677.732	6.65
678.141	6.76
678.549	6.52
678.958	6.08
679.366	5.68
679.775	3.39
680.183	5.84
680.592	5.58
681	5.79
681.408	6.26
681.816	6.05
682.224	5.3
682.632	6.69
683.04	6.72
683.448	6.3
683.856	7.19
684.264	9.23
684.671	8.03
685.079	6.94
685.487	6.9
685.894	6.82
686.302	6.4
686.709	7.95
687.116	5.56
687.524	6.67
687.931	8.61
688.338	7.72
688.745	6.63
689.152	6
689.559	6.66
689.966	8.06
690.373	8.59
690.78	8.81
691.187	8.23
691.593	9.98
692	8.9
692.407	9.6
692.813	11.57
693.22	12.53
693.626	11.51
694.032	12.78
694.439	12.48
694.845	12.06
695.251	11.59
695.657	12.12
696.063	9.83
696.469	10.46
696.875	8.81
697.281	7.12
697.687	5.77
698.093	6.6
698.498	7.01
698.904	6.12
699.31	6.24
699.715	7.58
700.12	6.95
700.526	8.56
700.931	8.11
701.337	8.22
701.742	9
702.147	9.64
702.552	10.6
702.957	9.08
703.362	8.65
703.767	8.45
704.172	6.86
704.577	7.06
704.981	5
705.386	4.74
705.791	4.79
706.195	4.24
706.6	4.4
707.004	2.18
707.408	2.25
707.813	2.93
708.217	4.48
708.621	5.38
709.025	4.17
709.43	6.64
709.834	6.46
710.237	5.79
710.641	5.63
711.045	5.56
711.449	7.24
711.853	10.5
712.256	10.03
712.66	8.73
713.064	7.88
713.467	10.13
713.87	9.82
714.274	10.79
714.677	11.8
715.08	12.01
715.484	12.14
715.887	14.67
716.29	11.89
716.693	13.74
717.096	14.24
717.499	15.2
717.901	13.31
718.304	13.61
718.707	13.27
719.109	12.86
719.512	12.65
719.915	15.03
720.317	13.38
720.719	12.79
721.122	11.56
721.524	11.51
721.926	14.91
722.328	15.73
722.731	14.11
723.133	13.43
723.535	13.37
723.937	15.04
724.338	15.95
724.74	16.29
725.142	55.73
725.544	58.7
725.945	69.07
726.347	65.53
726.748	66.55
727.15	67.97
727.551	70.95
727.952	70.8
728.354	68.94
728.755	66.62
729.156	65.23
729.557	26.6
729.958	23.14
730.359	13.45
730.76	13.44
731.161	12.29
731.562	11.34
731.962	9.23
732.363	9.01
732.763	8.42
733.164	6.83
733.564	7.4
733.965	8.52
734.365	9.08
734.766	8.6
735.166	8.11
735.566	8.14
735.966	8.66
736.366	8.9
736.766	8.71
737.166	8.53
737.566	8.92
737.966	8.87
738.365	8.85
738.765	9.87
739.165	9.91
739.564	9.97
739.964	9.34
740.363	8.95
740.763	7.7
741.162	8.97
741.561	8.9
741.96	8.99
742.36	7.3
742.759	7.17
743.158	5.31
743.557	5.65
743.955	5.69
744.354	6.35
744.753	5.59
745.152	6.61
745.55	4.66
745.949	4.97
746.348	4.91
746.746	5.7
747.144	7.27
747.543	6.98
747.941	6.31
748.339	6.26
748.737	6.89
749.136	7.21
749.534	5.62
749.932	8.37
750.33	8.26
750.727	8.07
751.125	8.95
751.523	7.56
751.921	11.15
752.318	12.4
752.716	14.01
753.113	13.6
753.511	14.16
753.908	15.94
754.305	18.6
754.703	18.49
755.1	20.04
755.497	18.88
755.894	19.05
756.291	15.98
756.688	16.73
757.085	15.84
757.482	16.84
757.878	19.26
758.275	20.58
758.672	14.58
759.068	15.49
759.465	12.13
759.861	13.63
760.258	12.45
760.654	14.91
761.05	13.56
761.447	13.63
761.843	13.49
762.239	12.4
762.635	10.32
763.031	8.07
763.427	7.52
763.822	10.55
764.218	9.58
764.614	9.94
765.01	7.49
765.405	5.54
765.801	5.95
766.196	4.21
766.592	2.92
766.987	3.75
767.382	5.05
767.778	5.28
768.173	4.79
768.568	4.89
768.963	5.64
769.358	7.24
769.753	9.84
770.148	9.71
770.542	11.86
770.937	12.43
771.332	12.13
771.726	10.77
772.121	14.13
