Data from N_2_DIV_PA_2N_Splice17_12-39-39-808.txt Node
Date: Sat Mar 14 12:39:39 EDT 2020
User: sa697716
Spectrometer: FLMS03696
Trigger mode: 0
Integration Time (sec): 3.180400E-1
Scans to average: 20
Electric dark correction enabled: true
Nonlinearity correction enabled: true
Boxcar width: 5
XAxis mode: Wavelengths
Number of Pixels in Spectrum: 2048
>>>>>Begin Spectral Data<<<<<
187.83	-471235.09
188.298	3321.3
188.766	1707.6
189.233	1562.35
189.701	2204.36
190.169	3074.56
190.636	1106.65
191.104	816.78
191.571	101.19
192.039	-122.45
192.506	-177.59
192.974	282.05
193.441	-548.65
193.908	-279.94
194.375	-36.06
194.842	-10.52
195.31	166.62
195.777	177.3
196.244	416.48
196.711	501.65
197.177	638.48
197.644	909.07
198.111	1563.4
198.578	2222.18
199.045	1818.18
199.511	2971.47
199.978	3494.56
200.445	2953.17
200.911	3264.71
201.378	3594.69
201.844	3261.07
202.31	5541.75
202.777	5820.69
203.243	3224.46
203.709	3051.99
204.176	3606.22
204.642	2963.54
205.108	2771.27
205.574	2244.98
206.04	2047.42
206.506	1937.66
206.972	1824.26
207.438	1766.81
207.903	2006.19
208.369	1752.48
208.835	1750.82
209.301	1835.98
209.766	1868.73
210.232	1846.46
210.697	2282.27
211.163	2801.89
211.628	4197.32
212.094	3534.63
212.559	4361.8
213.024	2698.9
213.49	3315.26
213.955	3219.56
214.42	3129.17
214.885	2911.09
215.35	2785.3
215.815	2687.1
216.28	2849.72
216.745	2319.53
217.21	2473.68
217.675	2247.69
218.14	2509.76
218.604	2770.47
219.069	3137.55
219.534	3285.23
219.998	3796.84
220.463	4553.46
220.927	5553.43
221.392	5187.43
221.856	5221.59
222.32	6542.78
222.785	8065.79
223.249	10100.99
223.713	11257.39
224.177	11256.01
224.642	14399.22
225.106	17669.87
225.57	19278.01
226.034	14363.06
226.497	21882.14
226.961	19783.41
227.425	23061.16
227.889	25534.37
228.353	25523.75
228.816	52578.32
229.28	50177.75
229.744	42235.4
230.207	25614.28
230.671	25184.76
231.134	41551.85
231.597	47884.8
232.061	47792.29
232.524	46550.21
232.987	32026.5
233.45	28900.77
233.914	25916.31
234.377	26543.4
234.84	24282.67
235.303	28646.98
235.766	31967.65
236.229	33021.1
236.691	20770.11
237.154	23339.89
237.617	17581.27
238.08	17994.88
238.542	21006.72
239.005	15035.47
239.468	14928.52
239.93	14073.93
240.393	12798.66
240.855	11237.2
241.317	11499.27
241.78	13995.82
242.242	14461.42
242.704	15603.15
243.166	13588.16
243.629	12347.03
244.091	14218.56
244.553	15570.72
245.015	16729.52
245.477	21603.85
245.939	31685
246.4	33631.03
246.862	32659.25
247.324	30785.76
247.786	34432.58
248.247	45064.05
248.709	46429.42
249.17	34679.42
249.632	32712.44
250.093	37932.99
250.555	32763.97
251.016	19961.61
251.477	18911.71
251.939	20399.06
252.4	21375.62
252.861	25407
253.322	23659.96
253.783	28146.59
254.244	36500.92
254.705	28761.66
255.166	25531.82
255.627	25135.83
256.088	35460.18
256.549	37686.99
257.009	32439.33
257.47	39346.45
257.931	31989
258.391	23948.5
258.852	24685.24
259.312	25849.73
259.773	31893.54
260.233	26973.58
260.694	22725.31
261.154	25746.12
261.614	20668.95
262.074	18457.62
262.534	19190.45
262.994	18099.51
263.455	24076.74
263.915	20289.98
264.374	19110.44
264.834	20853.79
265.294	23116.09
265.754	23981.46
266.214	22706.39
266.673	21255.5
267.133	26836.57
267.593	26597.36
268.052	32554.5
268.512	28353.67
268.971	34228.99
269.431	37585.41
269.89	33696.2
270.349	50521.71
270.809	56315.77
271.268	50605.09
271.727	113493.52
272.186	73519.39
272.645	55188.84
273.104	39807.63
273.563	57618.96
274.022	45274.45
274.481	38506.23
274.94	29648.48
275.399	22037.12
275.857	25650.19
276.316	34701.04
276.775	30880.13
277.233	30467.36
277.692	28545.01
278.15	32323.3
278.609	33292.61
279.067	30839.24
279.525	28643.04
279.984	37008.8
280.442	44498.54
280.9	43941.48
281.358	28942.66
281.816	27012.94
282.274	26455.02
282.732	27317.03
283.19	27453.45
283.648	23708.07
284.106	25247.3
284.564	25709.32
285.021	23857.08
285.479	17764.88
285.937	16157.6
286.394	14207.39
286.852	14638.91
287.309	15389.74
287.767	14894.95
288.224	14178.39
288.682	15573.67
289.139	17105.08
289.596	15648.42
290.053	16287.44
290.511	20594.32
290.968	24973.47
291.425	33825.9
291.882	28144.69
292.339	24476.54
292.796	24267.93
293.252	22838.4
293.709	18164.12
294.166	16298.9
294.623	18023.75
295.079	17277.21
295.536	17377.97
295.992	15791.06
296.449	15623.6
296.905	16231.84
297.362	15571.73
297.818	16395.8
298.274	17030.79
298.731	17324.86
299.187	17129.02
299.643	18397.33
300.099	22242.47
300.555	24350.71
301.011	20348.04
301.467	19636.68
301.923	22989.59
302.379	22496.71
302.835	22100.61
303.291	22142.79
303.746	25229.42
304.202	31896.83
304.658	32040.91
305.113	21589.35
305.569	21182.06
306.024	22551.47
306.479	21468.3
306.935	18115.16
307.39	19756.21
307.845	18256.67
308.301	18384.97
308.756	17919.04
309.211	17275.29
309.666	17693.58
310.121	21993.43
310.576	22332.43
311.031	22216.11
311.486	25448.64
311.94	25464.37
312.395	34094.02
312.85	64025.2
313.305	314537.98
313.759	1632156.09
314.214	118524
314.668	94196.8
315.123	79347.48
315.577	28490.3
316.032	25348.75
316.486	31807.8
316.94	25104.93
317.394	17488.19
317.849	13604.16
318.303	12892.35
318.757	12166.08
319.211	13433.1
319.665	11747.2
320.119	11865.87
320.572	17006.29
321.026	15889.16
321.48	13207.52
321.934	14390.69
322.387	14423.23
322.841	15591.01
323.295	14012.03
323.748	16093.46
324.202	16337.93
324.655	19612.69
325.108	27422.13
325.562	19371.5
326.015	22998.4
326.468	17444.07
326.921	19528.72
327.374	18254.52
327.827	19016.24
328.28	21557.05
328.733	14483.07
329.186	12755.99
329.639	12191.03
330.092	10292.06
330.545	9835.46
330.997	9941.1
331.45	10854.79
331.903	12728.72
332.355	21847.15
332.808	21263.65
333.26	17537.76
333.713	19052.47
334.165	19175.95
334.617	25595.83
335.069	20639.96
335.522	37272.87
335.974	41297.73
336.426	37746.19
336.878	26156.84
337.33	13271.79
337.782	12946.48
338.234	16249.44
338.686	19467.83
339.137	23065.04
339.589	21701
340.041	17062.54
340.493	14668.19
340.944	15035.87
341.396	16199.43
341.847	13636.83
342.299	16152.62
342.75	19771.25
343.201	17262.65
343.653	19847.1
344.104	24430.13
344.555	19212.52
345.006	29829.26
345.457	22839.96
345.908	18150.36
346.359	17126.91
346.81	13952.92
347.261	14673.42
347.712	14429.99
348.163	15475.14
348.613	15673.36
349.064	14627.09
349.515	12832.14
349.965	13186.39
350.416	15863.36
350.866	17400.73
351.317	19615.98
351.767	32453.82
352.217	41043.55
352.668	34075.02
353.118	31280.28
353.568	30134.74
354.018	23863.7
354.468	25167.34
354.918	18083.9
355.368	15872.16
355.818	22472
356.268	64650.75
356.718	271359.37
357.168	67576.01
357.617	33969.26
358.067	37755.31
358.517	35484.07
358.966	41668.97
359.416	46824.8
359.865	50578.78
360.315	60256.84
360.764	28126.93
361.213	15799.6
361.663	14960.54
362.112	18480.76
362.561	29856.34
363.01	22560.07
363.459	18981.54
363.908	20580.38
364.357	17513.43
364.806	29625.07
365.255	20369.89
365.703	18692.84
366.152	18723.46
366.601	15207.31
367.05	12368.3
367.498	11259.78
367.947	11770.64
368.395	12254.09
368.844	10852.75
369.292	13084.26
369.74	9044.49
370.189	13879.77
370.637	16250.88
371.085	14050.68
371.533	17094.29
371.981	16493.87
372.429	15750.82
372.877	16411.83
373.325	13746.82
373.773	14024.33
374.221	12493.36
374.669	15515.96
375.116	13411.6
375.564	13582.16
376.012	15230.42
376.459	12622.05
376.907	15074.75
377.354	18255.08
377.801	17079.53
378.249	19705.09
378.696	25248.22
379.143	30710.02
379.591	32930.81
380.038	56089.62
380.485	40681.45
380.932	44076.51
381.379	40524.85
381.826	30057.86
382.273	21427.16
382.72	18791.92
383.166	18392.97
383.613	11977.02
384.06	10833.7
384.506	12563.48
384.953	9232.45
385.4	9327.7
385.846	8205.95
386.292	8004.4
386.739	7857.26
387.185	7809.24
387.631	7856
388.078	7662
388.524	8240.09
388.97	7643.41
389.416	6407.78
389.862	6844.14
390.308	6516.42
390.754	6641.13
391.2	7252.57
391.645	7447.8
392.091	7164.4
392.537	6956.09
392.983	6990.53
393.428	6896.71
393.874	7421.86
394.319	7483.03
394.765	7137.3
395.21	7358.72
395.655	6928.46
396.101	6503.78
396.546	5898.42
396.991	5962.75
397.436	5553.15
397.881	5383.56
398.326	5114.4
398.771	4847.61
399.216	4243.86
399.661	3830.48
400.106	3833.23
400.551	3933.1
400.995	3538.12
401.44	3503.88
401.885	3297.56
402.329	3339.96
402.774	3207.16
403.218	3118.07
403.663	3013.57
404.107	3110.86
404.551	3145.79
404.995	2887.18
405.44	2789.59
405.884	2843.07
406.328	2761.53
406.772	2766.99
407.216	2524.81
407.66	2449.55
408.104	2326.92
408.547	2183.29
408.991	2117.04
409.435	2042.31
409.879	2021.4
410.322	2000.59
410.766	1935.36
411.209	1841.65
411.653	1772.24
412.096	1742.16
412.54	1745.95
412.983	1739.94
413.426	1749.23
413.869	1751.43
414.312	1722.64
414.756	1663.85
415.199	1589.18
415.642	1546.06
416.085	1552.76
416.527	1542.86
416.97	1570.82
417.413	1490.09
417.856	1477.61
418.298	1465.93
418.741	1455.01
419.184	1451.38
419.626	1514.43
420.069	1516.64
420.511	1524.95
420.953	1493.73
421.396	1479.85
421.838	1440.26
422.28	1477.83
422.722	1481.27
423.164	1499.11
423.606	1477.87
424.048	1475.08
424.49	1402.05
424.932	1394.74
425.374	1376.22
425.816	1400.21
426.258	1426.14
426.699	1443.22
427.141	1422.78
427.582	1449.48
428.024	1446.41
428.465	1439.12
428.907	1407.39
429.348	1390.74
429.789	1394.36
430.231	1366.81
430.672	1388
431.113	1358.79
431.554	1339.68
431.995	1306.46
432.436	1260.03
432.877	1230.45
433.318	1209.07
433.759	1204.54
434.2	1204.78
434.64	1190.37
435.081	1194.47
435.522	1132.18
435.962	1091.8
436.403	1069.84
436.843	1086.28
437.284	1064.31
437.724	1037.05
438.164	1042.24
438.604	1018.65
439.045	980.78
439.485	943.94
439.925	923.35
440.365	898.57
440.805	885
441.245	873.98
441.685	839.66
442.125	832.04
442.564	837.97
443.004	816.11
443.444	812.97
443.883	812.45
444.323	801.25
444.762	801.14
445.202	811.98
445.641	827.04
446.081	821.61
446.52	828.15
446.959	820.36
447.398	799.05
447.837	788.92
448.276	773.7
448.716	779.09
449.154	786.4
449.593	766.97
450.032	763.25
450.471	747.65
450.91	746.46
451.349	742.54
451.787	737.12
452.226	746.63
452.664	745.72
453.103	746.52
453.541	745.41
453.98	743.15
454.418	748.41
454.856	736.76
455.295	734.79
455.733	739.2
456.171	744.01
456.609	745.67
457.047	744.05
457.485	754.59
457.923	755.8
458.361	745.45
458.798	747.53
459.236	745.1
459.674	748.37
460.111	751.26
460.549	744.21
460.987	740.21
461.424	735.99
461.862	733.6
462.299	722.18
462.736	721.92
463.173	724.11
463.611	716.82
464.048	714.95
464.485	721.58
464.922	715.29
465.359	711.36
465.796	704.56
466.233	699.7
466.67	693.22
467.106	692.54
467.543	684.15
467.98	674.74
468.416	657.4
468.853	651.8
469.29	631.75
469.726	624.34
470.162	607.37
470.599	596.74
471.035	591.24
471.471	576.16
471.907	571
472.344	567.37
472.78	568.12
473.216	574.3
473.652	567.09
474.088	565.21
474.523	563.77
474.959	569.05
475.395	563.71
475.831	560.55
476.266	562.71
476.702	561.8
477.138	555.55
477.573	552.97
478.008	550.53
478.444	553.14
478.879	557.65
479.314	559.23
479.75	556.87
480.185	558.82
480.62	562.45
481.055	564.51
481.49	567.79
481.925	575.29
482.36	585.33
482.795	600.27
483.229	614.83
483.664	626.58
484.099	628.11
484.534	638.54
484.968	643.54
485.403	644.63
485.837	642.04
486.271	639.28
486.706	637.61
487.14	628.11
487.574	617.12
488.009	609.99
488.443	602.68
488.877	606.93
489.311	606.6
489.745	612.43
490.179	615.5
490.613	626.74
491.046	628.6
491.48	630.35
491.914	629.07
492.348	630.4
492.781	631.29
493.215	630.15
493.648	627.76
494.082	628.94
494.515	625.37
494.948	629.28
495.382	628.71
495.815	629.16
496.248	630.89
496.681	637.08
497.114	642.22
497.547	646.99
497.98	653.74
498.413	654.29
498.846	657.36
499.279	659.52
499.711	656.71
500.144	652.91
500.577	656.65
501.009	659.3
501.442	661.71
501.874	657.33
502.306	652.01
502.739	653.32
503.171	658.62
503.603	654.43
504.036	654.12
504.468	652.35
504.9	653.77
505.332	650.8
505.764	647.14
506.196	645
506.627	647.95
507.059	649.65
507.491	646.2
507.923	637.7
508.354	641.2
508.786	641.87
509.217	646.77
509.649	649.95
510.08	655.55
510.512	659.79
510.943	663.48
511.374	664.48
511.805	671.32
512.237	676.73
512.668	689.85
513.099	700.09
513.53	710.72
513.961	717.57
514.391	730.77
514.822	747.01
515.253	762.82
515.684	772.88
516.114	785.11
516.545	793.43
516.975	804.97
517.406	811.69
517.836	809.38
518.267	809.38
518.697	817.4
519.127	817.53
519.558	816.98
519.988	817.47
520.418	820.66
520.848	829.11
521.278	832.49
521.708	865.5
522.138	872.33
522.567	888.66
522.997	903.89
523.427	911.44
523.857	920.89
524.286	927.6
524.716	937.14
525.145	949.39
525.575	956.65
526.004	966.04
526.433	940.5
526.863	941.58
527.292	938.9
527.721	942.83
528.15	947.69
528.579	950.08
529.008	958.03
529.437	971.27
529.866	980.61
530.295	991.49
530.724	1000.84
531.152	1016.72
531.581	1026.38
532.01	1037.13
532.438	1043.17
532.867	1053.52
533.295	1065.35
533.723	1070
534.152	1070.52
534.58	1071.4
535.008	1062.95
535.436	1064.88
535.865	1070.14
536.293	1079.12
536.721	1089
537.149	1105.48
537.576	1107.6
538.004	1116.46
538.432	1122.11
538.86	1122.55
539.287	1127.17
539.715	1136.75
540.143	1138.5
540.57	1137.92
540.998	1136
541.425	1124.69
541.852	1112.09
542.28	1111.31
542.707	1102.23
543.134	1094.57
543.561	1092.52
543.988	1089.56
544.415	1089.58
544.842	1086.53
545.269	1082.6
545.696	1085.2
546.123	1092.76
546.549	1087.77
546.976	1081.49
547.403	1082.03
547.829	1083.54
548.256	1085.17
548.682	1083.5
549.108	1081.27
549.535	1081.92
549.961	1083.09
550.387	1075.5
550.813	1074.32
551.24	1077.81
551.666	1078.06
552.092	1072.15
552.518	1067.89
552.943	1064.72
553.369	1068.51
553.795	1070.35
554.221	1070.35
554.646	1068.44
555.072	1075.35
555.498	1076.12
555.923	1080.65
556.349	1088.57
556.774	1092.18
557.199	1091.28
557.625	1093.08
558.05	1088.95
558.475	1094.11
558.9	1092.94
559.325	1088.36
559.75	1083.01
560.175	1077.65
560.6	1072.54
561.025	1069.66
561.449	1069.84
561.874	1072.51
562.299	1072.97
562.723	1074.83
563.148	1067.33
563.572	1067.36
563.997	1071.12
564.421	1070.66
564.846	1068.44
565.27	1068.67
565.694	1065.52
566.118	1069.69
566.542	1072.58
566.966	1067.02
567.39	1061.6
567.814	1052.45
568.238	1050.54
568.662	1050.13
569.086	1050.32
569.509	1051.62
569.933	1042.5
570.357	1036.89
570.78	1022.63
571.204	1014.46
571.627	1007.56
572.05	1005.88
572.474	1005.92
572.897	997.84
573.32	993.11
573.743	986.84
574.166	976.72
574.589	975.02
575.012	970.41
575.435	969.23
575.858	963.14
576.281	956.05
576.704	946.28
577.126	937.31
577.549	930.16
577.972	923.95
578.394	918.27
578.817	916.52
579.239	906.03
579.661	898.04
580.084	890.36
580.506	883.51
580.928	881.83
581.35	876.35
581.772	874.36
582.194	867.56
582.616	860.17
583.038	852.36
583.46	844.55
583.882	843.32
584.303	845.52
584.725	842.96
585.147	847.06
585.568	853.98
585.99	861.42
586.411	866.95
586.833	876.04
587.254	878.45
587.675	885.31
588.096	893.29
588.518	890.31
588.939	881.5
589.36	880.84
589.781	871.01
590.202	856.98
590.623	852.7
591.043	851.14
591.464	844.04
591.885	842.6
592.305	840.2
592.726	832.56
593.147	833.51
593.567	831.01
593.987	826.18
594.408	823.29
594.828	819.8
595.248	816.59
595.669	806.58
596.089	802.38
596.509	797.72
596.929	789.89
597.349	791.02
597.769	785.78
598.189	782.63
598.608	784.41
599.028	785.88
599.448	785.34
599.867	777.54
600.287	774.04
600.706	772.66
601.126	767.67
601.545	767.8
601.965	766.04
602.384	762.82
602.803	764.37
603.222	760.93
603.641	756.61
604.061	755.33
604.48	754
604.898	758.82
605.317	761.22
605.736	762.54
606.155	762.18
606.574	757.88
606.992	760.49
607.411	758.35
607.829	754.21
608.248	753.4
608.666	752.15
609.085	752.25
609.503	748.7
609.921	747.18
610.339	748.82
610.758	748.09
611.176	745.45
611.594	742.13
612.012	740.66
612.43	744.34
612.847	749.04
613.265	751.59
613.683	754.73
614.101	756.2
614.518	753.57
614.936	749.11
615.353	742.03
615.771	741.89
616.188	743.5
616.606	743.31
617.023	740.01
617.44	732.39
617.857	728.25
618.274	724.49
618.691	722.21
619.108	717.82
619.525	714.6
619.942	719.83
620.359	721.99
620.776	719.71
621.192	718.95
621.609	719.06
622.026	724.71
622.442	729.44
622.859	732.05
623.275	728.72
623.691	732.82
624.108	740.65
624.524	749.05
624.94	750.5
625.356	757.11
625.772	764.33
626.188	770.67
626.604	772.25
627.02	769.75
627.436	768.98
627.852	774.33
628.268	781.4
628.683	776.87
629.099	772.41
629.514	769.48
629.93	771.41
630.345	773.66
630.761	772.43
631.176	774.44
631.591	772.8
632.007	770.58
632.422	768.52
632.837	762.43
633.252	763.02
633.667	758.19
634.082	754.8
634.497	749.44
634.911	740.95
635.326	740.32
635.741	732.08
636.155	728.05
636.57	730.88
636.984	733.98
637.399	739.85
637.813	741.28
638.228	744.08
638.642	749.44
639.056	746.37
639.47	750.28
639.884	748.87
640.298	749.55
640.712	753.04
641.126	749.78
641.54	749.31
641.954	748.88
642.368	746.75
642.781	748.27
643.195	741.43
643.609	747.87
644.022	748.43
644.436	750.14
644.849	745.7
645.262	743.16
645.676	748.47
646.089	749.65
646.502	745.66
646.915	745.68
647.328	736.82
647.741	740.25
648.154	733.74
648.567	736.83
648.98	731.69
649.393	735.73
649.805	736.19
650.218	733.79
650.631	725.61
651.043	722.61
651.456	720.88
651.868	723.01
652.28	737.91
652.693	749.25
653.105	754.83
653.517	763.7
653.929	767.08
654.341	773.72
654.753	766.62
655.165	773.71
655.577	774.42
655.989	774.57
656.401	771.94
656.813	748.63
657.224	737.69
657.636	719.34
658.047	710.84
658.459	699.96
658.87	696.17
659.282	692
659.693	681.55
660.104	675.59
660.515	669.5
660.926	674.78
661.338	677.49
661.749	677.41
662.159	675.9
662.57	677.01
662.981	678.07
663.392	677.94
663.803	686.97
664.213	688.43
664.624	688.58
665.035	695.25
665.445	686.9
665.855	686.02
666.266	684.63
666.676	687.12
667.086	682.77
667.497	686.19
667.907	683.78
668.317	678.7
668.727	679.97
669.137	684.47
669.547	685.94
669.956	691.08
670.366	693.62
670.776	696.66
671.186	701.5
671.595	705.91
672.005	709.88
672.414	711.19
672.824	710.2
673.233	713.51
673.642	716.82
674.052	719.66
674.461	721.7
674.87	725.5
675.279	722.87
675.688	723.84
676.097	725.4
676.506	721.69
676.915	733.67
677.323	735.79
677.732	732.32
678.141	729.11
678.549	717.12
678.958	713.37
679.366	710.79
679.775	712.67
680.183	720.28
680.592	721.64
681	723.77
681.408	714.33
681.816	718.12
682.224	721.92
682.632	726.24
683.04	748.15
683.448	763.19
683.856	780.52
684.264	802.42
684.671	817.51
685.079	838.86
685.487	862.6
685.894	897.25
686.302	918.73
686.709	934.88
687.116	952.3
687.524	961.17
687.931	966.05
688.338	967.92
688.745	961.35
689.152	959.82
689.559	965.33
689.966	968.88
690.373	959.37
690.78	962.89
691.187	980.32
691.593	988.16
692	993.74
692.407	1011.54
692.813	1040.57
693.22	1060.91
693.626	1081.94
694.032	1099.7
694.439	1133.54
694.845	1159.72
695.251	1197.35
695.657	1230.75
696.063	1284.53
696.469	1325.3
696.875	1366.31
697.281	1390.48
697.687	1423.58
698.093	1454.59
698.498	1507.81
698.904	1550.86
699.31	1614.73
699.715	1665.6
700.12	1734.78
700.526	1763.52
700.931	1822.45
701.337	1871.87
701.742	1913.04
702.147	1986.53
702.552	2027.33
702.957	2086.59
703.362	2123.2
703.767	2164.62
