Data from N_2_DEC_CT_2N_Splice17_12-28-01-668.txt Node
Date: Sat Mar 14 12:28:01 EDT 2020
User: sa697716
Spectrometer: FLMS03696
Trigger mode: 0
Integration Time (sec): 3.180400E-1
Scans to average: 20
Electric dark correction enabled: true
Nonlinearity correction enabled: true
Boxcar width: 5
XAxis mode: Wavelengths
Number of Pixels in Spectrum: 2048
>>>>>Begin Spectral Data<<<<<
187.83	-339066.32
188.298	2437.2
188.766	1341.99
189.233	1209.65
189.701	1773.45
190.169	2365.4
190.636	880.49
191.104	670.38
191.571	120.28
192.039	-33.99
192.506	52.44
192.974	653.24
193.441	-970.16
193.908	-149.56
194.375	3.5
194.842	79.32
195.31	108.04
195.777	154.8
196.244	352.52
196.711	497.33
197.177	666.45
197.644	993.89
198.111	1719.5
198.578	2450.4
199.045	1940.77
199.511	3184.87
199.978	3737.41
200.445	3185.07
200.911	3546.86
201.378	4013.71
201.844	3616.26
202.31	6234.52
202.777	6438.1
203.243	3608.5
203.709	3423.6
204.176	4077.76
204.642	3357.21
205.108	3140.65
205.574	2564.53
206.04	2350.69
206.506	2213.5
206.972	2110.7
207.438	2037.88
207.903	2349.67
208.369	2047.16
208.835	2030.42
209.301	2142.26
209.766	2201.91
210.232	2189.43
210.697	2713.11
211.163	3358.44
211.628	5102.93
212.094	4319.62
212.559	5287.79
213.024	3291.81
213.49	4016.36
213.955	3927.85
214.42	3863.45
214.885	3598.63
215.35	3464.55
215.815	3362.68
216.28	3592.7
216.745	2925.47
217.21	3178.33
217.675	2973.57
218.14	3395.09
218.604	3854.83
219.069	4481.81
219.534	4745.26
219.998	5612.92
220.463	6908.9
220.927	8619.29
221.392	8169.54
221.856	8340.45
222.32	10628.98
222.785	13173.62
223.249	16670.65
223.713	18685.94
224.177	18756.91
224.642	24171.13
225.106	29813.96
225.57	32622.16
226.034	24245.78
226.497	36976.68
226.961	33425.24
227.425	38898.77
227.889	43237.49
228.353	43290.63
228.816	89500.72
229.28	85600.87
229.744	72173.82
230.207	43801.39
230.671	43081.22
231.134	71331.69
231.597	82243.15
232.061	82272.65
232.524	80260.87
232.987	55297.35
233.45	49740.61
233.914	44587.66
234.377	45696.62
234.84	41875.38
235.303	49450.09
235.766	55196.08
236.229	57078.61
236.691	35955.18
237.154	40420.81
237.617	30401.37
238.08	31154.17
238.542	36463.92
239.005	26071.74
239.468	25880.52
239.93	24379.61
240.393	22137.34
240.855	19431.81
241.317	19911.65
241.78	24257.47
242.242	25041.56
242.704	27001.37
243.166	23470.09
243.629	21280.78
244.091	24532.6
244.553	26887.9
245.015	28886
245.477	37376.55
245.939	54803.78
246.4	58187.59
246.862	56545.65
247.324	53345.55
247.786	59808.24
248.247	78560.62
248.709	81276.94
249.17	60772.89
249.632	57263.95
250.093	66407.54
250.555	57397.3
251.016	35014.51
251.477	33206.47
251.939	35853.52
252.4	37666.85
252.861	44812.95
253.322	41669.06
253.783	49641.73
254.244	64481.89
254.705	50853.43
255.166	45283.55
255.627	44587.68
256.088	62919.84
256.549	66855.79
257.009	57557.35
257.47	69829.82
257.931	56866.42
258.391	42581.99
258.852	43867.32
259.312	45970.21
259.773	56814.01
260.233	47968.85
260.694	40442.73
261.154	45886.62
261.614	36809.41
262.074	32946.68
262.534	34254.85
262.994	32301.33
263.455	43099.53
263.915	36330.16
264.374	34218.73
264.834	37374.89
265.294	41475.62
265.754	43031.74
266.214	40750.68
266.673	38194.71
267.133	48251.53
267.593	47874.73
268.052	58616.99
268.512	51016.09
268.971	61528.69
269.431	67508.99
269.89	60482.96
270.349	90713.36
270.809	101161.85
271.268	91013.72
271.727	204417.78
272.186	132360.46
272.645	99365.54
273.104	71750.04
273.563	103967.71
274.022	81856.4
274.481	69662.13
274.94	53712.52
275.399	39962.5
275.857	46557.21
276.316	63012.21
276.775	56090.61
277.233	55260.76
277.692	51672.64
278.15	58429.7
278.609	60089.58
279.067	55578.65
279.525	51658.48
279.984	66740.31
280.442	80176.11
280.9	79027.07
281.358	51969.75
281.816	48466.44
282.274	47494.98
282.732	49184.53
283.19	49458.8
283.648	42693.05
284.106	45518.47
284.564	46283.17
285.021	42884.95
285.479	31940.46
285.937	29049.37
286.394	25459.61
286.852	26179.14
287.309	27498.79
287.767	26531.04
288.224	25211.65
288.682	27654.85
289.139	30322.08
289.596	27739.65
290.053	28845.74
290.511	36459.67
290.968	44248.8
291.425	60104
291.882	50002.84
292.339	43530.07
292.796	43206.03
293.252	40742.51
293.709	32357.56
294.166	29037.64
294.623	32105.53
295.079	30852.39
295.536	30996.12
295.992	28160.11
296.449	27863.46
296.905	28951.22
297.362	27771.29
297.818	29255.5
298.274	30363.08
298.731	30988.69
299.187	30674.56
299.643	32960.79
300.099	39858.42
300.555	43726.29
301.011	36526.47
301.467	35204.11
301.923	41311.5
302.379	40337.24
302.835	39610.16
303.291	39671.26
303.746	45175.63
304.202	57124.24
304.658	57394.71
305.113	38606.46
305.569	37848.16
306.024	40411.78
306.479	38550.6
306.935	32476.79
307.39	35550.48
307.845	32861.87
308.301	33087.33
308.756	32272.66
309.211	31106.65
309.666	31904.28
310.121	39638.91
310.576	40283.59
311.031	39955.28
311.486	45784.53
311.94	45820.65
312.395	61223.39
312.85	115182.16
313.305	566488.79
313.759	2928269.55
314.214	212133.48
314.668	168047.63
315.123	141176.93
315.577	50566.85
316.032	45006.45
316.486	56432.26
316.94	44485.06
317.394	30964.96
317.849	24030.19
318.303	22767.87
318.757	21456.27
319.211	23712.09
319.665	20771.2
320.119	21026.69
320.572	30164.36
321.026	28174.1
321.48	23437.08
321.934	25591.97
322.387	25642.91
322.841	27705.15
323.295	24871.34
323.748	28741.11
324.202	29167.02
324.655	34998.09
325.108	48844.18
325.562	34524.83
326.015	41034.37
326.468	31004.45
326.921	34623.32
327.374	32292.45
327.827	33597.41
328.28	38028.83
328.733	25439.96
329.186	22383.79
329.639	21345.72
330.092	18030.75
330.545	17153.47
330.997	17307.69
331.45	18867.11
331.903	22114.89
332.355	38098.51
332.808	37032.93
333.26	30535.7
333.713	33139.22
334.165	33380.03
334.617	44544.26
335.069	36003.56
335.522	65146.24
335.974	72113.55
336.426	66054.38
336.878	45750.92
337.33	23154.4
337.782	22601.52
338.234	28290.76
338.686	33826.4
339.137	40036.78
339.589	37655.91
340.041	29472.12
340.493	25342.22
340.944	25916.53
341.396	27897.71
341.847	23454.63
342.299	27660.12
342.75	33766.71
343.201	29589.14
343.653	34049.7
344.104	41889.07
344.555	33000.4
345.006	51443.47
345.457	39302.26
345.908	31290.04
346.359	29400.7
346.81	23925.42
347.261	25273.9
347.712	24924.49
348.163	26704.48
348.613	27015.56
349.064	25224.03
349.515	22092.33
349.965	22640.92
350.416	27315.01
350.866	29975.44
351.317	33967.43
351.767	56363
352.217	71195.52
352.668	59109.59
353.118	54101.97
353.568	52277.62
354.018	41306.79
354.468	43541.44
354.918	31222.83
355.368	27333.49
355.818	38626.57
356.268	111165.32
356.718	464468.11
357.168	115492.16
357.617	57874.54
358.067	64478.19
358.517	60399.28
358.966	70883.75
359.416	79443.22
359.865	85912.36
360.315	102183.04
360.764	47642.69
361.213	26677.42
361.663	25304.69
362.112	31248.5
362.561	50452.7
363.01	38031.43
363.459	32019.87
363.908	34668.36
364.357	29456.97
364.806	49790.36
365.255	34267.94
365.703	31383.85
366.152	31421.37
366.601	25501.53
367.05	20688.86
367.498	18801.43
367.947	19655.79
368.395	20433.16
368.844	18073.37
369.292	21816.67
369.74	15056.15
370.189	23043.58
370.637	27010.4
371.085	23300.29
371.533	28354.91
371.981	27361.81
372.429	26047.48
372.877	27127.87
373.325	22682.44
373.773	23112.7
374.221	20560.75
374.669	25489.68
375.116	22067
375.564	22239.5
376.012	24888.59
376.459	20500.59
376.907	24480.52
377.354	29699.09
377.801	27664.54
378.249	31832.56
378.696	40740.93
379.143	49452.15
379.591	52869.25
380.038	89409.74
380.485	64728.46
380.932	69914.03
381.379	64009.17
381.826	47105.29
382.273	33488.13
382.72	29352.89
383.166	28652.45
383.613	18615.7
384.06	16816.84
384.506	19480.45
384.953	14339.9
385.4	14483.23
385.846	12737.79
386.292	12469.04
386.739	12259.32
387.185	12159.08
387.631	12197.04
388.078	11838.13
388.524	12695.25
388.97	11740.05
389.416	9803.83
389.862	10451.1
390.308	9922.25
390.754	10098.2
391.2	10987.88
391.645	11281.7
392.091	10801.36
392.537	10460.56
392.983	10524.9
393.428	10366.44
393.874	11149.56
394.319	11214.06
394.765	10635.54
395.21	10966.19
395.655	10313.29
396.101	9683.64
396.546	8771.13
396.991	8887.05
397.436	8281.67
397.881	8028.66
398.326	7638.29
398.771	7231.86
399.216	6348.98
399.661	5748.08
400.106	5732.81
400.551	5874.78
400.995	5275.5
401.44	5221.18
401.885	4916.51
402.329	4973.85
402.774	4774.37
403.218	4615.44
403.663	4454.39
404.107	4581.08
404.551	4616.1
404.995	4235.09
405.44	4091.86
405.884	4161.93
406.328	4030.26
406.772	4024.77
407.216	3666.49
407.66	3549.38
408.104	3378.37
408.547	3169.38
408.991	3069.84
409.435	2957.21
409.879	2920.63
410.322	2882.33
410.766	2781.97
411.209	2648.52
411.653	2540.03
412.096	2486.21
412.54	2491.2
412.983	2476.07
413.426	2478.98
413.869	2479.88
414.312	2431.55
414.756	2344.13
415.199	2234.37
415.642	2171.36
416.085	2172.03
416.527	2158.49
416.97	2195.57
417.413	2079.21
417.856	2058.53
418.298	2037.63
418.741	2023.46
419.184	2021.42
419.626	2109.58
420.069	2109.71
420.511	2117.53
420.953	2071.25
421.396	2052.23
421.838	2000.41
422.28	2045.79
422.722	2052.02
423.164	2083.39
423.606	2045.89
424.048	2043.31
424.49	1940.35
424.932	1931.74
425.374	1908.88
425.816	1945.64
426.258	1982.04
426.699	2006.3
427.141	1975.88
427.582	2011.93
428.024	2002.31
428.465	1996.61
428.907	1948.42
429.348	1924.26
429.789	1922.57
430.231	1877.92
430.672	1900.59
431.113	1856.66
431.554	1827.37
431.995	1782.02
432.436	1715.31
432.877	1675.55
433.318	1643.79
433.759	1636.51
434.2	1636.29
434.64	1619.95
435.081	1624.8
435.522	1537.73
435.962	1481.12
436.403	1446.41
436.843	1468.37
437.284	1434.89
437.724	1398.99
438.164	1404.54
438.604	1376.26
439.045	1323.57
439.485	1268.32
439.925	1243.67
440.365	1213.6
440.805	1197.09
441.245	1185.28
441.685	1144.65
442.125	1141.59
442.564	1151.45
443.004	1127.52
443.444	1125.98
443.883	1131.02
444.323	1129.6
444.762	1139.26
445.202	1160.72
445.641	1187.52
446.081	1188.12
446.52	1201.95
446.959	1193.32
447.398	1166.81
447.837	1156.77
448.276	1140.68
448.716	1156.26
449.154	1171.74
449.593	1146.87
450.032	1147.62
450.471	1130.14
450.91	1134.91
451.349	1134.37
451.787	1133.88
452.226	1154.69
452.664	1158.49
453.103	1165.03
453.541	1168.42
453.98	1165.41
454.418	1176.64
454.856	1160.72
455.295	1162.09
455.733	1172.19
456.171	1181.06
456.609	1184.33
457.047	1187.96
457.485	1204.73
457.923	1205.26
458.361	1190.4
458.798	1196.36
459.236	1192.87
459.674	1202.63
460.111	1208.45
460.549	1196.67
460.987	1194.07
461.424	1192.92
461.862	1185.85
462.299	1168.57
462.736	1167.94
463.173	1171.79
463.611	1156.94
464.048	1155.05
464.485	1164.48
464.922	1154.15
465.359	1148.6
465.796	1126.23
466.233	1115.88
466.67	1103.2
467.106	1099.53
467.543	1090.48
467.98	1078.37
468.416	1053.83
468.853	1046.02
469.29	1015.16
469.726	1005.17
470.162	979.73
470.599	974.02
471.035	967.18
471.471	947.68
471.907	944.46
472.344	939.59
472.78	941.55
473.216	954.37
473.652	943.41
474.088	942.51
474.523	940.35
474.959	950.64
475.395	943.29
475.831	938.53
476.266	943.73
476.702	942.58
477.138	933.06
477.573	930.61
478.008	927.91
478.444	931.23
478.879	939.3
479.314	944.22
479.75	944.79
480.185	950.58
480.62	959.85
481.055	966.32
481.49	974.66
481.925	989.07
482.36	1005.23
482.795	1034.5
483.229	1066.15
483.664	1090.55
484.099	1096.51
484.534	1114.64
484.968	1125.56
485.403	1130.51
485.837	1130.39
486.271	1130.67
486.706	1134.75
487.14	1125.41
487.574	1108.72
488.009	1099.96
488.443	1092.23
488.877	1104.5
489.311	1109.32
489.745	1125.1
490.179	1136.92
490.613	1158.62
491.046	1169.17
491.48	1179.4
491.914	1183.66
492.348	1194.61
492.781	1204.89
493.215	1210.54
493.648	1215.76
494.082	1228.75
494.515	1231.93
494.948	1247.65
495.382	1261.2
495.815	1271.74
496.248	1284.35
496.681	1310.49
497.114	1335.18
497.547	1356.4
497.98	1381.64
498.413	1395.07
498.846	1414.5
499.279	1432.78
499.711	1444.27
500.144	1450.26
500.577	1472.51
501.009	1495.26
501.442	1513.7
501.874	1518.11
502.306	1523.36
502.739	1537.71
503.171	1566.79
503.603	1575.37
504.036	1595.55
504.468	1608.18
504.9	1631.63
505.332	1645.67
505.764	1654.91
506.196	1669.66
506.627	1696.47
507.059	1720.91
507.491	1738.94
507.923	1734.83
508.354	1760.83
508.786	1777.97
509.217	1808.97
509.649	1832.75
510.08	1865.72
510.512	1893.18
510.943	1917.41
511.374	1933.7
511.805	1966.44
512.237	1997.89
512.668	2051.98
513.099	2097.31
513.53	2142.61
513.961	2173.53
514.391	2224.18
514.822	2273.63
515.253	2329.2
515.684	2366.95
516.114	2414.08
516.545	2443.97
516.975	2482.53
517.406	2506.75
517.836	2502.17
518.267	2502.76
518.697	2525.12
519.127	2524.92
519.558	2529.01
519.988	2527.14
520.418	2537.17
520.848	2557.57
521.278	2564.76
521.708	2558.81
522.138	2571.52
522.567	2617.15
522.997	2652.81
523.427	2671.23
523.857	2692.02
524.286	2702.32
524.716	2720.66
525.145	2743.49
525.575	2754.07
526.004	2772.34
526.433	2779.82
526.863	2773.27
527.292	2749.5
527.721	2752.12
528.15	2756.22
528.579	2751.02
529.008	2763.33
529.437	2795.37
529.866	2813.19
530.295	2836.67
530.724	2849.36
531.152	2887.53
531.581	2906.31
532.01	2930.08
532.438	2939.78
532.867	2959.74
533.295	2987.04
533.723	2994.12
534.152	2988.19
534.58	2985.68
535.008	2959
535.436	2960.61
535.865	2971.13
536.293	2994.12
536.721	3019.04
537.149	3058.54
537.576	3061.83
538.004	3081.23
538.432	3095.04
538.86	3090.54
539.287	3100.78
539.715	3121.34
540.143	3125.88
540.57	3118.82
540.998	3110.02
541.425	3070.83
541.852	3037.54
542.28	3034.42
542.707	3006
543.134	2981.78
543.561	2975.36
543.988	2962.53
544.415	2960.7
544.842	2951.22
545.269	2939.19
545.696	2943.11
546.123	2964.54
546.549	2947
546.976	2925.01
547.403	2924.04
547.829	2926.01
548.256	2929.87
548.682	2924.15
549.108	2910.56
549.535	2909.3
549.961	2913.2
550.387	2892.01
550.813	2880.97
551.24	2890.44
551.666	2892.74
552.092	2878.14
552.518	2869.39
552.943	2858.66
553.369	2870.6
553.795	2881.03
554.221	2883.63
554.646	2879.09
555.072	2895.81
555.498	2906.71
555.923	2923.53
556.349	2948.94
556.774	2965.44
557.199	2969.49
557.625	2981.1
558.05	2975.63
558.475	2995.73
558.9	2995.93
559.325	2984.96
559.75	2978.35
560.175	2970.48
560.6	2962.76
561.025	2962.5
561.449	2966.56
561.874	2979.57
562.299	2990.2
562.723	3004.59
563.148	2991.41
563.572	3003.07
563.997	3024.51
564.421	3038.06
564.846	3044.95
565.27	3056.19
565.694	3055.77
566.118	3081.31
566.542	3097.66
566.966	3093.86
567.39	3092.88
567.814	3081.17
568.238	3086.63
568.662	3102.46
569.086	3113.34
569.509	3131.8
569.933	3111.94
570.357	3107.39
570.78	3077.98
571.204	3061.86
571.627	3049.82
572.05	3052.49
572.474	3058.1
572.897	3043.12
573.32	3034.39
573.743	3023.46
574.166	2997.67
574.589	3004.92
575.012	2997.67
575.435	3000.51
575.858	2988.76
576.281	2973.64
576.704	2949.13
577.126	2932.61
577.549	2917.41
577.972	2904.76
578.394	2890.05
578.817	2878.1
579.239	2846.78
579.661	2825.14
580.084	2800.09
580.506	2781.71
580.928	2778.32
581.35	2763.63
581.772	2759.04
582.194	2737.28
582.616	2718.06
583.038	2697.1
583.46	2684.3
583.882	2681.55
584.303	2694.4
584.725	2690.96
585.147	2693.86
585.568	2714.83
585.99	2739.02
586.411	2752.84
586.833	2782.82
587.254	2788.34
587.675	2816.7
588.096	2841.62
588.518	2835.65
588.939	2807.31
589.36	2804.73
589.781	2792.89
590.202	2742.39
590.623	2727.83
591.043	2726.99
591.464	2705.87
591.885	2700.1
592.305	2691.67
592.726	2668.45
593.147	2672.59
593.567	2664.18
593.987	2653.06
594.408	2645.01
594.828	2646.45
595.248	2638.15
595.669	2604.49
596.089	2593.27
596.509	2584.84
596.929	2561.12
597.349	2564.32
597.769	2547.24
598.189	2537.2
598.608	2540.92
599.028	2545.98
599.448	2547.14
599.867	2525.97
600.287	2520.11
600.706	2514.21
601.126	2497.12
601.545	2496.48
601.965	2495.66
602.384	2487.82
602.803	2495.65
603.222	2488.78
603.641	2478.72
604.061	2472.76
604.48	2467.13
604.898	2484.67
605.317	2495.19
605.736	2501.36
606.155	2497.55
606.574	2483.29
606.992	2495.55
607.411	2488.38
607.829	2476.08
608.248	2471.79
608.666	2470.01
609.085	2471.07
609.503	2457.51
609.921	2447.91
610.339	2454.07
610.758	2455.35
611.176	2447.11
611.594	2431.58
612.012	2427.02
612.43	2434.04
612.847	2447.91
613.265	2450.87
613.683	2461.71
614.101	2466.31
614.518	2461.39
614.936	2444.48
615.353	2418.18
615.771	2415.54
616.188	2417.4
616.606	2413.17
617.023	2402
617.44	2377.7
617.857	2368.53
618.274	2354.46
618.691	2343.67
619.108	2328.08
619.525	2318.44
619.942	2333.36
620.359	2339.63
620.776	2332.52
621.192	2325.43
621.609	2322.9
622.026	2335.69
622.442	2346.17
622.859	2353.22
623.275	2342.07
623.691	2354.89
624.108	2377.04
624.524	2405.93
624.94	2405.86
625.356	2426.01
625.772	2452.84
626.188	2476.2
626.604	2480.86
627.02	2473.98
627.436	2469.58
627.852	2480.27
628.268	2501.78
628.683	2485.15
629.099	2468.81
629.514	2461.77
629.93	2468.22
630.345	2477.46
630.761	2470.9
631.176	2478.01
631.591	2467.01
632.007	2457.3
632.422	2457.71
632.837	2438.77
633.252	2434.45
633.667	2416.22
634.082	2401.35
634.497	2379.87
634.911	2342.31
635.326	2337.38
635.741	2306.74
636.155	2291.51
636.57	2294.72
636.984	2295.45
637.399	2300.68
637.813	2303.82
638.228	2305.53
638.642	2316.49
639.056	2300.67
639.47	2306.33
639.884	2293.66
640.298	2285.28
640.712	2284.83
641.126	2266.12
641.54	2253.69
641.954	2249.77
642.368	2229.34
642.781	2212.75
643.195	2180.86
643.609	2183.1
644.022	2174.51
644.436	2168.1
644.849	2146.76
645.262	2126.63
645.676	2132
646.089	2123.17
646.502	2091.27
646.915	2082.33
647.328	2053.59
647.741	2050.6
648.154	2025.21
648.567	2015.66
648.98	1989.98
649.393	1991.78
649.805	1984.32
650.218	1966.92
650.631	1935.69
651.043	1923.25
651.456	1909.26
651.868	1909.16
652.28	1941.3
652.693	1968.42
653.105	1983.22
653.517	2002.78
653.929	2001.5
654.341	2010.54
654.753	1986.46
655.165	1996.31
655.577	1989.52
655.989	1979.52
656.401	1964.04
656.813	1888.72
657.224	1847.05
657.636	1788.75
658.047	1748.13
658.459	1708.19
658.87	1689.08
659.282	1663.01
659.693	1620.64
660.104	1590.2
660.515	1561.57
660.926	1553.21
661.338	1545.18
661.749	1528.65
662.159	1505.51
662.57	1494.79
662.981	1480.79
663.392	1462.21
663.803	1466.08
664.213	1456.74
664.624	1443.3
665.035	1442.83
665.445	1412.5
665.855	1393.8
666.266	1373.61
666.676	1365.65
667.086	1343.36
667.497	1335.97
667.907	1319.36
668.317	1297.02
668.727	1284
669.137	1281.37
669.547	1272.59
669.956	1272.86
670.366	1271.82
670.776	1269.7
671.186	1271.91
671.595	1273.84
672.005	1275.91
672.414	1270.41
672.824	1264.65
673.233	1271.59
673.642	1271.48
674.052	1272.21
674.461	1271.93
674.87	1276.84
675.279	1269.7
675.688	1271.28
676.097	1270.25
676.506	1263.81
676.915	1286.39
677.323	1287.27
677.732	1281.33
678.141	1280.96
678.549	1265.27
678.958	1265.27
679.366	1265.12
679.775	1276.37
680.183	1292.11
680.592	1304.65
681	1316.9
681.408	1310.13
681.816	1329.03
682.224	1350.89
682.632	1372.5
683.04	1428.7
683.448	1477.12
683.856	1537.58
684.264	1605.93
684.671	1674.64
685.079	1754.51
685.487	1841.01
685.894	1960.34
686.302	2061.17
686.709	2145.21
687.116	2243.1
687.524	2322.88
687.931	2389.03
688.338	2447.18
688.745	2494.46
689.152	2546.96
689.559	2620.07
689.966	2688.06
690.373	2712.86
690.78	2771.9
