Data from N_2_DEC_ON_6N_Splice17_12-15-01-029.txt Node
Date: Sat Mar 14 12:15:01 EDT 2020
User: sa697716
Spectrometer: FLMS03696
Trigger mode: 0
Integration Time (sec): 3.180400E-1
Scans to average: 20
Electric dark correction enabled: true
Nonlinearity correction enabled: true
Boxcar width: 5
XAxis mode: Wavelengths
Number of Pixels in Spectrum: 2048
>>>>>Begin Spectral Data<<<<<
187.83	-244876.47
188.298	1809.08
188.766	1023.21
189.233	965.38
189.701	1422.47
190.169	1856.95
190.636	731.13
191.104	670.24
191.571	178.35
192.039	-7.63
192.506	15.25
192.974	500.32
193.441	-746.34
193.908	-197.34
194.375	61.59
194.842	140.23
195.31	219.06
195.777	216.95
196.244	455.06
196.711	632.08
197.177	766.86
197.644	1088.63
198.111	1882.07
198.578	2607.73
199.045	2121.29
199.511	3439.52
199.978	4045.29
200.445	3429.99
200.911	3791.53
201.378	4251.89
201.844	3794.13
202.31	6486.29
202.777	6779.37
203.243	3788.88
203.709	3625.54
204.176	4276.03
204.642	3527.8
205.108	3296.88
205.574	2690.74
206.04	2479.06
206.506	2338.14
206.972	2243.17
207.438	2159.23
207.903	2462.32
208.369	2138.52
208.835	2134.82
209.301	2257.72
209.766	2325.88
210.232	2309.47
210.697	2882.66
211.163	3597.46
211.628	5490.21
212.094	4625.91
212.559	5708.86
213.024	3577.73
213.49	4407.11
213.955	4351.2
214.42	4325.43
214.885	4050.83
215.35	3917.17
215.815	3743.17
216.28	4007.07
216.745	3338.16
217.21	3674.88
217.675	3486.25
218.14	4031.72
218.604	4661.72
219.069	5476.87
219.534	5874.74
219.998	7056.05
220.463	8766.86
220.927	11155.1
221.392	10711.08
221.856	10982.99
222.32	14096.54
222.785	17599.63
223.249	22379.99
223.713	25149.77
224.177	25305.55
224.642	32721.04
225.106	40471.7
225.57	44459.15
226.034	33080.48
226.497	50483.02
226.961	45675.24
227.425	53244.82
227.889	59271.51
228.353	59423.5
228.816	123152.9
229.28	118091.32
229.744	99738.9
230.207	60583.78
230.671	59683.85
231.134	99229.82
231.597	114498.91
232.061	114713.95
232.524	112169.06
232.987	77366.25
233.45	69664.57
233.914	62582.98
234.377	64295.21
234.84	58941.23
235.303	69661.76
235.766	77845.41
236.229	80420.62
236.691	50739.39
237.154	57094.49
237.617	42953.26
238.08	44052.27
238.542	51658.42
239.005	36942.69
239.468	36670.08
239.93	34583.06
240.393	31470.99
240.855	27645.4
241.317	28365.9
241.78	34576.45
242.242	35782.5
242.704	38620.65
243.166	33626.38
243.629	30505.38
244.091	35199.97
244.553	38645.67
245.015	41576.55
245.477	53890.3
245.939	79171.29
246.4	84061.11
246.862	81768.32
247.324	77144.97
247.786	86574.81
248.247	113723.92
248.709	117811.02
249.17	88189.3
249.632	83046.79
250.093	96307.9
250.555	83190.82
251.016	50729.06
251.477	48172.86
251.939	52018.94
252.4	54631.35
252.861	65037.3
253.322	60499.56
253.783	72061.43
254.244	93490.14
254.705	73828.95
255.166	65716.68
255.627	64705.14
256.088	91194.72
256.549	96853.13
257.009	83472.01
257.47	101316.55
257.931	82471.55
258.391	61750.89
258.852	63580.37
259.312	66641.77
259.773	82256.7
260.233	69348.52
260.694	58416.22
261.154	66315.24
261.614	53122.9
262.074	47483.21
262.534	49305.94
262.994	46425.08
263.455	61883.18
263.915	52100.1
264.374	49064.44
264.834	53563.57
265.294	59457.12
265.754	61567.71
266.214	58268.74
266.673	54631
267.133	68944.92
267.593	68398.17
268.052	83668.8
268.512	72742.59
268.971	87641.4
269.431	96058.4
269.89	85970.36
270.349	128794.68
270.809	143601.09
271.268	129009.07
271.727	289252.35
272.186	187268.02
272.645	140340.24
273.104	101253.88
273.563	146567.63
274.022	115366.66
274.481	98050.87
274.94	75474.86
275.399	56102.53
275.857	65326.02
276.316	88315.92
276.775	78590.75
277.233	77302.66
277.692	72293.67
278.15	81672.11
278.609	83929.59
279.067	77643.06
279.525	72084.58
279.984	93161.01
280.442	111859.47
280.9	110129.31
281.358	72414.07
281.816	67445.69
282.274	66051.37
282.732	68332.59
283.19	68751.43
283.648	59365.79
284.106	63247.62
284.564	64384.66
285.021	59689.3
285.479	44493.73
285.937	40538.55
286.394	35567.82
286.852	36640.25
287.309	38509.77
287.767	37161.31
288.224	35339.27
288.682	38782.02
289.139	42555.61
289.596	38941.04
290.053	40486.43
290.511	51185.45
290.968	62076.6
291.425	84376.19
291.882	70149.77
292.339	61135.67
292.796	60769.49
293.252	57335.03
293.709	45560.65
294.166	40861.51
294.623	45224.41
295.079	43469.36
295.536	43684.93
295.992	39710.41
296.449	39326.49
296.905	40923.94
297.362	39232.42
297.818	41342.18
298.274	42910.69
298.731	43831.43
299.187	43447.57
299.643	46693.76
300.099	56514.65
300.555	62052.46
301.011	51910.97
301.467	49976.25
301.923	58661.35
302.379	57376.09
302.835	56379.28
303.291	56487.25
303.746	64332.42
304.202	81353.34
304.658	81772.5
305.113	55083.67
305.569	54012.19
306.024	57627.67
306.479	55011.3
306.935	46347.29
307.39	50737.01
307.845	46908.76
308.301	47223.39
308.756	46086.2
309.211	44431.03
309.666	45554.58
310.121	56475.08
310.576	57410.84
311.031	57054.2
311.486	65421.35
311.94	65470.46
312.395	87549.75
312.85	164626.3
313.305	811058.68
313.759	4186851.55
314.214	303645.58
314.668	240868.85
315.123	202800.9
315.577	72714.96
316.032	64648.83
316.486	81050.09
316.94	63986.05
317.394	44563.93
317.849	34629.03
318.303	32807.92
318.757	30998.49
319.211	34308.87
319.665	30051.15
320.119	30434.54
320.572	43703.76
321.026	40865.01
321.48	34061.48
321.934	37224.63
322.387	37334.15
322.841	40366.63
323.295	36230.29
323.748	41892.69
324.202	42521.95
324.655	51045.15
325.108	71255.71
325.562	50346.19
326.015	59870.33
326.468	45242.54
326.921	50569.58
327.374	47181.18
327.827	49050.32
328.28	55594.15
328.733	37195.32
329.186	32707.26
329.639	31172.4
330.092	26316.27
330.545	25032.09
330.997	25248.71
331.45	27578.33
331.903	32256.8
332.355	55538.27
332.808	54067.51
333.26	44611.85
333.713	48403.19
334.165	48741.71
334.617	65126.34
335.069	52713.93
335.522	95511.41
335.974	105680.92
336.426	96599.58
336.878	67093.95
337.33	34012.95
337.782	33235.19
338.234	41527.72
338.686	49725.54
339.137	58910.22
339.589	55520.68
340.041	43479.98
340.493	37384.96
340.944	38315.38
341.396	41251.69
341.847	34646.92
342.299	40828.75
342.75	49739.83
343.201	43681.22
343.653	50275.37
344.104	61935.67
344.555	48751.73
345.006	76031.65
345.457	58114.83
345.908	46263.42
346.359	43592.31
346.81	35547.33
347.261	37547.03
347.712	37074.29
348.163	39707.96
348.613	40136.96
349.064	37513.01
349.515	32871.89
349.965	33660.01
350.416	40628.34
350.866	44620.42
351.317	50490.77
351.767	83628.25
352.217	105713.77
352.668	87813.64
353.118	80557.6
353.568	77976.33
354.018	61579.49
354.468	64918.78
354.918	46659.11
355.368	40820.62
355.818	57639.1
356.268	166157.2
356.718	695579.61
357.168	173114.04
357.617	86886.51
358.067	96709.13
358.517	90557.8
358.966	106077.7
359.416	118909.85
359.865	128671.58
360.315	153368.17
360.764	71709.86
361.213	40123.33
361.663	38066.01
362.112	47023.68
362.561	75985.93
363.01	57350.29
363.459	48339.69
363.908	52441.5
364.357	44536.15
364.806	75345.02
365.255	51838.36
365.703	47425.36
366.152	47471.86
366.601	38505.36
367.05	31226.06
367.498	28357.26
367.947	29648.57
368.395	30833.12
368.844	27275.69
369.292	32987.04
369.74	22752.64
370.189	34869.22
370.637	40900.82
371.085	35348.67
371.533	43068.75
371.981	41597.38
372.429	39611.56
372.877	41248.53
373.325	34504.65
373.773	35228.53
374.221	31353.65
374.669	38892.12
375.116	33638.32
375.564	33905.64
376.012	37903.54
376.459	31219.87
376.907	37303.58
377.354	45222.66
377.801	42122.13
378.249	48353.77
378.696	61767.83
379.143	74809.27
379.591	79791.67
380.038	134831.26
380.485	97337.09
380.932	105065.99
381.379	95889.2
381.826	70487.86
382.273	50024.58
382.72	43788.45
383.166	42647.39
383.613	27623.89
384.06	24902.59
384.506	28771.24
384.953	21137.06
385.4	21302.49
385.846	18660.94
386.292	18225.61
386.739	17835.69
387.185	17655.04
387.631	17630.43
388.078	17072.71
388.524	18255.9
388.97	16829.04
389.416	14014.54
389.862	14877.59
390.308	14068.71
390.754	14250.88
391.2	15458.92
391.645	15816.06
392.091	15043.86
392.537	14505.67
392.983	14530.93
393.428	14227.54
393.874	15227.01
394.319	15249.83
394.765	14412.63
395.21	14816.23
395.655	13892.73
396.101	12984.71
396.546	11704.39
396.991	11834.62
397.436	10991.14
397.881	10617.49
398.326	10080.51
398.771	9510.9
399.216	8318.93
399.661	7491.98
400.106	7448.49
400.551	7603.42
400.995	6812.95
401.44	6732.05
401.885	6314.64
402.329	6373.53
402.774	6104.62
403.218	5884.82
403.663	5678.08
404.107	5823.97
404.551	5859.19
404.995	5372.85
405.44	5180.65
405.884	5254.24
406.328	5088.27
406.772	5070.77
407.216	4614.29
407.66	4462.07
408.104	4247.1
408.547	3969.59
408.991	3836.13
409.435	3691.69
409.879	3631.46
410.322	3579.58
410.766	3450.46
411.209	3271.33
411.653	3137.7
412.096	3066.17
412.54	3063.89
412.983	3035.9
413.426	3037.84
413.869	3036.62
414.312	2969.93
414.756	2861.73
415.199	2725.07
415.642	2645.89
416.085	2646.98
416.527	2627.78
416.97	2668
417.413	2526.46
417.856	2501.29
418.298	2477.7
418.741	2462.49
419.184	2462.01
419.626	2566.48
420.069	2568.28
420.511	2577.47
420.953	2518.14
421.396	2491.73
421.838	2428.72
422.28	2483.23
422.722	2494.27
423.164	2528.41
423.606	2482.5
424.048	2479.72
424.49	2351.96
424.932	2341.42
425.374	2312.55
425.816	2356.64
426.258	2402.55
426.699	2426.74
427.141	2387.14
427.582	2427.1
428.024	2415.8
428.465	2405.91
428.907	2345.62
429.348	2321.64
429.789	2314.74
430.231	2261.9
430.672	2288.73
431.113	2234.48
431.554	2204.87
431.995	2154.24
432.436	2072.03
432.877	2020.68
433.318	1980.13
433.759	1970.07
434.2	1966
434.64	1948.76
435.081	1954.94
435.522	1850.58
435.962	1785.12
436.403	1744.55
436.843	1769.38
437.284	1730.92
437.724	1687.09
438.164	1697.01
438.604	1658.14
439.045	1591.91
439.485	1522.32
439.925	1489.68
440.365	1453.73
440.805	1431.89
441.245	1412.94
441.685	1361.56
442.125	1353.69
442.564	1366.21
443.004	1334.91
443.444	1333.37
443.883	1336.42
444.323	1331.42
444.762	1337.31
445.202	1358.01
445.641	1381.09
446.081	1375.74
446.52	1385.68
446.959	1373.02
447.398	1337.02
447.837	1319.44
448.276	1298.1
448.716	1315.53
449.154	1328.08
449.593	1296.21
450.032	1290.01
450.471	1270.91
450.91	1272.79
451.349	1270.41
451.787	1265.35
452.226	1284.79
452.664	1286.7
453.103	1288.89
453.541	1286.13
453.98	1281.97
454.418	1291.22
454.856	1272.04
455.295	1269.13
455.733	1280.14
456.171	1288.93
456.609	1290.77
457.047	1291.17
457.485	1308.34
457.923	1309.87
458.361	1293.77
458.798	1300.15
459.236	1298.19
459.674	1309.71
460.111	1315.79
460.549	1301.63
460.987	1296.23
461.424	1293.36
461.862	1287.8
462.299	1268.43
462.736	1265.41
463.173	1268.43
463.611	1249.78
464.048	1245.2
464.485	1253.38
464.922	1242.69
465.359	1236.51
465.796	1211.38
466.233	1200.45
466.67	1185.48
467.106	1180.51
467.543	1170.74
467.98	1156.04
468.416	1129.72
468.853	1122.79
469.29	1089.78
469.726	1077.81
470.162	1049.61
470.599	1044.06
471.035	1036
471.471	1014.22
471.907	1011.86
472.344	1005.62
472.78	1008.18
473.216	1021.24
473.652	1008.16
474.088	1005.97
474.523	1001.19
474.959	1010.68
475.395	1001.21
475.831	993.94
476.266	998.4
476.702	995.6
477.138	984.27
477.573	980.99
478.008	976.74
478.444	980.53
478.879	987.2
479.314	991.85
479.75	990.62
480.185	995.44
480.62	1004.94
481.055	1010.09
481.49	1016.17
481.925	1030.77
482.36	1046.52
482.795	1076.24
483.229	1106.41
483.664	1131.1
484.099	1136.34
484.534	1154.34
484.968	1165.63
485.403	1168.98
485.837	1168.22
486.271	1166.26
486.706	1168.63
487.14	1157.99
487.574	1138.95
488.009	1127.42
488.443	1117.11
488.877	1126.84
489.311	1129.35
489.745	1141.5
490.179	1150.7
490.613	1170
491.046	1179.39
491.48	1186.28
491.914	1186.1
492.348	1194.22
492.781	1200.41
493.215	1202.55
493.648	1203.28
494.082	1211.9
494.515	1210.19
494.948	1220.98
495.382	1227.8
495.815	1233.61
496.248	1240.57
496.681	1259.77
497.114	1277.17
497.547	1291.41
497.98	1309.55
498.413	1315.79
498.846	1329.04
499.279	1341.05
499.711	1346.6
500.144	1348.62
500.577	1361.74
501.009	1377.79
501.442	1390.16
501.874	1389.3
502.306	1390.13
502.739	1396.5
503.171	1419.66
503.603	1421.75
504.036	1434.97
504.468	1440.07
504.9	1455.31
505.332	1462.86
505.764	1465.73
506.196	1473.92
506.627	1493.97
507.059	1511.46
507.491	1524.86
507.923	1516.83
508.354	1536.86
508.786	1548.54
509.217	1573.31
509.649	1591.41
510.08	1618.56
510.512	1639.73
510.943	1659.36
511.374	1671.53
511.805	1698.4
512.237	1723.6
512.668	1769.88
513.099	1807.7
513.53	1845.7
513.961	1871.76
514.391	1915.9
514.822	1959.04
515.253	2008.56
515.684	2041.02
516.114	2079.1
516.545	2104.91
516.975	2138.97
517.406	2160.35
517.836	2156.58
518.267	2160.5
518.697	2181.59
519.127	2182.49
519.558	2187.54
519.988	2187.53
520.418	2197.34
520.848	2219.02
521.278	2226.14
521.708	2225.99
522.138	2239.48
522.567	2280.3
522.997	2312.59
523.427	2330.43
523.857	2350.41
524.286	2362.14
524.716	2379.08
525.145	2402.62
525.575	2413.62
526.004	2431.45
526.433	2438.07
526.863	2434.68
527.292	2416.44
527.721	2419.62
528.15	2425.92
528.579	2424.14
529.008	2436.39
529.437	2466.56
529.866	2484.08
530.295	2507.6
530.724	2522.13
531.152	2557.14
531.581	2575.15
532.01	2599.56
532.438	2611.07
532.867	2630.19
533.295	2653.3
533.723	2660.53
534.152	2656.88
534.58	2654.58
535.008	2629.15
535.436	2631.1
535.865	2642.42
536.293	2662.08
536.721	2684.13
537.149	2719.03
537.576	2720.75
538.004	2739.41
538.432	2750.34
538.86	2747.63
539.287	2757.98
539.715	2777.74
540.143	2781.75
540.57	2775.03
540.998	2769.02
541.425	2734.43
541.852	2704.19
542.28	2702.02
542.707	2677.17
543.134	2656.18
543.561	2648.08
543.988	2636.18
544.415	2634.99
544.842	2626.6
545.269	2614.61
545.696	2615.98
546.123	2633.11
546.549	2616.58
546.976	2597.38
547.403	2595.87
547.829	2598.1
548.256	2601.07
548.682	2595.01
549.108	2581.34
549.535	2578.86
549.961	2581.66
550.387	2562.31
550.813	2553.83
551.24	2562.48
551.666	2562.82
552.092	2549.64
552.518	2540.11
552.943	2531.06
553.369	2541.03
553.795	2550.95
554.221	2554.15
554.646	2549.45
555.072	2565.76
555.498	2573.03
555.923	2586.59
556.349	2608.68
556.774	2622.81
557.199	2625.08
557.625	2633.57
558.05	2625.44
558.475	2641.18
558.9	2639.17
559.325	2628.95
559.75	2621.09
560.175	2614.2
560.6	2606.81
561.025	2605.5
561.449	2606.4
561.874	2615.5
562.299	2624.49
562.723	2638.21
563.148	2625.07
563.572	2632.3
563.997	2649.09
564.421	2659.19
564.846	2660.91
565.27	2667.74
565.694	2665.4
566.118	2684.39
566.542	2697.77
566.966	2691.31
567.39	2685.99
567.814	2672.55
568.238	2674.78
568.662	2684.21
569.086	2689.48
569.509	2703.97
569.933	2684.66
570.357	2677.9
570.78	2650.94
571.204	2634.15
571.627	2619.57
572.05	2620.05
572.474	2621.61
572.897	2607.25
573.32	2598.64
573.743	2587.99
574.166	2563.56
574.589	2565.89
575.012	2556.52
575.435	2556.7
575.858	2545.72
576.281	2531.87
576.704	2510.83
577.126	2495.79
577.549	2480.27
577.972	2467.54
578.394	2453.1
578.817	2441.81
579.239	2415.73
579.661	2397.67
580.084	2374.78
580.506	2356.25
580.928	2354.08
581.35	2338.19
581.772	2332.98
582.194	2313.9
582.616	2296.72
583.038	2276.91
583.46	2263.57
583.882	2260.4
584.303	2268.21
584.725	2264.11
585.147	2265.09
585.568	2279.57
585.99	2299.22
586.411	2309.73
586.833	2334.11
587.254	2338.73
587.675	2361.35
588.096	2382.13
588.518	2374.33
588.939	2351.14
589.36	2349.47
589.781	2339.03
590.202	2296.45
590.623	2284.04
591.043	2282.04
591.464	2263.59
591.885	2257.66
592.305	2249.44
592.726	2229.29
593.147	2232.76
593.567	2223.5
593.987	2212.48
594.408	2206.41
594.828	2206.61
595.248	2197.79
595.669	2169.87
596.089	2160.18
596.509	2151.94
596.929	2132.09
597.349	2134.41
597.769	2118.78
598.189	2110.72
598.608	2112.67
599.028	2116.07
599.448	2116.3
599.867	2099.08
600.287	2094.53
600.706	2088.36
601.126	2073.55
601.545	2071.96
601.965	2070.55
602.384	2064.12
602.803	2070.54
603.222	2063.65
603.641	2053.42
604.061	2048.77
604.48	2043.32
604.898	2055.51
605.317	2064.81
605.736	2069.13
606.155	2066.16
606.574	2053.46
606.992	2062.62
607.411	2056.6
607.829	2047.71
608.248	2046.68
608.666	2044.93
609.085	2045.38
609.503	2033.46
609.921	2023.73
610.339	2028.12
610.758	2029.73
611.176	2024.37
611.594	2012.4
612.012	2007.53
612.43	2012.92
612.847	2022.16
613.265	2023.72
613.683	2031.2
614.101	2035.65
614.518	2032.62
614.936	2019.43
615.353	1997.61
615.771	1994.29
616.188	1996.59
616.606	1992.89
617.023	1984.04
617.44	1963.77
617.857	1956.28
618.274	1945.41
618.691	1936.15
619.108	1923.05
619.525	1914.89
619.942	1926
620.359	1931.08
620.776	1924.26
621.192	1918.17
621.609	1915.55
622.026	1927.96
622.442	1937.29
622.859	1943.62
623.275	1934.1
623.691	1944.31
624.108	1962.44
624.524	1985.95
624.94	1985.98
625.356	2002.88
625.772	2025.68
626.188	2044.03
626.604	2045.43
627.02	2039.28
627.436	2036.51
627.852	2048.07
628.268	2065.76
628.683	2052.58
629.099	2039.34
629.514	2032.91
629.93	2038.21
630.345	2043.96
630.761	2038.97
631.176	2043.91
631.591	2033.61
632.007	2022.87
632.422	2021.49
632.837	2004.22
633.252	2000.53
633.667	1986.32
634.082	1973.91
634.497	1954.04
634.911	1924.42
635.326	1920.42
635.741	1895.82
636.155	1883.53
636.57	1887.43
636.984	1887.32
637.399	1892.39
637.813	1894.48
638.228	1895.5
638.642	1904.86
639.056	1892.28
639.47	1895.95
639.884	1885.66
640.298	1878.56
640.712	1879.78
641.126	1864.88
641.54	1856.64
641.954	1851.91
642.368	1835.46
642.781	1823.78
643.195	1798.78
643.609	1802.94
644.022	1797.32
644.436	1794.42
644.849	1780.5
645.262	1766.26
645.676	1773.44
646.089	1769.41
646.502	1748.15
646.915	1743.46
647.328	1720.6
647.741	1719.32
648.154	1699.94
648.567	1694.96
648.98	1673.83
649.393	1676.03
649.805	1670.44
650.218	1657.16
650.631	1629.84
651.043	1620.6
651.456	1611.35
651.868	1613.52
652.28	1643.7
652.693	1666.95
653.105	1680
653.517	1697.91
653.929	1697.71
654.341	1707.43
654.753	1688.75
655.165	1701.44
655.577	1698.79
655.989	1692.22
656.401	1681.09
656.813	1621.87
657.224	1590.78
657.636	1547.64
658.047	1518.81
658.459	1489.51
658.87	1477.42
659.282	1460.91
659.693	1427.6
660.104	1406.43
660.515	1385.23
660.926	1383.37
661.338	1380.95
661.749	1373.94
662.159	1359.24
662.57	1355.75
662.981	1349.98
663.392	1340.03
663.803	1348.23
664.213	1347.55
664.624	1341.79
665.035	1350.14
665.445	1331.17
665.855	1319.74
666.266	1305.32
666.676	1302.89
667.086	1288.31
667.497	1288.77
667.907	1280.4
668.317	1266.61
668.727	1259.22
669.137	1262.6
669.547	1259.29
669.956	1262.36
670.366	1267.29
670.776	1271.38
671.186	1278.91
671.595	1285.32
672.005	1290.06
672.414	1286.97
672.824	1282.52
673.233	1292.01
673.642	1293.41
674.052	1296.51
674.461	1300.12
674.87	1306.09
675.279	1300
675.688	1301.75
676.097	1300.75
676.506	1295.62
676.915	1318.63
677.323	1321.86
677.732	1316.44
678.141	1314.57
678.549	1297.25
678.958	1294.18
679.366	1291.86
679.775	1300.97
680.183	1314.24
680.592	1322.52
681	1330.21
681.408	1316.45
681.816	1327.86
682.224	1341.29
682.632	1353.4
683.04	1398.9
683.448	1435.14
683.856	1481.85
684.264	1534.43
684.671	1583.39
685.079	1644.94
685.487	1708.72
685.894	1803.19
686.302	1876.73
686.709	1934.01
687.116	2004.59
687.524	2053.28
687.931	2094.89
688.338	2127.38
688.745	2149.11
689.152	2180.28
