Data from N_2_DEC_OH_4N_Splice17_12-04-15-389.txt Node
Date: Sat Mar 14 12:04:15 EDT 2020
User: sa697716
Spectrometer: FLMS03696
Trigger mode: 0
Integration Time (sec): 3.180400E-1
Scans to average: 20
Electric dark correction enabled: true
Nonlinearity correction enabled: true
Boxcar width: 5
XAxis mode: Wavelengths
Number of Pixels in Spectrum: 2048
>>>>>Begin Spectral Data<<<<<
187.83	-278883.54
188.298	2057.02
188.766	1062.89
189.233	903.66
189.701	1278.97
190.169	1768.42
190.636	636.19
191.104	591.2
191.571	78.35
192.039	-88.97
192.506	-72.49
192.974	310.32
193.441	-420.01
193.908	-154.85
194.375	-69.16
194.842	12.62
195.31	116.66
195.777	168.68
196.244	450.49
196.711	561.45
197.177	714.02
197.644	1040.15
198.111	1819.22
198.578	2539.31
199.045	2030.72
199.511	3350.33
199.978	3925.52
200.445	3292.76
200.911	3638.05
201.378	4078.51
201.844	3676.18
202.31	6285.89
202.777	6536.15
203.243	3616.36
203.709	3460.57
204.176	4161.38
204.642	3416.77
205.108	3187.13
205.574	2618.55
206.04	2415.32
206.506	2262.51
206.972	2155.69
207.438	2085.91
207.903	2391.78
208.369	2108.64
208.835	2097.82
209.301	2190.92
209.766	2258.69
210.232	2240.58
210.697	2790.77
211.163	3465.12
211.628	5248.5
212.094	4434.85
212.559	5434.9
213.024	3397.63
213.49	4170.47
213.955	4089.77
214.42	4043.1
214.885	3772.66
215.35	3645.74
215.815	3481.5
216.28	3701.32
216.745	3060.05
217.21	3318.38
217.675	3117.45
218.14	3564.58
218.604	4091.07
219.069	4779.36
219.534	5108.94
219.998	6072.4
220.463	7491.57
220.927	9436.88
221.392	9017.83
221.856	9219.21
222.32	11800.79
222.785	14688.9
223.249	18658.77
223.713	20901.35
224.177	21026.37
224.642	27139.68
225.106	33527.11
225.57	36814.02
226.034	27397.89
226.497	41767.17
226.961	37771.25
227.425	43937
227.889	48863.13
228.353	48885.33
228.816	101102.04
229.28	96720.31
229.744	81603.98
230.207	49532.19
230.671	48739.62
231.134	80842.68
231.597	93189.31
232.061	93243.12
232.524	91131.87
232.987	62726.37
233.45	56440.3
233.914	50635.47
234.377	51941.19
234.84	47512.68
235.303	56092.47
235.766	62556.86
236.229	64652.62
236.691	40722.11
237.154	45788.56
237.617	34423.42
238.08	35286.9
238.542	41353.62
239.005	29526.34
239.468	29290.78
239.93	27582.8
240.393	25052.94
240.855	21978.02
241.317	22514.05
241.78	27407.53
242.242	28302.66
242.704	30517.27
243.166	26545.88
243.629	24053.64
244.091	27712.88
244.553	30325.84
245.015	32608.11
245.477	42195.9
245.939	61880.75
246.4	65631.71
246.862	63759.51
247.324	60123.28
247.786	67360.13
248.247	88330.86
248.709	91297.61
249.17	68289.56
249.632	64292.86
250.093	74434.33
250.555	64216.29
251.016	39114.72
251.477	37030.16
251.939	39958.19
252.4	41898.37
252.861	49809.64
253.322	46257.43
253.783	55071.28
254.244	71353.82
254.705	56335.11
255.166	50129.12
255.627	49354.18
256.088	69584.56
256.549	73929.69
257.009	63670.41
257.47	77270.54
257.931	62854.94
258.391	47106.75
258.852	48523.94
259.312	50890.44
259.773	62768.41
260.233	52964.26
260.694	44647.43
261.154	50658.26
261.614	40586.2
262.074	36301.54
262.534	37686.24
262.994	35505.82
263.455	47300.76
263.915	39826.99
264.374	37528.16
264.834	41002.28
265.294	45506.34
265.754	47135.98
266.214	44615.17
266.673	41831.5
267.133	52801.37
267.593	52400.26
268.052	64124.34
268.512	55801.41
268.971	67270.95
269.431	73749.3
269.89	66078.48
270.349	99015.7
270.809	110335.69
271.268	99169.15
271.727	222704.34
272.186	144296.49
272.645	108240.02
273.104	78181.59
273.563	113186.68
274.022	89087.89
274.481	75752.71
274.94	58321.57
275.399	43352.76
275.857	50563.3
276.316	68444.75
276.775	60896.64
277.233	59927.36
277.692	56087.39
278.15	63417.72
278.609	65204.08
279.067	60377.52
279.525	56079.94
279.984	72443.2
280.442	87047.86
280.9	85662.32
281.358	56346.63
281.816	52501.7
282.274	51429.39
282.732	53161.56
283.19	53431.82
283.648	46160.28
284.106	49141.12
284.564	50016.25
285.021	46387.04
285.479	34582.56
285.937	31494.21
286.394	27622.12
286.852	28429.62
287.309	29878.29
287.767	28817.3
288.224	27398.21
288.682	30050.65
289.139	32945.46
289.596	30135.36
290.053	31289.93
290.511	39506.71
290.968	47914.05
291.425	65059.51
291.882	54084.47
292.339	47046.68
292.796	46720.11
293.252	44017.9
293.709	34942.7
294.166	31325.97
294.623	34638.3
295.079	33239.31
295.536	33380.32
295.992	30301.03
296.449	29945.28
296.905	31096.68
297.362	29777.29
297.818	31329.5
298.274	32498.23
298.731	33142.73
299.187	32825.2
299.643	35222.62
300.099	42633.19
300.555	46714.92
301.011	39026.37
301.467	37558.2
301.923	44054.63
302.379	43015.1
302.835	42205.68
303.291	42237.05
303.746	48074.37
304.202	60685.29
304.658	60890.37
305.113	40951.42
305.569	40153.93
306.024	42812.12
306.479	40789.91
306.935	34368.19
307.39	37584.18
307.845	34750.66
308.301	34943.3
308.756	34011.26
309.211	32735.97
309.666	33538.09
310.121	41564.51
310.576	42190.58
311.031	41840.91
311.486	47966.63
311.94	47895
312.395	63987.27
312.85	120141.37
313.305	590704.29
313.759	3051990.65
314.214	221234.55
314.668	175076.1
315.123	147183.62
315.577	52670.53
316.032	46799.7
316.486	58586
316.94	46171.62
317.394	32130.78
317.849	24949.38
318.303	23597.96
318.757	22289.64
319.211	24607.52
319.665	21536.84
320.119	21780.36
320.572	31267.78
321.026	29206.38
321.48	24303.88
321.934	26510.19
322.387	26551.19
322.841	28664.68
323.295	25703.46
323.748	29613.31
324.202	30044.09
324.655	36084.38
325.108	50355.35
325.562	35510.77
326.015	42183.5
326.468	31856.56
326.921	35597.18
327.374	33172.47
327.827	34520.86
328.28	39078.62
328.733	26131.05
329.186	22957.76
329.639	21861.51
330.092	18430.35
330.545	17534.44
330.997	17663.9
331.45	19265.15
331.903	22556.37
332.355	38830.25
332.808	37715.13
333.26	31132.7
333.713	33767.52
334.165	34020
334.617	45436.65
335.069	36732.39
335.522	66486.35
335.974	73685.27
336.426	67420.14
336.878	46772.11
337.33	23680.72
337.782	23108.58
338.234	28922.78
338.686	34617.24
339.137	41002.01
339.589	38605.17
340.041	30241.46
340.493	25967.65
340.944	26551.63
341.396	28533.39
341.847	23938.78
342.299	28210.52
342.75	34430.68
343.201	30126.44
343.653	34643.18
344.104	42619.52
344.555	33521.37
345.006	52226.29
345.457	39931.99
345.908	31772.2
346.359	29913.21
346.81	24362.39
347.261	25726
347.712	25337.55
348.163	27134.99
348.613	27440.16
349.064	25579.89
349.515	22421.61
349.965	22977.98
350.416	27699.59
350.866	30379.09
351.317	34334.63
351.767	56854.15
352.217	71717.77
352.668	59474.31
353.118	54502.34
353.568	52610.99
354.018	41573.16
354.468	43787.55
354.918	31394.01
355.368	27454.53
355.818	38752.48
356.268	111601.65
356.718	466961.44
357.168	116269.51
357.617	58361.48
358.067	64999.96
358.517	60869.89
358.966	71320.9
359.416	79888.33
359.865	86345.07
360.315	102839.38
360.764	47988.99
361.213	26841.48
361.663	25418.19
362.112	31355.74
362.561	50626.01
363.01	38107.71
363.459	32072.39
363.908	34731.89
364.357	29493.29
364.806	49756.06
365.255	34252.17
365.703	31355.32
366.152	31415.73
366.601	25485.87
367.05	20675.89
367.498	18763.37
367.947	19609.13
368.395	20411.8
368.844	18086.99
369.292	21824.31
369.74	15067.34
370.189	23028.96
370.637	27005.34
371.085	23299.85
371.533	28367.71
371.981	27375.49
372.429	26104.27
372.877	27207.51
373.325	22729.08
373.773	23143.16
374.221	20615.32
374.669	25618.59
375.116	22156.84
375.564	22314.64
376.012	24969.99
376.459	20592.1
376.907	24595.28
377.354	29739.95
377.801	27689.07
378.249	31831.56
378.696	40684.52
379.143	49151.7
379.591	52451.99
380.038	88789.86
380.485	64205.74
380.932	69305.29
381.379	63316.6
381.826	46583.37
382.273	33118.7
382.72	28955.71
383.166	28212.61
383.613	18292.12
384.06	16507.59
384.506	19034.32
384.953	13945.55
385.4	14031.4
385.846	12280.55
386.292	11952.6
386.739	11689.5
387.185	11559.74
387.631	11567.8
388.078	11202.14
388.524	11975.38
388.97	11046.84
389.416	9208.26
389.862	9785.65
390.308	9261.01
390.754	9386.06
391.2	10186.41
391.645	10419.21
392.091	9915.85
392.537	9543.55
392.983	9550.67
393.428	9352.94
393.874	9987.66
394.319	9985.73
394.765	9431.24
395.21	9670.99
395.655	9026.74
396.101	8422.98
396.546	7568.67
396.991	7632.7
397.436	7073.09
397.881	6814.74
398.326	6435.68
398.771	6072.78
399.216	5301.95
399.661	4766.39
400.106	4729.66
400.551	4835.91
400.995	4328.69
401.44	4272.93
401.885	4000.66
402.329	4030.3
402.774	3853.71
403.218	3715.52
403.663	3569.8
404.107	3658.27
404.551	3678.19
404.995	3367.48
405.44	3237.1
405.884	3278.71
406.328	3164
406.772	3150.37
407.216	2862.17
407.66	2763.73
408.104	2627.52
408.547	2457.99
408.991	2371.9
409.435	2274.92
409.879	2240.38
410.322	2207.15
410.766	2123.7
411.209	2015.24
411.653	1930.63
412.096	1889.25
412.54	1886.27
412.983	1869.9
413.426	1870.7
413.869	1869.51
414.312	1830.88
414.756	1761.03
415.199	1678.41
415.642	1631.3
416.085	1632.25
416.527	1618.31
416.97	1641.58
417.413	1553.99
417.856	1534.89
418.298	1516.22
418.741	1504.46
419.184	1501.34
419.626	1562.43
420.069	1561.61
420.511	1565.08
420.953	1529.77
421.396	1515.7
421.838	1475.46
422.28	1507.42
422.722	1511.12
423.164	1531.34
423.606	1506.3
424.048	1501.93
424.49	1425.77
424.932	1417.44
425.374	1401.43
425.816	1426.64
426.258	1451.2
426.699	1466.6
427.141	1443.87
427.582	1470.32
428.024	1463.02
428.465	1452.52
428.907	1417.68
429.348	1400.28
429.789	1397.98
430.231	1365.89
430.672	1382.86
431.113	1350.12
431.554	1330.87
431.995	1298.92
432.436	1251.9
432.877	1225.52
433.318	1203.83
433.759	1198.06
434.2	1198.14
434.64	1185.46
435.081	1189.64
435.522	1126.23
435.962	1085.74
436.403	1064.12
436.843	1081.5
437.284	1059.24
437.724	1032.8
438.164	1036.24
438.604	1013.7
439.045	976.21
439.485	936.47
439.925	916.13
440.365	893.75
440.805	883.57
441.245	869.87
441.685	836.36
442.125	829.57
442.564	834.55
443.004	812.47
443.444	810.36
443.883	810.89
444.323	805.18
444.762	807.06
445.202	815.92
445.641	827.43
446.081	822.88
446.52	827.12
446.959	816.69
447.398	791.94
447.837	783.06
448.276	767.68
448.716	773.25
449.154	778.46
449.593	757.86
450.032	754.89
450.471	740.89
450.91	740.91
451.349	739.23
451.787	735.19
452.226	746.7
452.664	744.64
453.103	745.43
453.541	743.13
453.98	739.65
454.418	744.45
454.856	731.9
455.295	728.8
455.733	731.57
456.171	734.72
456.609	735.12
457.047	732.54
457.485	742.67
457.923	742.98
458.361	731.85
458.798	733.44
459.236	730.07
459.674	734.42
460.111	737.8
460.549	731.7
460.987	727.87
461.424	725.2
461.862	722.9
462.299	711.81
462.736	711.1
463.173	713.46
463.611	705.48
464.048	704.09
464.485	711.07
464.922	704.72
465.359	699.83
465.796	690.5
466.233	686.19
466.67	680.1
467.106	679.71
467.543	673.05
467.98	665.65
468.416	650.59
468.853	645.52
469.29	625
469.726	618.49
470.162	603.27
470.599	595.84
471.035	589.63
471.471	574.76
471.907	570.26
472.344	565.41
472.78	565.84
473.216	571.92
473.652	563.39
474.088	561.63
474.523	558.54
474.959	562.44
475.395	556.97
475.831	552.68
476.266	553.93
476.702	551.64
477.138	545.04
477.573	541.4
478.008	538.2
478.444	540.11
478.879	543.89
479.314	545.95
479.75	544.46
480.185	545.5
480.62	549.02
481.055	551.44
481.49	554.94
481.925	562.13
482.36	571.45
482.795	586.43
483.229	601.61
483.664	612.97
484.099	614.91
484.534	624.11
484.968	629.3
485.403	630.67
485.837	629.66
486.271	627.36
486.706	627.29
487.14	620.13
487.574	608.76
488.009	602.87
488.443	596.93
488.877	601.18
489.311	601.12
489.745	606.75
490.179	610.94
490.613	619.96
491.046	623.05
491.48	625.51
491.914	624.26
492.348	626.96
492.781	628.05
493.215	627.33
493.648	626.41
494.082	629.47
494.515	627.73
494.948	631.76
495.382	633.63
495.815	635.32
496.248	637.77
496.681	646.55
497.114	654.14
497.547	660.08
497.98	669.04
498.413	671.18
498.846	676.84
499.279	680.57
499.711	681.11
500.144	681.04
500.577	686.75
501.009	692.88
501.442	696.89
501.874	694.17
502.306	692.94
502.739	696.26
503.171	705.73
503.603	705.3
504.036	711.24
504.468	713.77
504.9	719.78
505.332	723.21
505.764	724.33
506.196	728.48
506.627	738.84
507.059	748.28
507.491	752.96
507.923	749.88
508.354	760.46
508.786	767.41
509.217	781.37
509.649	791.67
510.08	806.02
510.512	818.97
510.943	830.68
511.374	839.94
511.805	855.88
512.237	872.05
512.668	898.43
513.099	921.08
513.53	943.96
513.961	960.86
514.391	989.27
514.822	1017.88
515.253	1048.36
515.684	1071.81
516.114	1098.25
516.545	1118.76
516.975	1142.99
517.406	1160.85
517.836	1166.76
518.267	1175.77
518.697	1195.28
519.127	1202.18
519.558	1212.17
519.988	1219.51
520.418	1232.14
520.848	1250.94
521.278	1262.27
521.708	1286.48
522.138	1301.27
522.567	1331.68
522.997	1357.9
523.427	1375.11
523.857	1395.02
524.286	1408.94
524.716	1427.75
525.145	1447.75
525.575	1461.66
526.004	1478.7
526.433	1473.44
526.863	1477.78
527.292	1473.15
527.721	1481.33
528.15	1490.09
528.579	1494.21
529.008	1506.93
529.437	1529.75
529.866	1545.35
530.295	1564.39
530.724	1578.23
531.152	1605.58
531.581	1621.2
532.01	1640.13
532.438	1651.03
532.867	1666.22
533.295	1684.49
533.723	1691.84
534.152	1692.04
534.58	1693.63
535.008	1679.43
535.436	1682.53
535.865	1690.81
536.293	1705.46
536.721	1721.22
537.149	1745.9
537.576	1749.12
538.004	1761.96
538.432	1770.98
538.86	1770.61
539.287	1778.05
539.715	1793.46
540.143	1796.61
540.57	1793.93
540.998	1790.78
541.425	1768.77
541.852	1749.39
542.28	1748.69
542.707	1733.97
543.134	1720.82
543.561	1716.23
543.988	1709.58
544.415	1708.15
544.842	1703.19
545.269	1695.7
545.696	1698.13
546.123	1710.63
546.549	1700.44
546.976	1687.73
547.403	1686.98
547.829	1688.57
548.256	1690.82
548.682	1687.53
549.108	1678.81
549.535	1678.26
549.961	1680.38
550.387	1666.69
550.813	1661.26
551.24	1666.61
551.666	1667.33
552.092	1657.56
552.518	1650.46
552.943	1643.57
553.369	1649.91
553.795	1654.62
554.221	1653.8
554.646	1649.21
555.072	1658.38
555.498	1660.53
555.923	1666.99
556.349	1679.45
556.774	1686.22
557.199	1684.5
557.625	1688.17
558.05	1679.01
558.475	1686.78
558.9	1683.87
559.325	1673.87
559.75	1664.48
560.175	1655.84
560.6	1646.55
561.025	1640.32
561.449	1636.52
561.874	1638.4
562.299	1637.96
562.723	1641.53
563.148	1628.9
563.572	1627.99
563.997	1632.7
564.421	1633.26
564.846	1628.74
565.27	1628.76
565.694	1623
566.118	1629.4
566.542	1632.16
566.966	1621.69
567.39	1612.64
567.814	1599.53
568.238	1596.3
568.662	1597.22
569.086	1595.53
569.509	1598.55
569.933	1580.58
570.357	1570.19
570.78	1547.71
571.204	1532.57
571.627	1519.96
572.05	1514.72
572.474	1509.84
572.897	1494.37
573.32	1482.88
573.743	1471.33
574.166	1452.26
574.589	1448.23
575.012	1437.96
575.435	1433.1
575.858	1422.25
576.281	1410.41
576.704	1393.79
577.126	1380.66
577.549	1367.96
577.972	1357.75
578.394	1346.32
578.817	1337.39
579.239	1319.94
579.661	1306.89
580.084	1292.61
580.506	1278.71
580.928	1272.7
581.35	1262.27
581.772	1256.5
582.194	1244.43
582.616	1232.12
583.038	1217.27
583.46	1207.32
583.882	1202.77
584.303	1203.66
584.725	1198.65
585.147	1199.51
585.568	1207.23
585.99	1215.51
586.411	1219.03
586.833	1228.57
587.254	1228.13
587.675	1239.2
588.096	1247.59
588.518	1242.38
588.939	1228.37
589.36	1226.43
589.781	1215.17
590.202	1190.75
590.623	1182.02
591.043	1178.73
591.464	1168.3
591.885	1164.13
592.305	1158.45
592.726	1147.01
593.147	1147.01
593.567	1141.97
593.987	1133.24
594.408	1128.69
594.828	1127.33
595.248	1121.99
595.669	1106.41
596.089	1100.25
596.509	1093.22
596.929	1082.03
597.349	1082.14
597.769	1073.7
598.189	1068.42
598.608	1070.09
599.028	1071.46
599.448	1070.16
599.867	1059.68
600.287	1056.22
600.706	1052.58
601.126	1045.8
601.545	1044.9
601.965	1042.98
602.384	1038.28
602.803	1039.5
603.222	1034.97
603.641	1028.64
604.061	1025.17
604.48	1021.28
604.898	1026.71
605.317	1029.27
605.736	1030.25
606.155	1026.5
606.574	1019.12
606.992	1023.13
607.411	1018.64
607.829	1010.59
608.248	1007.95
608.666	1004.78
609.085	1004.43
609.503	997.37
609.921	992.65
610.339	992.94
610.758	991.56
611.176	987.12
611.594	978.69
612.012	976.2
612.43	979.32
612.847	983.8
613.265	985.45
613.683	987.15
614.101	987.86
614.518	983.86
614.936	976.79
615.353	965.98
615.771	962.49
616.188	963.06
616.606	960.05
617.023	954.07
617.44	942.93
617.857	936.69
618.274	930.37
618.691	925.42
619.108	918.29
619.525	913.3
619.942	918.48
620.359	920.57
620.776	916.36
621.192	913.6
621.609	912.1
622.026	917.1
622.442	920.38
622.859	922.56
623.275	917.44
623.691	921.45
624.108	929.73
624.524	939.73
624.94	939.99
625.356	946.62
625.772	955.24
626.188	963.1
626.604	963.54
627.02	960.91
627.436	960.63
627.852	966.64
628.268	975.69
628.683	969.24
629.099	962.83
629.514	959.23
629.93	961.53
630.345	965.31
630.761	962.17
631.176	964.43
631.591	961.18
632.007	954.92
632.422	952.37
632.837	943.42
633.252	941.4
633.667	933.64
634.082	926.66
634.497	917.47
634.911	903
635.326	900.77
635.741	888.27
636.155	880.1
636.57	881.13
636.984	879.92
637.399	879.99
637.813	879.1
638.228	877.67
638.642	880.39
639.056	873.16
639.47	873.11
639.884	867.53
640.298	863.24
640.712	861.95
641.126	852.88
641.54	847
641.954	844.25
642.368	835.64
642.781	831.99
643.195	820.31
643.609	820.99
644.022	816.87
644.436	813.86
644.849	806.19
645.262	798.86
645.676	801.75
646.089	799.41
646.502	790.43
646.915	788.33
647.328	776.62
647.741	776.6
648.154	769.88
648.567	771.34
648.98	764.15
649.393	766.42
649.805	766.63
650.218	763.05
650.631	753.39
651.043	750.42
651.456	747.3
651.868	748.68
652.28	763.12
652.693	773.81
653.105	779.66
653.517	787.65
653.929	789.17
654.341	794.82
654.753	787.26
655.165	794.45
655.577	795.2
655.989	794.75
656.401	791.81
656.813	766.67
657.224	755.4
657.636	735.25
658.047	724.97
658.459	713.17
658.87	709.32
659.282	704.56
659.693	692.54
660.104	684.6
660.515	677.54
660.926	679.81
661.338	681.55
661.749	679.36
662.159	676.42
662.57	676.56
662.981	677.18
663.392	675.53
663.803	683.72
664.213	685.59
664.624	686.7
665.035	693.41
665.445	687.62
665.855	686.35
666.266	684.06
666.676	686.11
667.086	682.89
667.497	686.8
667.907	685.5
668.317	679.57
668.727	680.46
669.137	684.01
669.547	685.68
669.956	689.78
670.366	695.03
670.776	700.21
671.186	706.72
671.595	712.13
672.005	717.06
672.414	718.55
672.824	719.98
673.233	725.48
673.642	729.72
674.052	733.29
674.461	738.03
674.87	743.42
675.279	741.98
675.688	744.76
676.097	747.82
676.506	746.55
676.915	760.96
677.323	764.16
677.732	762.42
678.141	762.52
678.549	753.49
678.958	751.94
679.366	752.54
679.775	757.26
680.183	767.43
680.592	772.18
681	775.02
681.408	766.5
681.816	771.71
682.224	778.51
682.632	783.77
683.04	807.18
683.448	825.32
683.856	846.29
684.264	871.18
684.671	893.57
685.079	920.48
685.487	951.6
685.894	994.56
686.302	1025.76
686.709	1046.45
687.116	1074.7
687.524	1094.71
687.931	1108.81
688.338	1118.48
688.745	1125.86
689.152	1134.08
689.559	1155.07
689.966	1176.33
690.373	1182.49
690.78	1204.93
691.187	1246.28
691.593	1276.37
692	1302.78
692.407	1348.48
692.813	1405.62
693.22	1453.1
693.626	1503.89
694.032	1545.81
694.439	1610.85
694.845	1666.35
695.251	1736.82
695.657	1803.03
696.063	1895.79
696.469	1971.09
696.875	2043.43
697.281	2092.4
697.687	2148.92
698.093	2201.6
698.498	2285.34
698.904	2356.89
699.31	2455.3
