Data from N_2_DIV_OH_2N_Splice17_12-21-26-887.txt Node
Date: Sat Mar 14 12:21:26 EDT 2020
User: sa697716
Spectrometer: FLMS03696
Trigger mode: 0
Integration Time (sec): 3.180400E-1
Scans to average: 20
Electric dark correction enabled: true
Nonlinearity correction enabled: true
Boxcar width: 5
XAxis mode: Wavelengths
Number of Pixels in Spectrum: 2048
>>>>>Begin Spectral Data<<<<<
187.83	-317574.39
188.298	2342.28
188.766	1237.39
189.233	1176.7
189.701	1707.39
190.169	2291.54
190.636	867.53
191.104	676.4
191.571	116.74
192.039	-41.91
192.506	-99.97
192.974	397.59
193.441	-782.83
193.908	-317.11
194.375	-51.32
194.842	107.22
195.31	179.5
195.777	194.2
196.244	398.68
196.711	494.05
197.177	622.47
197.644	858.59
198.111	1464.05
198.578	2074.12
199.045	1666.71
199.511	2740.67
199.978	3186.41
200.445	2691.41
200.911	2978.57
201.378	3307.88
201.844	2987.28
202.31	5074.87
202.777	5252.03
203.243	2919.5
203.709	2788.26
204.176	3322.35
204.642	2718.61
205.108	2538.75
205.574	2080.79
206.04	1883.93
206.506	1774.39
206.972	1678.36
207.438	1627.91
207.903	1849.63
208.369	1622.88
208.835	1607.58
209.301	1691.97
209.766	1726.98
210.232	1688.71
210.697	2080.93
211.163	2562.68
211.628	3846.65
212.094	3188.51
212.559	3882.55
213.024	2415.38
213.49	2935.17
213.955	2856
214.42	2769.23
214.885	2576.52
215.35	2459.56
215.815	2349.35
216.28	2499.81
216.745	2019.05
217.21	2171.64
217.675	1967.16
218.14	2164
218.604	2374.48
219.069	2665.46
219.534	2759.81
219.998	3164.66
220.463	3791.99
220.927	4598.65
221.392	4272.72
221.856	4296.94
222.32	5358.68
222.785	6598.88
223.249	8271.77
223.713	9218.66
224.177	9179.93
224.642	11692.83
225.106	14333.07
225.57	15648.88
226.034	11640.87
226.497	17680.8
226.961	15943.67
227.425	18587.61
227.889	20573.27
228.353	20585.42
228.816	42357.39
229.28	40509.71
229.744	34124.02
230.207	20748.91
230.671	20351.41
231.134	33529.18
231.597	38714.09
232.061	38658
232.524	37671.4
232.987	25940.33
233.45	23346.09
233.914	20971.3
234.377	21477.12
234.84	19671.64
235.303	23177.75
235.766	25884.94
236.229	26782.05
236.691	16844.04
237.154	18926.71
237.617	14232.1
238.08	14590.72
238.542	17073.99
239.005	12203.11
239.468	12125.2
239.93	11426.38
240.393	10389.67
240.855	9122.31
241.317	9340.56
241.78	11351.63
242.242	11734.71
242.704	12676.65
243.166	11010.74
243.629	9994.87
244.091	11505.39
244.553	12601.72
245.015	13562.17
245.477	17512.17
245.939	25643.4
246.4	27210.38
246.862	26460.76
247.324	24966.07
247.786	27885.48
248.247	36544.15
248.709	37677.83
249.17	28222.32
249.632	26594.13
250.093	30806.8
250.555	26618.11
251.016	16233.5
251.477	15390.97
251.939	16595.83
252.4	17379.24
252.861	20668.55
253.322	19232.03
253.783	22877.1
254.244	29557.46
254.705	23263.54
255.166	20654.62
255.627	20314.28
256.088	28638.67
256.549	30431.54
257.009	26188.08
257.47	31729.37
257.931	25783.91
258.391	19287.58
258.852	19881.94
259.312	20848.67
259.773	25733.82
260.233	21771.43
260.694	18374.76
261.154	20845.26
261.614	16720.93
262.074	14931.79
262.534	15548.32
262.994	14655.38
263.455	19508.61
263.915	16418.27
264.374	15470.48
264.834	16859.18
265.294	18645.77
265.754	19300.98
266.214	18250.21
266.673	17078.64
267.133	21562.65
267.593	21340.98
268.052	26101.55
268.512	22697.06
268.971	27372.5
269.431	29968.66
269.89	26884.38
270.349	40291.21
270.809	44906.15
271.268	40385.57
271.727	90551.18
272.186	58583.58
272.645	43962.28
273.104	31722.17
273.563	45971.9
274.022	36119.93
274.481	30750.66
274.94	23670.34
275.399	17603.29
275.857	20481.92
276.316	27657.63
276.775	24625.33
277.233	24295.47
277.692	22747.57
278.15	25722.12
278.609	26493.41
279.067	24556.73
279.525	22811.76
279.984	29476.16
280.442	35408.01
280.9	34961.85
281.358	23036.84
281.816	21463.24
282.274	20986.46
282.732	21676.62
283.19	21804.64
283.648	18804.93
284.106	20037.23
284.564	20399.38
285.021	18936.23
285.479	14122.08
285.937	12838.06
286.394	11280.43
286.852	11624.49
287.309	12247.48
287.767	11868.99
288.224	11305.51
288.682	12404.28
289.139	13622
289.596	12483.07
290.053	12973.01
290.511	16375.99
290.968	19874.26
291.425	26938.48
291.882	22444.87
292.339	19525.11
292.796	19325.35
293.252	18182.81
293.709	14455.53
294.166	12942.62
294.623	14294.87
295.079	13706.88
295.536	13765.72
295.992	12493.56
296.449	12365.24
296.905	12852.28
297.362	12335.04
297.818	12992.94
298.274	13528.58
298.731	13785.54
299.187	13654.73
299.643	14647.92
300.099	17705.27
300.555	19424.09
301.011	16212.57
301.467	15647.59
301.923	18283.84
302.379	17837.12
302.835	17498.45
303.291	17496.73
303.746	19892.91
304.202	25107.65
304.658	25231.27
305.113	17013.58
305.569	16697.13
306.024	17818.46
306.479	16935.52
306.935	14299.05
307.39	15638.83
307.845	14453.25
308.301	14533.36
308.756	14145.67
309.211	13646.94
309.666	13985.49
310.121	17356.29
310.576	17608.16
311.031	17487.39
311.486	19999.75
311.94	19972.28
312.395	26680.67
312.85	50153.92
313.305	246221.64
313.759	1283335.25
314.214	93048.74
314.668	73862.85
315.123	62230.21
315.577	22337.94
316.032	19914.51
316.486	24985.99
316.94	19755.17
317.394	13772.97
317.849	10690.94
318.303	10118.76
318.757	9519.37
319.211	10513.66
319.665	9194.07
320.119	9294.06
320.572	13310.23
321.026	12439.73
321.48	10376.45
321.934	11286.74
322.387	11281.41
322.841	12229.05
323.295	11033.93
323.748	12700.3
324.202	12898.68
324.655	15501.39
325.108	21659.77
325.562	15311.73
326.015	18163
326.468	13719.16
326.921	15350.06
327.374	14344.47
327.827	14923.43
328.28	16853.8
328.733	11309.47
329.186	9950.75
329.639	9493.6
330.092	8017.6
330.545	7649.18
330.997	7719.15
331.45	8444.53
331.903	9916.24
332.355	17033.65
332.808	16549.83
333.26	13654.92
333.713	14817.23
334.165	14928.87
334.617	19918.73
335.069	16050.34
335.522	28919
335.974	32116.63
336.426	29316.09
336.878	20266.1
337.33	10302.82
337.782	10043.61
338.234	12612.98
338.686	15089.91
339.137	17868.59
339.589	16821.1
340.041	13197.31
340.493	11348.34
340.944	11604.9
341.396	12547.81
341.847	10562
342.299	12463.36
342.75	15222.78
343.201	13255.82
343.653	15243.87
344.104	18726.67
344.555	14712.24
345.006	22885.45
345.457	17608.66
345.908	13970.22
346.359	13119.02
346.81	10691.59
347.261	11271.58
347.712	11097.68
348.163	11894.11
348.613	12058.71
349.064	11279.26
349.515	9871.78
349.965	10133.37
350.416	12179.48
350.866	13369.62
351.317	15083.91
351.767	24990.15
352.217	31590.69
352.668	26244.48
353.118	24136.61
353.568	23207.53
354.018	18319.61
354.468	19362.01
354.918	13872.42
355.368	12128.1
355.818	17132.21
356.268	49239.2
356.718	206595.75
357.168	51394.42
357.617	25826.17
358.067	28675.82
358.517	26939.77
358.966	31672.55
359.416	35595.98
359.865	38550.1
360.315	45962.41
360.764	21473.38
361.213	12053.36
361.663	11369.14
362.112	14037.2
362.561	22668.68
363.01	17074.7
363.459	14414.76
363.908	15612.06
364.357	13289
364.806	22484.28
365.255	15466.55
365.703	14222.38
366.152	14286.77
366.601	11642.8
367.05	9483.35
367.498	8635.6
367.947	9066.9
368.395	9432.33
368.844	8370.8
369.292	10098.24
369.74	7011.79
370.189	10741.3
370.637	12580.78
371.085	10866.39
371.533	13268.37
371.981	12799.78
372.429	12260.99
372.877	12763.95
373.325	10685.92
373.773	10918.24
374.221	9734.1
374.669	12075.68
375.116	10519.82
375.564	10655.22
376.012	11987.62
376.459	9928.67
376.907	11927.37
377.354	14470.28
377.801	13610
378.249	15730.96
378.696	20229.58
379.143	24619.28
379.591	26326.07
380.038	44740.09
380.485	32598.96
380.932	35377.81
381.379	32596.96
381.826	24113.61
382.273	17219.2
382.72	15131.51
383.166	14828.8
383.613	9674.95
384.06	8769.66
384.506	10221.68
384.953	7541.91
385.4	7620.25
385.846	6705.02
386.292	6559.02
386.739	6457.6
387.185	6407.85
387.631	6436.34
388.078	6289.67
388.524	6755.05
388.97	6283.61
389.416	5261.34
389.862	5613.96
390.308	5342.18
390.754	5456.23
391.2	5948.07
391.645	6100.23
392.091	5880.43
392.537	5709.06
392.983	5737.72
393.428	5672.04
393.874	6090
394.319	6142.98
394.765	5850.81
395.21	6038.18
395.655	5669.74
396.101	5319.69
396.546	4823.4
396.991	4863.09
397.436	4517.85
397.881	4370.11
398.326	4137.21
398.771	3920.3
399.216	3428.15
399.661	3090.85
400.106	3083.03
400.551	3158.43
400.995	2834.76
401.44	2802.05
401.885	2633.27
402.329	2661.98
402.774	2556.05
403.218	2473.78
403.663	2380.63
404.107	2446.15
404.551	2457.73
404.995	2250.46
405.44	2163.31
405.884	2188.59
406.328	2115.51
406.772	2108.54
407.216	1917.69
407.66	1847.52
408.104	1750.84
408.547	1637.9
408.991	1584.92
409.435	1525.4
409.879	1502.53
410.322	1485.35
410.766	1436.37
411.209	1367.34
411.653	1309.52
412.096	1282.85
412.54	1280.77
412.983	1272.1
413.426	1275.75
413.869	1270.73
414.312	1247.26
414.756	1202.07
415.199	1143.5
415.642	1109.74
416.085	1107.72
416.527	1101.42
416.97	1119.45
417.413	1062.06
417.856	1050.22
418.298	1038.57
418.741	1031
419.184	1025.58
419.626	1063.56
420.069	1065.17
420.511	1070.38
420.953	1048.54
421.396	1036.8
421.838	1008.18
422.28	1032.61
422.722	1038.33
423.164	1052.46
423.606	1033.75
424.048	1031.76
424.49	982.58
424.932	974.5
425.374	960.44
425.816	973.86
426.258	991.87
426.699	1000.76
427.141	983.49
427.582	994.03
428.024	985.8
428.465	979.84
428.907	957.06
429.348	942.62
429.789	944.6
430.231	923.24
430.672	934.93
431.113	912.66
431.554	900.82
431.995	878.91
432.436	852.99
432.877	836.02
433.318	825.24
433.759	822.01
434.2	823.69
434.64	813.19
435.081	817.8
435.522	778.37
435.962	752.08
436.403	738.18
436.843	749.32
437.284	731.55
437.724	713.27
438.164	713.51
438.604	698.69
439.045	673.13
439.485	649.05
439.925	635.72
440.365	619.38
440.805	611.09
441.245	603.67
441.685	582.59
442.125	579.08
442.564	583.26
443.004	570.98
443.444	570.35
443.883	573.47
444.323	567.71
444.762	569.45
445.202	578.24
445.641	590.77
446.081	586.75
446.52	592.97
446.959	589.34
447.398	577
447.837	571.15
448.276	562.37
448.716	567.02
449.154	574.8
449.593	563.28
450.032	563.4
450.471	552.04
450.91	553.52
451.349	553.52
451.787	550.3
452.226	558.73
452.664	559.99
453.103	561.57
453.541	562.04
453.98	561.48
454.418	564.17
454.856	554.74
455.295	554.82
455.733	559.86
456.171	562.25
456.609	564.81
457.047	563.47
457.485	571.42
457.923	572.21
458.361	564.46
458.798	566.1
459.236	564.5
459.674	568.92
460.111	571.04
460.549	566.32
460.987	564.25
461.424	560.93
461.862	559.37
462.299	551.07
462.736	550.5
463.173	553.27
463.611	547.69
464.048	547.26
464.485	550.62
464.922	545.84
465.359	540.94
465.796	536.45
466.233	533.95
466.67	529.4
467.106	527.97
467.543	521.73
467.98	514.08
468.416	500.97
468.853	497.07
469.29	482.5
469.726	478.21
470.162	467.06
470.599	459.21
471.035	454.15
471.471	443.31
471.907	441.54
472.344	440
472.78	441.52
473.216	445.96
473.652	440.66
474.088	440.2
474.523	439.36
474.959	442.32
475.395	438.49
475.831	436.28
476.266	438.64
476.702	436.79
477.138	432.59
477.573	431.21
478.008	429.77
478.444	432.56
478.879	436.58
479.314	437.54
479.75	438.42
480.185	439.62
480.62	442.98
481.055	444.76
481.49	448.3
481.925	453.38
482.36	461.28
482.795	473.27
483.229	484.69
483.664	494.11
484.099	496.28
484.534	504.2
484.968	510.03
485.403	512.04
485.837	511.87
486.271	511.25
486.706	512.24
487.14	507.25
487.574	500.59
488.009	496.93
488.443	493.4
488.877	499.86
489.311	501.65
489.745	508.64
490.179	513.92
490.613	524.93
491.046	529.32
491.48	535.08
491.914	536.61
492.348	542.06
492.781	546.77
493.215	549.93
493.648	551.99
494.082	558.73
494.515	560.8
494.948	570.27
495.382	574.96
495.815	582.33
496.248	589.02
496.681	602.06
497.114	613.62
497.547	625.08
497.98	639.6
498.413	648.59
498.846	659.55
499.279	670.47
499.711	677.17
500.144	684.04
500.577	696.13
501.009	709.57
501.442	722.65
501.874	728.15
502.306	734.61
502.739	745.65
503.171	762.85
503.603	770.52
504.036	782.67
504.468	792.66
504.9	807.05
505.332	818.41
505.764	827.49
506.196	838.5
506.627	857.76
507.059	874.97
507.491	887.98
507.923	891.62
508.354	911.92
508.786	928.5
509.217	949.95
509.649	969.7
510.08	993.55
510.512	1014.35
510.943	1034.36
511.374	1050.06
511.805	1074.65
512.237	1098.85
512.668	1135.62
513.099	1166.16
513.53	1197.1
513.961	1222.88
514.391	1259.42
514.822	1295.92
515.253	1336.87
515.684	1366.71
516.114	1401.52
516.545	1427.8
516.975	1458.38
517.406	1481.18
517.836	1488.17
518.267	1499.65
518.697	1521.56
519.127	1529.36
519.558	1540.71
519.988	1548.23
520.418	1561.91
520.848	1583.29
521.278	1595.2
521.708	1602.24
522.138	1618.33
522.567	1652.94
522.997	1680.94
523.427	1698.95
523.857	1718.68
524.286	1731.91
524.716	1749.66
525.145	1772.1
525.575	1784.35
526.004	1801.01
526.433	1809.91
526.863	1811.47
527.292	1802.33
527.721	1810.06
528.15	1818.65
528.579	1821.18
529.008	1834.73
529.437	1860.71
529.866	1877.05
530.295	1897.23
530.724	1912.73
531.152	1944.48
531.581	1961.73
532.01	1982.63
532.438	1993.07
532.867	2010.56
533.295	2032.96
533.723	2040.51
534.152	2039.14
534.58	2039.75
535.008	2024.31
535.436	2026.63
535.865	2035.52
536.293	2052.59
536.721	2070.57
537.149	2099.63
537.576	2103.12
538.004	2117.27
538.432	2127.81
538.86	2126.69
539.287	2135.46
539.715	2152.45
540.143	2157.57
540.57	2152.97
540.998	2148.43
541.425	2123.62
541.852	2101.62
542.28	2099.69
542.707	2081.95
543.134	2066.67
543.561	2063.27
543.988	2056.1
544.415	2054.97
544.842	2048.32
545.269	2042.34
545.696	2045.29
546.123	2061.38
546.549	2049.92
546.976	2037.26
547.403	2036.88
547.829	2039.23
548.256	2042.4
548.682	2038.79
549.108	2032.05
549.535	2032.88
549.961	2034.55
550.387	2020.67
550.813	2014.12
551.24	2021.34
551.666	2022.74
552.092	2013.64
552.518	2006.2
552.943	1999.88
553.369	2008.01
553.795	2013.35
554.221	2013.78
554.646	2011.75
555.072	2022.63
555.498	2027.99
555.923	2037.58
556.349	2054.12
556.774	2063.14
557.199	2065.35
557.625	2071.85
558.05	2065.42
558.475	2077.34
558.9	2076.12
559.325	2066.2
559.75	2059.23
560.175	2051.4
560.6	2044.51
561.025	2042.18
561.449	2042.92
561.874	2049.44
562.299	2053.76
562.723	2060.74
563.148	2048.74
563.572	2054.04
563.997	2065.69
564.421	2072.78
564.846	2074.53
565.27	2079.27
565.694	2075.9
566.118	2090.22
566.542	2096.88
566.966	2089.42
567.39	2085.03
567.814	2073.07
568.238	2072.11
568.662	2076.89
569.086	2079.2
569.509	2086.64
569.933	2068.7
570.357	2060.83
570.78	2036.22
571.204	2022.05
571.627	2010.51
572.05	2008.77
572.474	2007.69
572.897	1993.09
573.32	1984.95
573.743	1973.03
574.166	1952.6
574.589	1953.5
575.012	1945.2
575.435	1943.56
575.858	1933.2
576.281	1919.93
576.704	1900.78
577.126	1887.79
577.549	1875.73
577.972	1863.68
578.394	1851.9
578.817	1843.26
579.239	1821.03
579.661	1804.64
580.084	1787.27
580.506	1772.09
580.928	1767.72
581.35	1755.11
581.772	1749.52
582.194	1734.77
582.616	1720.74
583.038	1705
583.46	1692.87
583.882	1688.47
584.303	1693.84
584.725	1688.57
585.147	1690.06
585.568	1701.63
585.99	1715.56
586.411	1722.17
586.833	1736.99
587.254	1739.22
587.675	1754.05
588.096	1767
588.518	1760.71
588.939	1742.21
589.36	1739.52
589.781	1727.43
590.202	1695.01
590.623	1684.44
591.043	1682.14
591.464	1668.2
591.885	1661.81
592.305	1655.33
592.726	1639.37
593.147	1642.06
593.567	1635.96
593.987	1626.98
594.408	1621.77
594.828	1619.28
595.248	1612.43
595.669	1591.09
596.089	1582.21
596.509	1575.03
596.929	1560.16
597.349	1562.08
597.769	1549.96
598.189	1541.44
598.608	1543.12
599.028	1544.42
599.448	1544.33
599.867	1530.83
600.287	1527.17
600.706	1522.32
601.126	1512.24
601.545	1510.63
601.965	1508.68
602.384	1503.28
602.803	1506.55
603.222	1500.54
603.641	1493.38
604.061	1488.77
604.48	1483.62
604.898	1492.2
605.317	1497.96
605.736	1499.17
606.155	1495.29
606.574	1485.51
606.992	1490.53
607.411	1485.94
607.829	1477.21
608.248	1473.21
608.666	1470.8
609.085	1470.6
609.503	1460.02
609.921	1453.13
610.339	1456.59
610.758	1455.65
611.176	1449.6
611.594	1438.6
612.012	1432.62
612.43	1435.4
612.847	1442.38
613.265	1442.19
613.683	1445.55
614.101	1446.48
614.518	1441.79
614.936	1429.47
615.353	1413.07
615.771	1408.71
616.188	1409.15
616.606	1405.8
617.023	1397.01
617.44	1381.21
617.857	1374.57
618.274	1364.47
618.691	1358.3
619.108	1347.58
619.525	1340.76
619.942	1347.35
620.359	1349.99
620.776	1344.1
621.192	1339.77
621.609	1336.84
622.026	1343.82
622.442	1348.67
622.859	1352.23
623.275	1342.77
623.691	1348.56
624.108	1360.01
624.524	1375.69
624.94	1374.94
625.356	1386.36
625.772	1399.13
626.188	1411.76
626.604	1412.65
627.02	1407.42
627.436	1404.9
627.852	1412.59
628.268	1425.11
628.683	1414.62
629.099	1405.15
629.514	1400.96
629.93	1403.59
630.345	1408.21
630.761	1404.5
631.176	1407.52
631.591	1401.32
632.007	1394.75
632.422	1391.47
632.837	1377.96
633.252	1374.7
633.667	1362.89
634.082	1351.55
634.497	1335.24
634.911	1313
635.326	1307.52
635.741	1287.52
636.155	1274.63
636.57	1272.65
636.984	1269.78
637.399	1267.77
637.813	1263.63
638.228	1258.03
638.642	1258.09
639.056	1244.29
639.47	1240.07
639.884	1226.47
640.298	1214.49
640.712	1208.81
641.126	1192.65
641.54	1179.21
641.954	1170.05
642.368	1153.72
642.781	1141
643.195	1119.12
643.609	1114.94
644.022	1105.05
644.436	1094.6
644.849	1078.38
645.262	1061.68
645.676	1058
646.089	1048.46
646.502	1030.12
646.915	1021.43
647.328	1002.35
647.741	996.84
648.154	981.91
648.567	976.46
648.98	963.69
649.393	962.72
649.805	958.34
650.218	950.4
650.631	934.74
651.043	927.86
651.456	920.06
651.868	919.9
652.28	935.15
652.693	947.26
653.105	951.53
653.517	958.42
653.929	956.47
654.341	960.3
654.753	946.62
655.165	951.82
655.577	947.49
655.989	942.8
656.401	933.36
656.813	898.16
657.224	877.24
657.636	848.81
658.047	830.7
658.459	812.15
658.87	800.98
659.282	788.34
659.693	766.77
660.104	750.64
660.515	735.18
660.926	729.55
661.338	724.05
661.749	714.99
662.159	704.75
662.57	697.52
662.981	689.75
663.392	679.96
663.803	679.11
664.213	674.16
664.624	667.71
665.035	667.21
665.445	653.31
665.855	644.66
666.266	635.03
666.676	629.8
667.086	619.01
667.497	616.48
667.907	609.19
668.317	599.45
668.727	594.94
669.137	593.95
669.547	589.9
669.956	590.22
670.366	590.4
670.776	591.09
671.186	592.37
671.595	595.02
672.005	595.91
672.414	595.38
672.824	594.61
673.233	597.11
673.642	598.74
674.052	601.7
674.461	603.91
674.87	606.48
675.279	605.21
675.688	608.26
676.097	610.43
676.506	608.98
676.915	621.21
677.323	624.8
677.732	623.79
678.141	623.86
678.549	616.4
678.958	616.4
679.366	619.03
679.775	624.62
680.183	634.48
680.592	641.92
681	650.2
681.408	648.93
681.816	658.55
682.224	670.73
682.632	685.33
683.04	715.79
683.448	743.92
683.856	775.9
684.264	814.96
684.671	851.71
685.079	895.89
685.487	944.38
685.894	1010.11
686.302	1068.61
686.709	1119.3
687.116	1178.63
687.524	1232.44
687.931	1279.81
688.338	1324.46
688.745	1363.76
689.152	1409.06
689.559	1465.76
689.966	1522.6
690.373	1555.5
690.78	1610.17
691.187	1686.76
691.593	1746.75
692	1798.77
692.407	1873.98
692.813	1962.16
693.22	2033.59
693.626	2107.04
694.032	2163.85
694.439	2251.49
694.845	2322.06
695.251	2408.51
695.657	2483.29
696.063	2595.28
696.469	2678.95
696.875	2755.93
697.281	2799.24
697.687	2853.48
698.093	2897.86
698.498	2982.81
698.904	3047.57
699.31	3145.25
