Data from N_2_DIV_OH_2N_Splice17_12-21-57-599.txt Node
Date: Sat Mar 14 12:21:57 EDT 2020
User: sa697716
Spectrometer: FLMS03696
Trigger mode: 0
Integration Time (sec): 3.180400E-1
Scans to average: 20
Electric dark correction enabled: true
Nonlinearity correction enabled: true
Boxcar width: 5
XAxis mode: Wavelengths
Number of Pixels in Spectrum: 2048
>>>>>Begin Spectral Data<<<<<
187.83	-328591.56
188.298	2377.18
188.766	1233.99
189.233	1079.7
189.701	1493
190.169	2129.83
190.636	804.79
191.104	600.89
191.571	44.92
192.039	-97.6
192.506	-103.77
192.974	467.3
193.441	-843.01
193.908	-345.22
194.375	-154.4
194.842	-89.44
195.31	-56.23
195.777	121.94
196.244	330.16
196.711	458.01
197.177	615.4
197.644	912.08
198.111	1617.83
198.578	2308.7
199.045	1840.87
199.511	3035.06
199.978	3570.7
200.445	3061.99
200.911	3394.06
201.378	3850.12
201.844	3502.44
202.31	5983.97
202.777	6271.35
203.243	3444.69
203.709	3273.27
204.176	3924.69
204.642	3241.79
205.108	3024.46
205.574	2430.16
206.04	2212.51
206.506	2065.65
206.972	1956.94
207.438	1881.98
207.903	2121.12
208.369	1864.21
208.835	1851.58
209.301	1941
209.766	1981.59
210.232	1953.35
210.697	2462.29
211.163	3028.71
211.628	4557.6
212.094	3801.1
212.559	4665.88
213.024	2902.01
213.49	3556.63
213.955	3471.52
214.42	3373.5
214.885	3129.09
215.35	2984.96
215.815	2832.28
216.28	2997.16
216.745	2415.48
217.21	2584.84
217.675	2342.29
218.14	2603.26
218.604	2853.59
219.069	3212.96
219.534	3324.53
219.998	3801.37
220.463	4561.84
220.927	5563.4
221.392	5183.55
221.856	5214.79
222.32	6529.67
222.785	8015.96
223.249	10070.77
223.713	11232.28
224.177	11196.94
224.642	14366.71
225.106	17657.72
225.57	19244.32
226.034	14284.44
226.497	21718.66
226.961	19618.57
227.425	22806.17
227.889	25291.19
228.353	25225.68
228.816	51870.07
229.28	49511.4
229.744	41607.33
230.207	25317.28
230.671	24885.91
231.134	41142.98
231.597	47435.6
232.061	47302.13
232.524	46051.01
232.987	31679.73
233.45	28482.01
233.914	25539.71
234.377	26154.28
234.84	23924.88
235.303	28174.21
235.766	31381.2
236.229	32324.55
236.691	20340.31
237.154	22858.43
237.617	17186.87
238.08	17622.38
238.542	20620.9
239.005	14746.19
239.468	14644.56
239.93	13801.74
240.393	12540.46
240.855	11004.26
241.317	11288.55
241.78	13734.43
242.242	14178.14
242.704	15313.74
243.166	13313.63
243.629	12091.22
244.091	13916.08
244.553	15230.17
245.015	16380.66
245.477	21175.97
245.939	31011.69
246.4	32847.21
246.862	31844.89
247.324	30043.71
247.786	33618.63
248.247	44022.44
248.709	45345.54
249.17	33906.87
249.632	31930.08
250.093	36945.8
250.555	31835.57
251.016	19426.77
251.477	18422.16
251.939	19857.82
252.4	20797.21
252.861	24637.82
253.322	22892.25
253.783	27233.61
254.244	35266.32
254.705	27757.2
255.166	24660.74
255.627	24258.26
256.088	34167.63
256.549	36268.98
257.009	31222.35
257.47	37786.67
257.931	30772.98
258.391	23056.93
258.852	23739.41
259.312	24862.47
259.773	30684.86
260.233	25912.58
260.694	21850.95
261.154	24729.42
261.614	19828.47
262.074	17723.55
262.534	18423.32
262.994	17344.16
263.455	23071.4
263.915	19384.35
264.374	18233.6
264.834	19888.59
265.294	21998.05
265.754	22757.19
266.214	21537.52
266.673	20137.12
267.133	25374.63
267.593	25115.33
268.052	30700.11
268.512	26638.11
268.971	32157.24
269.431	35215.78
269.89	31492.14
270.349	47144.03
270.809	52508.41
271.268	47179.59
271.727	105766.09
272.186	68449.77
272.645	51331.73
273.104	37019.95
273.563	53577.38
274.022	42143.48
274.481	35870.83
274.94	27651.97
275.399	20547.48
275.857	23931.81
276.316	32358.21
276.775	28817.37
277.233	28398.83
277.692	26626.23
278.15	30134.83
278.609	31045.33
279.067	28698.76
279.525	26656.5
279.984	34405.56
280.442	41367.01
280.9	40785
281.358	26821.85
281.816	25002.69
282.274	24501.21
282.732	25310.26
283.19	25450.94
283.648	21988.46
284.106	23428.67
284.564	23854.02
285.021	22145.41
285.479	16527.49
285.937	15039.81
286.394	13218.65
286.852	13620.84
287.309	14299.31
287.767	13822.72
288.224	13164.06
288.682	14438.36
289.139	15849.15
289.596	14516.73
290.053	15077.08
290.511	19020.63
290.968	23059.63
291.425	31268.83
291.882	25986.05
292.339	22631.15
292.796	22423.69
293.252	21077.01
293.709	16750.62
294.166	15002.88
294.623	16545.74
295.079	15882.02
295.536	15960.48
295.992	14498.75
296.449	14334.29
296.905	14887.47
297.362	14267.49
297.818	15010.94
298.274	15564.4
298.731	15855.08
299.187	15682.9
299.643	16836.85
300.099	20356.93
300.555	22314.46
301.011	18635.68
301.467	17954.58
301.923	21019.94
302.379	20545.28
302.835	20195.37
303.291	20252.24
303.746	23018.64
304.202	29071.71
304.658	29182.95
305.113	19631.23
305.569	19243.4
306.024	20518.93
306.479	19554.66
306.935	16506.68
307.39	18035.34
307.845	16662.78
308.301	16778.17
308.756	16361.23
309.211	15771.34
309.666	16185.97
310.121	20103.36
310.576	20424.05
311.031	20278.41
311.486	23241.97
311.94	23231.92
312.395	31067.81
312.85	58337.21
313.305	286448.51
313.759	1484961.83
314.214	107805.84
314.668	85490.32
315.123	71990.55
315.577	25812.48
316.032	22970.98
316.486	28769.36
316.94	22717.64
317.394	15838.11
317.849	12319.27
318.303	11665.07
318.757	11001.99
319.211	12156.89
319.665	10628.47
320.119	10752.69
320.572	15413.61
321.026	14387.21
321.48	11982.32
321.934	13060.01
322.387	13066.71
322.841	14127.87
323.295	12717.07
323.748	14644.72
324.202	14882.91
324.655	17908.12
325.108	25038.76
325.562	17682.88
326.015	21021.67
326.468	15886.58
326.921	17760.24
327.374	16581.11
327.827	17232.67
328.28	19481.94
328.733	13087.01
329.186	11502.46
329.639	10967.58
330.092	9246.9
330.545	8817.05
330.997	8903.66
331.45	9760.73
331.903	11441.37
332.355	19691.03
332.808	19194.4
333.26	15862.26
333.713	17227.27
334.165	17368.11
334.617	23117.47
335.069	18673.92
335.522	33710.88
335.974	37369.85
336.426	34055.04
336.878	23582.43
337.33	11956.09
337.782	11675.61
338.234	14672.38
338.686	17533.81
339.137	20768.38
339.589	19613.27
340.041	15365.96
340.493	13226.51
340.944	13524.44
341.396	14589.8
341.847	12268.06
342.299	14475.67
342.75	17647.59
343.201	15362.19
343.653	17669.84
344.104	21695.94
344.555	17056.76
345.006	26541.5
345.457	20360.93
345.908	16172.13
346.359	15196.95
346.81	12381.79
347.261	13050.5
347.712	12844.77
348.163	13763.33
348.613	13939.67
349.064	13004.55
349.515	11400.46
349.965	11701.43
350.416	14059.31
350.866	15460.89
351.317	17465.17
351.767	28971.64
352.217	36538.17
352.668	30329.45
353.118	27809.59
353.568	26773.84
354.018	21220.06
354.468	22349.59
354.918	16071.19
355.368	14071.17
355.818	19847.13
356.268	57178.05
356.718	239313.72
357.168	59826.16
357.617	29995.81
358.067	33325.07
358.517	31311.68
358.966	36745.3
359.416	41314.47
359.865	44594.32
360.315	53193.12
360.764	24894.23
361.213	13932.83
361.663	13205.97
362.112	16257.5
362.561	26302.7
363.01	19912.7
363.459	16715.62
363.908	18059.74
364.357	15323.41
364.806	25832.97
365.255	17754.53
365.703	16272.39
366.152	16354.36
366.601	13277.22
367.05	10812.02
367.498	9862.58
367.947	10284.34
368.395	10747.26
368.844	9563.08
369.292	11541.43
369.74	7995.16
370.189	12262.19
370.637	14374.59
371.085	12424.53
371.533	15163.87
371.981	14636.48
372.429	13963.25
372.877	14590.99
373.325	12223.48
373.773	12462.74
374.221	11132.54
374.669	13840.33
375.116	12016.95
375.564	12192.46
376.012	13671.81
376.459	11333.61
376.907	13636.32
377.354	16587.26
377.801	15593.36
378.249	18026.2
378.696	23147.16
379.143	28203.52
379.591	30279.29
380.038	51543.44
380.485	37386.13
380.932	40569.79
381.379	37292.04
381.826	27560.02
382.273	19647.61
382.72	17248.56
383.166	16896.95
383.613	11012.35
384.06	9985.56
384.506	11600.3
384.953	8542.24
385.4	8639.68
385.846	7610.15
386.292	7440.81
386.739	7305.04
387.185	7270.66
387.631	7302.83
388.078	7108.37
388.524	7645.14
388.97	7088.29
389.416	5942.1
389.862	6353.23
390.308	6045.74
390.754	6167.95
391.2	6718.78
391.645	6916.78
392.091	6643.42
392.537	6443.71
392.983	6475.33
393.428	6403.78
393.874	6890.53
394.319	6941.29
394.765	6603.13
395.21	6805.45
395.655	6395.7
396.101	6008.87
396.546	5426.13
396.991	5477.38
397.436	5093.34
397.881	4934.13
398.326	4671.4
398.771	4418.49
399.216	3868.63
399.661	3489.46
400.106	3482.29
400.551	3565.04
400.995	3193.31
401.44	3160.87
401.885	2965.81
402.329	2989.83
402.774	2861.64
403.218	2767.68
403.663	2666.19
404.107	2730.86
404.551	2747.59
404.995	2513.15
405.44	2415.57
405.884	2453.14
406.328	2368.76
406.772	2358.82
407.216	2147.66
407.66	2072.22
408.104	1964.07
408.547	1831.53
408.991	1771.65
409.435	1698.94
409.879	1673.12
410.322	1650.93
410.766	1589.92
411.209	1510.63
411.653	1448.65
412.096	1419.19
412.54	1419.17
412.983	1408.32
413.426	1412.86
413.869	1413.47
414.312	1386.97
414.756	1338.19
415.199	1275.78
415.642	1239.62
416.085	1239.06
416.527	1230.83
416.97	1249.05
417.413	1184.31
417.856	1172.38
418.298	1158.28
418.741	1147.71
419.184	1142.76
419.626	1185.88
420.069	1186.56
420.511	1190.76
420.953	1165.28
421.396	1155.86
421.838	1125.61
422.28	1151.76
422.722	1157.84
423.164	1175.09
423.606	1155.25
424.048	1154.45
424.49	1096.07
424.932	1086.54
425.374	1071.53
425.816	1089.32
426.258	1105.04
426.699	1116.11
427.141	1098.68
427.582	1113.32
428.024	1104.49
428.465	1097.36
428.907	1069.03
429.348	1059.1
429.789	1061.21
430.231	1040.38
430.672	1053.2
431.113	1031.47
431.554	1017.13
431.995	993.06
432.436	957.95
432.877	939.74
433.318	924.62
433.759	921.9
434.2	923.12
434.64	912.29
435.081	912.95
435.522	865.83
435.962	833.7
436.403	816.72
436.843	829.35
437.284	813.02
437.724	792.21
438.164	795.67
438.604	779.03
439.045	751.89
439.485	724.93
439.925	712.2
440.365	696.57
440.805	687.06
441.245	678.22
441.685	652.37
442.125	647.99
442.564	652.32
443.004	637.55
443.444	637.06
443.883	638.6
444.323	632.07
444.762	632.33
445.202	640.85
445.641	654.97
446.081	652.01
446.52	660.01
446.959	654.73
447.398	640.46
447.837	635.14
448.276	624.79
448.716	628.89
449.154	636.55
449.593	624.24
450.032	624.07
450.471	612.12
450.91	615.22
451.349	615.05
451.787	613.31
452.226	623.39
452.664	623.45
453.103	625.27
453.541	625.55
453.98	625.25
454.418	629.61
454.856	620.82
455.295	620.23
455.733	626.5
456.171	629.8
456.609	632.46
457.047	631.33
457.485	641.87
457.923	643.2
458.361	635.38
458.798	637.25
459.236	636.25
459.674	638.98
460.111	643.51
460.549	635.33
460.987	631.6
461.424	627.54
461.862	626.79
462.299	615.7
462.736	614.87
463.173	617.45
463.611	610.87
464.048	609.56
464.485	615.53
464.922	609.59
465.359	606.87
465.796	601.57
466.233	598
466.67	591.93
467.106	591.81
467.543	585.91
467.98	577.31
468.416	562.69
468.853	558.34
469.29	541.14
469.726	534.95
470.162	521.5
470.599	513.11
471.035	507.33
471.471	494.8
471.907	490.38
472.344	487.8
472.78	489.71
473.216	496.13
473.652	489.52
474.088	488.67
474.523	486.91
474.959	490.15
475.395	486.13
475.831	483.3
476.266	484.94
476.702	483.87
477.138	477.68
477.573	475.14
478.008	472.79
478.444	474.65
478.879	479
479.314	481.39
479.75	480.94
480.185	482.05
480.62	486.01
481.055	488.27
481.49	492.59
481.925	500.56
482.36	511.03
482.795	525.07
483.229	539.35
483.664	549.81
484.099	551.96
484.534	560.2
484.968	566.61
485.403	569.04
485.837	568.86
486.271	567.17
486.706	567.97
487.14	561.32
487.574	553.24
488.009	549.82
488.443	546.91
488.877	553.28
489.311	556.65
489.745	564.45
490.179	570.75
490.613	582.61
491.046	588.92
491.48	594.89
491.914	597.23
492.348	603.34
492.781	607.72
493.215	610.76
493.648	614.2
494.082	621.14
494.515	623.82
494.948	633.43
495.382	640.39
495.815	647.6
496.248	655.91
496.681	670.44
497.114	684.78
497.547	698.17
497.98	713.88
498.413	723.45
498.846	737.01
499.279	749.19
499.711	758.48
500.144	765.46
500.577	780.86
501.009	795.47
501.442	809.95
501.874	816.2
502.306	822.5
502.739	835.24
503.171	855.08
503.603	863.65
504.036	878.62
504.468	888.46
504.9	906.55
505.332	918.4
505.764	928.06
506.196	941.22
506.627	961.51
507.059	982.5
507.491	997.3
507.923	1001.75
508.354	1023.47
508.786	1041.72
509.217	1068.57
509.649	1091
510.08	1118.99
510.512	1143.99
510.943	1166.52
511.374	1185.79
511.805	1213.88
512.237	1242.57
512.668	1285.13
513.099	1321.49
513.53	1358.01
513.961	1387.65
514.391	1429.27
514.822	1471.73
515.253	1519.56
515.684	1555.58
516.114	1595.81
516.545	1627.15
516.975	1662.95
517.406	1688.93
517.836	1697.47
518.267	1709.86
518.697	1734.99
519.127	1744.28
519.558	1757.95
519.988	1765.66
520.418	1780.84
520.848	1804.48
521.278	1817.49
521.708	1834.35
522.138	1852.04
522.567	1893.53
522.997	1928.3
523.427	1950.57
523.857	1973.9
524.286	1989.06
524.716	2010.37
525.145	2037.41
525.575	2054.09
526.004	2074.88
526.433	2077.33
526.863	2080.44
527.292	2068.96
527.721	2076.12
528.15	2085.18
528.579	2088.45
529.008	2103.34
529.437	2134.89
529.866	2152.17
530.295	2175.16
530.724	2192.16
531.152	2226.94
531.581	2246.48
532.01	2270.69
532.438	2283.78
532.867	2303.84
533.295	2328.42
533.723	2338.28
534.152	2336.78
534.58	2338.49
535.008	2318.54
535.436	2321.57
535.865	2332.93
536.293	2352.59
536.721	2374.69
537.149	2407.91
537.576	2412.2
538.004	2429.7
538.432	2440.91
538.86	2439.42
539.287	2449.42
539.715	2469.02
540.143	2474.73
540.57	2471.46
540.998	2467.8
541.425	2437.79
541.852	2411.16
542.28	2409.86
542.707	2389.14
543.134	2371.94
543.561	2366.1
543.988	2356.69
544.415	2356.97
544.842	2350
545.269	2340.61
545.696	2342.69
546.123	2360.19
546.549	2347.17
546.976	2331.22
547.403	2331.25
547.829	2333.47
548.256	2336.48
548.682	2332.17
549.108	2322.11
549.535	2321.87
549.961	2326.06
550.387	2308.89
550.813	2300.61
551.24	2307.78
551.666	2308.6
552.092	2295.49
552.518	2286.69
552.943	2278.05
553.369	2288.03
553.795	2295.03
554.221	2295.64
554.646	2290.28
555.072	2304.13
555.498	2311.41
555.923	2324.5
556.349	2343.1
556.774	2354.55
557.199	2356.89
557.625	2365.4
558.05	2356.13
558.475	2369.92
558.9	2367.96
559.325	2356.38
559.75	2347.86
560.175	2338.79
560.6	2329.48
561.025	2325.79
561.449	2326.83
561.874	2333.93
562.299	2339.19
562.723	2349.15
563.148	2335.78
563.572	2340.92
563.997	2354.45
564.421	2361.78
564.846	2362.66
565.27	2367.49
565.694	2364.29
566.118	2378.65
566.542	2387.06
566.966	2378.63
567.39	2372.69
567.814	2359.24
568.238	2359.16
568.662	2365.93
569.086	2369.69
569.509	2378.98
569.933	2359.37
570.357	2349.72
570.78	2322.12
571.204	2304.95
571.627	2291.77
572.05	2288.65
572.474	2286.8
572.897	2269.22
573.32	2257.53
573.743	2242.83
574.166	2218.45
574.589	2217.77
575.012	2207.35
575.435	2205.87
575.858	2193.7
576.281	2177.64
576.704	2156.38
577.126	2141.33
577.549	2126.41
577.972	2114.35
578.394	2101.08
578.817	2090.95
579.239	2066.64
579.661	2049.34
580.084	2027.19
580.506	2009.37
580.928	2004.53
581.35	1990.75
581.772	1983.32
582.194	1966.77
582.616	1948.79
583.038	1930.29
583.46	1916.57
583.882	1912.03
584.303	1918.42
584.725	1914.07
585.147	1914.92
585.568	1927.34
585.99	1942.32
586.411	1949.53
586.833	1967.53
587.254	1970.65
587.675	1987.7
588.096	2003.72
588.518	1995.47
588.939	1971.77
589.36	1967.81
589.781	1955.45
590.202	1918.6
590.623	1905.98
591.043	1903.42
591.464	1885.49
591.885	1879.3
592.305	1871.25
592.726	1852.97
593.147	1853.95
593.567	1846.96
593.987	1837.44
594.408	1829.9
594.828	1827.18
595.248	1818.46
595.669	1794.25
596.089	1786.32
596.509	1778.14
596.929	1761.01
597.349	1761.64
597.769	1748.46
598.189	1740.89
598.608	1742.54
599.028	1745.17
599.448	1744.19
599.867	1728.56
600.287	1722.49
600.706	1716.13
601.126	1703.01
601.545	1700.17
601.965	1697.77
602.384	1691.99
602.803	1694.82
603.222	1687.78
603.641	1679.05
604.061	1674.58
604.48	1670.32
604.898	1680.58
605.317	1686.48
605.736	1687.5
606.155	1684.09
606.574	1672.51
606.992	1677.61
607.411	1669.88
607.829	1658.75
608.248	1653.49
608.666	1650.6
609.085	1648.58
609.503	1636.87
609.921	1627.9
610.339	1630.77
610.758	1629.55
611.176	1622.95
611.594	1611.6
612.012	1607.17
612.43	1610.56
612.847	1616.98
613.265	1617.04
613.683	1621.47
614.101	1622.89
614.518	1618.31
614.936	1605.44
615.353	1586.61
615.771	1582.19
616.188	1581.1
616.606	1576.99
617.023	1568.22
617.44	1550.05
617.857	1541.09
618.274	1530.15
618.691	1521.51
619.108	1508.93
619.525	1500.61
619.942	1507.85
620.359	1510.39
620.776	1504.22
621.192	1497.1
621.609	1492.93
622.026	1501.7
622.442	1506.67
622.859	1510.96
623.275	1502.67
623.691	1508.73
624.108	1521.62
624.524	1538.59
624.94	1539.23
625.356	1551.14
625.772	1567.95
626.188	1583.18
626.604	1585.13
627.02	1580.64
627.436	1576.55
627.852	1584.3
628.268	1599.62
628.683	1589.77
629.099	1579.43
629.514	1572.85
629.93	1576.32
630.345	1581.86
630.761	1576.86
631.176	1581.13
631.591	1573.25
632.007	1565.23
632.422	1560.94
632.837	1545.78
633.252	1540.6
633.667	1526.36
634.082	1513.15
634.497	1495.93
634.911	1469.56
635.326	1462.81
635.741	1439.04
636.155	1424.55
636.57	1423.23
636.984	1419.25
637.399	1417.71
637.813	1414.65
638.228	1409.34
638.642	1409.27
639.056	1393.96
639.47	1390.64
639.884	1375.63
640.298	1362.69
640.712	1355.99
641.126	1335.64
641.54	1321.32
641.954	1309.22
642.368	1289.8
642.781	1276.28
643.195	1252.14
643.609	1246.79
644.022	1234.56
644.436	1224.55
644.849	1207.28
645.262	1190.31
645.676	1187.9
646.089	1178.32
646.502	1159.31
646.915	1148.53
647.328	1125.32
647.741	1119.21
648.154	1101.65
648.567	1095.2
648.98	1077.82
649.393	1075.53
649.805	1068.42
650.218	1058.26
650.631	1039.76
651.043	1030.15
651.456	1022.66
651.868	1021.56
652.28	1037.25
652.693	1049.17
653.105	1053.67
653.517	1062.83
653.929	1060.91
654.341	1065.77
654.753	1051.64
655.165	1056.07
655.577	1051.74
655.989	1045.5
656.401	1036.06
656.813	997.09
657.224	973.62
657.636	941.91
658.047	919.71
658.459	897.26
658.87	884.98
659.282	869.6
659.693	845.5
660.104	828.63
660.515	811.79
660.926	807.01
661.338	801.24
661.749	792.35
662.159	779.85
662.57	773.03
662.981	765.56
663.392	754.51
663.803	754.77
664.213	749.13
664.624	740.21
665.035	738.93
665.445	721.77
665.855	712.05
666.266	701.41
666.676	696.87
667.086	684.76
667.497	680.82
667.907	672.47
668.317	662.23
668.727	657.4
669.137	656.08
669.547	652.49
669.956	653.32
670.366	653.08
670.776	654.2
671.186	656.87
671.595	659.48
672.005	662.17
672.414	662.07
672.824	660.79
673.233	663.88
673.642	665.63
674.052	668.13
674.461	670.87
674.87	676.21
675.279	673.65
675.688	674.81
676.097	677.41
676.506	675.16
676.915	688.09
677.323	691.5
677.732	691.75
678.141	694.33
678.549	687.55
678.958	688.76
679.366	689.5
679.775	696.71
680.183	709.39
680.592	717.94
681	728.14
681.408	727.03
681.816	739.67
682.224	752.88
682.632	767.53
683.04	801.54
683.448	830.43
683.856	867.52
684.264	909.98
684.671	951.53
685.079	1002.57
685.487	1057.16
685.894	1131.76
686.302	1196.61
686.709	1253.89
687.116	1321.93
687.524	1379.22
687.931	1434.29
688.338	1483.24
688.745	1528.31
689.152	1576.86
689.559	1638.04
689.966	1698.97
690.373	1736.44
690.78	1795.93
691.187	1883.06
691.593	1949.98
692	2009.9
692.407	2093.89
692.813	2195.71
693.22	2278.14
693.626	2363.63
694.032	2431.93
694.439	2533.1
694.845	2613.86
695.251	2713.23
695.657	2801.58
696.063	2932.86
696.469	3032.54
