Data from N_2_DEC_CT_2N_Splice17_12-28-34-315.txt Node
Date: Sat Mar 14 12:28:34 EDT 2020
User: sa697716
Spectrometer: FLMS03696
Trigger mode: 0
Integration Time (sec): 3.180400E-1
Scans to average: 20
Electric dark correction enabled: true
Nonlinearity correction enabled: true
Boxcar width: 5
XAxis mode: Wavelengths
Number of Pixels in Spectrum: 2048
>>>>>Begin Spectral Data<<<<<
187.83	-324157.37
188.298	2209.57
188.766	1211.96
189.233	1108.72
189.701	1536.79
190.169	2080.05
190.636	761.4
191.104	628.44
191.571	137.16
192.039	-48.51
192.506	-81.23
192.974	437.66
193.441	-903.67
193.908	-287.87
194.375	-55.11
194.842	-8.74
195.31	4.82
195.777	84.11
196.244	314.8
196.711	463.87
197.177	608.34
197.644	878.07
198.111	1537.06
198.578	2172.87
199.045	1755.18
199.511	2879.12
199.978	3377.25
200.445	2873.58
200.911	3206.11
201.378	3615.77
201.844	3299.32
202.31	5673.67
202.777	5911.41
203.243	3295.69
203.709	3151.32
204.176	3758.66
204.642	3088.51
205.108	2888.93
205.574	2359.68
206.04	2177.93
206.506	2023.79
206.972	1902
207.438	1827.37
207.903	2091.46
208.369	1832.54
208.835	1812.23
209.301	1901.4
209.766	1956.36
210.232	1954.5
210.697	2451.85
211.163	3038.92
211.628	4667.26
212.094	3996.85
212.559	4943.19
213.024	3093.77
213.49	3810.13
213.955	3788.83
214.42	3766.26
214.885	3543.34
215.35	3422.32
215.815	3315.27
216.28	3566.9
216.745	2954.69
217.21	3231.07
217.675	3078
218.14	3596.03
218.604	4171.07
219.069	4893.97
219.534	5275.09
219.998	6326.57
220.463	7861.79
220.927	9971.76
221.392	9583.64
221.856	9853.71
222.32	12653.55
222.785	15767.78
223.249	20003.05
223.713	22470.38
224.177	22644.87
224.642	29306.19
225.106	36254.73
225.57	39821.62
226.034	29637.82
226.497	45209.06
226.961	40848.99
227.425	47666.36
227.889	53145.58
228.353	53356.22
228.816	110580.61
229.28	105992.37
229.744	89499.81
230.207	54411.06
230.671	53632.49
231.134	89120.1
231.597	102849.75
232.061	103174.31
232.524	100898.56
232.987	69602.75
233.45	62688.53
233.914	56295.85
234.377	57901.3
234.84	53073.48
235.303	62697.21
235.766	69996.38
236.229	72336.12
236.691	45637.77
237.154	51318.38
237.617	38612.16
238.08	39544.32
238.542	46302.09
239.005	33103.5
239.468	32815.92
239.93	30950.12
240.393	28163.8
240.855	24759.77
241.317	25414.63
241.78	30960.95
242.242	32037.27
242.704	34585.08
243.166	30113.21
243.629	27310.84
244.091	31486.86
244.553	34536.62
245.015	37128.24
245.477	48054.49
245.939	70546.13
246.4	74883.68
246.862	72859.97
247.324	68775.99
247.786	77140.98
248.247	101384.8
248.709	105057.3
249.17	78668.09
249.632	74167.93
250.093	86042.12
250.555	74467.51
251.016	45439.34
251.477	43166.2
251.939	46653.56
252.4	49031.74
252.861	58393.23
253.322	54338.64
253.783	64818.66
254.244	84297.66
254.705	66652.26
255.166	59450.11
255.627	58595.36
256.088	82761.29
256.549	88041.16
257.009	75963.43
257.47	92340.81
257.931	75265.8
258.391	56507.52
258.852	58310.23
259.312	61222.41
259.773	75715.66
260.233	63953.22
260.694	53956.53
261.154	61312.05
261.614	49209.87
262.074	44097.69
262.534	45870.76
262.994	43304.96
263.455	57804.12
263.915	48753.4
264.374	45982.44
264.834	50270.61
265.294	55855.9
265.754	57946.11
266.214	54919.12
266.673	51543.37
267.133	65108.83
267.593	64688.88
268.052	79208.65
268.512	68946.61
268.971	83107.49
269.431	91146.86
269.89	81694
270.349	122499.67
270.809	136590.2
271.268	122846.88
271.727	275870.78
272.186	178728.57
272.645	134054.91
273.104	96802.59
273.563	140182.6
274.022	110501.2
274.481	94064.39
274.94	72451.2
275.399	53910.66
275.857	62875.17
276.316	85099.38
276.775	75753.27
277.233	74639.85
277.692	69848.07
278.15	78984.73
278.609	81240.7
279.067	75154.09
279.525	69769.52
279.984	90151.2
280.442	108277.47
280.9	106612.65
281.358	70130.16
281.816	65321.64
282.274	63944.18
282.732	66095.74
283.19	66496.86
283.648	57432.77
284.106	61190.28
284.564	62286.59
285.021	57737.54
285.479	43042.37
285.937	39217.44
286.394	34387.03
286.852	35389.67
287.309	37190.27
287.767	35889.03
288.224	34100.62
288.682	37410.44
289.139	41053.45
289.596	37536.19
290.053	39048.62
290.511	49337.36
290.968	59844.67
291.425	81373.03
291.882	67780.51
292.339	59047.04
292.796	58704.09
293.252	55415.15
293.709	43994.69
294.166	39453.46
294.623	43664.6
295.079	41940.25
295.536	42130.92
295.992	38264.94
296.449	37844
296.905	39325.35
297.362	37715.21
297.818	39737.68
298.274	41200
298.731	42089.77
299.187	41711.95
299.643	44844.36
300.099	54308.01
300.555	59603.98
301.011	49881.17
301.467	48033.84
301.923	56364.22
302.379	55071.96
302.835	54107
303.291	54212.51
303.746	61740.54
304.202	78027.67
304.658	78390.42
305.113	52755.44
305.569	51746.37
306.024	55212.66
306.479	52719.1
306.935	44449.76
307.39	48640.62
307.845	44960.69
308.301	45257.98
308.756	44130.81
309.211	42526.3
309.666	43575.15
310.121	54035.59
310.576	54874.71
311.031	54422.33
311.486	62326.08
311.94	62276.98
312.395	83214.71
312.85	156136.72
313.305	767786.21
313.759	3962397.8
314.214	286805.72
314.668	227082.68
315.123	190784.69
315.577	68325.21
316.032	60743.88
316.486	76097.05
316.94	59944.45
317.394	41705.58
317.849	32442.67
318.303	30745.1
318.757	29045.04
319.211	32137.74
319.665	28171.01
320.119	28535.39
320.572	40986
321.026	38283.07
321.48	31876.8
321.934	34822.54
322.387	34913.37
322.841	37677.93
323.295	33787.42
323.748	38973.58
324.202	39565.8
324.655	47458.2
325.108	66275.97
325.562	46770.38
326.015	55624.83
326.468	42040.61
326.921	46958.63
327.374	43758.77
327.827	45576.17
328.28	51651.41
328.733	34573.63
329.186	30396.1
329.639	28986.74
330.092	24428.13
330.545	23241.99
330.997	23423.35
331.45	25547.59
331.903	29904.49
332.355	51502.26
332.808	50022.4
333.26	41275.49
333.713	44749.31
334.165	45021.11
334.617	60060.34
335.069	48542.3
335.522	87793.72
335.974	97071.55
336.426	88654.74
336.878	61487.76
337.33	31122.52
337.782	30355.94
338.234	37903.55
338.686	45368.2
339.137	53748.15
339.589	50608.65
340.041	39634.45
340.493	34070.85
340.944	34898.18
341.396	37612.71
341.847	31570.32
342.299	37210.93
342.75	45410.9
343.201	39751.37
343.653	45758.6
344.104	56257.26
344.555	44291.34
345.006	69022.42
345.457	52764.69
345.908	42011.62
346.359	39515.96
346.81	32209.98
347.261	33997.5
347.712	33490.28
348.163	35906.92
348.613	36273.15
349.064	33858.14
349.515	29648.78
349.965	30396.46
350.416	36647.81
350.866	40221.73
351.317	45532.99
351.767	75428.5
352.217	95351.01
352.668	79194.51
353.118	72580.15
353.568	70175.48
354.018	55461.41
354.468	58450.49
354.918	41864.95
355.368	36632.63
355.818	51714.68
356.268	148784.99
356.718	621522.78
357.168	154476.12
357.617	77512.26
358.067	86202.64
358.517	80616.64
358.966	94390.12
359.416	105547.46
359.865	114210.9
360.315	136058.08
360.764	63450.16
361.213	35501.68
361.663	33704.52
362.112	41625.11
362.561	67218.21
363.01	50675.37
363.459	42700.04
363.908	46243.1
364.357	39298.39
364.806	66406.49
365.255	45606.65
365.703	41756.39
366.152	41814.4
366.601	33893.26
367.05	27459.56
367.498	24946.41
367.947	26069.12
368.395	27086.78
368.844	23977.63
369.292	28946.46
369.74	19995.34
370.189	30654.54
370.637	35918.38
371.085	30980.81
371.533	37743.92
371.981	36436.39
372.429	34681.2
372.877	36144.05
373.325	30284.25
373.773	30896.82
374.221	27557.54
374.669	34173.43
375.116	29568.04
375.564	29848.92
376.012	33447.91
376.459	27560.82
376.907	32948.54
377.354	39898.93
377.801	37194.02
378.249	42697.03
378.696	54619.85
379.143	66140.96
379.591	70630.96
380.038	119415.81
380.485	86251.11
380.932	93137.18
381.379	85187
381.826	62713.03
382.273	44663.88
382.72	39180.16
383.166	38256.62
383.613	24827.27
384.06	22387.74
384.506	25908.45
384.953	19069.14
385.4	19262.27
385.846	16908.07
386.292	16537.91
386.739	16232.89
387.185	16077.93
387.631	16100.83
388.078	15624.02
388.524	16742.95
388.97	15507.43
389.416	12955.54
389.862	13800.26
390.308	13097.25
390.754	13309.39
391.2	14472.17
391.645	14849.14
392.091	14192.17
392.537	13721.02
392.983	13800.5
393.428	13560.67
393.874	14558.29
394.319	14635.48
394.765	13877.67
395.21	14293.84
395.655	13442.67
396.101	12620.37
396.546	11412.67
396.991	11573.13
397.436	10780.29
397.881	10448.76
398.326	9953.44
398.771	9423.88
399.216	8260.8
399.661	7468.48
400.106	7450.89
400.551	7629.46
400.995	6849.47
401.44	6786.06
401.885	6384.88
402.329	6464.74
402.774	6202.44
403.218	5994.23
403.663	5788.36
404.107	5961.58
404.551	6010.08
404.995	5524.56
405.44	5344.06
405.884	5440.23
406.328	5284.47
406.772	5283.34
407.216	4816.38
407.66	4663.43
408.104	4451.5
408.547	4181.78
408.991	4054.51
409.435	3912.38
409.879	3862.41
410.322	3816.47
410.766	3689.94
411.209	3506.59
411.653	3370.52
412.096	3306.73
412.54	3319.51
412.983	3300.01
413.426	3305.85
413.869	3311.03
414.312	3250.29
414.756	3137.04
415.199	2995.19
415.642	2908.41
416.085	2916.62
416.527	2896.87
416.97	2943.71
417.413	2790.35
417.856	2766.38
418.298	2740.35
418.741	2724.44
419.184	2724.94
419.626	2844.95
420.069	2850.64
420.511	2865.75
420.953	2802.29
421.396	2780.42
421.838	2712.79
422.28	2775.68
422.722	2787.17
423.164	2831.41
423.606	2783.2
424.048	2780.04
424.49	2640.83
424.932	2628.8
425.374	2598.51
425.816	2649.95
426.258	2702.36
426.699	2738.7
427.141	2699.83
427.582	2748.58
428.024	2741.8
428.465	2730.86
428.907	2665.04
429.348	2637
429.789	2635.24
430.231	2579.36
430.672	2615.72
431.113	2553.75
431.554	2517.13
431.995	2457.56
432.436	2364.58
432.877	2307.67
433.318	2264.58
433.759	2256.9
434.2	2256.88
434.64	2232.76
435.081	2239.6
435.522	2118.82
435.962	2043.42
436.403	1996.96
436.843	2027.56
437.284	1987.42
437.724	1937.73
438.164	1949.58
438.604	1910.12
439.045	1836.58
439.485	1759.98
439.925	1724.87
440.365	1685.42
440.805	1666.46
441.245	1646.68
441.685	1586.53
442.125	1581.32
442.564	1596.45
443.004	1563
443.444	1561.56
443.883	1568.61
444.323	1566.22
444.762	1579.92
445.202	1608.32
445.641	1638.87
446.081	1640.63
446.52	1659.8
446.959	1645.04
447.398	1606.7
447.837	1590.71
448.276	1566.9
448.716	1585.59
449.154	1606.97
449.593	1570.69
450.032	1568.37
450.471	1545.64
450.91	1549
451.349	1547.39
451.787	1548.57
452.226	1576.95
452.664	1581.9
453.103	1588.7
453.541	1593.29
453.98	1588.77
454.418	1601.67
454.856	1576.38
455.295	1577.17
455.733	1591.06
456.171	1603.32
456.609	1605.19
457.047	1608.02
457.485	1629.76
457.923	1633.33
458.361	1611.98
458.798	1619.79
459.236	1617.41
459.674	1634.45
460.111	1643.07
460.549	1626.54
460.987	1624.07
461.424	1620.81
461.862	1613.4
462.299	1590.9
462.736	1586.74
463.173	1593.69
463.611	1571.48
464.048	1566.04
464.485	1576.08
464.922	1562.25
465.359	1556.31
465.796	1521.61
466.233	1507.2
466.67	1487.17
467.106	1480.49
467.543	1467.96
467.98	1449.54
468.416	1415.99
468.853	1406.86
469.29	1367.08
469.726	1352.52
470.162	1318.01
470.599	1312.99
471.035	1305.06
471.471	1277.06
471.907	1274.1
472.344	1267.99
472.78	1269.54
473.216	1289.17
473.652	1275.1
474.088	1272.11
474.523	1267.78
474.959	1280.1
475.395	1268.76
475.831	1259.37
476.266	1267.29
476.702	1265.03
477.138	1251.12
477.573	1248.31
478.008	1242.52
478.444	1247.53
478.879	1257.35
479.314	1262.75
479.75	1261.31
480.185	1268.23
480.62	1281.47
481.055	1289.24
481.49	1297.54
481.925	1317.32
482.36	1338.06
482.795	1378.03
483.229	1416.65
483.664	1449.45
484.099	1457.8
484.534	1481.01
484.968	1495.76
485.403	1502.61
485.837	1504.74
486.271	1505.26
486.706	1507.35
487.14	1494.64
487.574	1469.92
488.009	1458.01
488.443	1445.36
488.877	1459.2
489.311	1465.79
489.745	1483.8
490.179	1495.82
490.613	1518.93
491.046	1530.42
491.48	1541.14
491.914	1542.36
492.348	1553.41
492.781	1561.66
493.215	1564.81
493.648	1567.45
494.082	1578.16
494.515	1576.49
494.948	1592.26
495.382	1604.85
495.815	1611.85
496.248	1623.31
496.681	1649.91
497.114	1674.52
497.547	1694.18
497.98	1718.93
498.413	1728.05
498.846	1744.88
499.279	1760.98
499.711	1767.72
500.144	1767.73
500.577	1786.1
501.009	1805.16
501.442	1819.25
501.874	1814.41
502.306	1812.73
502.739	1819.74
503.171	1844.96
503.603	1844.91
504.036	1858.1
504.468	1861.3
504.9	1877.62
505.332	1883.44
505.764	1882.03
506.196	1888.27
506.627	1908.9
507.059	1925.91
507.491	1936.75
507.923	1921.9
508.354	1939.84
508.786	1948.67
509.217	1971.79
509.649	1987.01
510.08	2012.15
510.512	2032.35
510.943	2047.83
511.374	2055.94
511.805	2080.27
512.237	2102.52
512.668	2149.07
513.099	2186.43
513.53	2222.26
513.961	2243.89
514.391	2286.63
514.822	2327.18
515.253	2373.19
515.684	2400.86
516.114	2435.54
516.545	2454.43
516.975	2482.81
517.406	2496.07
517.836	2483.14
518.267	2476.07
518.697	2489.53
519.127	2480.56
519.558	2477.36
519.988	2466.87
520.418	2468.7
520.848	2482.47
521.278	2482.4
521.708	2470.82
522.138	2477.56
522.567	2513.53
522.997	2539.97
523.427	2551.87
523.857	2564.17
524.286	2567.91
524.716	2579.98
525.145	2597.67
525.575	2602.43
526.004	2612.92
526.433	2612
526.863	2601.17
527.292	2574.27
527.721	2572.15
528.15	2570.9
528.579	2563.17
529.008	2570.44
529.437	2597.43
529.866	2609.57
530.295	2627.79
530.724	2639.28
531.152	2673.57
531.581	2687.97
532.01	2708.61
532.438	2716.49
532.867	2732.85
533.295	2754.23
533.723	2759.84
534.152	2753.23
534.58	2748.49
535.008	2721.91
535.436	2721.55
535.865	2728.78
536.293	2748.12
536.721	2768.9
537.149	2803.09
537.576	2804.4
538.004	2822.87
538.432	2833.47
538.86	2827
539.287	2835.98
539.715	2854.07
540.143	2856.97
540.57	2849.28
540.998	2840.57
541.425	2804.89
541.852	2772.26
542.28	2768.15
542.707	2741.02
543.134	2717.27
543.561	2709.37
543.988	2696.56
544.415	2694.99
544.842	2685.17
545.269	2674.34
545.696	2676.47
546.123	2693.74
546.549	2677.97
546.976	2657.18
547.403	2656.49
547.829	2658.84
548.256	2662.07
548.682	2656.3
549.108	2642.34
549.535	2641.19
549.961	2644.19
550.387	2624.15
550.813	2614.78
551.24	2624.08
551.666	2626.44
552.092	2612.35
552.518	2602.59
552.943	2593.45
553.369	2604.27
553.795	2615.5
554.221	2617.82
554.646	2613.53
555.072	2631.27
555.498	2641.87
555.923	2657.45
556.349	2682.98
556.774	2697.66
557.199	2702.96
557.625	2716.17
558.05	2712.39
558.475	2730.86
558.9	2732.57
559.325	2724.73
559.75	2719.82
560.175	2714.32
560.6	2708.7
561.025	2710.1
561.449	2716.77
561.874	2729.87
562.299	2740.47
562.723	2756.39
563.148	2745.45
563.572	2758.77
563.997	2780.74
564.421	2795.74
564.846	2803.33
565.27	2815.88
565.694	2819.79
566.118	2846.02
566.542	2864.74
566.966	2862.89
567.39	2863.42
567.814	2856.05
568.238	2863.63
568.662	2880.23
569.086	2891.83
569.509	2912.13
569.933	2895.54
570.357	2893.06
570.78	2867.48
571.204	2855.5
571.627	2847.5
572.05	2852.72
572.474	2860.49
572.897	2849.2
573.32	2845.4
573.743	2839.17
574.166	2817.52
574.589	2827.6
575.012	2821.95
575.435	2828.34
575.858	2822.4
576.281	2810.35
576.704	2792.54
577.126	2779.69
577.549	2767.12
577.972	2756.59
578.394	2745.23
578.817	2737.05
579.239	2711.3
579.661	2694
580.084	2672.89
580.506	2654.53
580.928	2655.66
581.35	2641.52
581.772	2639.52
582.194	2622.65
582.616	2605.72
583.038	2584.95
583.46	2574.48
583.882	2574.23
584.303	2587.58
584.725	2585.86
585.147	2592.94
585.568	2614.68
585.99	2640.5
586.411	2655.92
586.833	2685.1
587.254	2692.22
587.675	2723.22
588.096	2750.51
588.518	2744.44
588.939	2719.68
589.36	2719.07
589.781	2708.63
590.202	2660.36
590.623	2649.18
591.043	2650.41
591.464	2631.53
591.885	2628.49
592.305	2621.68
592.726	2600
593.147	2607.94
593.567	2601.18
593.987	2591.6
594.408	2583.86
594.828	2587.48
595.248	2578.87
595.669	2547.44
596.089	2537.93
596.509	2529.33
596.929	2507.62
597.349	2510.91
597.769	2495.28
598.189	2486.83
598.608	2492.08
599.028	2498.52
599.448	2501.24
599.867	2482.22
600.287	2477.82
600.706	2472.29
601.126	2457.38
601.545	2457.08
601.965	2458.7
602.384	2451.67
602.803	2460.16
603.222	2453.94
603.641	2445.61
604.061	2440.97
604.48	2436.66
604.898	2454.69
605.317	2469.15
605.736	2477.01
606.155	2475.84
606.574	2463.36
606.992	2476.86
607.411	2471.59
607.829	2461.2
608.248	2459.55
608.666	2459.84
609.085	2463.76
609.503	2451.79
609.921	2443.88
610.339	2452.3
610.758	2455.61
611.176	2450.14
611.594	2437.34
612.012	2436.87
612.43	2447.74
612.847	2463.89
613.265	2469.69
613.683	2483.02
614.101	2490.81
614.518	2489.25
614.936	2475.16
615.353	2454.17
615.771	2454.34
616.188	2460.63
616.606	2457.14
617.023	2449.38
617.44	2427.43
617.857	2420.82
618.274	2407.33
618.691	2400.49
619.108	2386.75
619.525	2380.68
619.942	2396.96
620.359	2404.91
620.776	2397.26
621.192	2393.26
621.609	2391.29
622.026	2407.26
622.442	2419.71
622.859	2431.26
623.275	2419.66
623.691	2431.58
624.108	2454.58
624.524	2484.1
624.94	2487.06
625.356	2509.75
625.772	2538.17
626.188	2564.28
626.604	2566.96
627.02	2561.06
627.436	2557.45
627.852	2570.66
628.268	2596.45
628.683	2579.51
629.099	2563.36
629.514	2555.04
629.93	2563.98
630.345	2572.7
630.761	2565.53
631.176	2575.53
631.591	2563.67
632.007	2553.26
632.422	2554.01
632.837	2535.45
633.252	2533.21
633.667	2516.81
634.082	2503.32
634.497	2480.38
634.911	2445.58
635.326	2443.96
635.741	2415.41
636.155	2404.15
636.57	2413.82
636.984	2419.49
637.399	2428.02
637.813	2437.08
638.228	2444.04
638.642	2461.63
639.056	2451.54
639.47	2461.32
639.884	2452.35
640.298	2449.09
640.712	2456.19
641.126	2440.03
641.54	2433.01
641.954	2435.02
642.368	2419.46
642.781	2408.76
643.195	2379.47
643.609	2388.48
644.022	2386.37
644.436	2387.6
644.849	2371.77
645.262	2356.35
645.676	2369.36
646.089	2365.19
646.502	2337.2
646.915	2332.65
647.328	2304.65
647.741	2307.37
648.154	2284.21
648.567	2279.05
648.98	2253.3
649.393	2257.91
649.805	2252
650.218	2237.41
650.631	2205.17
651.043	2194.58
651.456	2182.7
651.868	2186.32
652.28	2228.38
652.693	2261.93
653.105	2281.58
653.517	2307.41
653.929	2310.69
654.341	2326.35
654.753	2301.14
655.165	2319.34
655.577	2317.21
655.989	2311.82
656.401	2299.44
656.813	2216.91
657.224	2174.05
657.636	2114.7
658.047	2075.04
658.459	2034.93
658.87	2019.25
659.282	1998.4
659.693	1953.35
660.104	1923.75
660.515	1896.91
660.926	1897.45
661.338	1897.4
661.749	1890.14
662.159	1871.9
662.57	1866.75
662.981	1859.14
663.392	1844.59
663.803	1854.61
664.213	1852.56
664.624	1844.68
665.035	1851.96
665.445	1821.11
665.855	1803.29
666.266	1782.78
666.676	1776.97
667.086	1756.26
667.497	1752.94
667.907	1737.57
668.317	1716.99
668.727	1703.42
669.137	1704.42
669.547	1696.92
669.956	1701.75
670.366	1703.78
670.776	1704
671.186	1711.69
671.595	1718.05
672.005	1724.73
672.414	1718.66
672.824	1710.77
673.233	1722.63
673.642	1723.93
674.052	1727.55
674.461	1725.32
674.87	1733.89
675.279	1724.1
675.688	1725.46
676.097	1720.96
676.506	1709.91
676.915	1740.93
677.323	1745.02
677.732	1738.37
678.141	1734.65
678.549	1708.62
678.958	1706.82
679.366	1702.91
679.775	1714.43
680.183	1730.42
680.592	1743.95
681	1754.61
681.408	1736.92
681.816	1751.37
682.224	1769.68
682.632	1788.86
683.04	1852.23
683.448	1903.68
683.856	1965.88
684.264	2038.81
684.671	2108.69
685.079	2190.75
685.487	2279.53
685.894	2404.41
686.302	2503.51
686.709	2575.9
687.116	2662.98
687.524	2725.19
687.931	2770.97
688.338	2804.66
688.745	2826.47
689.152	2852.9
689.559	2898.14
689.966	2937.63
