Data from N_2_DEC_OH_4N_Splice17_12-03-44-328.txt Node
Date: Sat Mar 14 12:03:44 EDT 2020
User: sa697716
Spectrometer: FLMS03696
Trigger mode: 0
Integration Time (sec): 3.180400E-1
Scans to average: 20
Electric dark correction enabled: true
Nonlinearity correction enabled: true
Boxcar width: 5
XAxis mode: Wavelengths
Number of Pixels in Spectrum: 2048
>>>>>Begin Spectral Data<<<<<
187.83	-263916.31
188.298	1913.41
188.766	1065.29
189.233	887.24
189.701	1307.27
190.169	1902.83
190.636	737.55
191.104	631.38
191.571	86.99
192.039	-60.43
192.506	-87.87
192.974	245.93
193.441	-523.68
193.908	52.38
194.375	-40.36
194.842	39.72
195.31	159.75
195.777	217.68
196.244	392.1
196.711	419.76
197.177	513.3
197.644	716.66
198.111	1233.76
198.578	1742.94
199.045	1381.97
199.511	2257.59
199.978	2620.6
200.445	2212.69
200.911	2427.9
201.378	2731.13
201.844	2491.45
202.31	4182.04
202.777	4334.41
203.243	2423.56
203.709	2304.36
204.176	2741.04
204.642	2280.35
205.108	2113.76
205.574	1733.21
206.04	1550.75
206.506	1449.26
206.972	1359.31
207.438	1321.17
207.903	1521.18
208.369	1330.72
208.835	1323.99
209.301	1396.07
209.766	1402.22
210.232	1391.37
210.697	1711.02
211.163	2135.66
211.628	3174.57
212.094	2657.58
212.559	3256.5
213.024	1999.68
213.49	2413.7
213.955	2336.64
214.42	2255.48
214.885	2103.04
215.35	2002.98
215.815	1943.36
216.28	2036.83
216.745	1659.68
217.21	1762.79
217.675	1573.67
218.14	1733.76
218.604	1875.52
219.069	2098.96
219.534	2160.18
219.998	2436.36
220.463	2890.32
220.927	3439.58
221.392	3185.48
221.856	3163.68
222.32	3903.54
222.785	4770.64
223.249	5943.16
223.713	6573.92
224.177	6519.24
224.642	8242.01
225.106	10062.08
225.57	10937.89
226.034	8116.6
226.497	12320.59
226.961	11112.71
227.425	12913.28
227.889	14239.05
228.353	14142.34
228.816	29023.37
229.28	27567.02
229.744	23150.83
230.207	14111.99
230.671	13856.64
231.134	22704.09
231.597	26088.62
232.061	25978.88
232.524	25251.2
232.987	17353.72
233.45	15590.32
233.914	13982.37
234.377	14324.97
234.84	13096.7
235.303	15365.22
235.766	17069.52
236.229	17659.76
236.691	11091.89
237.154	12397.4
237.617	9342.55
238.08	9553.5
238.542	11186.14
239.005	7996.68
239.468	7933.8
239.93	7479.01
240.393	6799.36
240.855	5970.43
241.317	6098.93
241.78	7414.76
242.242	7697.03
242.704	8297.76
243.166	7218.27
243.629	6550.32
244.091	7537.24
244.553	8224.45
245.015	8839.42
245.477	11400.89
245.939	16660.42
246.4	17654.8
246.862	17070.05
247.324	16033.96
247.786	17913.07
248.247	23472.85
248.709	24131.94
249.17	18036.35
249.632	17041.85
250.093	19758.85
250.555	17050.95
251.016	10412.67
251.477	9892.57
251.939	10699.77
252.4	11233.48
252.861	13351.97
253.322	12430.01
253.783	14763.51
254.244	19105.73
254.705	15027.76
255.166	13300.48
255.627	13081.82
256.088	18494.65
256.549	19620.79
257.009	16857.16
257.47	20422.57
257.931	16608.27
258.391	12445.34
258.852	12836.09
259.312	13453.82
259.773	16585.45
260.233	14073.75
260.694	11887.63
261.154	13441.41
261.614	10812.5
262.074	9651
262.534	10013.84
262.994	9412.56
263.455	12481.29
263.915	10509.77
264.374	9880.49
264.834	10792.8
265.294	11918.02
265.754	12316.83
266.214	11647.47
266.673	10892.52
267.133	13740.72
267.593	13605.86
268.052	16633.45
268.512	14481.59
268.971	17506.61
269.431	19155.95
269.89	17142.59
270.349	25686.87
270.809	28636.17
271.268	25705.74
271.727	57503.6
272.186	37209.25
272.645	27909.53
273.104	20102.8
273.563	29054.36
274.022	22732.47
274.481	19381.17
274.94	14908.97
275.399	11063.38
275.857	12885.01
276.316	17414.61
276.775	15481.84
277.233	15266.71
277.692	14312.36
278.15	16219.5
278.609	16720.96
279.067	15506.71
279.525	14418.83
279.984	18606.97
280.442	22401.01
280.9	22109.81
281.358	14546.52
281.816	13587.38
282.274	13290.19
282.732	13719.53
283.19	13797.33
283.648	11909.68
284.106	12692.65
284.564	12918.89
285.021	12026.5
285.479	8957.83
285.937	8134.49
286.394	7170.19
286.852	7383.68
287.309	7774.91
287.767	7539.55
288.224	7189.47
288.682	7880.68
289.139	8658.23
289.596	7925.81
290.053	8238.07
290.511	10398.44
290.968	12619.67
291.425	17047.72
291.882	14221.27
292.339	12370.23
292.796	12237.85
293.252	11494.24
293.709	9165.81
294.166	8213.28
294.623	9074.9
295.079	8675.63
295.536	8715.79
295.992	7904.24
296.449	7826.61
296.905	8122.92
297.362	7809.53
297.818	8214.47
298.274	8533.25
298.731	8670.21
299.187	8571.6
299.643	9187.04
300.099	11130.66
300.555	12207.98
301.011	10202.09
301.467	9870.95
301.923	11522.21
302.379	11251.79
302.835	11039.63
303.291	11072.86
303.746	12603.37
304.202	15918.75
304.658	15977.45
305.113	10747.45
305.569	10548.14
306.024	11249.14
306.479	10645.84
306.935	8997.26
307.39	9809.09
307.845	9051.21
308.301	9097.69
308.756	8862.74
309.211	8554.2
309.666	8783.56
310.121	10949.36
310.576	11106.99
311.031	11038.57
311.486	12678.17
311.94	12663.55
312.395	16904.7
312.85	31860.01
313.305	156485.49
313.759	814934.06
314.214	59115.08
314.668	46859.51
315.123	39482.33
315.577	14179.89
316.032	12598.43
316.486	15808.71
316.94	12481.4
317.394	8736.72
317.849	6791.73
318.303	6419.76
318.757	6027.71
319.211	6653.83
319.665	5822.14
320.119	5877.48
320.572	8404.74
321.026	7884.39
321.48	6564.53
321.934	7131.92
322.387	7129.99
322.841	7709.84
323.295	6968.39
323.748	8009.5
324.202	8118.94
324.655	9735.52
325.108	13632.73
325.562	9641.09
326.015	11405.59
326.468	8621.04
326.921	9665.95
327.374	9025.49
327.827	9413.57
328.28	10663.27
328.733	7178.81
329.186	6327.91
329.639	6041.28
330.092	5090.96
330.545	4869.64
330.997	4943.01
331.45	5417.33
331.903	6380.08
332.355	10936.1
332.808	10619.27
333.26	8722.16
333.713	9473.05
334.165	9527.74
334.617	12737.54
335.069	10245.21
335.522	18446.19
335.974	20386.57
336.426	18609.24
336.878	12842.39
337.33	6539.31
337.782	6381.81
338.234	8045.27
338.686	9607.72
339.137	11430.11
339.589	10753.61
340.041	8460.49
340.493	7279.13
340.944	7465.45
341.396	8042.3
341.847	6769.64
342.299	8015
342.75	9814.6
343.201	8513.41
343.653	9786.86
344.104	11995.63
344.555	9460.3
345.006	14647.34
345.457	11275.93
345.908	8923.97
346.359	8422.91
346.81	6850.46
347.261	7188.01
347.712	7063.17
348.163	7578.92
348.613	7707.34
349.064	7215.45
349.515	6294.83
349.965	6500.26
350.416	7791.04
350.866	8537.24
351.317	9611.22
351.767	15971.35
352.217	20198.62
352.668	16804.35
353.118	15409.62
353.568	14839.22
354.018	11727.69
354.468	12416.69
354.918	8883.16
355.368	7778.95
355.818	11041.37
356.268	31700.8
356.718	133091.47
357.168	33220.41
357.617	16606.88
358.067	18481.02
358.517	17297.36
358.966	20324.93
359.416	22903.24
359.865	24725.09
360.315	29392.92
360.764	13679.82
361.213	7685.38
361.663	7231.86
362.112	8916.02
362.561	14448.84
363.01	10914.45
363.459	9166.03
363.908	9891.21
364.357	8422.38
364.806	14239.29
365.255	9804.81
365.703	9022.15
366.152	9055.68
366.601	7349.84
367.05	6000.05
367.498	5445.05
367.947	5693.34
368.395	5946.18
368.844	5295.98
369.292	6336.75
369.74	4387.11
370.189	6705.21
370.637	7832.25
371.085	6744.82
371.533	8228.94
371.981	7886.07
372.429	7556.69
372.877	7870.29
373.325	6581.39
373.773	6672.24
374.221	5958.72
374.669	7380.33
375.116	6388.37
375.564	6456.37
376.012	7250.4
376.459	6008.8
376.907	7194.54
377.354	8708.53
377.801	8158.43
378.249	9407.74
378.696	12067.63
379.143	14616.09
379.591	15612.46
380.038	26662.83
380.485	19336.59
380.932	20883.86
381.379	19199.97
381.826	14198.25
382.273	10080.32
382.72	8794.98
383.166	8599.34
383.613	5600.32
384.06	5039.1
384.506	5857.64
384.953	4292.36
385.4	4314.89
385.846	3779.16
386.292	3670.04
386.739	3595.62
387.185	3566.62
387.631	3569.1
388.078	3485.76
388.524	3726.99
388.97	3453.41
389.416	2889.28
389.862	3072.4
390.308	2927.61
390.754	2991.29
391.2	3249.24
391.645	3331.7
392.091	3218.73
392.537	3122.95
392.983	3119.55
393.428	3107.02
393.874	3337.34
394.319	3355.98
394.765	3207.92
395.21	3306.33
395.655	3100.08
396.101	2905.32
396.546	2620.75
396.991	2633.47
397.436	2460.75
397.881	2381.79
398.326	2245.63
398.771	2139.57
399.216	1872.44
399.661	1683.9
400.106	1682.82
400.551	1734.61
400.995	1559.11
401.44	1546.27
401.885	1453.74
402.329	1468.63
402.774	1412.72
403.218	1375.47
403.663	1326.36
404.107	1366.71
404.551	1378.45
404.995	1259.88
405.44	1205.42
405.884	1224.14
406.328	1181.79
406.772	1179
407.216	1073.09
407.66	1031.26
408.104	971.4
408.547	906.81
408.991	874.01
409.435	840.23
409.879	833.38
410.322	826.92
410.766	802.27
411.209	765.88
411.653	733.18
412.096	718.5
412.54	720.42
412.983	715.81
413.426	720.69
413.869	723.99
414.312	714.04
414.756	687.29
415.199	655.18
415.642	635.75
416.085	638.83
416.527	632.91
416.97	641.31
417.413	610.46
417.856	604.98
418.298	595.75
418.741	587.94
419.184	583.14
419.626	602.14
420.069	602.34
420.511	606.68
420.953	592.32
421.396	588.81
421.838	575.43
422.28	587.51
422.722	592.28
423.164	600.9
423.606	593.32
424.048	591.51
424.49	566.65
424.932	563.75
425.374	554.36
425.816	562.62
426.258	572.68
426.699	578.8
427.141	572.35
427.582	577.28
428.024	574.67
428.465	571.52
428.907	559.35
429.348	550.98
429.789	551.46
430.231	543.48
430.672	550.96
431.113	539.57
431.554	532.43
431.995	516.76
432.436	502.4
432.877	491.02
433.318	483.47
433.759	479.98
434.2	479.21
434.64	473.33
435.081	473.62
435.522	451.02
435.962	436.37
436.403	428.02
436.843	434.54
437.284	423.93
437.724	414.42
438.164	413.36
438.604	405.57
439.045	393.73
439.485	380.45
439.925	371.91
440.365	362.28
440.805	355.28
441.245	351.14
441.685	339.34
442.125	335.85
442.564	337.21
443.004	329.58
443.444	328.27
443.883	327.73
444.323	321.68
444.762	319.57
445.202	322.84
445.641	328.13
446.081	323.61
446.52	324.64
446.959	321.52
447.398	313.18
447.837	309.36
448.276	302.96
448.716	307.87
449.154	310
449.593	304.32
450.032	303.37
450.471	297.71
450.91	297.18
451.349	297.74
451.787	296.5
452.226	300.75
452.664	299.9
453.103	299.64
453.541	294.76
453.98	297.04
454.418	297.96
454.856	292.61
455.295	291.37
455.733	294.3
456.171	294.18
456.609	295.46
457.047	294.52
457.485	299.97
457.923	301.28
458.361	297.61
458.798	296.15
459.236	294.79
459.674	296.19
460.111	297.53
460.549	294.22
460.987	292.37
461.424	289.76
461.862	288.55
462.299	283.81
462.736	283.23
463.173	284.25
463.611	283.97
464.048	284.64
464.485	288.1
464.922	285.33
465.359	284.05
465.796	286.09
466.233	285.27
466.67	284.82
467.106	285.2
467.543	282.72
467.98	278.48
468.416	269.85
468.853	265.99
469.29	257.75
469.726	255.42
470.162	249.07
470.599	241.51
471.035	237.45
471.471	230.24
471.907	227.37
472.344	225.87
472.78	227.35
473.216	228.25
473.652	225.73
474.088	223.43
474.523	222.65
474.959	223.87
475.395	221.15
475.831	220.54
476.266	220.21
476.702	218.84
477.138	216.23
477.573	214.34
478.008	213.45
478.444	214.12
478.879	217.27
479.314	217.49
479.75	216.49
480.185	216.25
480.62	216.84
481.055	217.74
481.49	219.26
481.925	221.52
482.36	226.35
482.795	231.29
483.229	236.44
483.664	239.82
484.099	238.93
484.534	242.3
484.968	245.37
485.403	245.15
485.837	244.14
486.271	243.37
486.706	242.68
487.14	238.08
487.574	234.43
488.009	232.09
488.443	229.69
488.877	233.46
489.311	233.86
489.745	236.29
490.179	239
490.613	244.56
491.046	246.04
491.48	248.1
491.914	248.76
492.348	250.4
492.781	251.86
493.215	252.46
493.648	252.03
494.082	254.07
494.515	254.12
494.948	257.47
495.382	257.77
495.815	259.22
496.248	261.58
496.681	266.42
497.114	270.72
497.547	275.07
497.98	281.12
498.413	284.58
498.846	288.39
499.279	291.59
499.711	292.9
500.144	294.52
500.577	300.51
501.009	304.64
501.442	309.2
501.874	311.05
502.306	312.74
502.739	317.27
503.171	323.04
503.603	325.14
504.036	330.11
504.468	333.39
504.9	339.54
505.332	342.23
505.764	345.83
506.196	349.81
506.627	356.99
507.059	363.83
507.491	368.34
507.923	370.37
508.354	379.35
508.786	386.57
509.217	396.47
509.649	405.81
510.08	416.27
510.512	427.01
510.943	437.47
511.374	446.29
511.805	458.3
512.237	469.43
512.668	486.88
513.099	502.57
513.53	518.18
513.961	533.16
514.391	551.57
514.822	572.54
515.253	594.64
515.684	611.28
516.114	630.41
516.545	646.76
516.975	665.52
517.406	680.34
517.836	686.78
518.267	696.88
518.697	711.26
519.127	718.7
519.558	728.1
519.988	734.8
520.418	745.38
520.848	759.32
521.278	768.57
521.708	800.73
522.138	812.74
522.567	834.06
522.997	852.88
523.427	865.98
523.857	880.66
524.286	891.38
524.716	904.83
525.145	920
525.575	931.65
526.004	944.3
526.433	929
526.863	933.37
527.292	932.98
527.721	939.39
528.15	947.07
528.579	951.78
529.008	961.55
529.437	977
529.866	988.89
530.295	1001.8
530.724	1013.18
531.152	1032.77
531.581	1044.57
532.01	1058.04
532.438	1066.42
532.867	1077.13
533.295	1090.4
533.723	1096.85
534.152	1099.38
534.58	1100.71
535.008	1093.74
535.436	1096.77
535.865	1103.19
536.293	1112.55
536.721	1123.29
537.149	1140.11
537.576	1143.03
538.004	1151.87
538.432	1157.87
538.86	1157.48
539.287	1163.08
539.715	1172.53
540.143	1174.21
540.57	1172.63
540.998	1171.33
541.425	1159.34
541.852	1146.06
542.28	1145.46
542.707	1136.38
543.134	1126.93
543.561	1124.24
543.988	1120.22
544.415	1118.86
544.842	1115.97
545.269	1111.65
545.696	1113.4
546.123	1121
546.549	1115.9
546.976	1108.74
547.403	1107.67
547.829	1109.69
548.256	1111.5
548.682	1108.94
549.108	1105.01
549.535	1104.69
549.961	1105.31
550.387	1096.64
550.813	1093.04
551.24	1096.24
551.666	1095.87
552.092	1090.09
552.518	1084.78
552.943	1080.78
553.369	1084.77
553.795	1087.77
554.221	1087.56
554.646	1085.5
555.072	1091.28
555.498	1092.22
555.923	1095.55
556.349	1103.53
556.774	1107.42
557.199	1106.52
557.625	1107.74
558.05	1101.38
558.475	1104.83
558.9	1102.09
559.325	1094.39
559.75	1089.01
560.175	1082.8
560.6	1076.29
561.025	1071.75
561.449	1068.78
561.874	1068.88
562.299	1068.01
562.723	1069.28
563.148	1060.61
563.572	1059
563.997	1061.74
564.421	1059.97
564.846	1055.64
565.27	1054.43
565.694	1049.26
566.118	1052.24
566.542	1052.88
566.966	1045.72
567.39	1038.83
567.814	1028.08
568.238	1024.15
568.662	1022.08
569.086	1019.05
569.509	1019.05
569.933	1006.55
570.357	997.66
570.78	981.23
571.204	970.34
571.627	959.84
572.05	954.29
572.474	950.06
572.897	939.75
573.32	931.45
573.743	922.8
574.166	910.03
574.589	906.36
575.012	899.81
575.435	895.74
575.858	887.16
576.281	878.84
576.704	868.12
577.126	858.39
577.549	849.52
577.972	841.69
578.394	833.22
578.817	827.12
579.239	814.53
579.661	804.65
580.084	795.32
580.506	786.61
580.928	781.92
581.35	774.67
581.772	770.42
582.194	760.87
582.616	752.33
583.038	742.17
583.46	734.02
583.882	730.44
584.303	729.83
584.725	725.19
585.147	726.32
585.568	728.58
585.99	732.15
586.411	733.59
586.833	738.64
587.254	738.07
587.675	743.98
588.096	748.74
588.518	744.88
588.939	735.05
589.36	732.7
589.781	722.78
590.202	709.93
590.623	703.78
591.043	700.36
591.464	693.46
591.885	689.61
592.305	685.57
592.726	676.99
593.147	676.6
593.567	673.89
593.987	668.63
594.408	665.82
594.828	662.45
595.248	660.42
595.669	652.33
596.089	647.59
596.509	643.7
596.929	637.04
597.349	637.35
597.769	631.53
598.189	628.06
598.608	628.54
599.028	628.6
599.448	628.07
599.867	620.69
600.287	617.19
600.706	615.24
601.126	610.51
601.545	609.14
601.965	606.82
602.384	602.95
602.803	602.84
603.222	599.11
603.641	594.61
604.061	592.12
604.48	588.47
604.898	590.79
605.317	591.24
605.736	590.8
606.155	588.46
606.574	583.09
606.992	584.54
607.411	581.78
607.829	576.7
608.248	574.02
608.666	571.09
609.085	570.1
609.503	565.25
609.921	562.34
610.339	560.82
610.758	558.3
611.176	555.41
611.594	550.52
612.012	547.55
612.43	548.19
612.847	549.63
613.265	548.89
613.683	548.96
614.101	548.22
614.518	543.68
614.936	538.23
615.353	531.61
615.771	529.84
616.188	528.67
616.606	525.35
617.023	521.03
617.44	514.28
617.857	509.79
618.274	505.3
618.691	501.72
619.108	497.79
619.525	494.55
619.942	495.61
620.359	495.48
620.776	492.51
621.192	490.61
621.609	489.68
622.026	492.07
622.442	493.87
622.859	493.82
623.275	490.24
623.691	491.49
624.108	496.44
624.524	502.07
624.94	501.24
625.356	504.48
625.772	509.06
626.188	512.79
626.604	512.67
627.02	511.02
627.436	510.95
627.852	514.23
628.268	519.07
628.683	514.7
629.099	510.7
629.514	508.55
629.93	509.88
630.345	511.33
630.761	509.35
631.176	510.58
631.591	508.62
632.007	505.31
632.422	502.86
632.837	497.08
633.252	496.23
633.667	491.6
634.082	487.11
634.497	480.69
634.911	473.11
635.326	469.96
635.741	462.44
636.155	455.68
636.57	455.3
636.984	453.57
637.399	453.38
637.813	450.27
638.228	447.94
638.642	447.15
639.056	441.29
639.47	438.31
639.884	433.58
640.298	428.22
640.712	425.95
641.126	419.38
641.54	413.81
641.954	408.4
642.368	402.78
642.781	400.87
643.195	393.34
643.609	391.77
644.022	388.02
644.436	384.17
644.849	378.52
645.262	372.64
645.676	370.7
646.089	368.32
646.502	363.25
646.915	360.04
647.328	351.59
647.741	350.35
648.154	345.97
648.567	346.37
648.98	342.45
649.393	342.22
649.805	342.59
650.218	339.84
650.631	334.32
651.043	331.31
651.456	329.4
651.868	328.85
652.28	333.25
652.693	337.09
653.105	337.68
653.517	340.88
653.929	341.03
654.341	341.89
654.753	339.23
655.165	342.02
655.577	343.05
655.989	342.58
656.401	338.91
656.813	329.13
657.224	323.07
657.636	312.47
658.047	307.4
658.459	301.59
658.87	297.7
659.282	292.81
659.693	287.03
660.104	282.79
660.515	278.24
660.926	277.66
661.338	276.11
661.749	274.37
662.159	273.78
662.57	272.24
662.981	271.87
663.392	270.62
663.803	273.56
664.213	273.99
664.624	272.89
665.035	274.66
665.445	273.18
665.855	273.39
666.266	273.52
666.676	273.74
667.086	271.41
667.497	272.48
667.907	272.14
668.317	271.16
668.727	273.24
669.137	274.72
669.547	275.84
669.956	277.18
670.366	279.18
670.776	281.38
671.186	284.28
671.595	288.48
672.005	290.18
672.414	292.99
672.824	294.2
673.233	294.86
673.642	297.97
674.052	301.74
674.461	306.07
674.87	309.53
675.279	310.85
675.688	313.38
676.097	316.16
676.506	317.83
676.915	324.33
677.323	327.49
677.732	329.21
678.141	330.59
678.549	327.13
678.958	327.44
679.366	328.19
679.775	330.72
680.183	338.34
680.592	342.73
681	347.19
681.408	346.91
681.816	350.21
682.224	354.46
682.632	360.29
683.04	374.15
683.448	383.85
683.856	398.34
684.264	413.3
684.671	423.6
685.079	438.12
685.487	453.61
685.894	476.48
686.302	495.56
686.709	510.52
687.116	527.89
687.524	542.74
687.931	556.84
688.338	565.71
688.745	573.31
689.152	585.75
689.559	602.86
689.966	623.13
690.373	633.53
690.78	654.98
691.187	685.48
691.593	711.52
692	733.39
692.407	766.69
692.813	810.04
693.22	846.81
693.626	884.56
694.032	918.19
694.439	965.81
694.845	1007.57
695.251	1056.43
695.657	1103.33
696.063	1166.53
696.469	1221.87
696.875	1276.5
697.281	1313.99
697.687	1358.19
698.093	1399.2
698.498	1461.75
698.904	1512.83
699.31	1583.61
699.715	1642.61
700.12	1718.18
700.526	1752.97
700.931	1817.62
701.337	1872.23
701.742	1916.48
702.147	1992.96
702.552	2035.68
702.957	2096.23
703.362	2133.99
703.767	2174.44
704.172	2222.71
704.577	2212.48
704.981	2264.4
705.386	2297.34
705.791	2312.11
706.195	2384.15
706.6	2409.93
707.004	2487.02
707.408	2486.32
707.813	2525.98
708.217	2538.93
708.621	2558.07
