Data from N_2_DIV_OH_2N_Splice17_12-21-44-877.txt Node
Date: Sat Mar 14 12:21:44 EDT 2020
User: sa697716
Spectrometer: FLMS03696
Trigger mode: 0
Integration Time (sec): 3.180400E-1
Scans to average: 20
Electric dark correction enabled: true
Nonlinearity correction enabled: true
Boxcar width: 5
XAxis mode: Wavelengths
Number of Pixels in Spectrum: 2048
>>>>>Begin Spectral Data<<<<<
187.83	-359010.36
188.298	2462.5
188.766	1396.03
189.233	1219.32
189.701	1755.77
190.169	2358.54
190.636	883.53
191.104	740.61
191.571	140.7
192.039	8.63
192.506	9.15
192.974	401.93
193.441	-786.26
193.908	-101.36
194.375	-31.61
194.842	78.46
195.31	158.8
195.777	167.81
196.244	395.01
196.711	518.85
197.177	675.75
197.644	958.8
198.111	1642.19
198.578	2314.06
199.045	1864.2
199.511	3047.22
199.978	3547.68
200.445	2997.54
200.911	3325.19
201.378	3745.9
201.844	3373.38
202.31	5767.44
202.777	5999.44
203.243	3347.41
203.709	3186.16
204.176	3796.11
204.642	3147.47
205.108	2945.82
205.574	2411.9
206.04	2214.6
206.506	2068.89
206.972	1970.89
207.438	1899.59
207.903	2175.42
208.369	1893.97
208.835	1875.66
209.301	1955.15
209.766	1980.19
210.232	1949.52
210.697	2413.51
211.163	2989.89
211.628	4505.76
212.094	3745
212.559	4568.42
213.024	2823.04
213.49	3455.98
213.955	3368.51
214.42	3309.71
214.885	3086.33
215.35	2968.48
215.815	2843.05
216.28	2994.76
216.745	2424.6
217.21	2616.58
217.675	2379.58
218.14	2635.89
218.604	2901.78
219.069	3274.73
219.534	3376.13
219.998	3873.95
220.463	4645.75
220.927	5636.8
221.392	5246.77
221.856	5282.12
222.32	6585.22
222.785	8101.12
223.249	10165.61
223.713	11308.98
224.177	11287.39
224.642	14408.52
225.106	17720.7
225.57	19284.05
226.034	14329.6
226.497	21785.56
226.961	19666.82
227.425	22909.13
227.889	25377.93
228.353	25355.56
228.816	52225.88
229.28	49863.5
229.744	42099.51
230.207	25559.41
230.671	25120.72
231.134	41448.32
231.597	47762.17
232.061	47697.36
232.524	46475.43
232.987	32038.83
233.45	28801.79
233.914	25810.95
234.377	26458.72
234.84	24176.25
235.303	28477.74
235.766	31752.7
236.229	32806.96
236.691	20624.2
237.154	23134.88
237.617	17395.6
238.08	17783.69
238.542	20797.73
239.005	14874.98
239.468	14741.72
239.93	13893.57
240.393	12629.78
240.855	11089.04
241.317	11358.87
241.78	13822.9
242.242	14309.04
242.704	15439.77
243.166	13430.58
243.629	12196.1
244.091	14033.48
244.553	15363.81
245.015	16506.16
245.477	21308.31
245.939	31184.98
246.4	33036.1
246.862	32078.34
247.324	30161.9
247.786	33700.26
248.247	44154.73
248.709	45492.64
249.17	33988.82
249.632	31998.23
250.093	37076.42
250.555	32036.84
251.016	19542.11
251.477	18527.24
251.939	19986.17
252.4	20947.37
252.861	24924.03
253.322	23180.01
253.783	27564.21
254.244	35714.78
254.705	28144.09
255.166	24986.91
255.627	24527.72
256.088	34556.7
256.549	36702.39
257.009	31558.98
257.47	38230.32
257.931	31009.59
258.391	23183.04
258.852	23874.71
259.312	24995.03
259.773	30829.12
260.233	26040.64
260.694	21936.83
261.154	24839.67
261.614	19897.04
262.074	17763.76
262.534	18463.85
262.994	17402.76
263.455	23152.25
263.915	19487.4
264.374	18338.39
264.834	19997.36
265.294	22114.13
265.754	22913.87
266.214	21681.43
266.673	20295.73
267.133	25591.48
267.593	25341.88
268.052	30992.38
268.512	26941.48
268.971	32454.89
269.431	35552.32
269.89	31799.27
270.349	47643.9
270.809	53098.73
271.268	47712.51
271.727	107064.21
272.186	69377.52
272.645	52074.31
273.104	37509.03
273.563	54267.4
274.022	42700.87
274.481	36336.99
274.94	28011.62
275.399	20811.05
275.857	24209.71
276.316	32702.8
276.775	29086.17
277.233	28634.86
277.692	26785.32
278.15	30346.11
278.609	31243.62
279.067	28904.4
279.525	26861.24
279.984	34706.6
280.442	41755.17
280.9	41222.56
281.358	27144.8
281.816	25317.56
282.274	24825.3
282.732	25680.87
283.19	25813.35
283.648	22286.07
284.106	23760.35
284.564	24195.21
285.021	22451.68
285.479	16753.65
285.937	15230.38
286.394	13370.53
286.852	13765.12
287.309	14469.07
287.767	13988.5
288.224	13313.97
288.682	14613.9
289.139	16032.73
289.596	14657.67
290.053	15224.93
290.511	19211.27
290.968	23302.29
291.425	31641.56
291.882	26324.99
292.339	22863.6
292.796	22645.1
293.252	21341.61
293.709	16951.7
294.166	15200.29
294.623	16800.14
295.079	16123.69
295.536	16188.58
295.992	14690.59
296.449	14513.5
296.905	15046.34
297.362	14435.81
297.818	15192.83
298.274	15749.64
298.731	16056.98
299.187	15886.81
299.643	17046.47
300.099	20596.9
300.555	22561.91
301.011	18849.92
301.467	18177.37
301.923	21316.44
302.379	20835.14
302.835	20458.51
303.291	20472.48
303.746	23270.22
304.202	29411.42
304.658	29519.65
305.113	19858
305.569	19477.48
306.024	20768.45
306.479	19788.16
306.935	16698.31
307.39	18238.36
307.845	16874.18
308.301	17006.5
308.756	16587.13
309.211	15999.64
309.666	16404.15
310.121	20390.3
310.576	20736.45
311.031	20601.13
311.486	23593
311.94	23574.4
312.395	31577.96
312.85	59255.39
313.305	291072.07
313.759	1508916.97
314.214	109200.76
314.668	86770.5
315.123	73122.95
315.577	26230.44
316.032	23357.29
316.486	29284.42
316.94	23135.35
317.394	16075.58
317.849	12517.8
318.303	11849.64
318.757	11185.24
319.211	12362.38
319.665	10796.11
320.119	10893.96
320.572	15576.14
321.026	14515.3
321.48	12083.33
321.934	13160.7
322.387	13182.59
322.841	14212.59
323.295	12795.5
323.748	14725.36
324.202	14954.88
324.655	17980.13
325.108	25178.18
325.562	17822.89
326.015	21216.23
326.468	16041.02
326.921	17944.32
327.374	16759.31
327.827	17471.88
328.28	19797.61
328.733	13282.61
329.186	11667.44
329.639	11117.31
330.092	9363.56
330.545	8925.42
330.997	9010.41
331.45	9862.94
331.903	11581.65
332.355	19932.76
332.808	19371.44
333.26	15945.43
333.713	17313.7
334.165	17465.68
334.617	23330.45
335.069	18883.08
335.522	34123.61
335.974	37764.39
336.426	34454.43
336.878	23807.6
337.33	12092.9
337.782	11821.72
338.234	14834.25
338.686	17736.48
339.137	21013.28
339.589	19807.17
340.041	15525.23
340.493	13339.31
340.944	13675.49
341.396	14744.38
341.847	12393.67
342.299	14637.63
342.75	17853.63
343.201	15582.49
343.653	17907.81
344.104	22007.76
344.555	17280.67
345.006	26778.96
345.457	20545.35
345.908	16333.17
346.359	15381.05
346.81	12528.62
347.261	13160.39
347.712	12942.59
348.163	13864.45
348.613	14031.57
349.064	13102.26
349.515	11476.9
349.965	11806.53
350.416	14195.03
350.866	15570.72
351.317	17540.81
351.767	29112.33
352.217	36770.89
352.668	30557.89
353.118	28008.1
353.568	26993.48
354.018	21348.36
354.468	22533.75
354.918	16168.47
355.368	14149.82
355.818	19978.23
356.268	57608.53
356.718	241056.31
357.168	60130.21
357.617	30201.43
358.067	33680.98
358.517	31705.21
358.966	37194.35
359.416	41762.11
359.865	45114.45
360.315	53749.78
360.764	25096.45
361.213	14057.01
361.663	13327.84
362.112	16465.45
362.561	26577.52
363.01	20025.54
363.459	16819.97
363.908	18175.02
364.357	15461.86
364.806	26172.96
365.255	18009.7
365.703	16542.42
366.152	16583.46
366.601	13468.18
367.05	10958.91
367.498	9962.45
367.947	10416.26
368.395	10854.91
368.844	9662.7
369.292	11647.75
369.74	8072.75
370.189	12382.78
370.637	14554.64
371.085	12618.78
371.533	15391.98
371.981	14823.23
372.429	14208.82
372.877	14857.8
373.325	12454.77
373.773	12713.04
374.221	11362.52
374.669	14118.21
375.116	12263.67
375.564	12360.02
376.012	13840.63
376.459	11461.18
376.907	13770.05
377.354	16685.05
377.801	15644.38
378.249	18100.79
378.696	23262.05
379.143	28365.2
379.591	30366.1
380.038	51644.95
380.485	37653.29
380.932	40869.57
381.379	37592.67
381.826	27846.27
382.273	19959.6
382.72	17531.84
383.166	17154.01
383.613	11183.19
384.06	10116.32
384.506	11756.5
384.953	8665.58
385.4	8757.48
385.846	7724.85
386.292	7562.68
386.739	7433.74
387.185	7362.2
387.631	7402.02
388.078	7227.02
388.524	7765.38
388.97	7205.38
389.416	6048.23
389.862	6461.72
390.308	6145
390.754	6255.96
391.2	6814.08
391.645	6995.7
392.091	6725.09
392.537	6526.94
392.983	6555.03
393.428	6465.99
393.874	6958.44
394.319	7012.44
394.765	6661.02
395.21	6876.96
395.655	6456.7
396.101	6059.36
396.546	5485.66
396.991	5536.68
397.436	5147.6
397.881	4979.84
398.326	4721.67
398.771	4462.94
399.216	3895.51
399.661	3515.09
400.106	3495.34
400.551	3580.83
400.995	3210.43
401.44	3167.66
401.885	2977.14
402.329	2998.45
402.774	2867.33
403.218	2770.9
403.663	2664.82
404.107	2736.92
404.551	2750.56
404.995	2517.63
405.44	2419.88
405.884	2452.68
406.328	2370.72
406.772	2360.77
407.216	2148.36
407.66	2075.38
408.104	1967.67
408.547	1843.87
408.991	1779.96
409.435	1710.43
409.879	1688.08
410.322	1664.14
410.766	1605.48
411.209	1524.76
411.653	1464.38
412.096	1436.41
412.54	1436.86
412.983	1426.89
413.426	1427.24
413.869	1424.52
414.312	1401.36
414.756	1348.12
415.199	1285.49
415.642	1248.74
416.085	1250.41
416.527	1237.96
416.97	1255.02
417.413	1187.63
417.856	1173.42
418.298	1161.79
418.741	1153.59
419.184	1147.07
419.626	1193.52
420.069	1191.33
420.511	1196.11
420.953	1168.34
421.396	1157.17
421.838	1124.8
422.28	1153.54
422.722	1162.11
423.164	1175.9
423.606	1155.92
424.048	1151.31
424.49	1096.96
424.932	1093.74
425.374	1074.81
425.816	1093.04
426.258	1113.86
426.699	1124.56
427.141	1103.83
427.582	1116.85
428.024	1111.5
428.465	1105.78
428.907	1081
429.348	1062.72
429.789	1061.89
430.231	1043.11
430.672	1056.84
431.113	1032.71
431.554	1020.94
431.995	997.19
432.436	961.73
432.877	940.23
433.318	925.5
433.759	922.32
434.2	924.92
434.64	917.59
435.081	920.31
435.522	874.79
435.962	843.99
436.403	826.44
436.843	839.72
437.284	823.45
437.724	802.03
438.164	803.96
438.604	787.8
439.045	758.51
439.485	727.4
439.925	713.06
440.365	697.24
440.805	687.18
441.245	679.58
441.685	654.48
442.125	649.97
442.564	654.03
443.004	639.92
443.444	637.88
443.883	640.87
444.323	636.92
444.762	638.96
445.202	646.76
445.641	660.39
446.081	657.74
446.52	664.23
446.959	658.98
447.398	646.45
447.837	639.85
448.276	629.89
448.716	636.43
449.154	641.93
449.593	628.36
450.032	629
450.471	619.64
450.91	620.77
451.349	621.72
451.787	620.96
452.226	629.74
452.664	631.09
453.103	632.96
453.541	632.23
453.98	632.35
454.418	636.42
454.856	626.07
455.295	624.78
455.733	630.54
456.171	634.6
456.609	637.83
457.047	637.53
457.485	647.46
457.923	647.61
458.361	638.42
458.798	640.15
459.236	638.31
459.674	641.77
460.111	644.46
460.549	636.63
460.987	632.15
461.424	627.89
461.862	626.74
462.299	616.14
462.736	616.74
463.173	619.5
463.611	614.74
464.048	613.57
464.485	619.26
464.922	613.3
465.359	610.14
465.796	603.23
466.233	597.83
466.67	591.63
467.106	590.77
467.543	584.8
467.98	577.5
468.416	561.87
468.853	557.26
469.29	540.85
469.726	535.63
470.162	522.01
470.599	515.93
471.035	512.94
471.471	499.97
471.907	496.97
472.344	492.65
472.78	493.95
473.216	499.11
473.652	492.86
474.088	491.34
474.523	489.63
474.959	493.91
475.395	488.61
475.831	484.25
476.266	487.48
476.702	486.38
477.138	481.58
477.573	479.69
478.008	479.14
478.444	481.62
478.879	485.69
479.314	487.03
479.75	486.52
480.185	488.35
480.62	492.69
481.055	494.29
481.49	497.62
481.925	504.92
482.36	514.06
482.795	526.73
483.229	541.16
483.664	552.99
484.099	556.09
484.534	565.94
484.968	572.42
485.403	574.3
485.837	574.54
486.271	573.78
486.706	575.57
487.14	569.36
487.574	561.58
488.009	557.34
488.443	553.42
488.877	559.4
489.311	562.34
489.745	569.46
490.179	576.15
490.613	588.53
491.046	594.57
491.48	599.66
491.914	602.96
492.348	609.83
492.781	615.18
493.215	618.75
493.648	621.19
494.082	627.72
494.515	629.82
494.948	638.64
495.382	645.13
495.815	652.79
496.248	660.92
496.681	674.41
497.114	687.91
497.547	700.96
497.98	716.83
498.413	727.72
498.846	739.72
499.279	752.46
499.711	760.96
500.144	767.1
500.577	781.45
501.009	796.78
501.442	811.44
501.874	816.93
502.306	823.8
502.739	835.81
503.171	855.06
503.603	864.38
504.036	878.6
504.468	890.01
504.9	908.21
505.332	921
505.764	931.02
506.196	944.04
506.627	965.23
507.059	985.14
507.491	1000.42
507.923	1004.19
508.354	1026.36
508.786	1045.19
509.217	1072.27
509.649	1093.83
510.08	1120.71
510.512	1145.38
510.943	1168.88
511.374	1188.63
511.805	1217.9
512.237	1246.71
512.668	1290.64
513.099	1328.15
513.53	1365.19
513.961	1394.11
514.391	1437.12
514.822	1480.65
515.253	1528.69
515.684	1563.27
516.114	1602.11
516.545	1631.59
516.975	1668.09
517.406	1693.55
517.836	1700.63
518.267	1713.81
518.697	1738.45
519.127	1746.85
519.558	1759.65
519.988	1767.02
520.418	1783.96
520.848	1809.63
521.278	1823.68
521.708	1826.63
522.138	1844.3
522.567	1886.22
522.997	1918.78
523.427	1940.74
523.857	1966.02
524.286	1981.65
524.716	2002.72
525.145	2028.57
525.575	2043.53
526.004	2063.86
526.433	2079.01
526.863	2082.6
527.292	2070.99
527.721	2079.56
528.15	2088.97
528.579	2089.27
529.008	2104.54
529.437	2135.18
529.866	2153
530.295	2176.27
530.724	2192.97
531.152	2228.13
531.581	2246.22
532.01	2271.18
532.438	2283.13
532.867	2302.75
533.295	2328.91
533.723	2337.57
534.152	2335.97
534.58	2337.36
535.008	2318.44
535.436	2322.44
535.865	2332.42
536.293	2353
536.721	2373.72
537.149	2407.9
537.576	2412.38
538.004	2429.05
538.432	2440.72
538.86	2438.68
539.287	2448.82
539.715	2468.02
540.143	2472.33
540.57	2469.74
540.998	2465.88
541.425	2435.49
541.852	2408.76
542.28	2407.85
542.707	2388.04
543.134	2370.62
543.561	2367.2
543.988	2358.02
544.415	2357.28
544.842	2350.18
545.269	2340.2
545.696	2342.39
546.123	2360.64
546.549	2347.79
546.976	2330.55
547.403	2329.44
547.829	2332.47
548.256	2334.66
548.682	2329.86
549.108	2320.5
549.535	2320.92
549.961	2325.77
550.387	2309.3
550.813	2301.63
551.24	2310.62
551.666	2312.47
552.092	2299.87
552.518	2290.52
552.943	2281.78
553.369	2291.62
553.795	2297.23
554.221	2298.46
554.646	2292.2
555.072	2305.16
555.498	2311.51
555.923	2322.03
556.349	2342.75
556.774	2354.29
557.199	2358.01
557.625	2366.59
558.05	2356.85
558.475	2372.38
558.9	2370.57
559.325	2360.94
559.75	2353.35
560.175	2344.39
560.6	2335.43
561.025	2331.27
561.449	2332.67
561.874	2338
562.299	2343.26
562.723	2353.77
563.148	2340.65
563.572	2344.92
563.997	2358.19
564.421	2365.19
564.846	2366.09
565.27	2371.07
565.694	2367.02
566.118	2382.63
566.542	2391.34
566.966	2382.36
567.39	2376.37
567.814	2361.7
568.238	2362.13
568.662	2368.07
569.086	2371.11
569.509	2381.11
569.933	2361.57
570.357	2352.78
570.78	2324.76
571.204	2307.81
571.627	2294.75
572.05	2291.73
572.474	2290.32
572.897	2273.73
573.32	2262.73
573.743	2249.71
574.166	2224.38
574.589	2224.24
575.012	2213.76
575.435	2211.95
575.858	2198.92
576.281	2183.98
576.704	2163.74
577.126	2149.83
577.549	2135.27
577.972	2122.26
578.394	2108.03
578.817	2098.21
579.239	2073.64
579.661	2055.55
580.084	2033.56
580.506	2016.99
580.928	2010.78
581.35	1995.82
581.772	1987.45
582.194	1969.75
582.616	1953.53
583.038	1934.8
583.46	1921.88
583.882	1916.8
584.303	1921.49
584.725	1917.21
585.147	1917.68
585.568	1930.83
585.99	1945.53
586.411	1953.07
586.833	1971.56
587.254	1972.67
587.675	1991.29
588.096	2006.8
588.518	1999.62
588.939	1978.9
589.36	1975.22
589.781	1963.54
590.202	1925.9
590.623	1913.88
591.043	1911.05
591.464	1893.94
591.885	1888.93
592.305	1879.46
592.726	1861.46
593.147	1862.94
593.567	1854.77
593.987	1844.11
594.408	1836.16
594.828	1833.82
595.248	1826.78
595.669	1802.66
596.089	1793.11
596.509	1784.26
596.929	1767.23
597.349	1767.74
597.769	1754.08
598.189	1746.41
598.608	1747.81
599.028	1750.19
599.448	1750.94
599.867	1733.16
600.287	1727.65
600.706	1722.28
601.126	1709.68
601.545	1706.46
601.965	1704.35
602.384	1698.5
602.803	1701.53
603.222	1695
603.641	1686.61
604.061	1680.12
604.48	1675.4
604.898	1683.82
605.317	1688.74
605.736	1691.01
606.155	1687.67
606.574	1675.18
606.992	1680.61
607.411	1673.35
607.829	1662.37
608.248	1657.31
608.666	1654.91
609.085	1654.22
609.503	1645.31
609.921	1637.45
610.339	1638.51
610.758	1638.04
611.176	1631.07
611.594	1619.33
612.012	1615.07
612.43	1618.85
612.847	1626.71
613.265	1627.22
613.683	1631.76
614.101	1631.96
614.518	1625.83
614.936	1612.8
615.353	1592.8
615.771	1588.48
616.188	1588.09
616.606	1583.08
617.023	1574.35
617.44	1555.99
617.857	1546.26
618.274	1534.33
618.691	1525.35
619.108	1512.6
619.525	1505.15
619.942	1513.17
620.359	1516.14
620.776	1508.67
621.192	1502.95
621.609	1499.41
622.026	1506.44
622.442	1513.2
622.859	1517.72
623.275	1509.25
623.691	1516.43
624.108	1530.1
624.524	1547.15
624.94	1547.33
625.356	1559.26
625.772	1575.34
626.188	1589.66
626.604	1592.66
627.02	1587.47
627.436	1584.8
627.852	1592.42
628.268	1608.05
628.683	1596.6
629.099	1586.57
629.514	1581.62
629.93	1585.69
630.345	1590.54
630.761	1585.73
631.176	1588.55
631.591	1581.23
632.007	1573.11
632.422	1569.79
632.837	1554.53
633.252	1550.59
633.667	1537.3
634.082	1523.13
634.497	1506.2
634.911	1479.51
635.326	1471.07
635.741	1448.17
636.155	1433.64
636.57	1431.83
636.984	1428.5
637.399	1426.13
637.813	1421.35
638.228	1415.07
638.642	1415.69
639.056	1398.08
639.47	1394.78
639.884	1380.87
640.298	1368.39
640.712	1360.88
641.126	1341.12
641.54	1325.58
641.954	1314.42
642.368	1295.45
642.781	1280.67
643.195	1256.97
643.609	1253.62
644.022	1241.53
644.436	1232.87
644.849	1214.2
645.262	1196.41
645.676	1194.2
646.089	1183.95
646.502	1164.03
646.915	1153.88
647.328	1131.22
647.741	1124.51
648.154	1106.33
648.567	1099.47
648.98	1081.37
649.393	1080.14
649.805	1075.18
650.218	1063.19
650.631	1044.89
651.043	1035.65
651.456	1027.6
651.868	1028
652.28	1043.63
652.693	1057.1
653.105	1062.97
653.517	1071.7
653.929	1069.53
654.341	1072.42
654.753	1059.26
655.165	1063.79
655.577	1059.88
655.989	1052.79
656.401	1041.1
656.813	1002.47
657.224	979.58
657.636	948.15
658.047	927.08
658.459	904.46
658.87	892.77
659.282	878.04
659.693	854.84
660.104	835.73
660.515	819.61
660.926	814.95
661.338	808.53
661.749	798.22
662.159	785.25
662.57	775.95
662.981	768.42
663.392	756.69
663.803	756.02
664.213	749.37
664.624	742.03
665.035	741.17
665.445	726.09
665.855	716.23
666.266	705.73
666.676	700.36
667.086	690.57
667.497	686.41
667.907	678.61
668.317	667.69
668.727	662.02
669.137	660.55
669.547	655.79
669.956	654.5
670.366	654.66
670.776	654.9
671.186	657.36
671.595	658.38
672.005	660.78
672.414	660.26
672.824	658.47
673.233	662.44
673.642	664.88
674.052	668.47
674.461	672.02
674.87	675.52
675.279	673.4
675.688	675.08
676.097	678.16
676.506	676.33
676.915	690.39
677.323	695.59
677.732	696.13
678.141	696.99
678.549	689.91
678.958	690.88
679.366	691.74
679.775	698.37
680.183	711.48
680.592	719.97
681	728.8
681.408	727.61
681.816	738.95
682.224	751.79
682.632	767.38
683.04	800.55
683.448	829.14
683.856	866.83
684.264	911.1
684.671	951.64
685.079	1002.02
685.487	1058.09
685.894	1131.17
686.302	1196.26
686.709	1253.29
687.116	1320.49
687.524	1380.2
687.931	1435.38
688.338	1485.22
688.745	1527.77
689.152	1576.89
689.559	1639
689.966	1702.13
690.373	1740.45
690.78	1801.05
691.187	1887.24
691.593	1955.36
692	2016.75
692.407	2101.11
692.813	2203.49
693.22	2286.03
693.626	2373.52
694.032	2441.77
694.439	2542.22
694.845	2621.31
695.251	2720.26
695.657	2810.9
696.063	2941.46
696.469	3039.49
696.875	3131.25
697.281	3183.55
