Data from N_2_DIV_IL_4N_Splice17_12-35-19-026.txt Node
Date: Sat Mar 14 12:35:19 EDT 2020
User: sa697716
Spectrometer: FLMS03696
Trigger mode: 0
Integration Time (sec): 3.180400E-1
Scans to average: 20
Electric dark correction enabled: true
Nonlinearity correction enabled: true
Boxcar width: 5
XAxis mode: Wavelengths
Number of Pixels in Spectrum: 2048
>>>>>Begin Spectral Data<<<<<
187.83	-330640.44
188.298	2349.41
188.766	1343.23
189.233	1220.97
189.701	1741.93
190.169	2474.73
190.636	937.55
191.104	744.76
191.571	113.74
192.039	-61.16
192.506	-172.15
192.974	518.49
193.441	-837.89
193.908	-95.85
194.375	-37.99
194.842	-0.78
195.31	95.66
195.777	161.28
196.244	369.69
196.711	436.38
197.177	556.42
197.644	756.48
198.111	1353.13
198.578	1907.35
199.045	1530.12
199.511	2544.39
199.978	3000.06
200.445	2568.36
200.911	2861.34
201.378	3205.63
201.844	2902.34
202.31	4933.23
202.777	5183.67
203.243	2878.17
203.709	2755.07
204.176	3305.85
204.642	2703.29
205.108	2524.06
205.574	2060.71
206.04	1877.59
206.506	1742.17
206.972	1656.74
207.438	1613.74
207.903	1835.79
208.369	1623.68
208.835	1613.05
209.301	1698.72
209.766	1737.36
210.232	1736.35
210.697	2147.93
211.163	2645.75
211.628	4010.32
212.094	3364.87
212.559	4148.59
213.024	2580.96
213.49	3151.54
213.955	3089.79
214.42	3027.13
214.885	2843.97
215.35	2745.21
215.815	2671.04
216.28	2858.18
216.745	2360.41
217.21	2580.12
217.675	2408.54
218.14	2737.81
218.604	3104.46
219.069	3611.08
219.534	3841.3
219.998	4542.79
220.463	5568.11
220.927	6938.02
221.392	6618.9
221.856	6786.1
222.32	8668.86
222.785	10782.76
223.249	13720.86
223.713	15411.34
224.177	15491.56
224.642	19991.04
225.106	24708.65
225.57	27132.2
226.034	20233.23
226.497	30852.82
226.961	27887.09
227.425	32500.23
227.889	36209.42
228.353	36307.16
228.816	75229.28
229.28	72095.63
229.744	60980.52
230.207	37141.14
230.671	36661.03
231.134	60809.88
231.597	70234.03
232.061	70442.95
232.524	68790.3
232.987	47457.27
233.45	42723.32
233.914	38334.18
234.377	39344.75
234.84	36043.37
235.303	42524.15
235.766	47428.74
236.229	49093.19
236.691	30974.68
237.154	34834.99
237.617	26244.25
238.08	26902.32
238.542	31527.38
239.005	22564.17
239.468	22412
239.93	21140.59
240.393	19229.94
240.855	16900.6
241.317	17333.95
241.78	21105.04
242.242	21828.55
242.704	23582.23
243.166	20509.43
243.629	18622.3
244.091	21474.66
244.553	23549.27
245.015	25315.95
245.477	32820.27
245.939	48164.57
246.4	51112.99
246.862	49732.92
247.324	46896.99
247.786	52511.78
248.247	69050.26
248.709	71407.79
249.17	53418.35
249.632	50363.92
250.093	58406.66
250.555	50438.48
251.016	30757.4
251.477	29198.96
251.939	31528.83
252.4	33101.77
252.861	39383.61
253.322	36596.74
253.783	43588.07
254.244	56571.19
254.705	44614.19
255.166	39698.24
255.627	39072.53
256.088	55072.76
256.549	58452.09
257.009	50304.6
257.47	61011.29
257.931	49711.54
258.391	37234.65
258.852	38338.08
259.312	40202.56
259.773	49640.13
260.233	41915.64
260.694	35348.54
261.154	40122.1
261.614	32193.56
262.074	28799.21
262.534	29921.88
262.994	28152.19
263.455	37489.04
263.915	31571.41
264.374	29689.77
264.834	32399.69
265.294	35898.31
265.754	37161.01
266.214	35173.59
266.673	32962.95
267.133	41565.52
267.593	41230.39
268.052	50490.7
268.512	43914.3
268.971	52953.07
269.431	58095.62
269.89	52031.45
270.349	77990.6
270.809	86976.23
271.268	78156.01
271.727	175178.26
272.186	113473.94
272.645	85094.5
273.104	61390.29
273.563	88832.77
274.022	69884.14
274.481	59437.08
274.94	45746.73
275.399	34014.96
275.857	39624.72
276.316	53605.34
276.775	47684.75
277.233	46930.94
277.692	43919.3
278.15	49629.87
278.609	51049.59
279.067	47167.96
279.525	43793.35
279.984	56604.85
280.442	67930.18
280.9	66896.12
281.358	43967.69
281.816	41027.18
282.274	40174.8
282.732	41506.67
283.19	41727.19
283.648	36031.69
284.106	38440.59
284.564	39107.25
285.021	36259.49
285.479	27064.83
285.937	24622.44
286.394	21625.84
286.852	22264.2
287.309	23415.36
287.767	22636.28
288.224	21534.49
288.682	23631.12
289.139	25938.36
289.596	23730.63
290.053	24676.58
290.511	31146.49
290.968	37771.55
291.425	51252.72
291.882	42637.13
292.339	37108.36
292.796	36817.65
293.252	34739.24
293.709	27620.73
294.166	24782.19
294.623	27412.67
295.079	26327.57
295.536	26459.48
295.992	24042.15
296.449	23819.49
296.905	24769.37
297.362	23792.67
297.818	25065.68
298.274	26011.44
298.731	26527.95
299.187	26299.02
299.643	28278.25
300.099	34240.38
300.555	37580.74
301.011	31445.98
301.467	30285.36
301.923	35488.72
302.379	34661.6
302.835	34063.42
303.291	34140.44
303.746	38891.9
304.202	49110.49
304.658	49306.34
305.113	33153.13
305.569	32516.75
306.024	34682.43
306.479	33065.46
306.935	27869.67
307.39	30457.77
307.845	28139.05
308.301	28296.85
308.756	27597.03
309.211	26592.21
309.666	27265.81
310.121	33838.87
310.576	34361.94
311.031	34136.28
311.486	39104.06
311.94	39134.87
312.395	52350.69
312.85	98402.29
313.305	484136.32
313.759	2503504.7
314.214	181489.27
314.668	143887.46
315.123	121110.38
315.577	43424.43
316.032	38576.51
316.486	48376.34
316.94	38123.76
317.394	26555.59
317.849	20651
318.303	19544.37
318.757	18468.04
319.211	20429.91
319.665	17888.78
320.119	18113.65
320.572	25988.67
321.026	24291.57
321.48	20211.36
321.934	22072.85
322.387	22111.63
322.841	23875.71
323.295	21450.96
323.748	24712.8
324.202	25070.56
324.655	30120.32
325.108	42083.71
325.562	29743.06
326.015	35366.93
326.468	26733.72
326.921	29888.37
327.374	27873.78
327.827	29052.34
328.28	32899.74
328.733	22032.94
329.186	19391.22
329.639	18479.16
330.092	15591.26
330.545	14838.01
330.997	14967.7
331.45	16357.05
331.903	19173.41
332.355	33049.06
332.808	32102.42
333.26	26520.14
333.713	28837.99
334.165	29012.38
334.617	38797.47
335.069	31327.3
335.522	56682.98
335.974	62791.66
336.426	57444.91
336.878	39804.81
337.33	20179.35
337.782	19695.43
338.234	24626.14
338.686	29442.65
339.137	34917.37
339.589	32847.29
340.041	25770.21
340.493	22141.93
340.944	22681.89
341.396	24421.8
341.847	20507.66
342.299	24186.23
342.75	29537.49
343.201	25839.88
343.653	29715.83
344.104	36573.1
344.555	28804.89
345.006	44842.31
345.457	34322.39
345.908	27293.6
346.359	25678.53
346.81	20962.7
347.261	22087.12
347.712	21739.32
348.163	23347.27
348.613	23626.88
349.064	22052.68
349.515	19302.62
349.965	19802.86
350.416	23892.9
350.866	26224.57
351.317	29689.29
351.767	49124.33
352.217	62038.28
352.668	51544.61
353.118	47199.65
353.568	45532.27
354.018	35970.77
354.468	37935.32
354.918	27235.03
355.368	23827.61
355.818	33649.77
356.268	96816.04
356.718	404749.4
357.168	100774.3
357.617	50604.12
358.067	56337.92
358.517	52875.9
358.966	62008.98
359.416	69519.4
359.865	75171.24
360.315	89496.1
360.764	41794.85
361.213	23421.01
361.663	22246.5
362.112	27490.62
362.561	44359.82
363.01	33393.97
363.459	28083.04
363.908	30415.79
364.357	25829.53
364.806	43547.75
365.255	29944.81
365.703	27424.26
366.152	27464.86
366.601	22252.34
367.05	18050.7
367.498	16397.79
367.947	17156.38
368.395	17824.97
368.844	15787.69
369.292	19032.35
369.74	13170.86
370.189	20177.78
370.637	23651.68
371.085	20381.08
371.533	24792.27
371.981	23933.95
372.429	22817.92
372.877	23766.4
373.325	19920.14
373.773	20265.86
374.221	18041.59
374.669	22362.46
375.116	19325.32
375.564	19469.7
376.012	21782.27
376.459	17961.75
376.907	21424.54
377.354	25949.12
377.801	24203.84
378.249	27758.98
378.696	35554.41
379.143	43043.04
379.591	45882.68
380.038	77555.49
380.485	56045.45
380.932	60592.31
381.379	55391.65
381.826	40795.02
382.273	28955.16
382.72	25325.07
383.166	24692.19
383.613	16000.27
384.06	14432.1
384.506	16688.95
384.953	12273.21
385.4	12351.28
385.846	10810.78
386.292	10553.52
386.739	10338.75
387.185	10239.99
387.631	10235.29
388.078	9933.89
388.524	10630.83
388.97	9833.05
389.416	8199.41
389.862	8712.78
390.308	8261.9
390.754	8385
391.2	9096.94
391.645	9300.03
392.091	8876.03
392.537	8578.42
392.983	8588.41
393.428	8421.63
393.874	9009.84
394.319	9034
394.765	8546.4
395.21	8774.3
395.655	8227.29
396.101	7702.03
396.546	6943.68
396.991	7006.92
397.436	6496.41
397.881	6273.07
398.326	5938.65
398.771	5604.15
399.216	4889
399.661	4398.76
400.106	4372.75
400.551	4459.17
400.995	3992.67
401.44	3947.25
401.885	3703.1
402.329	3739.57
402.774	3584.55
403.218	3467.79
403.663	3341.54
404.107	3435.48
404.551	3460.57
404.995	3169
405.44	3056.4
405.884	3099.97
406.328	2996.13
406.772	2983.34
407.216	2713.95
407.66	2619.56
408.104	2484.62
408.547	2322.49
408.991	2243.48
409.435	2158.23
409.879	2130.93
410.322	2100.98
410.766	2024.66
411.209	1921.84
411.653	1841.55
412.096	1802.98
412.54	1799.63
412.983	1786.22
413.426	1790.34
413.869	1791.46
414.312	1753.53
414.756	1685.63
415.199	1601.68
415.642	1553.85
416.085	1553.87
416.527	1544.99
416.97	1566.43
417.413	1488.63
417.856	1470.28
418.298	1450.4
418.741	1435.17
419.184	1431.86
419.626	1494.51
420.069	1496.95
420.511	1504.07
420.953	1472.24
421.396	1456.34
421.838	1416.87
422.28	1444.47
422.722	1452.79
423.164	1477.7
423.606	1453.37
424.048	1449.59
424.49	1371.65
424.932	1363.51
425.374	1345.73
425.816	1370.54
426.258	1395.02
426.699	1410.25
427.141	1391.99
427.582	1414.27
428.024	1406.51
428.465	1399.1
428.907	1366.77
429.348	1352.11
429.789	1352.68
430.231	1324.02
430.672	1340.34
431.113	1307.49
431.554	1292.81
431.995	1259.96
432.436	1214.56
432.877	1186.36
433.318	1165.9
433.759	1160.11
434.2	1161.11
434.64	1148.45
435.081	1150.69
435.522	1090.17
435.962	1050.1
436.403	1024.83
436.843	1038.01
437.284	1014.35
437.724	988.01
438.164	989.84
438.604	967.64
439.045	932.67
439.485	895.68
439.925	876.44
440.365	853.71
440.805	843.82
441.245	833.22
441.685	802.16
442.125	798.16
442.564	802.03
443.004	785.67
443.444	784.2
443.883	783.39
444.323	776.61
444.762	778.85
445.202	787.86
445.641	802.73
446.081	796.67
446.52	802.94
446.959	794.92
447.398	774.98
447.837	764.42
448.276	751.65
448.716	758.67
449.154	764.68
449.593	746.34
450.032	746.53
450.471	732.56
450.91	735.51
451.349	734.6
451.787	730.48
452.226	743.55
452.664	744.64
453.103	743.78
453.541	742.17
453.98	742.44
454.418	747.65
454.856	735.65
455.295	734.73
455.733	740.64
456.171	745.2
456.609	747.7
457.047	746.88
457.485	756.7
457.923	757.54
458.361	748.77
458.798	750.55
459.236	749.62
459.674	754.09
460.111	757.15
460.549	749.51
460.987	746.67
461.424	742.84
461.862	739.36
462.299	728.44
462.736	729.45
463.173	730.72
463.611	724.16
464.048	721.78
464.485	727.02
464.922	720.53
465.359	716.23
465.796	707.42
466.233	702.41
466.67	695.99
467.106	695.1
467.543	688.1
467.98	678.53
468.416	659.66
468.853	654.1
469.29	634.79
469.726	627.36
470.162	611.19
470.599	602.7
471.035	597.71
471.471	582.89
471.907	578.83
472.344	575.37
472.78	578.07
473.216	585.47
473.652	578.03
474.088	576.05
474.523	574.34
474.959	579.07
475.395	574.29
475.831	570.3
476.266	572.52
476.702	570.24
477.138	563.08
477.573	560.75
478.008	557.58
478.444	559.38
478.879	565.19
479.314	567.82
479.75	566.65
480.185	568.58
480.62	573.44
481.055	576.68
481.49	580.92
481.925	589.91
482.36	600.43
482.795	617.79
483.229	635.79
483.664	648.96
484.099	650.3
484.534	660.95
484.968	667.27
485.403	670.24
485.837	670.26
486.271	669.54
486.706	669.21
487.14	661.16
487.574	650.58
488.009	643.86
488.443	638.55
488.877	645.79
489.311	647.71
489.745	654.89
490.179	660.19
490.613	671.53
491.046	676.12
491.48	680.71
491.914	681.54
492.348	686.08
492.781	690.07
493.215	690.37
493.648	690.37
494.082	695.74
494.515	695.42
494.948	701.76
495.382	705.47
495.815	710.28
496.248	714.82
496.681	726.58
497.114	736.8
497.547	745.73
497.98	758.63
498.413	765.09
498.846	773.88
499.279	781.89
499.711	785.53
500.144	787.25
500.577	796.39
501.009	807.5
501.442	816.55
501.874	818.34
502.306	819.21
502.739	826.64
503.171	840.27
503.603	842.52
504.036	852.04
504.468	857.63
504.9	868.06
505.332	874.11
505.764	877.32
506.196	883.37
506.627	896.77
507.059	909.42
507.491	916.72
507.923	913.65
508.354	927.57
508.786	935.91
509.217	952.57
509.649	967.27
510.08	985.58
510.512	1001.66
510.943	1015.47
511.374	1025.71
511.805	1045.27
512.237	1062.82
512.668	1093.88
513.099	1119.91
513.53	1146.65
513.961	1166.41
514.391	1196.23
514.822	1227.71
515.253	1262.88
515.684	1287.09
516.114	1315.75
516.545	1336.14
516.975	1361.27
517.406	1378.29
517.836	1379.51
518.267	1385.1
518.697	1401.77
519.127	1405.32
519.558	1411.6
519.988	1413.23
520.418	1423.42
520.848	1438.66
521.278	1445.7
521.708	1456.39
522.138	1468.1
522.567	1498.12
522.997	1522.34
523.427	1536.48
523.857	1553.39
524.286	1562.67
524.716	1578.22
525.145	1596.26
525.575	1606.58
526.004	1621.31
526.433	1620.64
526.863	1621.44
527.292	1611.04
527.721	1616.68
528.15	1622.25
528.579	1621.57
529.008	1631.74
529.437	1652.72
529.866	1664.79
530.295	1681.66
530.724	1692.86
531.152	1718.8
531.581	1732.56
532.01	1750.05
532.438	1756.61
532.867	1770.74
533.295	1790.01
533.723	1796.23
534.152	1793.95
534.58	1794.14
535.008	1778.73
535.436	1781.11
535.865	1788.33
536.293	1801.69
536.721	1816.75
537.149	1842.34
537.576	1845.72
538.004	1856.98
538.432	1864.2
538.86	1862.53
539.287	1868.94
539.715	1882.87
540.143	1885.7
540.57	1882.3
540.998	1877.44
541.425	1854.65
541.852	1834.23
542.28	1831.37
542.707	1815.3
543.134	1801.51
543.561	1797.29
543.988	1790.39
544.415	1789.04
544.842	1782.04
545.269	1775.37
545.696	1778.31
546.123	1791.71
546.549	1782.21
546.976	1769.5
547.403	1769.19
547.829	1770.97
548.256	1773.33
548.682	1770.13
549.108	1762.42
549.535	1762.8
549.961	1763.53
550.387	1750.45
550.813	1744.61
551.24	1749.81
551.666	1750.88
552.092	1740.73
552.518	1734.33
552.943	1727.62
553.369	1734.82
553.795	1739.95
554.221	1740.96
554.646	1738.43
555.072	1749.23
555.498	1753.91
555.923	1764.07
556.349	1778.26
556.774	1787.7
557.199	1789.29
557.625	1795.9
558.05	1790.52
558.475	1802.08
558.9	1801.24
559.325	1794.47
559.75	1788.3
560.175	1782.28
560.6	1774.96
561.025	1774.67
561.449	1775.2
561.874	1780.88
562.299	1785.26
562.723	1791.88
563.148	1781.08
563.572	1784.59
563.997	1793.71
564.421	1798.54
564.846	1798.78
565.27	1802.16
565.694	1798.02
566.118	1808.14
566.542	1815.59
566.966	1809.17
567.39	1803.25
567.814	1792.72
568.238	1792.37
568.662	1796.92
569.086	1798.37
569.509	1804.98
569.933	1790.22
570.357	1782.11
570.78	1762.64
571.204	1748.61
571.627	1737.67
572.05	1736.89
572.474	1737.33
572.897	1724.45
573.32	1716.95
573.743	1708.4
574.166	1690.36
574.589	1690.53
575.012	1685.58
575.435	1684.85
575.858	1676.11
576.281	1665.75
576.704	1649.54
577.126	1635.59
577.549	1625.85
577.972	1615.61
578.394	1605.02
578.817	1597.4
579.239	1578.23
579.661	1563.1
580.084	1546.59
580.506	1533.53
580.928	1528.94
581.35	1518.39
581.772	1514.9
582.194	1501.49
582.616	1488.93
583.038	1474.81
583.46	1465.6
583.882	1462.62
584.303	1466.67
584.725	1462.49
585.147	1466.62
585.568	1476.92
585.99	1489.08
586.411	1495.91
586.833	1510.64
587.254	1512.24
587.675	1525.48
588.096	1538.07
588.518	1533.07
588.939	1517.78
589.36	1515.82
589.781	1503.88
590.202	1476.46
590.623	1467.79
591.043	1464.83
591.464	1451.92
591.885	1448.92
592.305	1444.49
592.726	1430.35
593.147	1431.24
593.567	1426.37
593.987	1419.76
594.408	1415.33
594.828	1414.33
595.248	1408.62
595.669	1391.64
596.089	1384.87
596.509	1378.93
596.929	1366.04
597.349	1367.8
597.769	1358.37
598.189	1353.04
598.608	1354.79
599.028	1356.9
599.448	1356.46
599.867	1344.24
600.287	1339.62
600.706	1336.33
601.126	1326.57
601.545	1325.05
601.965	1323.33
602.384	1317.87
602.803	1320.79
603.222	1316.35
603.641	1309.41
604.061	1304.98
604.48	1301.73
604.898	1310.71
605.317	1315.61
605.736	1317.32
606.155	1315.34
606.574	1306.28
606.992	1311.98
607.411	1306.28
607.829	1297.59
608.248	1294.5
608.666	1292.27
609.085	1290.8
609.503	1280.91
609.921	1273.97
610.339	1276.08
610.758	1274.14
611.176	1270.12
611.594	1261.08
612.012	1257.88
612.43	1260.97
612.847	1264.81
613.265	1265.38
613.683	1268.93
614.101	1269.72
614.518	1265.66
614.936	1254.42
615.353	1239.98
615.771	1234.52
616.188	1234.16
616.606	1229.74
617.023	1222.47
617.44	1209.47
617.857	1202.92
618.274	1195.09
618.691	1189.22
619.108	1179.96
619.525	1175.14
619.942	1181.79
620.359	1185.52
620.776	1179.6
621.192	1176.45
621.609	1173.66
622.026	1180.6
622.442	1186.39
622.859	1189.05
623.275	1181.94
623.691	1187.74
624.108	1198.91
624.524	1211.51
624.94	1211.5
625.356	1221.51
625.772	1232.8
626.188	1244.65
626.604	1246.39
627.02	1242.56
627.436	1239.69
627.852	1246.98
628.268	1256.58
628.683	1247.14
629.099	1238.39
629.514	1233.8
629.93	1237.58
630.345	1242.79
630.761	1238.29
631.176	1240.39
631.591	1234.44
632.007	1229.99
632.422	1227.76
632.837	1217.96
633.252	1216.61
633.667	1207.88
634.082	1200.2
634.497	1188.36
634.911	1170.18
635.326	1167.71
635.741	1152.74
636.155	1143.82
636.57	1145.46
636.984	1145.88
637.399	1148.5
637.813	1148.48
638.228	1148.4
638.642	1152.09
639.056	1143.13
639.47	1143.43
639.884	1135.6
640.298	1130.11
640.712	1129.61
641.126	1119.32
641.54	1111.95
641.954	1108.51
642.368	1098.29
642.781	1092.94
643.195	1077.12
643.609	1079.14
644.022	1075.31
644.436	1073.63
644.849	1063.56
645.262	1053.47
645.676	1056.16
646.089	1053.05
646.502	1039.82
646.915	1035.06
647.328	1018.55
647.741	1018.21
648.154	1006.19
648.567	1004.42
648.98	991.51
649.393	992.7
649.805	990
650.218	982.13
650.631	966.56
651.043	960.7
651.456	954.29
651.868	955.57
652.28	971.11
652.693	984.43
653.105	989.78
653.517	998.4
653.929	997.77
654.341	1002.63
654.753	989.49
655.165	996.4
655.577	992.1
655.989	988.39
656.401	979.52
656.813	945.88
657.224	925.5
657.636	898.75
658.047	881.72
658.459	863.88
658.87	855.13
659.282	845.22
659.693	824.6
660.104	812.75
660.515	800.14
660.926	800.28
661.338	797.13
661.749	792.18
662.159	783.52
662.57	780.06
662.981	775.4
663.392	768.67
663.803	772.72
664.213	771.71
664.624	766.8
665.035	770.15
665.445	755.98
665.855	749.78
666.266	742.72
666.676	740.56
667.086	732.5
667.497	732.88
667.907	727.95
668.317	720.22
668.727	717.38
669.137	718.8
669.547	716.36
669.956	719.41
670.366	721.4
670.776	722.9
671.186	726.44
671.595	728.46
672.005	730.8
672.414	730.77
672.824	728.77
673.233	731.22
673.642	732.91
674.052	735.63
674.461	737.84
674.87	741.62
675.279	738.51
675.688	739.48
676.097	741.06
676.506	737.8
676.915	749.41
677.323	751.61
677.732	749.77
678.141	747.58
678.549	737.03
678.958	735.24
679.366	733.41
679.775	737.63
680.183	746.67
680.592	752.05
681	756.72
681.408	750.47
681.816	756.07
682.224	764.11
682.632	773.07
683.04	798.51
683.448	819.45
683.856	846.44
684.264	876.82
684.671	904.39
685.079	938.31
685.487	975.98
685.894	1028.74
686.302	1072.05
686.709	1106.09
687.116	1147.65
687.524	1181.91
687.931	1210.05
688.338	1234.11
688.745	1252.97
689.152	1274.85
689.559	1307.98
689.966	1341.24
690.373	1355.99
690.78	1387.12
691.187	1438.25
691.593	1476.49
692	1510.75
692.407	1562.6
692.813	1627.03
693.22	1678.57
693.626	1732.87
694.032	1775.86
694.439	1842.09
694.845	1892.75
695.251	1959.13
695.657	2019.02
696.063	2107.98
696.469	2172.65
