Data from N_2_DIV_PA_2N_Splice17_12-39-33-230.txt Node
Date: Sat Mar 14 12:39:33 EDT 2020
User: sa697716
Spectrometer: FLMS03696
Trigger mode: 0
Integration Time (sec): 3.180400E-1
Scans to average: 20
Electric dark correction enabled: true
Nonlinearity correction enabled: true
Boxcar width: 5
XAxis mode: Wavelengths
Number of Pixels in Spectrum: 2048
>>>>>Begin Spectral Data<<<<<
187.83	-417838.48
188.298	3029.69
188.766	1610.01
189.233	1514.15
189.701	2092.72
190.169	2962.55
190.636	1131.99
191.104	909.25
191.571	185.14
192.039	-1.72
192.506	-19.25
192.974	626.69
193.441	-907.87
193.908	-152.2
194.375	22.74
194.842	79.05
195.31	263.93
195.777	230.09
196.244	464.43
196.711	535.96
197.177	653.23
197.644	938.28
198.111	1636.28
198.578	2250.69
199.045	1785.72
199.511	2899.71
199.978	3385.27
200.445	2878.55
200.911	3187.86
201.378	3564.58
201.844	3237.59
202.31	5530.26
202.777	5745.6
203.243	3182.46
203.709	3054.52
204.176	3632.08
204.642	3013.34
205.108	2822.32
205.574	2294.55
206.04	2071.38
206.506	1929.73
206.972	1831.3
207.438	1770.67
207.903	1999.53
208.369	1737.59
208.835	1715.6
209.301	1804.62
209.766	1835.94
210.232	1819.03
210.697	2239.12
211.163	2785.08
211.628	4194.5
212.094	3506.64
212.559	4304.29
213.024	2686.93
213.49	3293.96
213.955	3237
214.42	3143.11
214.885	2905.51
215.35	2756.38
215.815	2656.33
216.28	2814.33
216.745	2292.23
217.21	2462.31
217.675	2245.45
218.14	2502.95
218.604	2774.21
219.069	3135.22
219.534	3291.16
219.998	3791.92
220.463	4588.97
220.927	5589.58
221.392	5228.33
221.856	5277.97
222.32	6624.13
222.785	8175.64
223.249	10243.68
223.713	11381.1
224.177	11329.95
224.642	14473.2
225.106	17805.76
225.57	19395.72
226.034	14456.05
226.497	22000.59
226.961	19849.55
227.425	23067.5
227.889	25516.13
228.353	25503.01
228.816	52645.79
229.28	50354.87
229.744	42454.55
230.207	25796.5
230.671	25355.22
231.134	41764.23
231.597	48082.36
232.061	47936.94
232.524	46788.43
232.987	32177.39
233.45	28961.6
233.914	25978.69
234.377	26635.47
234.84	24327.01
235.303	28636.47
235.766	31965.01
236.229	33082.03
236.691	20804.17
237.154	23359.74
237.617	17567.51
238.08	18009.53
238.542	21094.89
239.005	15069.26
239.468	14937.41
239.93	14101.65
240.393	12823.77
240.855	11257.47
241.317	11524.59
241.78	14046.01
242.242	14547.16
242.704	15716.5
243.166	13662.22
243.629	12391.07
244.091	14277.6
244.553	15635.84
245.015	16774.91
245.477	21695.64
245.939	31773.3
246.4	33701.95
246.862	32729.82
247.324	30790.14
247.786	34398.13
248.247	45120.75
248.709	46589.29
249.17	34839.44
249.632	32889.14
250.093	38144.7
250.555	32920.07
251.016	20085.58
251.477	19048.27
251.939	20548.53
252.4	21553.06
252.861	25624.16
253.322	23837
253.783	28331.92
254.244	36740.69
254.705	28895.25
255.166	25679.05
255.627	25296.48
256.088	35667.72
256.549	37887.07
257.009	32580.59
257.47	39528.52
257.931	32172.59
258.391	24086.44
258.852	24813.38
259.312	26039.76
259.773	32186.25
260.233	27214.46
260.694	22952.72
261.154	26008.06
261.614	20890.8
262.074	18706.41
262.534	19457.64
262.994	18346.79
263.455	24435.52
263.915	20584.05
264.374	19347.76
264.834	21113.64
265.294	23370.24
265.754	24218.25
266.214	22924.99
266.673	21444.74
267.133	27064.15
267.593	26848.17
268.052	32831.6
268.512	28571.05
268.971	34460.19
269.431	37810.26
269.89	33887.77
270.349	50864.03
270.809	56725.73
271.268	51007.29
271.727	114470.63
272.186	74132.73
272.645	55564.75
273.104	40084.34
273.563	58020.95
274.022	45637.61
274.481	38839.66
274.94	29942.45
275.399	22230.15
275.857	25907.67
276.316	35044.41
276.775	31192.56
277.233	30734.61
277.692	28820.09
278.15	32623.69
278.609	33616.79
279.067	31150.16
279.525	28968.77
279.984	37374.11
280.442	44967.38
280.9	44311.41
281.358	29186.55
281.816	27204.76
282.274	26662.11
282.732	27543.66
283.19	27701.13
283.648	23895.11
284.106	25448.33
284.564	25858.37
285.021	24019.12
285.479	17911.25
285.937	16292.76
286.394	14317.27
286.852	14764.53
287.309	15528.52
287.767	15029.68
288.224	14297.3
288.682	15698.23
289.139	17263.23
289.596	15817.82
290.053	16419.03
290.511	20713.86
290.968	25117.64
291.425	33993.35
291.882	28310.78
292.339	24648.92
292.796	24444.44
293.252	23037.86
293.709	18308.01
294.166	16394.67
294.623	18117.82
295.079	17424.87
295.536	17526.6
295.992	15914.1
296.449	15754.28
296.905	16333.43
297.362	15658.08
297.818	16469.09
298.274	17129.48
298.731	17445.65
299.187	17275.98
299.643	18555.5
300.099	22443.06
300.555	24617.25
301.011	20587.47
301.467	19874.47
301.923	23306.66
302.379	22774.78
302.835	22386.3
303.291	22382.14
303.746	25488.13
304.202	32220.29
304.658	32340.26
305.113	21767.13
305.569	21329.23
306.024	22752.27
306.479	21672.47
306.935	18270.9
307.39	19935.59
307.845	18397.56
308.301	18530.98
308.756	18058.4
309.211	17408.21
309.666	17872.45
310.121	22179.05
310.576	22552.33
311.031	22393.95
311.486	25630.35
311.94	25642.28
312.395	34336.44
312.85	64562.55
313.305	317032.45
313.759	1646629.69
314.214	119308.02
314.668	94562.05
315.123	79531
315.577	28524.22
316.032	25380.17
316.486	31842.45
316.94	25155.75
317.394	17533.34
317.849	13635.46
318.303	12896.19
318.757	12158.45
319.211	13451.37
319.665	11765.1
320.119	11922.95
320.572	17096.08
321.026	15972.24
321.48	13295.73
321.934	14485.79
322.387	14500.07
322.841	15670.27
323.295	14134.86
323.748	16266.63
324.202	16505.34
324.655	19857.55
325.108	27796.81
325.562	19657.55
326.015	23367.34
326.468	17664.33
326.921	19771.79
327.374	18477.85
327.827	19281.07
328.28	21872.13
328.733	14679.14
329.186	12924.71
329.639	12325.85
330.092	10375.63
330.545	9884.3
330.997	9977.51
331.45	10928.32
331.903	12811.53
332.355	22034.62
332.808	21376.61
333.26	17596.52
333.713	19125.69
334.165	19270.98
334.617	25725.47
335.069	20788.68
335.522	37610.44
335.974	41663.7
336.426	38106.98
336.878	26432.63
337.33	13416.58
337.782	13107.3
338.234	16436.28
338.686	19663.35
339.137	23269.27
339.589	21926.98
340.041	17190.33
340.493	14751.71
340.944	15114.22
341.396	16275.84
341.847	13714.78
342.299	16223.88
342.75	19848.54
343.201	17333.55
343.653	19930.37
344.104	24498.95
344.555	19274.42
345.006	30038.09
345.457	23056.57
345.908	18343.93
346.359	17260.39
346.81	14034.49
347.261	14747.31
347.712	14538.4
348.163	15584.42
348.613	15804.79
349.064	14764.67
349.515	12927.05
349.965	13248.97
350.416	15961.48
350.866	17509.26
351.317	19810.17
351.767	32852.91
352.217	41538.27
352.668	34430.43
353.118	31572.55
353.568	30408.12
354.018	24096.89
354.468	25479.5
354.918	18326.39
355.368	16014.01
355.818	22634.47
356.268	65009.5
356.718	272060.03
357.168	67937.51
357.617	34095.79
358.067	37920.67
358.517	35541.35
358.966	41731.05
359.416	46807.81
359.865	50545.56
360.315	60350.8
360.764	28218.35
361.213	15842.38
361.663	14989.02
362.112	18451.39
362.561	29828.4
363.01	22524.77
363.459	18984.74
363.908	20545.23
364.357	17484.93
364.806	29524.82
365.255	20303.31
365.703	18633.27
366.152	18656.41
366.601	15190.22
367.05	12378.05
367.498	11285.68
367.947	11815.14
368.395	12286.86
368.844	10889.6
369.292	13124.49
369.74	9084.53
370.189	13920.97
370.637	16307.48
371.085	14084.02
371.533	17155.02
371.981	16517.15
372.429	15747.1
372.877	16412.08
373.325	13781.34
373.773	14041.65
374.221	12531.83
374.669	15576.07
375.116	13477.59
375.564	13614.02
376.012	15264.97
376.459	12620.01
376.907	15112.75
377.354	18306.8
377.801	17140.16
378.249	19734.07
378.696	25339.49
379.143	30733.93
379.591	32862.51
380.038	55780.81
380.485	40507.44
380.932	43970.33
381.379	40420.9
381.826	29930.82
382.273	21379.22
382.72	18744.03
383.166	18373.11
383.613	11982.09
384.06	10863.04
384.506	12629.6
384.953	9314.38
385.4	9406.82
385.846	8272.62
386.292	8089.43
386.739	7951.66
387.185	7902.28
387.631	7928.04
388.078	7724.03
388.524	8283.48
388.97	7674.07
389.416	6425.73
389.862	6866.71
390.308	6540.82
390.754	6667.3
391.2	7267.67
391.645	7456.64
392.091	7169.25
392.537	6967.18
392.983	7014.2
393.428	6935.34
393.874	7461.44
394.319	7530.05
394.765	7172.7
395.21	7381.9
395.655	6934.48
396.101	6513.05
396.546	5908.99
396.991	5973.19
397.436	5571.31
397.881	5386.1
398.326	5113.49
398.771	4854.72
399.216	4250.88
399.661	3836.1
400.106	3846.24
400.551	3956.64
400.995	3561.1
401.44	3529.7
401.885	3323.52
402.329	3364.8
402.774	3240.02
403.218	3146.19
403.663	3041.08
404.107	3139.67
404.551	3173.46
404.995	2914.7
405.44	2814.16
405.884	2860.38
406.328	2776.18
406.772	2774.12
407.216	2534.25
407.66	2453.51
408.104	2338.98
408.547	2191.81
408.991	2124.89
409.435	2053.04
409.879	2030.67
410.322	2011.1
410.766	1948.61
411.209	1855.23
411.653	1786.77
412.096	1753.67
412.54	1759.36
412.983	1746.74
413.426	1755.99
413.869	1758.38
414.312	1727.21
414.756	1667.31
415.199	1591.4
415.642	1546.89
416.085	1553.47
416.527	1544.39
416.97	1570.51
417.413	1491.89
417.856	1477.93
418.298	1464.77
418.741	1452.96
419.184	1452.04
419.626	1510.63
420.069	1512.91
420.511	1523.75
420.953	1491.33
421.396	1477.2
421.838	1440
422.28	1473.76
422.722	1484.53
423.164	1507.65
423.606	1486.66
424.048	1483.2
424.49	1412.08
424.932	1405.32
425.374	1385.7
425.816	1410.77
426.258	1438.23
426.699	1453.39
427.141	1433.32
427.582	1454.32
428.024	1447.98
428.465	1439.91
428.907	1406.45
429.348	1390.78
429.789	1393.1
430.231	1365.08
430.672	1384.21
431.113	1354.62
431.554	1335.8
431.995	1302.57
432.436	1258.45
432.877	1228.96
433.318	1209.69
433.759	1206.07
434.2	1207.88
434.64	1195.22
435.081	1199.71
435.522	1135.83
435.962	1094.07
436.403	1070.96
436.843	1087.58
437.284	1062.74
437.724	1035.49
438.164	1039.31
438.604	1015.41
439.045	976.81
439.485	935.46
439.925	914.62
440.365	892.08
440.805	880.42
441.245	872
441.685	839.04
442.125	833.08
442.564	838.27
443.004	815.23
443.444	811.42
443.883	809.87
444.323	804.29
444.762	804.99
445.202	815.08
445.641	829.18
446.081	822.61
446.52	829.19
446.959	818.79
447.398	797.87
447.837	787.15
448.276	771.93
448.716	778.32
449.154	782.92
449.593	764.25
450.032	758.86
450.471	743.21
450.91	742.11
451.349	740.13
451.787	736.93
452.226	746.75
452.664	745.49
453.103	746.07
453.541	744.22
453.98	743.51
454.418	747.78
454.856	737.2
455.295	735
455.733	738.58
456.171	739.9
456.609	742.34
457.047	742.22
457.485	755.26
457.923	757.44
458.361	747.15
458.798	748.25
459.236	744.97
459.674	749.42
460.111	752.41
460.549	745.48
460.987	742.22
461.424	738.04
461.862	734.18
462.299	722.31
462.736	720.04
463.173	722.36
463.611	714.13
464.048	714.22
464.485	720.81
464.922	715.19
465.359	711.75
465.796	705.05
466.233	699.8
466.67	692.74
467.106	689.97
467.543	683.9
467.98	675.2
468.416	657.57
468.853	650.58
469.29	630.37
469.726	621.96
470.162	605.66
470.599	594.98
471.035	588.56
471.471	574.44
471.907	571.15
472.344	566.74
472.78	567.61
473.216	575.67
473.652	568.73
474.088	566.46
474.523	564.81
474.959	569
475.395	563.82
475.831	559.98
476.266	561.94
476.702	558.49
477.138	551.62
477.573	549.41
478.008	546.1
478.444	548.24
478.879	553.42
479.314	555.56
479.75	555.03
480.185	556.68
480.62	561.42
481.055	563.45
481.49	568.12
481.925	575.7
482.36	585.56
482.795	600.54
483.229	615.36
483.664	626.74
484.099	627.31
484.534	635.85
484.968	641.54
485.403	641.84
485.837	640.17
486.271	637.3
486.706	637.27
487.14	628.43
487.574	617.08
488.009	609.55
488.443	602.62
488.877	607.82
489.311	607.7
489.745	612.71
490.179	617.12
490.613	626.75
491.046	629.5
491.48	631.21
491.914	629.06
492.348	630.74
492.781	632.36
493.215	630.73
493.648	628.06
494.082	630.31
494.515	627.2
494.948	630.45
495.382	629.97
495.815	630.1
496.248	630.56
496.681	637.51
497.114	643.32
497.547	647.83
497.98	655.2
498.413	656.02
498.846	658.67
499.279	660.87
499.711	658.07
500.144	655.32
500.577	658.66
501.009	662.07
501.442	664.64
501.874	658.98
502.306	652.77
502.739	653.18
503.171	657.24
503.603	652.74
504.036	653
504.468	650.78
504.9	651.3
505.332	649.11
505.764	644.74
506.196	641.59
506.627	644.82
507.059	647.98
507.491	644.59
507.923	636.49
508.354	639.66
508.786	639.85
509.217	645.2
509.649	648.37
510.08	653.56
510.512	658.41
510.943	662.22
511.374	663.27
511.805	669.55
512.237	675.77
512.668	689.06
513.099	699.31
513.53	709.55
513.961	716.65
514.391	730.51
514.822	745.95
515.253	761.61
515.684	771.4
516.114	784.7
516.545	792.13
516.975	802.88
517.406	809.98
517.836	808.03
518.267	808.67
518.697	816.9
519.127	816.78
519.558	817.36
519.988	816.97
520.418	820.66
520.848	828.54
521.278	832.73
521.708	865.9
522.138	873.07
522.567	889.29
522.997	903.43
523.427	910.97
523.857	920.9
524.286	926.98
524.716	937.06
525.145	949
525.575	955.91
526.004	965.25
526.433	939.54
526.863	940.64
527.292	937.4
527.721	942.29
528.15	946.71
528.579	948.18
529.008	956.37
529.437	969.47
529.866	977.71
530.295	989.13
530.724	998.18
531.152	1014.17
531.581	1024.56
532.01	1036.81
532.438	1042.22
532.867	1051.45
533.295	1063.56
533.723	1067.78
534.152	1068.07
534.58	1068.95
535.008	1060.2
535.436	1063.17
535.865	1069.2
536.293	1077.36
536.721	1087.07
537.149	1103.68
537.576	1107.53
538.004	1116.35
538.432	1121.67
538.86	1122.95
539.287	1128.53
539.715	1138.28
540.143	1138.98
540.57	1137.71
540.998	1135.09
541.425	1123.21
541.852	1110.75
542.28	1109.53
542.707	1100.32
543.134	1092.43
543.561	1090.29
543.988	1086.59
544.415	1086.81
544.842	1083.97
545.269	1079.78
545.696	1082.76
546.123	1090.35
546.549	1085.46
546.976	1079.07
547.403	1079.56
547.829	1081.42
548.256	1082.33
548.682	1080.94
549.108	1077.32
549.535	1078.07
549.961	1080.04
550.387	1072.37
550.813	1070.35
551.24	1074.48
551.666	1074.98
552.092	1068.83
552.518	1065.5
552.943	1062.33
553.369	1066.12
553.795	1068.34
554.221	1068.88
554.646	1066.22
555.072	1073.04
555.498	1074.47
555.923	1078
556.349	1085.54
556.774	1090.2
557.199	1089.85
557.625	1091.91
558.05	1087.93
558.475	1093.31
558.9	1091.27
559.325	1085.3
559.75	1079.6
560.175	1073.62
560.6	1069.08
561.025	1066.53
561.449	1066.01
561.874	1068.31
562.299	1070.33
562.723	1072.59
563.148	1064.9
563.572	1064.6
563.997	1069.05
564.421	1069.43
564.846	1066.98
565.27	1067.42
565.694	1063.93
566.118	1067.76
566.542	1069.04
566.966	1062.54
567.39	1057.49
567.814	1050.23
568.238	1048.45
568.662	1048.99
569.086	1049.48
569.509	1052.52
569.933	1042.4
570.357	1037.58
570.78	1024.38
571.204	1017.09
571.627	1008.93
572.05	1006.88
572.474	1005.4
572.897	997.75
573.32	992.49
573.743	985.82
574.166	975.75
574.589	974.6
575.012	968.52
575.435	967.24
575.858	961.61
576.281	955.44
576.704	946.89
577.126	939.07
577.549	932.75
577.972	927.05
578.394	921.68
578.817	918.55
579.239	908.05
579.661	901.61
580.084	893.74
580.506	885.86
580.928	883.35
581.35	876.51
581.772	873.98
582.194	865.41
582.616	858.04
583.038	849.08
583.46	841.66
583.882	840.25
584.303	841.09
584.725	837.57
585.147	842.51
585.568	850.31
585.99	857.96
586.411	863.03
586.833	873.09
587.254	874.45
587.675	883.14
588.096	891.59
588.518	889.18
588.939	880.85
589.36	879.55
589.781	869.33
590.202	855.52
590.623	851.3
591.043	848.75
591.464	841.39
591.885	840.37
592.305	837.34
592.726	829.48
593.147	830.27
593.567	827.97
593.987	824.33
594.408	821.41
594.828	817.39
595.248	814.34
595.669	805.17
596.089	801.53
596.509	797.14
596.929	789.2
597.349	789.98
597.769	783.38
598.189	779.6
598.608	780.82
599.028	783.5
599.448	783.59
599.867	775.85
600.287	773.09
600.706	771.28
601.126	766.65
601.545	766.74
601.965	765.2
602.384	763.55
602.803	764.88
603.222	762.23
603.641	757.54
604.061	755.55
604.48	752.93
604.898	757.45
605.317	759.62
605.736	760.63
606.155	760.15
606.574	755.4
606.992	758.42
607.411	756.51
607.829	751.79
608.248	750.45
608.666	748.83
609.085	749.5
609.503	744.67
609.921	742.46
610.339	745.28
610.758	744.73
611.176	743.49
611.594	739.69
612.012	738.31
612.43	742.18
612.847	746.16
613.265	749.38
613.683	753.04
614.101	755.82
614.518	753.76
614.936	749.02
615.353	741.68
615.771	740.48
616.188	741.43
616.606	741.47
617.023	738.62
617.44	731.99
617.857	727.96
618.274	723.51
618.691	721.63
619.108	717.37
619.525	713.62
619.942	719.14
620.359	722.76
620.776	720.49
621.192	719.01
621.609	718.76
622.026	723.74
622.442	729.25
622.859	731.72
623.275	728.3
623.691	732.71
624.108	740.54
624.524	748.59
624.94	748.3
625.356	754.81
625.772	763
626.188	769.37
626.604	770.23
627.02	767.31
627.436	766.95
627.852	771.04
628.268	779.02
628.683	773.63
629.099	769.11
629.514	766.5
629.93	768.74
630.345	771.99
630.761	769.98
631.176	772.73
631.591	771.78
632.007	769.33
632.422	767.79
632.837	760.62
633.252	760.88
633.667	756.46
634.082	752.2
634.497	746.34
634.911	737.62
635.326	737.29
635.741	729.32
636.155	724.58
636.57	729.08
636.984	732.3
637.399	738.06
637.813	740.4
638.228	742.54
638.642	749
639.056	745.69
639.47	748.62
639.884	747.74
640.298	747.54
640.712	751.13
641.126	747.23
641.54	746.18
641.954	745.83
642.368	743.69
642.781	745.6
643.195	739.04
643.609	745.15
644.022	745.29
644.436	747.33
644.849	745.55
645.262	741.68
645.676	746.03
646.089	747.97
646.502	743.17
646.915	742.93
647.328	734.46
647.741	736.79
648.154	731.31
648.567	734.04
648.98	728.65
649.393	730.89
649.805	732.28
650.218	729.79
650.631	719.77
651.043	717.57
651.456	715.99
651.868	717.37
652.28	731.14
652.693	742.41
653.105	748.28
653.517	757.19
653.929	759.82
654.341	765.46
654.753	760.42
655.165	768.08
655.577	768.57
655.989	767.81
656.401	764.83
656.813	742.96
657.224	731.72
657.636	713.5
658.047	704.39
658.459	694.74
658.87	692.13
659.282	686.85
659.693	676.96
660.104	671.12
660.515	666.77
660.926	672.94
661.338	675.66
661.749	675.67
662.159	674.34
662.57	675.54
662.981	676.05
663.392	674.87
663.803	683.57
664.213	685.83
664.624	686.55
665.035	693.41
665.445	684.5
665.855	682.36
666.266	681.29
666.676	683.98
667.086	680.48
667.497	683.93
667.907	682.43
668.317	677.46
668.727	678.74
669.137	682.6
669.547	682.18
669.956	687.68
670.366	691.62
670.776	695.35
671.186	700.45
671.595	704.8
672.005	708.46
672.414	710.16
672.824	709.6
673.233	712.77
673.642	714.49
674.052	718.15
674.461	719.07
674.87	722.42
675.279	718.98
675.688	718.95
676.097	719.66
676.506	717.08
676.915	727.99
677.323	728.82
677.732	726.51
678.141	726.01
678.549	714.35
678.958	711.5
679.366	709.43
679.775	711.25
680.183	719.9
680.592	722.52
681	723.9
681.408	713.78
681.816	717.71
682.224	721.41
682.632	725.24
683.04	745.68
683.448	760.73
683.856	780.39
684.264	802.54
684.671	817.75
685.079	838.82
685.487	862.07
685.894	897.81
686.302	920.87
686.709	935.72
687.116	952.38
687.524	962.85
687.931	968.25
688.338	966.16
688.745	958.33
689.152	955.7
689.559	962.22
689.966	968.05
690.373	959.05
690.78	962.81
691.187	980.57
691.593	988.38
692	993.15
692.407	1010.8
692.813	1041.22
693.22	1063.62
693.626	1086.64
694.032	1103.42
694.439	1135.95
694.845	1161.17
695.251	1196.88
695.657	1230.12
696.063	1284.36
696.469	1326.81
696.875	1367.43
697.281	1390.6
697.687	1422.98
698.093	1452.83
698.498	1504.47
698.904	1546.74
699.31	1610.49
699.715	1663.45
700.12	1732.65
700.526	1761.99
700.931	1819.82
701.337	1871.05
701.742	1912.92
702.147	1985.73
702.552	2027.18
702.957	2087.72
703.362	2124.9
