Data from N_2_HIR_WI_4N_Splice17_12-32-14-574.txt Node
Date: Sat Mar 14 12:32:14 EDT 2020
User: sa697716
Spectrometer: FLMS03696
Trigger mode: 0
Integration Time (sec): 3.180400E-1
Scans to average: 20
Electric dark correction enabled: true
Nonlinearity correction enabled: true
Boxcar width: 5
XAxis mode: Wavelengths
Number of Pixels in Spectrum: 2048
>>>>>Begin Spectral Data<<<<<
187.83	-335801.74
188.298	2341.31
188.766	1264.93
189.233	1138.57
189.701	1681.95
190.169	2400.64
190.636	918.34
191.104	742.99
191.571	177.6
192.039	-14.94
192.506	-39.3
192.974	455.66
193.441	-799.44
193.908	-281.28
194.375	-55.47
194.842	69.31
195.31	191.85
195.777	222.44
196.244	421.96
196.711	528.53
197.177	652.91
197.644	917.93
198.111	1573.04
198.578	2211.97
199.045	1761.77
199.511	2856.67
199.978	3338.5
200.445	2842.7
200.911	3116.85
201.378	3474.9
201.844	3120.45
202.31	5283.39
202.777	5506.91
203.243	3074.89
203.709	2917.21
204.176	3522.1
204.642	2926.48
205.108	2708.46
205.574	2213.3
206.04	2012.04
206.506	1896.7
206.972	1789.25
207.438	1746.19
207.903	1969.84
208.369	1729.19
208.835	1731.84
209.301	1810.8
209.766	1844.6
210.232	1833.63
210.697	2270.28
211.163	2808.32
211.628	4241.06
212.094	3584.63
212.559	4384.77
213.024	2737.33
213.49	3327.96
213.955	3235.27
214.42	3136.99
214.885	2917.96
215.35	2799.45
215.815	2675.94
216.28	2844.87
216.745	2314.56
217.21	2494.02
217.675	2295.83
218.14	2590.86
218.604	2892.72
219.069	3294.58
219.534	3471.02
219.998	4041.38
220.463	4901.92
220.927	6068.73
221.392	5727.79
221.856	5808.7
222.32	7349.36
222.785	9085.74
223.249	11439.82
223.713	12779.38
224.177	12815.24
224.642	16466.15
225.106	20277.43
225.57	22209.71
226.034	16508.01
226.497	25137.57
226.961	22752.47
227.425	26488.85
227.889	29436.02
228.353	29472.25
228.816	60853.31
229.28	58260.71
229.744	49151.07
230.207	29904.81
230.671	29428.3
231.134	48827.96
231.597	56359.47
232.061	56379.69
232.524	55034.17
232.987	37920.45
233.45	34156.84
233.914	30673.2
234.377	31412.04
234.84	28757.98
235.303	33926.08
235.766	37883.65
236.229	39111.34
236.691	24654.67
237.154	27690.31
237.617	20841.62
238.08	21346.88
238.542	24984.43
239.005	17863.48
239.468	17755.21
239.93	16745.87
240.393	15221.83
240.855	13367.4
241.317	13679.55
241.78	16640.09
242.242	17213.3
242.704	18586.29
243.166	16177.64
243.629	14700.88
244.091	16955.01
244.553	18570.06
245.015	19967.66
245.477	25843.67
245.939	37878.95
246.4	40206.06
246.862	39063.78
247.324	36827.73
247.786	41201
248.247	53975.84
248.709	55673.94
249.17	41609.66
249.632	39261.01
250.093	45491.64
250.555	39287.6
251.016	23938.89
251.477	22709.1
251.939	24531.32
252.4	25730.55
252.861	30598.41
253.322	28489.25
253.783	33928.01
254.244	43965.25
254.705	34604.58
255.166	30747.29
255.627	30267.37
256.088	42665.79
256.549	45266.75
257.009	38889.57
257.47	47122.45
257.931	38357.49
258.391	28709.35
258.852	29557.47
259.312	30997.36
259.773	38272.23
260.233	32319.69
260.694	27207.14
261.154	30867.31
261.614	24773.07
262.074	22145.52
262.534	22997.93
262.994	21653.27
263.455	28804
263.915	24242.33
264.374	22814.78
264.834	24889.55
265.294	27555.73
265.754	28526.5
266.214	27001.66
266.673	25266.53
267.133	31887.69
267.593	31614.98
268.052	38651
268.512	33604.61
268.971	40534.12
269.431	44433.3
269.89	39772.95
270.349	59583.52
270.809	66418.11
271.268	59664.23
271.727	133922.03
272.186	86683.65
272.645	65018.65
273.104	46891.54
273.563	67899.71
274.022	53355.15
274.481	45357.92
274.94	34932.85
275.399	25988.75
275.857	30252.61
276.316	40904.54
276.775	36373.46
277.233	35826.15
277.692	33517.54
278.15	37932.2
278.609	39013.05
279.067	36096.98
279.525	33551.4
279.984	43331.84
280.442	52072.29
280.9	51336.45
281.358	33752.16
281.816	31457.34
282.274	30777.48
282.732	31776.22
283.19	31933.54
283.648	27585.76
284.106	29366
284.564	29846.75
285.021	27668.3
285.479	20608.73
285.937	18743.94
286.394	16450.15
286.852	16933.07
287.309	17787.7
287.767	17189.39
288.224	16350.05
288.682	17920.91
289.139	19671.59
289.596	17989.32
290.053	18691.39
290.511	23562.72
290.968	28563.65
291.425	38739.31
291.882	32189.64
292.339	28021.3
292.796	27821.48
293.252	26171.43
293.709	20764.66
294.166	18603.26
294.623	20572.68
295.079	19748.47
295.536	19845.41
295.992	18004.65
296.449	17812.18
296.905	18520.41
297.362	17755.48
297.818	18672.85
298.274	19387.04
298.731	19766.21
299.187	19560.6
299.643	20984.26
300.099	25375.53
300.555	27833.93
301.011	23293.45
301.467	22435.38
301.923	26253.54
302.379	25646.57
302.835	25191.41
303.291	25220.13
303.746	28724.74
304.202	36309.75
304.658	36424.12
305.113	24502.7
305.569	24015.9
306.024	25570.2
306.479	24342.21
306.935	20556.54
307.39	22463.79
307.845	20727.31
308.301	20863.44
308.756	20312.43
309.211	19583.98
309.666	20100.02
310.121	24964.55
310.576	25305.28
311.031	25118.23
311.486	28778.1
311.94	28737.22
312.395	38413.89
312.85	72290.58
313.305	355344.76
313.759	1843335.64
314.214	133616.37
314.668	105818.33
315.123	88964.28
315.577	31929.37
316.032	28427.71
316.486	35667.67
316.94	28161.63
317.394	19610.97
317.849	15231.4
318.303	14410.15
318.757	13574.61
319.211	14990.98
319.665	13144.01
320.119	13299.38
320.572	19088.22
321.026	17845.73
321.48	14842
321.934	16183.73
322.387	16217.56
322.841	17543.8
323.295	15776.27
323.748	18170.85
324.202	18443.39
324.655	22118.05
325.108	30952.51
325.562	21874.71
326.015	26003.68
326.468	19691.46
326.921	22011.89
327.374	20544.97
327.827	21417.07
328.28	24256.13
328.733	16288.45
329.186	14330.17
329.639	13685.46
330.092	11543.48
330.545	10996.56
330.997	11087.83
331.45	12113.38
331.903	14211.2
332.355	24457.59
332.808	23737.94
333.26	19585.86
333.713	21274.27
334.165	21436.28
334.617	28585.21
335.069	23067.04
335.522	41679.28
335.974	46222.37
336.426	42313.5
336.878	29281.29
337.33	14858.22
337.782	14511.7
338.234	18219.29
338.686	21790.37
339.137	25798.34
339.589	24337.11
340.041	19062.98
340.493	16403.46
340.944	16782.36
341.396	18041.38
341.847	15190.66
342.299	17932.61
342.75	21911.03
343.201	19154
343.653	22008.17
344.104	27059.31
344.555	21273.26
345.006	33187.26
345.457	25484.1
345.908	20258.14
346.359	19087
346.81	15557.53
347.261	16390.43
347.712	16118.31
348.163	17243.08
348.613	17458.01
349.064	16299.43
349.515	14282.02
349.965	14623.49
350.416	17576.24
350.866	19283.48
351.317	21791.29
351.767	36045.01
352.217	45523.73
352.668	37820.91
353.118	34673.57
353.568	33460.25
354.018	26535.2
354.468	27985.47
354.918	20054.09
355.368	17552.93
355.818	24782.54
356.268	71252.96
356.718	298668.83
357.168	74444.28
357.617	37382.47
358.067	41575.12
358.517	38971.33
358.966	45670.15
359.416	51278.49
359.865	55535.75
360.315	66190.41
360.764	30943.41
361.213	17374.94
361.663	16457.17
362.112	20311.69
362.561	32786.83
363.01	24795.53
363.459	20863.84
363.908	22580.42
364.357	19187.94
364.806	32412.23
365.255	22282.21
365.703	20410.81
366.152	20424.27
366.601	16563.63
367.05	13464.01
367.498	12267.6
367.947	12818.26
368.395	13356.88
368.844	11826.44
369.292	14259.53
369.74	9859.15
370.189	15106.68
370.637	17732.49
371.085	15338.6
371.533	18707.76
371.981	18021.08
372.429	17189.84
372.877	17902.28
373.325	15018.02
373.773	15353.13
374.221	13702.92
374.669	17045.17
375.116	14762.46
375.564	14890.46
376.012	16660.5
376.459	13760.06
376.907	16492.86
377.354	19972.71
377.801	18692.61
378.249	21513.72
378.696	27560.72
379.143	33475.42
379.591	35764.46
380.038	60703.23
380.485	44055.46
380.932	47678.77
381.379	43772.04
381.826	32405.68
382.273	23144.37
382.72	20265.56
383.166	19811.89
383.613	12881.13
384.06	11630.04
384.506	13513.04
384.953	9958.66
385.4	10082.5
385.846	8872.32
386.292	8680.86
386.739	8509.24
387.185	8435.01
387.631	8475.08
388.078	8265.65
388.524	8878.76
388.97	8225.26
389.416	6893.69
389.862	7353.33
390.308	6988.68
390.754	7132.51
391.2	7781.63
391.645	7998.6
392.091	7677.27
392.537	7469.83
392.983	7521.4
393.428	7431.05
393.874	8011.96
394.319	8065.17
394.765	7687.71
395.21	7932.32
395.655	7452.84
396.101	6995.96
396.546	6333.72
396.991	6420.22
397.436	5970.88
397.881	5783.34
398.326	5500.68
398.771	5218.31
399.216	4577.1
399.661	4132.8
400.106	4127.16
400.551	4243.21
400.995	3815.06
401.44	3784.3
401.885	3563.42
402.329	3607.87
402.774	3460.93
403.218	3346.99
403.663	3233.44
404.107	3329.37
404.551	3360.53
404.995	3090.75
405.44	2979.22
405.884	3031.99
406.328	2939.51
406.772	2936.64
407.216	2681.91
407.66	2598
408.104	2477.92
408.547	2320.41
408.991	2246.61
409.435	2167.6
409.879	2137.49
410.322	2113.38
410.766	2042.48
411.209	1941.68
411.653	1862.6
412.096	1825.81
412.54	1828.65
412.983	1817.28
413.426	1825.03
413.869	1825.95
414.312	1790.73
414.756	1727.93
415.199	1650.17
415.642	1602.77
416.085	1607.12
416.527	1597.69
416.97	1622.43
417.413	1539.45
417.856	1524.52
418.298	1508.27
418.741	1499
419.184	1497.17
419.626	1560.39
420.069	1561.74
420.511	1572.55
420.953	1539.12
421.396	1527.35
421.838	1490.72
422.28	1526.4
422.722	1533.74
423.164	1556.37
423.606	1530.79
424.048	1524.52
424.49	1446.96
424.932	1438.94
425.374	1417.92
425.816	1441.85
426.258	1469.73
426.699	1484.42
427.141	1459.92
427.582	1482.12
428.024	1476.72
428.465	1468.06
428.907	1434.27
429.348	1418.48
429.789	1417.98
430.231	1388.91
430.672	1408.52
431.113	1373.28
431.554	1352.1
431.995	1319.29
432.436	1269.5
432.877	1238.19
433.318	1218.47
433.759	1212.56
434.2	1213.75
434.64	1199.76
435.081	1203.53
435.522	1140.29
435.962	1099.3
436.403	1077.7
436.843	1094.38
437.284	1072.71
437.724	1046.12
438.164	1050.44
438.604	1028.91
439.045	990.83
439.485	950.86
439.925	929.1
440.365	909.09
440.805	900.14
441.245	890.2
441.685	859.08
442.125	854.33
442.564	862.63
443.004	842.11
443.444	841.75
443.883	842.02
444.323	839.23
444.762	844.35
445.202	856.06
445.641	873.48
446.081	869.74
446.52	878.2
446.959	871.08
447.398	849.88
447.837	842.52
448.276	828.94
448.716	839.38
449.154	848.09
449.593	829.4
450.032	827.9
450.471	813.46
450.91	816.25
451.349	816.6
451.787	815.18
452.226	829.16
452.664	829.81
453.103	832.68
453.541	833.35
453.98	832.67
454.418	840.12
454.856	829.04
455.295	828.93
455.733	836.15
456.171	841.96
456.609	845.19
457.047	845.72
457.485	859.34
457.923	861.87
458.361	850.51
458.798	852.97
459.236	851.74
459.674	858.31
460.111	862.58
460.549	853.64
460.987	849.2
461.424	845.57
461.862	842.02
462.299	828.26
462.736	826.01
463.173	828.85
463.611	821.53
464.048	818.81
464.485	825.11
464.922	816.41
465.359	812.53
465.796	802
466.233	796.84
466.67	788.52
467.106	786.63
467.543	778.92
467.98	769.59
468.416	749.24
468.853	743.03
469.29	720.86
469.726	713.14
470.162	695.72
470.599	686.93
471.035	679.97
471.471	663.27
471.907	660.26
472.344	657.71
472.78	658.31
473.216	667.37
473.652	659.22
474.088	656.86
474.523	654.93
474.959	659.26
475.395	653.74
475.831	649.37
476.266	654.02
476.702	651.88
477.138	643.95
477.573	642.94
478.008	639.88
478.444	643.02
478.879	649.54
479.314	652.14
479.75	652.02
480.185	654.8
480.62	661.04
481.055	663.78
481.49	669.68
481.925	680.38
482.36	692.07
482.795	711.23
483.229	730.9
483.664	746.41
484.099	750.53
484.534	762.26
484.968	770.33
485.403	773.28
485.837	774.15
486.271	773.35
486.706	774.96
487.14	767.24
487.574	756.48
488.009	750.17
488.443	743.89
488.877	752.59
489.311	756.56
489.745	766
490.179	774.1
490.613	788.1
491.046	795.01
491.48	802
491.914	803.72
492.348	810.24
492.781	815.64
493.215	819.14
493.648	820.9
494.082	827.71
494.515	829.29
494.948	839.11
495.382	846.48
495.815	853.01
496.248	859.52
496.681	876.02
497.114	891.1
497.547	905.19
497.98	921.82
498.413	930.72
498.846	943.96
499.279	956.24
499.711	962.5
500.144	966.45
500.577	980.34
501.009	995.89
501.442	1009.52
501.874	1011.78
502.306	1015.5
502.739	1025.57
503.171	1044.05
503.603	1049.13
504.036	1061.3
504.468	1069.85
504.9	1085.07
505.332	1094.69
505.764	1101.36
506.196	1109.07
506.627	1128.19
507.059	1145.43
507.491	1157.35
507.923	1155.89
508.354	1174.74
508.786	1188.53
509.217	1210.61
509.649	1228.79
510.08	1250.68
510.512	1270.24
510.943	1289.26
511.374	1303.09
511.805	1327.67
512.237	1350.4
512.668	1390.22
513.099	1423.27
513.53	1455.23
513.961	1480.04
514.391	1516.92
514.822	1556.53
515.253	1598.86
515.684	1628.91
516.114	1662.24
516.545	1685.05
516.975	1715.23
517.406	1733.07
517.836	1733.26
518.267	1739.87
518.697	1757.8
519.127	1761.93
519.558	1769.42
519.988	1771.67
520.418	1781.66
520.848	1800.72
521.278	1809.24
521.708	1822.91
522.138	1837.48
522.567	1872.91
522.997	1901.03
523.427	1919.32
523.857	1938.04
524.286	1947.95
524.716	1964.24
525.145	1985.36
525.575	1996.74
526.004	2013.76
526.433	2009.76
526.863	2007.15
527.292	1993.99
527.721	1999.25
528.15	2003.3
528.579	2003.06
529.008	2015
529.437	2040.76
529.866	2055.51
530.295	2075.72
530.724	2088.96
531.152	2118.65
531.581	2135.75
532.01	2155.77
532.438	2165.19
532.867	2183.87
533.295	2204.36
533.723	2210.71
534.152	2207.39
534.58	2207.94
535.008	2189.65
535.436	2190.86
535.865	2202.04
536.293	2218.78
536.721	2238.16
537.149	2267.24
537.576	2269.73
538.004	2284.51
538.432	2293.89
538.86	2291.21
539.287	2298.75
539.715	2313.59
540.143	2317.17
540.57	2310.53
540.998	2305.8
541.425	2277.8
541.852	2253.98
542.28	2250.54
542.707	2230.41
543.134	2213.74
543.561	2209.5
543.988	2200.43
544.415	2199.5
544.842	2192.68
545.269	2184.15
545.696	2186.59
546.123	2201.32
546.549	2187.2
546.976	2171.85
547.403	2171.35
547.829	2173.08
548.256	2174.86
548.682	2169.19
549.108	2159.91
549.535	2158.37
549.961	2160.48
550.387	2143.75
550.813	2136.23
551.24	2144.18
551.666	2144.73
552.092	2133.44
552.518	2126.05
552.943	2118.04
553.369	2127.14
553.795	2132.99
554.221	2135.04
554.646	2131.51
555.072	2144.76
555.498	2151.38
555.923	2162.74
556.349	2180.89
556.774	2190.83
557.199	2192.08
557.625	2199.73
558.05	2192.37
558.475	2206.4
558.9	2205.62
559.325	2197.2
559.75	2189.58
560.175	2181.81
560.6	2173.85
561.025	2172.77
561.449	2175.24
561.874	2183.16
562.299	2190.06
562.723	2202.21
563.148	2191
563.572	2197.21
563.997	2209.05
564.421	2216.48
564.846	2219.1
565.27	2224.69
565.694	2222.94
566.118	2238.03
566.542	2247.14
566.966	2239.87
567.39	2234.33
567.814	2222.19
568.238	2222.49
568.662	2230.92
569.086	2235.91
569.509	2245.56
569.933	2229.35
570.357	2221.89
570.78	2197.56
571.204	2183.72
571.627	2173.2
572.05	2171.87
572.474	2172.18
572.897	2158.3
573.32	2149.39
573.743	2139.39
574.166	2117.43
574.589	2117.5
575.012	2108.31
575.435	2108.55
575.858	2098.57
576.281	2085.3
576.704	2066.55
577.126	2053.04
577.549	2038.91
577.972	2027.71
578.394	2015.62
578.817	2008.05
579.239	1985.77
579.661	1970.57
580.084	1950.96
580.506	1934.43
580.928	1929.93
581.35	1916.74
581.772	1911.89
582.194	1896.9
582.616	1880.99
583.038	1863.78
583.46	1851.5
583.882	1848.02
584.303	1854.81
584.725	1850.28
585.147	1852.16
585.568	1865.49
585.99	1880.99
586.411	1889.43
586.833	1908.2
587.254	1911.81
587.675	1929.85
588.096	1946.31
588.518	1940.94
588.939	1920.64
589.36	1919.01
589.781	1908.7
590.202	1874.32
590.623	1864.8
591.043	1863.37
591.464	1848.49
591.885	1843.94
592.305	1836.54
592.726	1819.33
593.147	1820.99
593.567	1814.67
593.987	1806.35
594.408	1799.88
594.828	1798.92
595.248	1792.04
595.669	1769.73
596.089	1760.59
596.509	1753.15
596.929	1737.05
597.349	1738.58
597.769	1726.2
598.189	1718.46
598.608	1719.69
599.028	1723.31
599.448	1723.46
599.867	1707.33
600.287	1701.04
600.706	1696.43
601.126	1685.1
601.545	1683.85
601.965	1682.87
602.384	1676.97
602.803	1680.27
603.222	1674.12
603.641	1665.14
604.061	1659.66
604.48	1655.27
604.898	1665.97
605.317	1672.3
605.736	1673.89
606.155	1670.27
606.574	1658.32
606.992	1665.44
607.411	1659.94
607.829	1650.9
608.248	1647.6
608.666	1646.23
609.085	1644.89
609.503	1635.02
609.921	1627.52
610.339	1630.16
610.758	1628.96
611.176	1623.25
611.594	1611.73
612.012	1606.65
612.43	1609.94
612.847	1618.58
613.265	1618.75
613.683	1625.63
614.101	1625.39
614.518	1620.17
614.936	1608.15
615.353	1590.63
615.771	1589.15
616.188	1590.74
616.606	1586.79
617.023	1579.19
617.44	1560.7
617.857	1553.28
618.274	1541.33
618.691	1535
619.108	1524.31
619.525	1517.48
619.942	1526.36
620.359	1528.19
620.776	1521.11
621.192	1517.59
621.609	1513.78
622.026	1522.03
622.442	1528.85
622.859	1533.85
623.275	1524.77
623.691	1530.95
624.108	1544.8
624.524	1562.42
624.94	1562.15
625.356	1574.19
625.772	1588.98
626.188	1604.44
626.604	1606.96
627.02	1601.51
627.436	1598.34
627.852	1607.62
628.268	1622.12
628.683	1611.84
629.099	1601.21
629.514	1595.71
629.93	1600.03
630.345	1605.99
630.761	1601.21
631.176	1605.35
631.591	1598.06
632.007	1592.35
632.422	1589.26
632.837	1577.02
633.252	1573.09
633.667	1560.96
634.082	1550.43
634.497	1535.09
634.911	1511.26
635.326	1507.98
635.741	1488.1
636.155	1476.89
636.57	1477.88
636.984	1478.16
637.399	1480.91
637.813	1481.22
638.228	1481.21
638.642	1487.21
639.056	1476.29
639.47	1478.16
639.884	1467.33
640.298	1459.93
640.712	1459.27
641.126	1444.15
641.54	1434.84
641.954	1428.29
642.368	1414.01
642.781	1403.72
643.195	1382.23
643.609	1381.67
644.022	1374.47
644.436	1370.3
644.849	1357.01
645.262	1342.89
645.676	1346.22
646.089	1339.85
646.502	1322.01
646.915	1315.43
647.328	1294.45
647.741	1293.18
648.154	1278.67
648.567	1273.85
648.98	1256.48
649.393	1255.19
649.805	1248.96
650.218	1239.02
650.631	1218.97
651.043	1210.03
651.456	1202.09
651.868	1203.33
652.28	1222.99
652.693	1238.58
653.105	1245.95
653.517	1257.96
653.929	1256.96
654.341	1263.19
654.753	1246.63
655.165	1253.34
655.577	1249.39
655.989	1243.39
656.401	1231.46
656.813	1186.33
657.224	1159.97
657.636	1125.02
658.047	1101.48
658.459	1076.27
658.87	1064.28
659.282	1048.65
659.693	1022.81
660.104	1003.68
660.515	985.74
660.926	982.88
661.338	976.88
661.749	968.3
662.159	955.26
662.57	948.02
662.981	940.61
663.392	929.91
663.803	932.68
664.213	927.72
664.624	920.95
665.035	922.64
665.445	904.51
665.855	895.07
666.266	883.83
666.676	880.5
667.086	868.54
667.497	866.57
667.907	858.49
668.317	847.43
668.727	842.14
669.137	842.05
669.547	838.05
669.956	840.78
670.366	841.25
670.776	841.82
671.186	844.01
671.595	847.97
672.005	851.08
672.414	849.75
672.824	847.05
673.233	851.05
673.642	853.69
674.052	856.38
674.461	856.52
674.87	861.93
675.279	858.87
675.688	860.16
676.097	859.65
676.506	856.48
676.915	872.56
677.323	876.47
677.732	875.16
678.141	873.78
678.549	861.95
678.958	861.96
679.366	860.41
679.775	866.64
680.183	879.01
680.592	887.87
681	895.01
681.408	888.52
681.816	897.45
682.224	908.11
682.632	920.74
683.04	955.14
683.448	983.78
683.856	1021.53
684.264	1063.18
684.671	1102.22
685.079	1148.7
685.487	1201.29
685.894	1273.89
686.302	1335.14
686.709	1384.17
687.116	1442.27
687.524	1490.19
687.931	1531.17
688.338	1565.29
688.745	1595.39
689.152	1628.04
689.559	1674.57
689.966	1719.3
690.373	1737.77
690.78	1778.72
691.187	1845.94
691.593	1894.69
692	1936.78
692.407	1999.62
692.813	2077.96
693.22	2137.81
693.626	2202.59
694.032	2251.36
694.439	2331.1
694.845	2392.29
695.251	2469.53
695.657	2536.47
696.063	2641.58
