Data from N_2_DEC_VA_2N_Splice17_12-07-00-763.txt Node
Date: Sat Mar 14 12:07:00 EDT 2020
User: sa697716
Spectrometer: FLMS03696
Trigger mode: 0
Integration Time (sec): 3.180400E-1
Scans to average: 20
Electric dark correction enabled: true
Nonlinearity correction enabled: true
Boxcar width: 5
XAxis mode: Wavelengths
Number of Pixels in Spectrum: 2048
>>>>>Begin Spectral Data<<<<<
187.83	-283619.84
188.298	2071.3
188.766	1138.5
189.233	955.63
189.701	1354.6
190.169	1907.95
190.636	695.23
191.104	533.86
191.571	33.59
192.039	-57.25
192.506	-98.91
192.974	474.68
193.441	-893.68
193.908	-238.58
194.375	-81.43
194.842	-18.48
195.31	33.04
195.777	128.8
196.244	371.08
196.711	561.03
197.177	758.46
197.644	1107.69
198.111	1976.19
198.578	2781.54
199.045	2231.85
199.511	3609.19
199.978	4239.75
200.445	3588.18
200.911	3972.26
201.378	4474.69
201.844	4019.07
202.31	6867.49
202.777	7138.78
203.243	3953.51
203.709	3792.45
204.176	4542.1
204.642	3749.49
205.108	3491.83
205.574	2869.43
206.04	2645.95
206.506	2474.94
206.972	2351.44
207.438	2280.97
207.903	2598.86
208.369	2265.03
208.835	2238.06
209.301	2332.7
209.766	2415.08
210.232	2401.77
210.697	2999.66
211.163	3695.53
211.628	5655.78
212.094	4729.86
212.559	5759.9
213.024	3577.06
213.49	4375.08
213.955	4309.98
214.42	4258.76
214.885	3949.92
215.35	3789.52
215.815	3592.13
216.28	3819.39
216.745	3102.86
217.21	3366.25
217.675	3117.73
218.14	3525.93
218.604	3969.45
219.069	4551.44
219.534	4761.57
219.998	5572.21
220.463	6786.77
220.927	8446.2
221.392	7998.24
221.856	8127.56
222.32	10298.35
222.785	12751.11
223.249	16069.31
223.713	17967.67
224.177	17959.53
224.642	23105.63
225.106	28435.87
225.57	31078
226.034	23080.85
226.497	35085.92
226.961	31588.88
227.425	36696.51
227.889	40708.84
228.353	40704.95
228.816	84013.25
229.28	80345.87
229.744	67697.81
230.207	41139.03
230.671	40422.34
231.134	66938.72
231.597	77048.08
232.061	77054.63
232.524	75125.28
232.987	51716.24
233.45	46508.06
233.914	41643.45
234.377	42619.08
234.84	38977.34
235.303	45867.61
235.766	51171.03
236.229	52785.44
236.691	33215.81
237.154	37274.44
237.617	28014.53
238.08	28650.74
238.542	33509.14
239.005	23909.06
239.468	23701.76
239.93	22308.58
240.393	20284.06
240.855	17785.65
241.317	18211
241.78	22158.12
242.242	22888.25
242.704	24646.2
243.166	21435.29
243.629	19414.91
244.091	22353.13
244.553	24469.89
245.015	26258.29
245.477	33906.41
245.939	49670.88
246.4	52582.7
246.862	51014.12
247.324	48022.17
247.786	53743.75
248.247	70376.16
248.709	72666.66
249.17	54275.84
249.632	51075.11
250.093	59148.13
250.555	50983.25
251.016	31029.25
251.477	29402.31
251.939	31682.16
252.4	33215.95
252.861	39452.5
253.322	36638.49
253.783	43564.56
254.244	56467.47
254.705	44480.81
255.166	39547.07
255.627	38956.05
256.088	54888.36
256.549	58297.24
257.009	50254.51
257.47	60955.66
257.931	49620.16
258.391	37203.37
258.852	38367.21
259.312	40239.28
259.773	49745.61
260.233	41985.24
260.694	35405.93
261.154	40156.99
261.614	32202.3
262.074	28783.2
262.534	29882.73
262.994	28163.27
263.455	37502.1
263.915	31541.31
264.374	29698.76
264.834	32378.53
265.294	35910
265.754	37157.23
266.214	35197.23
266.673	32937.7
267.133	41538.09
267.593	41215.9
268.052	50423.2
268.512	43837.71
268.971	52832.74
269.431	57901.67
269.89	51849.33
270.349	77664.33
270.809	86561.36
271.268	77747.3
271.727	174471.61
272.186	113052.78
272.645	84799
273.104	61175.15
273.563	88586
274.022	69690.41
274.481	59294.36
274.94	45673.94
275.399	33946.8
275.857	39540.23
276.316	53498.83
276.775	47604.86
277.233	46835.03
277.692	43781.17
278.15	49486.97
278.609	50859.51
279.067	47085.26
279.525	43695.72
279.984	56447.99
280.442	67811.85
280.9	66745.85
281.358	43880.01
281.816	40879.59
282.274	40058.45
282.732	41426.15
283.19	41630.01
283.648	35949.83
284.106	38291.38
284.564	38964.86
285.021	36122.3
285.479	26928.8
285.937	24534.83
286.394	21524.56
286.852	22178.01
287.309	23305.89
287.767	22491.59
288.224	21375.87
288.682	23452.16
289.139	25714.57
289.596	23491.82
290.053	24416.62
290.511	30810.7
290.968	37288.66
291.425	50547.64
291.882	41941.92
292.339	36432.85
292.796	36151.97
293.252	34072.46
293.709	27015.59
294.166	24194.98
294.623	26750.57
295.079	25642.97
295.536	25708.5
295.992	23345.51
296.449	23086.31
296.905	24006.26
297.362	23003.43
297.818	24183.49
298.274	25068.62
298.731	25549.88
299.187	25274.69
299.643	27107.87
300.099	32750.44
300.555	35906.08
301.011	29976.7
301.467	28845.41
301.923	33778.89
302.379	32983.55
302.835	32390.37
303.291	32421.83
303.746	36886.06
304.202	46604.82
304.658	46852.09
305.113	31531.15
305.569	30909.48
306.024	32979.22
306.479	31429.29
306.935	26461.93
307.39	28940.63
307.845	26730.2
308.301	26892.65
308.756	26227.78
309.211	25282.93
309.666	25896.32
310.121	32127.59
310.576	32630.79
311.031	32416.23
311.486	37178.1
311.94	37210.54
312.395	49745.58
312.85	93475.75
313.305	459900.08
313.759	2379298.4
314.214	172377.3
314.668	136560.48
315.123	114791.14
315.577	41137.91
316.032	36570.77
316.486	45810.39
316.94	36136.93
317.394	25139.6
317.849	19537.41
318.303	18496.74
318.757	17441.28
319.211	19266.76
319.665	16859
320.119	17063.52
320.572	24452.23
321.026	22823.65
321.48	18968.02
321.934	20661.06
322.387	20699.38
322.841	22342.02
323.295	20038.48
323.748	23079.72
324.202	23409.67
324.655	28106.86
325.108	39225.2
325.562	27730.74
326.015	32926.7
326.468	24913.42
326.921	27850.76
327.374	25986.45
327.827	27034.42
328.28	30620.19
328.733	20506.62
329.186	18048.3
329.639	17189.62
330.092	14499.69
330.545	13806.35
330.997	13938.92
331.45	15197.79
331.903	17828.32
332.355	30691.13
332.808	29893.97
333.26	24671.33
333.713	26812.06
334.165	26996.92
334.617	36043.09
335.069	29164.53
335.522	52768.67
335.974	58411.09
336.426	53483.56
336.878	37053.23
337.33	18778.08
337.782	18334.61
338.234	22933.78
338.686	27464.03
339.137	32545.61
339.589	30686.57
340.041	24023.63
340.493	20637.57
340.944	21138.32
341.396	22762.84
341.847	19107.08
342.299	22508.73
342.75	27451
343.201	23983.26
343.653	27539.41
344.104	33845.8
344.555	26591.88
345.006	41398.44
345.457	31675.53
345.908	25142.15
346.359	23628.34
346.81	19235
347.261	20259.46
347.712	19916.28
348.163	21362.17
348.613	21639.7
349.064	20186.54
349.515	17704.85
349.965	18139.2
350.416	21854.75
350.866	23989.81
351.317	27125.76
351.767	44948.35
352.217	56790.15
352.668	47151.74
353.118	43258.16
353.568	41729.18
354.018	33009.72
354.468	34761.89
354.918	24961.26
355.368	21820.96
355.818	30852.65
356.268	88861.59
356.718	371710.12
357.168	92653.55
357.617	46618.02
358.067	51822.49
358.517	48524.27
358.966	56841.62
359.416	63901.76
359.865	69024.59
360.315	82374.46
360.764	38530.14
361.213	21594.28
361.663	20476.7
362.112	25272.69
362.561	40721.38
363.01	30725.68
363.459	25848.75
363.908	27986.79
364.357	23704.81
364.806	40121.64
365.255	27574.67
365.703	25212.33
366.152	25255.84
366.601	20498.62
367.05	16652.15
367.498	15145.64
367.947	15844.46
368.395	16510.6
368.844	14624.38
369.292	17661.27
369.74	12204.27
370.189	18710.66
370.637	21920.81
371.085	18904.09
371.533	23049.74
371.981	22255.2
372.429	21242.92
372.877	22170.05
373.325	18592.77
373.773	19011.91
374.221	16952.3
374.669	21096.42
375.116	18259.61
375.564	18479.45
376.012	20744.81
376.459	17155
376.907	20548.47
377.354	24944.06
377.801	23309.05
378.249	26869.36
378.696	34459.45
379.143	41954.96
379.591	44901.27
380.038	76292.16
380.485	55370.57
380.932	60169.87
381.379	55248.69
381.826	40916.86
382.273	29277.54
382.72	25786.82
383.166	25294.26
383.613	16516.12
384.06	14971.92
384.506	17450.99
384.953	12928.37
385.4	13123.26
385.846	11574.56
386.292	11391.28
386.739	11236.86
387.185	11194.02
387.631	11268.24
388.078	11008.62
388.524	11872.03
388.97	11062.8
389.416	9296.03
389.862	9954.42
390.308	9510.4
390.754	9724.73
391.2	10622.64
391.645	10964.83
392.091	10544.2
392.537	10260.46
392.983	10363.6
393.428	10242.22
393.874	11050.33
394.319	11134.94
394.765	10615.45
395.21	10981.88
395.655	10351.07
396.101	9752.53
396.546	8839.05
396.991	8980.32
397.436	8381.05
397.881	8124.74
398.326	7741.06
398.771	7329.17
399.216	6440.46
399.661	5826.03
400.106	5812.02
400.551	5958.73
400.995	5350.48
401.44	5299.03
401.885	4981.01
402.329	5033.95
402.774	4824.4
403.218	4655.41
403.663	4495.6
404.107	4615.16
404.551	4642.75
404.995	4257.41
405.44	4105.2
405.884	4165.52
406.328	4027.09
406.772	4010.21
407.216	3644.18
407.66	3522.1
408.104	3348.8
408.547	3128.63
408.991	3025.93
409.435	2907.98
409.879	2860.77
410.322	2821
410.766	2717.03
411.209	2580.21
411.653	2474.12
412.096	2422.82
412.54	2421.5
412.983	2401.68
413.426	2403.88
413.869	2402.02
414.312	2353.94
414.756	2268.31
415.199	2159.35
415.642	2093.25
416.085	2090.59
416.527	2073.88
416.97	2104.27
417.413	1993.36
417.856	1972.63
418.298	1951.56
418.741	1935.85
419.184	1929.5
419.626	2008.25
420.069	2006.88
420.511	2016.61
420.953	1970.57
421.396	1946.25
421.838	1894.95
422.28	1935.19
422.722	1937.39
423.164	1961.02
423.606	1923.33
424.048	1917.4
424.49	1816.57
424.932	1803.65
425.374	1775.84
425.816	1803.95
426.258	1834.57
426.699	1848.85
427.141	1813.73
427.582	1840.15
428.024	1828
428.465	1816.18
428.907	1765.18
429.348	1741.35
429.789	1736.54
430.231	1697.32
430.672	1716.71
431.113	1674.87
431.554	1649.65
431.995	1612.55
432.436	1550.44
432.877	1513.09
433.318	1482.48
433.759	1477.88
434.2	1476.91
434.64	1461.4
435.081	1465.47
435.522	1388.58
435.962	1340.35
436.403	1311.31
436.843	1330.23
437.284	1306.43
437.724	1276.92
438.164	1286.37
438.604	1261.27
439.045	1215.41
439.485	1169.45
439.925	1148.67
440.365	1125.81
440.805	1114.82
441.245	1105.06
441.685	1070.76
442.125	1068.93
442.564	1082.02
443.004	1063.25
443.444	1067.09
443.883	1077.22
444.323	1078.13
444.762	1089.66
445.202	1113.3
445.641	1141.55
446.081	1145.74
446.52	1162.14
446.959	1157.43
447.398	1134.81
447.837	1129.37
448.276	1118.87
448.716	1139.04
449.154	1157.96
449.593	1136.97
450.032	1139.33
450.471	1125.88
450.91	1134.03
451.349	1137.57
451.787	1142.48
452.226	1165.59
452.664	1171.8
453.103	1178.48
453.541	1180.93
453.98	1180.87
454.418	1194.49
454.856	1178.42
455.295	1181.82
455.733	1193.61
456.171	1203.87
456.609	1206.6
457.047	1208.55
457.485	1227.88
457.923	1230.67
458.361	1216.22
458.798	1223.08
459.236	1221.6
459.674	1232.7
460.111	1237.33
460.549	1226.13
460.987	1222.67
461.424	1219.61
461.862	1217.05
462.299	1198.04
462.736	1196.53
463.173	1201.77
463.611	1185.2
464.048	1180.5
464.485	1189.05
464.922	1178.99
465.359	1174.57
465.796	1150.07
466.233	1140.41
466.67	1125.64
467.106	1122.58
467.543	1112.93
467.98	1100.94
468.416	1075.8
468.853	1069.38
469.29	1039.52
469.726	1029.12
470.162	1001.39
470.599	996.8
471.035	989.87
471.471	969.02
471.907	966.32
472.344	961.69
472.78	963.84
473.216	977.64
473.652	967.33
474.088	966.37
474.523	964.48
474.959	974.64
475.395	966.6
475.831	960.74
476.266	966.85
476.702	964.55
477.138	954.64
477.573	951.75
478.008	948.64
478.444	953.39
478.879	961.05
479.314	965.66
479.75	966.8
480.185	974.1
480.62	985.8
481.055	992.38
481.49	1000.09
481.925	1017.15
482.36	1035.34
482.795	1066.54
483.229	1097.78
483.664	1125.31
484.099	1133.05
484.534	1152.08
484.968	1165.35
485.403	1173.11
485.837	1176.59
486.271	1178.87
486.706	1183.76
487.14	1175.63
487.574	1160.93
488.009	1154.76
488.443	1149.17
488.877	1165.37
489.311	1174.9
489.745	1194.98
490.179	1209.89
490.613	1236.31
491.046	1252.37
491.48	1268.05
491.914	1276.16
492.348	1292.63
492.781	1307.22
493.215	1317.7
493.648	1327.23
494.082	1345.88
494.515	1352.37
494.948	1374.33
495.382	1393.27
495.815	1411.11
496.248	1430.76
496.681	1466.77
497.114	1500.59
497.547	1530.11
497.98	1564.8
498.413	1586.62
498.846	1615.4
499.279	1645.32
499.711	1665.52
500.144	1681.08
500.577	1711.62
501.009	1744.02
501.442	1771.81
501.874	1782.86
502.306	1798
502.739	1819.11
503.171	1860.53
503.603	1876.76
504.036	1903.96
504.468	1923.19
504.9	1955.32
505.332	1979.02
505.764	1994.86
506.196	2017.08
506.627	2054.59
507.059	2088.24
507.491	2117.07
507.923	2116.51
508.354	2152.76
508.786	2179.52
509.217	2222.37
509.649	2255.04
510.08	2298.43
510.512	2335.01
510.943	2368.05
511.374	2392.39
511.805	2436.09
512.237	2477.25
512.668	2548.21
513.099	2605.59
513.53	2662.24
513.961	2702.32
514.391	2767.29
514.822	2831.11
515.253	2903.01
515.684	2950.89
516.114	3005.45
516.545	3041.11
516.975	3087.41
517.406	3114.5
517.836	3108.66
518.267	3109.69
518.697	3134.33
519.127	3131.21
519.558	3135.61
519.988	3131.36
520.418	3143.27
520.848	3169.12
521.278	3175.54
521.708	3153.07
522.138	3166.1
522.567	3219.91
522.997	3260.74
523.427	3281.54
523.857	3303.78
524.286	3313.42
524.716	3332.16
525.145	3356.6
525.575	3366.72
526.004	3387.08
526.433	3406.07
526.863	3395.53
527.292	3362.81
527.721	3364.17
528.15	3368.32
528.579	3360.72
529.008	3372.88
529.437	3412.39
529.866	3433.57
530.295	3461.2
530.724	3475.49
531.152	3523.34
531.581	3546.19
532.01	3574.74
532.438	3587.85
532.867	3611.45
533.295	3644.92
533.723	3652.89
534.152	3642.84
534.58	3636.67
535.008	3601.46
535.436	3602.38
535.865	3614.87
536.293	3642.4
536.721	3673.37
537.149	3718.46
537.576	3721.11
538.004	3743.21
538.432	3757.97
538.86	3752.73
539.287	3767.58
539.715	3795.13
540.143	3801.87
540.57	3793.88
540.998	3785.69
541.425	3736.8
541.852	3696.98
542.28	3693.34
542.707	3661.2
543.134	3632.81
543.561	3623.77
543.988	3606.95
544.415	3604.53
544.842	3592.25
545.269	3575.25
545.696	3576.51
546.123	3601.42
546.549	3579.88
546.976	3552.64
547.403	3550.69
547.829	3552.78
548.256	3555.88
548.682	3547.14
549.108	3528.98
549.535	3527.07
549.961	3530.89
550.387	3503.3
550.813	3490.83
551.24	3500.9
551.666	3503.3
552.092	3483.88
552.518	3471.38
552.943	3459.77
553.369	3474.45
553.795	3485.99
554.221	3487.58
554.646	3481.83
555.072	3502.19
555.498	3516.99
555.923	3537.6
556.349	3567.73
556.774	3586.55
557.199	3592.18
557.625	3605.71
558.05	3595.87
558.475	3620.43
558.9	3620.39
559.325	3607.77
559.75	3598.83
560.175	3588.43
560.6	3580.63
561.025	3582.28
561.449	3589.21
561.874	3605.7
562.299	3618.79
562.723	3640.42
563.148	3627.82
563.572	3643.69
563.997	3670.61
564.421	3691.65
564.846	3699.15
565.27	3712.59
565.694	3715.15
566.118	3747.35
566.542	3770.2
566.966	3766.42
567.39	3766.06
567.814	3751.91
568.238	3760.74
568.662	3782.11
569.086	3797.07
569.509	3823.15
569.933	3800.48
570.357	3794.43
570.78	3760.8
571.204	3741.63
571.627	3730.51
572.05	3735.81
572.474	3743.35
572.897	3725.18
573.32	3715.59
573.743	3704.61
574.166	3673.56
574.589	3683.44
575.012	3676.03
575.435	3681.45
575.858	3669.61
576.281	3654.05
576.704	3627.73
577.126	3610.03
577.549	3594.73
577.972	3582.26
578.394	3564.58
578.817	3553.13
579.239	3518.75
579.661	3494.98
580.084	3465.24
580.506	3442.66
580.928	3439.71
581.35	3421.21
581.772	3417.49
582.194	3392.45
582.616	3366.52
583.038	3341.25
583.46	3325.38
583.882	3322.23
584.303	3336.98
584.725	3334.13
585.147	3335.99
585.568	3362.94
585.99	3392.85
586.411	3409.32
586.833	3446.29
587.254	3455.89
587.675	3491.96
588.096	3523.39
588.518	3515.46
588.939	3481.29
589.36	3478.02
589.781	3466.39
590.202	3399.57
590.623	3383.79
591.043	3383.53
591.464	3355.65
591.885	3348.17
592.305	3336.3
592.726	3306.89
593.147	3311.62
593.567	3300.4
593.987	3285.17
594.408	3275.38
594.828	3278.63
595.248	3265.78
595.669	3223.37
596.089	3210.34
596.509	3197.79
596.929	3168.33
597.349	3170.78
597.769	3148.65
598.189	3137.33
598.608	3142.19
599.028	3148.38
599.448	3149.42
599.867	3123.93
600.287	3117.63
600.706	3109.79
601.126	3090.29
601.545	3088.51
601.965	3087.83
602.384	3079.32
602.803	3088.4
603.222	3078.94
603.641	3065.66
604.061	3058.9
604.48	3052.29
604.898	3073.74
605.317	3087.35
605.736	3095.4
606.155	3090.75
606.574	3073.6
606.992	3089.63
607.411	3081.27
607.829	3068.03
608.248	3064.61
608.666	3064.21
609.085	3065.91
609.503	3049.42
609.921	3039.03
610.339	3047.55
610.758	3053.39
611.176	3047.73
611.594	3029.15
612.012	3026.38
612.43	3035.9
612.847	3055.93
613.265	3062.03
613.683	3078.64
614.101	3086.53
614.518	3083.46
614.936	3064.64
615.353	3033.79
615.771	3031.25
616.188	3037.22
616.606	3033.14
617.023	3021.78
617.44	2992.66
617.857	2983.43
618.274	2966.98
618.691	2955.29
619.108	2937.18
619.525	2927.22
619.942	2946.22
620.359	2953.66
620.776	2943.81
621.192	2935.89
621.609	2933.01
622.026	2949.35
622.442	2963.06
622.859	2973.29
623.275	2960.16
623.691	2974.17
624.108	3001.27
624.524	3037.11
624.94	3040.68
625.356	3067.37
625.772	3103.02
626.188	3132.96
626.604	3137.98
627.02	3130.48
627.436	3125.5
627.852	3140.37
628.268	3169.47
628.683	3149.37
629.099	3129.43
629.514	3120.14
629.93	3130.2
630.345	3138.92
630.761	3131.64
631.176	3142.31
631.591	3125.84
632.007	3111.2
632.422	3110.46
632.837	3086.59
633.252	3081.6
633.667	3058.88
634.082	3036.56
634.497	3004.74
634.911	2955.86
635.326	2946.28
635.741	2904.06
636.155	2883.5
636.57	2884.76
636.984	2882.61
637.399	2883.93
637.813	2883.23
638.228	2879.38
638.642	2888.46
639.056	2865.07
639.47	2867.28
639.884	2845.49
640.298	2831.14
640.712	2823.97
641.126	2795.45
641.54	2773.77
641.954	2762.38
642.368	2730.46
642.781	2704.74
643.195	2660.49
643.609	2658.18
644.022	2640.95
644.436	2630.46
644.849	2598.35
645.262	2569.35
645.676	2568.17
646.089	2553.55
646.502	2511.81
646.915	2495.74
647.328	2454.95
647.741	2445.23
648.154	2409.95
648.567	2397.3
648.98	2361.4
649.393	2360.37
649.805	2348.93
650.218	2329.72
650.631	2289.84
651.043	2275.11
651.456	2260.11
651.868	2260.77
652.28	2300.93
652.693	2331.58
653.105	2345.33
653.517	2368.11
653.929	2365.99
654.341	2376.2
654.753	2345.59
655.165	2359.3
655.577	2350.79
655.989	2337.27
656.401	2320.08
656.813	2233.58
657.224	2186.05
657.636	2121.47
658.047	2075.93
658.459	2029.02
658.87	2006.37
659.282	1977.18
659.693	1922.64
660.104	1884.06
660.515	1848.47
660.926	1835.24
661.338	1822.74
661.749	1801.29
662.159	1770.28
662.57	1752.6
662.981	1732.65
663.392	1706.1
663.803	1704.23
664.213	1690.26
664.624	1671.23
665.035	1666.25
665.445	1628.95
665.855	1602.2
666.266	1573.23
666.676	1559.99
667.086	1531.82
667.497	1519.09
667.907	1497.74
668.317	1469.83
668.727	1450.19
669.137	1443.42
669.547	1429.25
669.956	1426.29
670.366	1422.49
670.776	1417.85
671.186	1418.24
671.595	1417.59
672.005	1419.94
672.414	1412.18
672.824	1403.55
673.233	1410.37
673.642	1409.06
674.052	1411.56
674.461	1411.38
674.87	1417.16
675.279	1410.56
675.688	1411.47
676.097	1410.91
676.506	1404.4
676.915	1432.53
677.323	1438.78
677.732	1437.84
678.141	1440.93
678.549	1426.91
678.958	1430.73
679.366	1434.99
679.775	1453.61
680.183	1479.46
680.592	1502.58
681	1526.13
681.408	1527.09
681.816	1559.78
682.224	1595.54
682.632	1633.27
683.04	1714.85
683.448	1789.52
683.856	1878.11
684.264	1978.73
684.671	2081.47
685.079	2199.86
685.487	2328.75
685.894	2501.24
686.302	2648.06
686.709	2772.62
687.116	2918.01
687.524	3035.18
687.931	3136.92
688.338	3227.72
688.745	3303.44
689.152	3382.75
689.559	3482.65
689.966	3575.34
690.373	3611
690.78	3690.44
