Data from N_2_DIV_PA_2N_Splice17_12-39-09-486.txt Node
Date: Sat Mar 14 12:39:09 EDT 2020
User: sa697716
Spectrometer: FLMS03696
Trigger mode: 0
Integration Time (sec): 3.180400E-1
Scans to average: 20
Electric dark correction enabled: true
Nonlinearity correction enabled: true
Boxcar width: 5
XAxis mode: Wavelengths
Number of Pixels in Spectrum: 2048
>>>>>Begin Spectral Data<<<<<
187.83	-341868.14
188.298	2440.41
188.766	1309.82
189.233	1149.71
189.701	1717.72
190.169	2407.85
190.636	920.56
191.104	797.29
191.571	129.95
192.039	-81.35
192.506	-97.33
192.974	615.19
193.441	-1196.73
193.908	-360.72
194.375	-142.65
194.842	-22.13
195.31	94.24
195.777	205.12
196.244	482.1
196.711	555.39
197.177	677.06
197.644	942.48
198.111	1671.65
198.578	2349.78
199.045	1846.99
199.511	3001.5
199.978	3483.85
200.445	2955.31
200.911	3240.47
201.378	3604.63
201.844	3264.72
202.31	5596.91
202.777	5821.11
203.243	3196.89
203.709	3025.18
204.176	3609.56
204.642	3008.79
205.108	2822.55
205.574	2298.85
206.04	2108.44
206.506	1976.48
206.972	1863.83
207.438	1786.63
207.903	2042.99
208.369	1780.42
208.835	1777.65
209.301	1857.64
209.766	1881.54
210.232	1861.94
210.697	2299.07
211.163	2838.11
211.628	4288.8
212.094	3596.66
212.559	4441.16
213.024	2747.53
213.49	3362.86
213.955	3275.76
214.42	3188.99
214.885	2960.94
215.35	2853.78
215.815	2764.57
216.28	2917.16
216.745	2366.19
217.21	2529.31
217.675	2288.12
218.14	2539.9
218.604	2818.59
219.069	3192.66
219.534	3332.61
219.998	3827.97
220.463	4562.93
220.927	5548.84
221.392	5196.11
221.856	5251.41
222.32	6586.69
222.785	8118.04
223.249	10215.91
223.713	11347.67
224.177	11336.37
224.642	14482.15
225.106	17841.48
225.57	19477.69
226.034	14458.8
226.497	21936.48
226.961	19770.8
227.425	23035.82
227.889	25548.63
228.353	25483.23
228.816	52531.34
229.28	50174.28
229.744	42330.27
230.207	25724.3
230.671	25299.81
231.134	41821.16
231.597	48302.85
232.061	48318.43
232.524	47040.33
232.987	32361.41
233.45	29158.81
233.914	26155.09
234.377	26798.7
234.84	24520.62
235.303	28898.16
235.766	32254.65
236.229	33341.03
236.691	20975.22
237.154	23541.24
237.617	17728.94
238.08	18154.99
238.542	21229.44
239.005	15181.32
239.468	15078.86
239.93	14226.67
240.393	12925.12
240.855	11351.99
241.317	11618.1
241.78	14134.64
242.242	14613.63
242.704	15800.07
243.166	13771.77
243.629	12534.09
244.091	14464.92
244.553	15830.8
245.015	17013.27
245.477	22030.15
245.939	32276.18
246.4	34261.8
246.862	33308.81
247.324	31433.28
247.786	35143.72
248.247	46053.75
248.709	47519.74
249.17	35544.48
249.632	33571.15
250.093	38956.93
250.555	33616.5
251.016	20511.49
251.477	19443.49
251.939	21002.44
252.4	22010.52
252.861	26132.21
253.322	24317.72
253.783	28912.91
254.244	37472.89
254.705	29485.76
255.166	26189.09
255.627	25796.66
256.088	36412.18
256.549	38709.96
257.009	33296.85
257.47	40370.69
257.931	32934.9
258.391	24684.7
258.852	25473.06
259.312	26713.17
259.773	33027.09
260.233	27939.88
260.694	23585.31
261.154	26736.04
261.614	21499.79
262.074	19261.64
262.534	20028.21
262.994	18884.49
263.455	25158.6
263.915	21196.24
264.374	19959.36
264.834	21782.62
265.294	24128.82
265.754	24965.43
266.214	23671.55
266.673	22157.05
267.133	27916.82
267.593	27710.43
268.052	33914.12
268.512	29479.17
268.971	35563
269.431	39040.74
269.89	34992.28
270.349	52503.8
270.809	58633.87
271.268	52695.06
271.727	118251.1
272.186	76688.7
272.645	57592.54
273.104	41528.95
273.563	60196.8
274.022	47341.43
274.481	40301.21
274.94	31065.78
275.399	23101.32
275.857	26892.91
276.316	36366.14
276.775	32383.99
277.233	31922.72
277.692	29913.25
278.15	33915.96
278.609	34959.23
279.067	32361.97
279.525	30069.86
279.984	38851.96
280.442	46667.34
280.9	46061.81
281.358	30348.67
281.816	28300.53
282.274	27734.51
282.732	28624.99
283.19	28756.53
283.648	24800.84
284.106	26445.86
284.564	26899.62
285.021	24978.81
285.479	18633.36
285.937	16965.49
286.394	14884.4
286.852	15324.17
287.309	16098.15
287.767	15594.62
288.224	14838.16
288.682	16302.74
289.139	17886.9
289.596	16389.48
290.053	17038.71
290.511	21522.87
290.968	26089.83
291.425	35424.75
291.882	29482.43
292.339	25648.87
292.796	25410.03
293.252	23920.58
293.709	18981.93
294.166	17045.7
294.623	18830.94
295.079	18054.69
295.536	18144.8
295.992	16473.14
296.449	16303.33
296.905	16918.18
297.362	16245.4
297.818	17083.22
298.274	17751.69
298.731	18108.11
299.187	17918.42
299.643	19241.16
300.099	23280.23
300.555	25504.7
301.011	21324.75
301.467	20542.11
301.923	24098.23
302.379	23536.76
302.835	23141.44
303.291	23195.65
303.746	26396.65
304.202	33365.62
304.658	33527.78
305.113	22574.61
305.569	22156.85
306.024	23608.86
306.479	22519.85
306.935	18985
307.39	20751.18
307.845	19174.68
308.301	19285.95
308.756	18808.57
309.211	18119.52
309.666	18564.87
310.121	23056.86
310.576	23424.2
311.031	23298.23
311.486	26696.62
311.94	26717.19
312.395	35771.4
312.85	67296
313.305	330814.79
313.759	1716991.52
314.214	124469.72
314.668	98750.5
315.123	83223.8
315.577	29898.39
316.032	26590.9
316.486	33343.12
316.94	26328.25
317.394	18359.71
317.849	14279.88
318.303	13528.05
318.757	12747.43
319.211	14118.75
319.665	12369.64
320.119	12509.87
320.572	17899.52
321.026	16742.25
321.48	13912.57
321.934	15162.38
322.387	15178.14
322.841	16384.34
323.295	14738.76
323.748	16964.61
324.202	17196.83
324.655	20679.88
325.108	28936.96
325.562	20498.8
326.015	24373.13
326.468	18410.36
326.921	20642.12
327.374	19252.53
327.827	20070.69
328.28	22766.95
328.733	15293.38
329.186	13466.75
329.639	12810.57
330.092	10779.37
330.545	10262.45
330.997	10353
331.45	11369.55
331.903	13331.07
332.355	22955.83
332.808	22330.94
333.26	18410
333.713	19991.2
334.165	20131.65
334.617	26931.01
335.069	21780.43
335.522	39369.17
335.974	43662.15
336.426	39882.98
336.878	27590.17
337.33	13992.8
337.782	13652.17
338.234	17130.49
338.686	20502.11
339.137	24313.45
339.589	22886.72
340.041	17954.96
340.493	15442.03
340.944	15798.36
341.396	17009.48
341.847	14314.73
342.299	16871.49
342.75	20621.76
343.201	17992.44
343.653	20648.13
344.104	25358.15
344.555	19975.41
345.006	31012.38
345.457	23800.58
345.908	18923.05
346.359	17822.85
346.81	14515.5
347.261	15303.26
347.712	15088.62
348.163	16173.84
348.613	16440.53
349.064	15359.76
349.515	13460.01
349.965	13825.72
350.416	16621
350.866	18222.37
351.317	20593.76
351.767	34177.64
352.217	43235.42
352.668	35791.98
353.118	32802.52
353.568	31545.27
354.018	24985.19
354.468	26344.58
354.918	18957.64
355.368	16583.44
355.818	23512.3
356.268	67662.95
356.718	283563.1
357.168	70681.67
357.617	35623.3
358.067	39686.49
358.517	37254.77
358.966	43766.47
359.416	49097.52
359.865	53055
360.315	63227.34
360.764	29500.56
361.213	16553.01
361.663	15649.84
362.112	19325.34
362.561	31233.11
363.01	23555.32
363.459	19835.23
363.908	21447.54
364.357	18251.41
364.806	30794.34
365.255	21213.02
365.703	19455.69
366.152	19518.51
366.601	15842.29
367.05	12865.45
367.498	11690.4
367.947	12242.41
368.395	12739.19
368.844	11305.28
369.292	13617.61
369.74	9428.21
370.189	14451.04
370.637	16949.86
371.085	14624.38
371.533	17833.65
371.981	17211.3
372.429	16443.09
372.877	17153.52
373.325	14398.97
373.773	14691.68
374.221	13103.04
374.669	16263.31
375.116	14080.56
375.564	14204.01
376.012	15902.01
376.459	13144.78
376.907	15732.52
377.354	19063.41
377.801	17816.8
378.249	20551.32
378.696	26242.96
379.143	31895.76
379.591	34196.06
380.038	58033.19
380.485	42107.91
380.932	45600.32
381.379	41920.2
381.826	30994.45
382.273	22081.42
382.72	19343.65
383.166	18901.16
383.613	12334.38
384.06	11174.23
384.506	12978.57
384.953	9573.45
385.4	9681.3
385.846	8516.96
386.292	8305.66
386.739	8169.31
387.185	8108.4
387.631	8149.78
388.078	7945.22
388.524	8527.59
388.97	7886.01
389.416	6601.78
389.862	7050.64
390.308	6706.63
390.754	6834.42
391.2	7462.63
391.645	7662.22
392.091	7367.59
392.537	7139.55
392.983	7182.52
393.428	7103.71
393.874	7649.05
394.319	7699.44
394.765	7336.05
395.21	7567.7
395.655	7127.62
396.101	6697.75
396.546	6063.76
396.991	6129.86
397.436	5719.88
397.881	5536.22
398.326	5250.83
398.771	4986.42
399.216	4373.28
399.661	3945.91
400.106	3940.76
400.551	4045.56
400.995	3632.63
401.44	3604.99
401.885	3395.6
402.329	3438.39
402.774	3304.7
403.218	3218.89
403.663	3110.41
404.107	3208.16
404.551	3239.49
404.995	2981.05
405.44	2877.35
405.884	2927.5
406.328	2841.4
406.772	2840.28
407.216	2593.75
407.66	2512.68
408.104	2387.03
408.547	2241.91
408.991	2175.95
409.435	2101.42
409.879	2076.35
410.322	2056.42
410.766	1996.01
411.209	1903.5
411.653	1830.93
412.096	1797.83
412.54	1805.23
412.983	1798
413.426	1803.38
413.869	1802.2
414.312	1770.23
414.756	1710.43
415.199	1633.9
415.642	1586.99
416.085	1588.69
416.527	1581.39
416.97	1608.54
417.413	1524.95
417.856	1506
418.298	1493.39
418.741	1485.69
419.184	1483.72
419.626	1546
420.069	1548.07
420.511	1558.72
420.953	1526.88
421.396	1514.17
421.838	1476.16
422.28	1514.59
422.722	1527.22
423.164	1549.11
423.606	1525.89
424.048	1524.53
424.49	1449.32
424.932	1444.41
425.374	1423.46
425.816	1450.22
426.258	1478.4
426.699	1495.99
427.141	1472.99
427.582	1498.03
428.024	1492.11
428.465	1484.79
428.907	1451.05
429.348	1436.16
429.789	1436.25
430.231	1407.08
430.672	1426.02
431.113	1394.26
431.554	1375.59
431.995	1340.95
432.436	1291.92
432.877	1265.43
433.318	1243.73
433.759	1238.36
434.2	1238.28
434.64	1224.25
435.081	1228.97
435.522	1165.22
435.962	1122.97
436.403	1097.99
436.843	1113.51
437.284	1089.56
437.724	1058.13
438.164	1059.54
438.604	1033.4
439.045	991.69
439.485	951.8
439.925	930.35
440.365	905.54
440.805	892.22
441.245	881.15
441.685	849.21
442.125	840.53
442.564	846.75
443.004	828.51
443.444	825.85
443.883	826.7
444.323	819.07
444.762	819.06
445.202	828.79
445.641	842.86
446.081	834.95
446.52	839.22
446.959	831.49
447.398	807.67
447.837	794.19
448.276	779.78
448.716	784.76
449.154	789.51
449.593	772.17
450.032	768.3
450.471	750.63
450.91	749.64
451.349	747.81
451.787	742.62
452.226	753.94
452.664	752.97
453.103	752.14
453.541	750.72
453.98	747.51
454.418	749.84
454.856	738.91
455.295	737.98
455.733	744.14
456.171	746.45
456.609	748.99
457.047	747.11
457.485	757.76
457.923	758.65
458.361	747.22
458.798	749.17
459.236	747.7
459.674	750.47
460.111	752.98
460.549	745.13
460.987	741.87
461.424	737.23
461.862	732.78
462.299	720.78
462.736	720.35
463.173	723.25
463.611	717.21
464.048	715.95
464.485	723.01
464.922	715.45
465.359	711.32
465.796	704.38
466.233	699.55
466.67	694.27
467.106	693.45
467.543	686
467.98	676.79
468.416	657.76
468.853	650.73
469.29	630.47
469.726	624.49
470.162	608.05
470.599	597.79
471.035	591.33
471.471	577.53
471.907	572.71
472.344	568.09
472.78	568.56
473.216	575.36
473.652	568.96
474.088	566.38
474.523	565.05
474.959	569.26
475.395	562.92
475.831	558.97
476.266	560.66
476.702	559.42
477.138	552.71
477.573	550.44
478.008	546.66
478.444	548.01
478.879	552.67
479.314	553.93
479.75	553.1
480.185	554.7
480.62	558.28
481.055	559.64
481.49	563.39
481.925	570.67
482.36	580.73
482.795	596.16
483.229	611.3
483.664	623.91
484.099	624.35
484.534	632.96
484.968	638.62
485.403	640.51
485.837	639.52
486.271	636.17
486.706	636.08
487.14	626.73
487.574	615.57
488.009	608.83
488.443	601.22
488.877	605.89
489.311	605.85
489.745	611.52
490.179	614.99
490.613	623.78
491.046	626.41
491.48	627.84
491.914	626.49
492.348	628.84
492.781	630.01
493.215	628.56
493.648	626.21
494.082	627.22
494.515	623.87
494.948	626.98
495.382	626.35
495.815	626.72
496.248	627.86
496.681	633.87
497.114	638.91
497.547	641.58
497.98	647.79
498.413	649.55
498.846	653.1
499.279	654.81
499.711	652.47
500.144	649.91
500.577	653.17
501.009	655.74
501.442	659.1
501.874	653.16
502.306	648.69
502.739	649.47
503.171	653.65
503.603	649.39
504.036	649.84
504.468	647.84
504.9	649.03
505.332	646.61
505.764	643.29
506.196	639.98
506.627	643.95
507.059	646.47
507.491	643.17
507.923	634.36
508.354	638.01
508.786	638.23
509.217	642.55
509.649	646.16
510.08	651.24
510.512	655.54
510.943	658.84
511.374	659.9
511.805	665.99
512.237	672.13
512.668	686.34
513.099	696.05
513.53	706.6
513.961	713.88
514.391	727.11
514.822	743.32
515.253	759.61
515.684	769.4
516.114	781.43
516.545	790.16
516.975	800.69
517.406	806.01
517.836	803.93
518.267	804.13
518.697	811.86
519.127	811.98
519.558	812.51
519.988	811.93
520.418	815.9
520.848	823.73
521.278	826.41
521.708	860.15
522.138	868.38
522.567	884.91
522.997	899.74
523.427	907.7
523.857	916.91
524.286	922.89
524.716	932.53
525.145	945.19
525.575	952.61
526.004	962.21
526.433	935.36
526.863	935.74
527.292	932.68
527.721	936.68
528.15	941.01
528.579	942.76
529.008	949.97
529.437	962.69
529.866	970.51
530.295	981.36
530.724	990.95
531.152	1008.2
531.581	1018.53
532.01	1029.48
532.438	1035.99
532.867	1046.69
533.295	1058.96
533.723	1064.04
534.152	1065.85
534.58	1068.1
535.008	1060.61
535.436	1063.37
535.865	1069.56
536.293	1077.01
536.721	1086.37
537.149	1101.54
537.576	1105.03
538.004	1113.91
538.432	1118.67
538.86	1118.78
539.287	1123.02
539.715	1133.37
540.143	1134.89
540.57	1132.91
540.998	1132.3
541.425	1121.76
541.852	1110.55
542.28	1108.39
542.707	1098.79
543.134	1092.45
543.561	1090.11
543.988	1086.39
544.415	1085.78
544.842	1082.02
545.269	1078.69
545.696	1081.22
546.123	1089.47
546.549	1083.75
546.976	1076.84
547.403	1076.97
547.829	1077.68
548.256	1079.16
548.682	1078.06
549.108	1074.57
549.535	1075.89
549.961	1077.58
550.387	1069.9
550.813	1066.33
551.24	1069.86
551.666	1070.66
552.092	1065.4
552.518	1062.41
552.943	1059.61
553.369	1063.28
553.795	1065.37
554.221	1064.92
554.646	1062.54
555.072	1069.17
555.498	1071.52
555.923	1076.49
556.349	1085.57
556.774	1089.37
557.199	1088.67
557.625	1089.93
558.05	1085.77
558.475	1090.68
558.9	1089.38
559.325	1083.75
559.75	1078.45
560.175	1072.77
560.6	1067.94
561.025	1064.32
561.449	1063.18
561.874	1064.69
562.299	1066.5
562.723	1068.62
563.148	1060.84
563.572	1060.97
563.997	1064.3
564.421	1064.81
564.846	1062.66
565.27	1062.84
565.694	1060.02
566.118	1065.17
566.542	1069.11
566.966	1062.88
567.39	1058.14
567.814	1050.42
568.238	1048.04
568.662	1048.79
569.086	1048.34
569.509	1050.26
569.933	1040.46
570.357	1034.08
570.78	1019.92
571.204	1010.67
571.627	1003.75
572.05	1001.5
572.474	1001.23
572.897	994.4
573.32	990.01
573.743	983.09
574.166	972.96
574.589	971.81
575.012	968.24
575.435	967.83
575.858	961.83
576.281	955.19
576.704	945.97
577.126	937.92
577.549	930.95
577.972	924.11
578.394	918.53
578.817	916.1
579.239	904.93
579.661	896.89
580.084	889.15
580.506	882.31
580.928	879.67
581.35	872.94
581.772	870.35
582.194	862.65
582.616	855.47
583.038	847.24
583.46	839.93
583.882	838.71
584.303	839.2
584.725	835.89
585.147	840.53
585.568	847.21
585.99	855.15
586.411	860.05
586.833	868.4
587.254	870.87
587.675	879.57
588.096	887.14
588.518	884.46
588.939	876.7
589.36	876.73
589.781	866.79
590.202	852.76
590.623	848.23
591.043	845.95
591.464	838.69
591.885	836.44
592.305	832.43
592.726	825.07
593.147	826.57
593.567	824.31
593.987	819.91
594.408	817.15
594.828	814.01
595.248	811.2
595.669	801.78
596.089	798.59
596.509	794.9
596.929	787.8
597.349	787.94
597.769	781.95
598.189	778.7
598.608	778.41
599.028	779.49
599.448	778.77
599.867	771.12
600.287	768.09
600.706	765.69
601.126	760.43
601.545	760.49
601.965	759.91
602.384	756.89
602.803	757.71
603.222	755.33
603.641	751.69
604.061	751.31
604.48	749.13
604.898	753.28
605.317	755.59
605.736	756.17
606.155	754.81
606.574	749.5
606.992	752.73
607.411	751.03
607.829	746.47
608.248	745.06
608.666	743.52
609.085	744.65
609.503	741.42
609.921	739.35
610.339	741.96
610.758	742.21
611.176	740.76
611.594	736.97
612.012	735.74
612.43	739.02
612.847	742.45
613.265	744.36
613.683	746.7
614.101	748.12
614.518	746.08
614.936	740.88
615.353	733.53
615.771	732.95
616.188	733.51
616.606	733.13
617.023	730.92
617.44	724.64
617.857	720.83
618.274	717.27
618.691	716.01
619.108	712.71
619.525	710.45
619.942	715.39
620.359	718.5
620.776	716.11
621.192	714.51
621.609	714.28
622.026	718.99
622.442	723.79
622.859	726.25
623.275	721.71
623.691	724.93
624.108	732.72
624.524	741.97
624.94	741.54
625.356	748.18
625.772	755.34
626.188	761.33
626.604	762.59
627.02	759.97
627.436	759.47
627.852	764.36
628.268	771.83
628.683	766.08
629.099	760.86
629.514	758.32
629.93	761.11
630.345	765.06
630.761	763.61
631.176	766.26
631.591	766.19
632.007	763.37
632.422	763.15
632.837	757.57
633.252	758.61
633.667	754.41
634.082	750.63
634.497	744.64
634.911	735.05
635.326	734.16
635.741	726.26
636.155	720.99
636.57	725.06
636.984	726.8
637.399	731.39
637.813	732.4
638.228	734.88
638.642	740.51
639.056	737.6
639.47	741.21
639.884	741.71
640.298	742.06
640.712	745.78
641.126	742.39
641.54	739.92
641.954	740.32
642.368	737.71
642.781	738.48
643.195	731.95
643.609	737.94
644.022	738.24
644.436	739.39
644.849	734.91
645.262	730.35
645.676	735.41
646.089	738.18
646.502	732.84
646.915	733.49
647.328	724.69
647.741	728.36
648.154	722.21
648.567	725.61
648.98	719.35
649.393	723.3
649.805	723.23
650.218	719.94
650.631	710.86
651.043	709.01
651.456	706.96
651.868	708.83
652.28	721.75
652.693	734.21
653.105	739.38
653.517	748.11
653.929	750.63
654.341	758.16
654.753	751.42
655.165	757.88
655.577	758.26
655.989	758.66
656.401	756.71
656.813	734.42
657.224	721.67
657.636	703.46
658.047	695.46
658.459	684.93
658.87	681.88
659.282	677.69
659.693	668.51
660.104	662.07
660.515	656.37
660.926	660.34
661.338	662.57
661.749	663.65
662.159	662.98
662.57	663.17
662.981	665.49
663.392	665.12
663.803	673.23
664.213	675.34
664.624	677.35
665.035	683.64
665.445	676.14
665.855	675.18
666.266	672.77
666.676	674.62
667.086	671.27
667.497	674.27
667.907	672.24
668.317	668.32
668.727	669.87
669.137	672.67
669.547	674.86
669.956	679.51
670.366	681.89
670.776	685.55
671.186	690.67
671.595	696.08
672.005	699.48
672.414	700.33
672.824	700.15
673.233	704.07
673.642	705.98
674.052	708.62
674.461	711.35
674.87	716.84
675.279	714.47
675.688	714.72
676.097	715.09
676.506	712.53
676.915	724.5
677.323	725.55
677.732	721.93
678.141	720.64
678.549	708.71
678.958	705.85
679.366	703.41
679.775	705.53
680.183	714.38
680.592	716.99
681	718.53
681.408	710.11
681.816	713.09
682.224	716.94
682.632	721.4
683.04	741.78
683.448	755.12
683.856	773.05
684.264	794.51
684.671	808.62
685.079	828.3
685.487	851.09
685.894	883.9
686.302	906.66
686.709	921.44
687.116	937.67
687.524	947.86
687.931	953.31
688.338	952.78
688.745	946.01
689.152	944.97
689.559	951.67
689.966	957.25
690.373	948.53
690.78	953.38
691.187	971.18
691.593	981.33
692	986.51
692.407	1006.19
692.813	1036.39
693.22	1059.22
693.626	1082.35
694.032	1101.07
694.439	1133.95
694.845	1160.63
695.251	1196.39
695.657	1231.23
696.063	1284.45
696.469	1327.22
696.875	1368.01
697.281	1392.73
697.687	1424.52
698.093	1454.16
698.498	1506.75
698.904	1551.15
699.31	1613.87
699.715	1665.39
700.12	1731.91
700.526	1759.4
700.931	1817.25
701.337	1867.07
701.742	1905.6
702.147	1977.25
702.552	2017.37
