Data from N_2_HIR_WI_4N_Splice17_12-32-20-931.txt Node
Date: Sat Mar 14 12:32:20 EDT 2020
User: sa697716
Spectrometer: FLMS03696
Trigger mode: 0
Integration Time (sec): 3.180400E-1
Scans to average: 20
Electric dark correction enabled: true
Nonlinearity correction enabled: true
Boxcar width: 5
XAxis mode: Wavelengths
Number of Pixels in Spectrum: 2048
>>>>>Begin Spectral Data<<<<<
187.83	-309288.75
188.298	2428.71
188.766	1301.26
189.233	1095.07
189.701	1552.52
190.169	2286.62
190.636	823.36
191.104	769.43
191.571	148.08
192.039	-63.06
192.506	-147.69
192.974	224.82
193.441	-166.46
193.908	154.66
194.375	-46.54
194.842	6.82
195.31	134.14
195.777	131.26
196.244	365.83
196.711	464.85
197.177	594.72
197.644	836.89
198.111	1450.6
198.578	2092.97
199.045	1711.91
199.511	2832.19
199.978	3359.44
200.445	2863.25
200.911	3190.1
201.378	3590.95
201.844	3271.79
202.31	5599.08
202.777	5860.42
203.243	3244.91
203.709	3087.01
204.176	3662.35
204.642	3036.96
205.108	2817.15
205.574	2300.55
206.04	2102.84
206.506	1979.92
206.972	1866.47
207.438	1789.72
207.903	2026.77
208.369	1789.66
208.835	1778.86
209.301	1864.3
209.766	1911.1
210.232	1896.38
210.697	2363.25
211.163	2913.76
211.628	4412.8
212.094	3712.99
212.559	4605.9
213.024	2874.69
213.49	3488.6
213.955	3414.69
214.42	3362.6
214.885	3142.59
215.35	3039.19
215.815	2914.85
216.28	3098.82
216.745	2524.03
217.21	2736.3
217.675	2527.13
218.14	2859.25
218.604	3235.36
219.069	3736.07
219.534	3933.17
219.998	4606.44
220.463	5612.84
220.927	6970.34
221.392	6614.74
221.856	6765.11
222.32	8604.17
222.785	10689.28
223.249	13525.95
223.713	15120.73
224.177	15184.17
224.642	19589.9
225.106	24170.07
225.57	26496.48
226.034	19742.44
226.497	30163.14
226.961	27251.98
227.425	31735.91
227.889	35225.29
228.353	35320.26
228.816	73180.81
229.28	70044.08
229.744	59185.15
230.207	36026.66
230.671	35457.46
231.134	58826.73
231.597	67868.14
232.061	67955.35
232.524	66365.06
232.987	45779.62
233.45	41218.59
233.914	36979.47
234.377	37942.35
234.84	34726.63
235.303	40973.66
235.766	45810.17
236.229	47373.62
236.691	29856.91
237.154	33572.48
237.617	25259.78
238.08	25883.6
238.542	30316.3
239.005	21676.25
239.468	21513.64
239.93	20272.04
240.393	18439.87
240.855	16170.71
241.317	16547.91
241.78	20151.35
242.242	20834.99
242.704	22493.23
243.166	19574.93
243.629	17768.74
244.091	20488.37
244.553	22458.22
245.015	24144.57
245.477	31223.49
245.939	45784.14
246.4	48634.89
246.862	47252.35
247.324	44525.44
247.786	49829.86
248.247	65382.83
248.709	67531.7
249.17	50503.22
249.632	47572.84
250.093	55133.88
250.555	47615.23
251.016	29030.06
251.477	27509.59
251.939	29668.13
252.4	31108.81
252.861	37000.48
253.322	34395.25
253.783	40954.56
254.244	53090.57
254.705	41853.35
255.166	37229.24
255.627	36614.56
256.088	51607.76
256.549	54759.18
257.009	47115.4
257.47	57153.76
257.931	46527.08
258.391	34815.17
258.852	35877.54
259.312	37603.88
259.773	46401.13
260.233	39126.38
260.694	32973.64
261.154	37387.45
261.614	29973.09
262.074	26791.9
262.534	27806.11
262.994	26184.24
263.455	34895.42
263.915	29336.5
264.374	27622.36
264.834	30139.64
265.294	33384.93
265.754	34577.59
266.214	32706.7
266.673	30661.01
267.133	38686.48
267.593	38398.64
268.052	46943.94
268.512	40800.76
268.971	49187.49
269.431	53911.21
269.89	48252.93
270.349	72416.2
270.809	80774.02
271.268	72619.84
271.727	162822.86
272.186	105400.17
272.645	79049.73
273.104	57008.42
273.563	82507.47
274.022	64865.16
274.481	55157.44
274.94	42497.86
275.399	31566.24
275.857	36724.04
276.316	49665.44
276.775	44191.26
277.233	43524.81
277.692	40693.46
278.15	46073.14
278.609	47404.89
279.067	43879.1
279.525	40756.09
279.984	52623.13
280.442	63238.44
280.9	62312.24
281.358	40985.3
281.816	38193.18
282.274	37394.91
282.732	38639.32
283.19	38794.36
283.648	33463.83
284.106	35644.37
284.564	36236.22
285.021	33586.5
285.479	25016.76
285.937	22750.51
286.394	19945.86
286.852	20533.04
287.309	21554.55
287.767	20801.43
288.224	19764.28
288.682	21674.81
289.139	23779.88
289.596	21733.86
290.053	22575.35
290.511	28467.62
290.968	34498.85
291.425	46822.24
291.882	38904.97
292.339	33848.18
292.796	33610.3
293.252	31688.64
293.709	25148.32
294.166	22513.55
294.623	24874.4
295.079	23871.62
295.536	23970.92
295.992	21769.22
296.449	21526.09
296.905	22395.03
297.362	21497.92
297.818	22608.17
298.274	23444.97
298.731	23909.03
299.187	23687.25
299.643	25449.45
300.099	30775.95
300.555	33752.35
301.011	28204.17
301.467	27164.11
301.923	31790.9
302.379	31035.56
302.835	30468.55
303.291	30518.56
303.746	34772
304.202	43943.47
304.658	44150.69
305.113	29686.55
305.569	29115.9
306.024	31050.59
306.479	29601.23
306.935	24964.24
307.39	27238.24
307.845	25174.78
308.301	25320.67
308.756	24665.34
309.211	23751.06
309.666	24310.25
310.121	30198.33
310.576	30649.3
311.031	30407.92
311.486	34831.56
311.94	34803.5
312.395	46597.66
312.85	87551.07
313.305	430726.49
313.759	2229342.78
314.214	161631.9
314.668	128115.99
315.123	107689.5
315.577	38597.13
316.032	34321.73
316.486	42974.5
316.94	33866.4
317.394	23553.12
317.849	18297.54
318.303	17284.3
318.757	16290.97
319.211	18000.08
319.665	15755.83
320.119	15961.77
320.572	22915.02
321.026	21411.01
321.48	17835.77
321.934	19471.3
322.387	19539.64
322.841	21103.98
323.295	18994.28
323.748	21901.92
324.202	22230.76
324.655	26711.36
325.108	37296.03
325.562	26336.32
326.015	31346.92
326.468	23679.33
326.921	26458.84
327.374	24683.84
327.827	25729.77
328.28	29124.02
328.733	19520.65
329.186	17177.72
329.639	16375.79
330.092	13811.14
330.545	13172.08
330.997	13272.54
331.45	14517
331.903	17024.6
332.355	29329.29
332.808	28530.48
333.26	23550.79
333.713	25562.18
334.165	25747.09
334.617	34407.47
335.069	27819.8
335.522	50232.99
335.974	55624.66
336.426	50825.22
336.878	35262.75
337.33	17853.53
337.782	17421.81
338.234	21835.06
338.686	26149.14
339.137	30975.43
339.589	29145.71
340.041	22869.53
340.493	19695.45
340.944	20187.89
341.396	21746.14
341.847	18254.55
342.299	21555.87
342.75	26324.02
343.201	23001.56
343.653	26444.3
344.104	32560.49
344.555	25654.71
345.006	39988.32
345.457	30566.22
345.908	24303.96
346.359	22877.7
346.81	18634.4
347.261	19628.37
347.712	19307.06
348.163	20725.23
348.613	20985.96
349.064	19561.08
349.515	17121.74
349.965	17535.05
350.416	21148.78
350.866	23198.97
351.317	26215.16
351.767	43411.44
352.217	54840.72
352.668	45592.65
353.118	41769.4
353.568	40325.01
354.018	31935.57
354.468	33710.78
354.918	24187.18
355.368	21174.05
355.818	29973.65
356.268	86373.41
356.718	362032.17
357.168	90306.85
357.617	45312.44
358.067	50369.93
358.517	47166.18
358.966	55318.92
359.416	61993
359.865	67072.37
360.315	79804.68
360.764	37230.7
361.213	20866.86
361.663	19748.02
362.112	24360.51
362.561	39358.4
363.01	29687.6
363.459	25009.96
363.908	27058.09
364.357	23001.9
364.806	38875.15
365.255	26761.95
365.703	24546.18
366.152	24575.49
366.601	19960.71
367.05	16192.89
367.498	14711.2
367.947	15391.02
368.395	16008.89
368.844	14194.99
369.292	17146.9
369.74	11850.12
370.189	18149.98
370.637	21301.17
371.085	18413.8
371.533	22474.57
371.981	21721.15
372.429	20774.28
372.877	21677.78
373.325	18174.41
373.773	18530.28
374.221	16494.54
374.669	20493.68
375.116	17762.35
375.564	17906.93
376.012	20023.18
376.459	16530.66
376.907	19762.1
377.354	23945.7
377.801	22387.16
378.249	25790.15
378.696	32980.88
379.143	40029.13
379.591	42767.02
380.038	72585.44
380.485	52620.71
380.932	57007.25
381.379	52216.59
381.826	38498.06
382.273	27489.61
382.72	24106.45
383.166	23555.24
383.613	15356.05
384.06	13910.41
384.506	16140.63
384.953	11887.02
385.4	12013.11
385.846	10560.7
386.292	10327.96
386.739	10178.89
387.185	10091.83
387.631	10118.5
388.078	9846.19
388.524	10586.23
388.97	9810.02
389.416	8214.04
389.862	8760.49
390.308	8331.72
390.754	8489.43
391.2	9255.4
391.645	9490.02
392.091	9081.13
392.537	8807.42
392.983	8847.84
393.428	8702.86
393.874	9358.78
394.319	9413.73
394.765	8950.71
395.21	9231.2
395.655	8685.98
396.101	8162.13
396.546	7383.21
396.991	7479.08
397.436	6972.07
397.881	6760.78
398.326	6433.89
398.771	6094.65
399.216	5349.68
399.661	4831.03
400.106	4817.55
400.551	4940.54
400.995	4431.69
401.44	4400.28
401.885	4142.51
402.329	4191.71
402.774	4022.88
403.218	3895.53
403.663	3758.05
404.107	3871.02
404.551	3902.82
404.995	3582.06
405.44	3455.72
405.884	3517.19
406.328	3403.68
406.772	3396.37
407.216	3093.68
407.66	2997
408.104	2853.81
408.547	2676.03
408.991	2584.47
409.435	2492.58
409.879	2460.82
410.322	2425.98
410.766	2341.91
411.209	2228.6
411.653	2139.39
412.096	2097.85
412.54	2101.07
412.983	2084.1
413.426	2087.73
413.869	2091.95
414.312	2053.81
414.756	1981.08
415.199	1894.46
415.642	1839.31
416.085	1841.88
416.527	1830.46
416.97	1856.61
417.413	1761.16
417.856	1745.03
418.298	1729.63
418.741	1716.08
419.184	1709.71
419.626	1783.23
420.069	1784.11
420.511	1795.48
420.953	1755.44
421.396	1741.55
421.838	1700.9
422.28	1736.97
422.722	1743.7
423.164	1769.6
423.606	1741.32
424.048	1741.29
424.49	1654.52
424.932	1647.27
425.374	1625.35
425.816	1657.93
426.258	1689.4
426.699	1706.53
427.141	1681.81
427.582	1713.51
428.024	1706.15
428.465	1697.75
428.907	1654.72
429.348	1634.79
429.789	1632.31
430.231	1595.16
430.672	1613.42
431.113	1573.56
431.554	1551.11
431.995	1514.17
432.436	1454.8
432.877	1418.8
433.318	1391.45
433.759	1385.6
434.2	1384.24
434.64	1371.48
435.081	1378.91
435.522	1307.07
435.962	1260.28
436.403	1233.48
436.843	1250.18
437.284	1225.97
437.724	1194.2
438.164	1198.27
438.604	1171.18
439.045	1126.75
439.485	1079.73
439.925	1054.58
440.365	1029.74
440.805	1017.07
441.245	1004.94
441.685	969.13
442.125	963.23
442.564	971.56
443.004	951.43
443.444	952.2
443.883	954.64
444.323	949.94
444.762	955.74
445.202	971.24
445.641	990.78
446.081	986.52
446.52	996.71
446.959	987.72
447.398	964.78
447.837	955.39
448.276	939.38
448.716	951.12
449.154	962.76
449.593	941.32
450.032	939.58
450.471	923.47
450.91	925.96
451.349	924.98
451.787	923.12
452.226	939.42
452.664	941.68
453.103	943.85
453.541	944.43
453.98	940.72
454.418	949.62
454.856	934.68
455.295	934.11
455.733	942.9
456.171	948.7
456.609	951.88
457.047	951.42
457.485	965.26
457.923	967.58
458.361	954.66
458.798	959.75
459.236	956.46
459.674	963.12
460.111	967.31
460.549	956.98
460.987	954.25
461.424	949.63
461.862	945.35
462.299	929.67
462.736	927.98
463.173	931.6
463.611	919.8
464.048	917.11
464.485	925.66
464.922	917.81
465.359	913.26
465.796	897.91
466.233	891.82
466.67	881.85
467.106	878.91
467.543	871.02
467.98	858.65
468.416	837.33
468.853	831.7
469.29	806.99
469.726	797.83
470.162	777.58
470.599	769.04
471.035	761.1
471.471	743.51
471.907	740.35
472.344	735.23
472.78	737.14
473.216	746.97
473.652	737.67
474.088	735.9
474.523	733.87
474.959	739.92
475.395	733.92
475.831	730.37
476.266	735
476.702	733.66
477.138	726.23
477.573	724.19
478.008	721.66
478.444	725.38
478.879	731.65
479.314	735.27
479.75	735.2
480.185	739.63
480.62	746.18
481.055	749.92
481.49	755.43
481.925	767.49
482.36	780.95
482.795	802.86
483.229	825.3
483.664	843.32
484.099	847.41
484.534	861.73
484.968	870.43
485.403	873.61
485.837	873.66
486.271	872.95
486.706	874.59
487.14	865.95
487.574	852.56
488.009	845.26
488.443	839.04
488.877	847.47
489.311	850.32
489.745	860.78
490.179	869.19
490.613	884.99
491.046	892.05
491.48	898.36
491.914	899.61
492.348	907.02
492.781	912.99
493.215	915.47
493.648	917.59
494.082	925.1
494.515	926.42
494.948	936.87
495.382	943.66
495.815	950.22
496.248	958.69
496.681	976.29
497.114	992.22
497.547	1006.67
497.98	1023.8
498.413	1032.81
498.846	1046.64
499.279	1058.42
499.711	1064.8
500.144	1069.29
500.577	1084.58
501.009	1100.05
501.442	1113.34
501.874	1115.66
502.306	1117.72
502.739	1127.33
503.171	1147.63
503.603	1152.17
504.036	1165.26
504.468	1174.11
504.9	1190.04
505.332	1198.97
505.764	1204.5
506.196	1214.38
506.627	1233.36
507.059	1250.53
507.491	1262.36
507.923	1259.59
508.354	1279.09
508.786	1292.44
509.217	1314.26
509.649	1332.11
510.08	1355.4
510.512	1375.96
510.943	1393.54
511.374	1407.6
511.805	1434.13
512.237	1457.97
512.668	1498.5
513.099	1531.48
513.53	1564.09
513.961	1588.56
514.391	1627.26
514.822	1666.69
515.253	1708.88
515.684	1738.08
516.114	1771.56
516.545	1793.06
516.975	1822.85
517.406	1841.02
517.836	1841.26
518.267	1846.29
518.697	1866.39
519.127	1868.91
519.558	1875.52
519.988	1877.23
520.418	1888.2
520.848	1907.78
521.278	1917.04
521.708	1927.39
522.138	1940.62
522.567	1976.76
522.997	2005.95
523.427	2021.43
523.857	2039.38
524.286	2050.63
524.716	2066.91
525.145	2088.1
525.575	2097.87
526.004	2113.12
526.433	2110.89
526.863	2109.4
527.292	2093.79
527.721	2098.26
528.15	2104.68
528.579	2104.03
529.008	2114.41
529.437	2141.17
529.866	2156.7
530.295	2177.72
530.724	2191.86
531.152	2224.17
531.581	2239.29
532.01	2260.57
532.438	2270.32
532.867	2286.86
533.295	2308.06
533.723	2315.59
534.152	2312.26
534.58	2310.37
535.008	2291.02
535.436	2291.99
535.865	2300.29
536.293	2318.98
536.721	2338.25
537.149	2369.43
537.576	2371.58
538.004	2387.3
538.432	2396.28
538.86	2393.73
539.287	2401.44
539.715	2417.9
540.143	2421.67
540.57	2416.2
540.998	2409.69
541.425	2380.39
541.852	2352.65
542.28	2351.09
542.707	2329.01
543.134	2310.91
543.561	2305.54
543.988	2296.17
544.415	2293.74
544.842	2286.65
545.269	2278.34
545.696	2281.18
546.123	2295.23
546.549	2282.19
546.976	2264.75
547.403	2264.73
547.829	2266.41
548.256	2268.54
548.682	2263.79
549.108	2253.79
549.535	2252.89
549.961	2253.17
550.387	2235.5
550.813	2229.2
551.24	2235.99
551.666	2237.64
552.092	2225.52
552.518	2217.3
552.943	2208.52
553.369	2218.05
553.795	2224.68
554.221	2223.84
554.646	2220.49
555.072	2234.52
555.498	2242.15
555.923	2254.85
556.349	2273.14
556.774	2284.2
557.199	2286.71
557.625	2295.28
558.05	2287.42
558.475	2302.01
558.9	2302.48
559.325	2293.68
559.75	2286.76
560.175	2278.12
560.6	2271.52
561.025	2269.65
561.449	2270.9
561.874	2278.61
562.299	2284.41
562.723	2294.96
563.148	2282.7
563.572	2289.18
563.997	2301.63
564.421	2309.59
564.846	2310.83
565.27	2316.61
565.694	2315
566.118	2331.05
566.542	2342.32
566.966	2336.76
567.39	2332.17
567.814	2320.66
568.238	2321.72
568.662	2331.73
569.086	2337.43
569.509	2349.82
569.933	2331.24
570.357	2325.45
570.78	2300.72
571.204	2285.08
571.627	2273.14
572.05	2272.98
572.474	2274.07
572.897	2259.05
573.32	2249.58
573.743	2237.84
574.166	2215.68
574.589	2217.83
575.012	2207.81
575.435	2208.62
575.858	2198.18
576.281	2185.36
576.704	2166.09
577.126	2152.45
577.549	2141.22
577.972	2129.68
578.394	2116.98
578.817	2108.38
579.239	2085.53
579.661	2070.47
580.084	2050.94
580.506	2035.41
580.928	2031.65
581.35	2019.78
581.772	2014.3
582.194	1997.87
582.616	1983.84
583.038	1967.86
583.46	1955.56
583.882	1952.19
584.303	1957.42
584.725	1953.9
585.147	1955.93
585.568	1969.87
585.99	1984.91
586.411	1994.89
586.833	2014.11
587.254	2016.58
587.675	2034.65
588.096	2052.73
588.518	2047.72
588.939	2027.42
589.36	2024.29
589.781	2012.58
590.202	1976.39
590.623	1966.25
591.043	1963.98
591.464	1949.05
591.885	1944.5
592.305	1937.73
592.726	1919.38
593.147	1921.48
593.567	1914.93
593.987	1905.54
594.408	1900.41
594.828	1898.17
595.248	1891.91
595.669	1868.16
596.089	1859.48
596.509	1852.04
596.929	1834.38
597.349	1834.81
597.769	1821.58
598.189	1813.68
598.608	1816.62
599.028	1820.03
599.448	1821.44
599.867	1805.64
600.287	1800.24
600.706	1793.93
601.126	1781.2
601.545	1780.25
601.965	1780.46
602.384	1773.71
602.803	1777.72
603.222	1772.27
603.641	1763.13
604.061	1757.9
604.48	1752.55
604.898	1763.33
605.317	1771.25
605.736	1774.92
606.155	1771.76
606.574	1760.83
606.992	1767.74
607.411	1762.64
607.829	1752.09
608.248	1748.57
608.666	1746.22
609.085	1745.74
609.503	1735.78
609.921	1727.45
610.339	1729.53
610.758	1729.69
611.176	1723.46
611.594	1713.51
612.012	1709.72
612.43	1714.53
612.847	1724.06
613.265	1725.68
613.683	1731.93
614.101	1733.38
614.518	1729.61
614.936	1718.42
615.353	1699.46
615.771	1695.75
616.188	1696.41
616.606	1692.68
617.023	1682.57
617.44	1663.13
617.857	1655.76
618.274	1645.03
618.691	1637.75
619.108	1625.4
619.525	1617.49
619.942	1626.72
620.359	1630.29
620.776	1623.04
621.192	1617.76
621.609	1616.27
622.026	1625.76
622.442	1632.64
622.859	1638.23
623.275	1629.33
623.691	1637.01
624.108	1652.32
624.524	1670.2
624.94	1671.64
625.356	1684.57
625.772	1701.41
626.188	1716.87
626.604	1720.44
627.02	1716.11
627.436	1712.07
627.852	1721.13
628.268	1736.63
628.683	1725.25
629.099	1715.37
629.514	1708.72
629.93	1713.69
630.345	1720.43
630.761	1715.94
631.176	1719.76
631.591	1710.89
632.007	1703.28
632.422	1701.5
632.837	1687.68
633.252	1683.2
633.667	1669.77
634.082	1658.49
634.497	1642.76
634.911	1617.76
635.326	1614.04
635.741	1591.74
636.155	1580.48
636.57	1584.45
636.984	1584.89
637.399	1587.71
637.813	1589.56
638.228	1590.53
638.642	1597.88
639.056	1586.58
639.47	1588.44
639.884	1578.69
640.298	1571.83
640.712	1571.92
641.126	1556.24
641.54	1546
641.954	1541.84
642.368	1527.75
642.781	1517.51
643.195	1494.51
643.609	1496.01
644.022	1488.17
644.436	1483.87
644.849	1470.33
645.262	1456.4
645.676	1459.18
646.089	1454.59
646.502	1435.37
646.915	1427.85
647.328	1406.32
647.741	1404.55
648.154	1388.24
648.567	1384.92
648.98	1366.88
649.393	1366.54
649.805	1360.53
650.218	1350.52
650.631	1328.46
651.043	1318.64
651.456	1310.68
651.868	1311.6
652.28	1333.74
652.693	1350.89
653.105	1359.1
653.517	1370.26
653.929	1370.92
654.341	1376.77
654.753	1359.03
655.165	1366.23
655.577	1362.24
655.989	1355.71
656.401	1344.09
656.813	1295.27
657.224	1268.33
657.636	1230.14
658.047	1206.6
658.459	1180.03
658.87	1168.22
659.282	1153.61
659.693	1126.2
660.104	1106.51
660.515	1088.38
660.926	1086.41
661.338	1083.37
661.749	1073.53
662.159	1059.89
662.57	1053.25
662.981	1045.98
663.392	1034.99
663.803	1038.13
664.213	1033.7
664.624	1027.15
665.035	1029.21
665.445	1009.16
665.855	998.18
666.266	986.63
666.676	982.81
667.086	970.53
667.497	968.2
667.907	959.41
668.317	946.18
668.727	940.06
669.137	940.07
669.547	935.9
669.956	937.84
670.366	937.81
670.776	938.76
671.186	943.48
671.595	947.12
672.005	950.42
672.414	949.15
672.824	946.11
673.233	950.91
673.642	952.51
674.052	956
674.461	958.69
674.87	964.7
675.279	960.33
675.688	961.49
676.097	961.34
676.506	957.42
676.915	973.67
677.323	977.65
677.732	975.29
678.141	975.14
678.549	961.82
678.958	959.65
679.366	958.6
679.775	964.62
680.183	976.95
680.592	985.74
681	992.74
681.408	986.18
681.816	997.26
682.224	1009.29
682.632	1022.17
683.04	1060.09
683.448	1092.26
683.856	1131.46
684.264	1177.35
684.671	1219.94
685.079	1269.45
685.487	1326.64
685.894	1403.73
686.302	1466.68
686.709	1518.35
687.116	1577.16
687.524	1624.81
687.931	1665.14
688.338	1697.57
688.745	1725.3
689.152	1755.74
689.559	1802.36
689.966	1846.38
690.373	1863.96
690.78	1904.08
691.187	1972.98
691.593	2021.41
692	2063.08
692.407	2128.37
692.813	2210.18
693.22	2273.36
693.626	2339.52
694.032	2386.64
694.439	2465.92
694.845	2524.98
