Data from N_2_DEC_ON_6N_Splice17_12-14-43-220.txt Node
Date: Sat Mar 14 12:14:43 EDT 2020
User: sa697716
Spectrometer: FLMS03696
Trigger mode: 0
Integration Time (sec): 3.180400E-1
Scans to average: 20
Electric dark correction enabled: true
Nonlinearity correction enabled: true
Boxcar width: 5
XAxis mode: Wavelengths
Number of Pixels in Spectrum: 2048
>>>>>Begin Spectral Data<<<<<
187.83	-233615.66
188.298	1699.57
188.766	885.61
189.233	778.75
189.701	1133.67
190.169	1499.25
190.636	551.97
191.104	400.28
191.571	8.85
192.039	-133.85
192.506	-156.5
192.974	203.52
193.441	-520.71
193.908	-168.77
194.375	-86.85
194.842	-15.61
195.31	-11.56
195.777	98.38
196.244	272.86
196.711	350.84
197.177	430.18
197.644	602.52
198.111	1052.72
198.578	1478.26
199.045	1160.03
199.511	1903.39
199.978	2195.05
200.445	1883.23
200.911	2077.46
201.378	2279.43
201.844	2036.58
202.31	3490.74
202.777	3646.22
203.243	2000.83
203.709	1912.5
204.176	2290.57
204.642	1907.83
205.108	1794.86
205.574	1431.58
206.04	1296.67
206.506	1210.46
206.972	1142.82
207.438	1098.23
207.903	1234.33
208.369	1097.53
208.835	1100.92
209.301	1151.85
209.766	1162.22
210.232	1152.87
210.697	1428.4
211.163	1740.12
211.628	2603.41
212.094	2172.05
212.559	2683.99
213.024	1684.48
213.49	2043.1
213.955	1950.49
214.42	1884.26
214.885	1753.88
215.35	1661.84
215.815	1638.14
216.28	1749.77
216.745	1421.39
217.21	1523.46
217.675	1339.21
218.14	1457.96
218.604	1568.28
219.069	1739.14
219.534	1784.1
219.998	1983.94
220.463	2314.64
220.927	2698.36
221.392	2443.85
221.856	2426.65
222.32	2935.57
222.785	3566.33
223.249	4416.87
223.713	4840.47
224.177	4811.74
224.642	6047.96
225.106	7382.95
225.57	7993.68
226.034	5941.57
226.497	9008.41
226.961	8110.2
227.425	9449.37
227.889	10419.6
228.353	10320.92
228.816	21203.59
229.28	20095.92
229.744	16879.27
230.207	10292.11
230.671	10116.95
231.134	16575.19
231.597	19118.6
232.061	18940.04
232.524	18347.21
232.987	12655.82
233.45	11418.73
233.914	10236.44
234.377	10449.09
234.84	9563.93
235.303	11214.3
235.766	12473.96
236.229	12906.84
236.691	8092.71
237.154	9108.1
237.617	6880.47
238.08	7024.4
238.542	8197.45
239.005	5874.78
239.468	5857.95
239.93	5526.79
240.393	5027.26
240.855	4428.22
241.317	4528.82
241.78	5515.14
242.242	5721.25
242.704	6208.88
243.166	5424.19
243.629	4952.86
244.091	5697.91
244.553	6243.16
245.015	6720.45
245.477	8678.5
245.939	12704.49
246.4	13480.13
246.862	13093.68
247.324	12335.3
247.786	13772.17
248.247	17971.83
248.709	18478.27
249.17	13852.64
249.632	13103.53
250.093	15228.19
250.555	13174.23
251.016	8061.88
251.477	7661.22
251.939	8273.93
252.4	8653.56
252.861	10247.16
253.322	9589.39
253.783	11399.42
254.244	14757.46
254.705	11569.82
255.166	10243.22
255.627	10065.45
256.088	14196.76
256.549	15066.11
257.009	12981.16
257.47	15747.07
257.931	12819.16
258.391	9584.44
258.852	9869.15
259.312	10313.46
259.773	12715
260.233	10763.58
260.694	9084.12
261.154	10265
261.614	8259.71
262.074	7357.68
262.534	7626.84
262.994	7187.62
263.455	9519.19
263.915	8018.03
264.374	7543.36
264.834	8227.84
265.294	9095.25
265.754	9417.65
266.214	8869.09
266.673	8262.81
267.133	10421.23
267.593	10314.87
268.052	12601.19
268.512	10948.25
268.971	13220.91
269.431	14474.3
269.89	12951.33
270.349	19400.17
270.809	21607.64
271.268	19484.84
271.727	43630.45
272.186	28166.26
272.645	21102.03
273.104	15156.07
273.563	21910.62
274.022	17117.92
274.481	14596.15
274.94	11235.6
275.399	8331.08
275.857	9660.56
276.316	13008.9
276.775	11589.44
277.233	11442.3
277.692	10743.19
278.15	12176.14
278.609	12585.56
279.067	11671.49
279.525	10841.85
279.984	14010.56
280.442	16854.74
280.9	16712.83
281.358	11021.77
281.816	10300.55
282.274	10079.55
282.732	10393.9
283.19	10468.62
283.648	9010.88
284.106	9594.24
284.564	9773.97
285.021	9082.68
285.479	6765.97
285.937	6118.35
286.394	5411.71
286.852	5564.51
287.309	5855.24
287.767	5692.62
288.224	5426.85
288.682	5963.39
289.139	6564.39
289.596	6021.27
290.053	6255.37
290.511	7883.58
290.968	9593.45
291.425	12924.19
291.882	10809.84
292.339	9417.25
292.796	9305.39
293.252	8752.28
293.709	6981.3
294.166	6271.16
294.623	6923.25
295.079	6628.21
295.536	6690.89
295.992	6075.62
296.449	6023.86
296.905	6253.84
297.362	6022.33
297.818	6340.37
298.274	6604.18
298.731	6707.37
299.187	6618.78
299.643	7087.61
300.099	8596.31
300.555	9406.11
301.011	7865.32
301.467	7638.4
301.923	8899.8
302.379	8679.33
302.835	8535.02
303.291	8538.31
303.746	9750.17
304.202	12372.06
304.658	12417.22
305.113	8359.53
305.569	8217.96
306.024	8791.11
306.479	8339.6
306.935	7064.43
307.39	7707.66
307.845	7133.48
308.301	7217.9
308.756	7019.87
309.211	6766.99
309.666	6961.64
310.121	8682.91
310.576	8788.41
311.031	8714.75
311.486	9943.36
311.94	9955.29
312.395	13347.33
312.85	25127.48
313.305	122869.54
313.759	641938.7
314.214	46543.1
314.668	36985.42
315.123	31282.35
315.577	11328.41
316.032	10083.3
316.486	12680.05
316.94	10023.35
317.394	6998.53
317.849	5429.14
318.303	5144.73
318.757	4860.44
319.211	5384.72
319.665	4719.87
320.119	4768.32
320.572	6791.43
321.026	6372.93
321.48	5310.69
321.934	5774.67
322.387	5793.45
322.841	6304.62
323.295	5707.31
323.748	6526.09
324.202	6636.85
324.655	8002.72
325.108	11233.71
325.562	7980.29
326.015	9479.04
326.468	7188.87
326.921	8057.24
327.374	7525.6
327.827	7835.84
328.28	8869.18
328.733	5997.11
329.186	5275.52
329.639	5028.15
330.092	4225.05
330.545	4032.86
330.997	4061.62
331.45	4445.42
331.903	5216.13
332.355	8970.75
332.808	8719.63
333.26	7177.9
333.713	7782.81
334.165	7828.36
334.617	10409.33
335.069	8386
335.522	15107.33
335.974	16833.74
336.426	15336.78
336.878	10604.47
337.33	5386.82
337.782	5257.24
338.234	6659.08
338.686	7972.33
339.137	9469.07
339.589	8958.23
340.041	7037.63
340.493	6066.81
340.944	6200.08
341.396	6721.31
341.847	5688.57
342.299	6753.51
342.75	8283.36
343.201	7173.67
343.653	8234.69
344.104	10106.44
344.555	7951.05
345.006	12322.77
345.457	9507.69
345.908	7542.51
346.359	7084.74
346.81	5762.41
347.261	6037.43
347.712	5919.13
348.163	6354.7
348.613	6464.71
349.064	6057
349.515	5308.58
349.965	5470.66
350.416	6579.1
350.866	7219.24
351.317	8144.77
351.767	13548.66
352.217	17156.27
352.668	14285.17
353.118	13079.3
353.568	12593.71
354.018	9983.1
354.468	10579.52
354.918	7622.52
355.368	6683.15
355.818	9501.23
356.268	27378.5
356.718	115201.65
357.168	28842.82
357.617	14502.52
358.067	16147.39
358.517	15102.88
358.966	17725.08
359.416	19931.63
359.865	21489.44
360.315	25479.05
360.764	11871.33
361.213	6662.31
361.663	6271.53
362.112	7723.91
362.561	12465.18
363.01	9443.81
363.459	7991.15
363.908	8666.67
364.357	7360.05
364.806	12407.85
365.255	8560.88
365.703	7921.56
366.152	7957.97
366.601	6465.66
367.05	5271.15
367.498	4806.95
367.947	5009.32
368.395	5206.69
368.844	4625.44
369.292	5540.57
369.74	3867.84
370.189	5908.03
370.637	6906.05
371.085	5937.65
371.533	7232.7
371.981	6936.4
372.429	6632.95
372.877	6920.05
373.325	5800.91
373.773	5899.85
374.221	5256.57
374.669	6519.98
375.116	5668.86
375.564	5723.44
376.012	6443.77
376.459	5346.08
376.907	6391.81
377.354	7724.51
377.801	7240.67
378.249	8389.35
378.696	10707.89
379.143	13099.88
379.591	13944.33
380.038	23532.11
380.485	17110.54
380.932	18404.51
381.379	16947.22
381.826	12599.24
382.273	8993.53
382.72	7865.95
383.166	7662.77
383.613	5013.07
384.06	4526.05
384.506	5255.86
384.953	3878.55
385.4	3904.97
385.846	3451.28
386.292	3348.72
386.739	3280.69
387.185	3248.59
387.631	3258.08
388.078	3193.81
388.524	3419.08
388.97	3167.62
389.416	2658.6
389.862	2848.02
390.308	2709.63
390.754	2759.37
391.2	3017.36
391.645	3094.89
392.091	3004.92
392.537	2934.65
392.983	2925.58
393.428	2917.29
393.874	3151.18
394.319	3196.13
394.765	3058.36
395.21	3161.18
395.655	2988.21
396.101	2812.62
396.546	2556.23
396.991	2570.39
397.436	2393.86
397.881	2336.64
398.326	2211.77
398.771	2102.09
399.216	1837.65
399.661	1656.52
400.106	1651.97
400.551	1699.4
400.995	1529.6
401.44	1518.58
401.885	1433.17
402.329	1449.76
402.774	1395.38
403.218	1360.58
403.663	1315.78
404.107	1360.16
404.551	1374.51
404.995	1266.09
405.44	1219.58
405.884	1235.09
406.328	1193.56
406.772	1190.78
407.216	1087.84
407.66	1049.06
408.104	994.74
408.547	929.12
408.991	899.08
409.435	863.94
409.879	856.44
410.322	847.14
410.766	823.27
411.209	786.77
411.653	757.71
412.096	747.64
412.54	748.35
412.983	743.31
413.426	749.63
413.869	749.29
414.312	739.21
414.756	711.98
415.199	680.22
415.642	661.77
416.085	663.84
416.527	659.43
416.97	668.85
417.413	637.8
417.856	631.8
418.298	624.16
418.741	619.3
419.184	615.74
419.626	638.83
420.069	639.89
420.511	644.08
420.953	633.75
421.396	628
421.838	611.59
422.28	625.25
422.722	631.66
423.164	638.95
423.606	629.05
424.048	629.88
424.49	600.16
424.932	596.95
425.374	588.23
425.816	594.13
426.258	605.17
426.699	612.55
427.141	605.86
427.582	610.38
428.024	608.17
428.465	605.02
428.907	591.55
429.348	582.78
429.789	583.7
430.231	572.99
430.672	580.62
431.113	565.34
431.554	553.67
431.995	539.01
432.436	524.35
432.877	513.46
433.318	506.97
433.759	504.05
434.2	506.8
434.64	500.76
435.081	502.48
435.522	480.14
435.962	464.46
436.403	457.04
436.843	462.55
437.284	451.24
437.724	437.65
438.164	435.46
438.604	424.48
439.045	409.14
439.485	396.09
439.925	387.18
440.365	375.86
440.805	370.72
441.245	368.05
441.685	353.96
442.125	350.75
442.564	353.84
443.004	346.7
443.444	347.17
443.883	348.37
444.323	342.15
444.762	340.51
445.202	345.47
445.641	353.58
446.081	350
446.52	355.03
446.959	355.49
447.398	348.99
447.837	346.91
448.276	341.35
448.716	345.37
449.154	349.41
449.593	344.58
450.032	345.11
450.471	338.87
450.91	339.23
451.349	339.86
451.787	337.15
452.226	342.86
452.664	343.99
453.103	345
453.541	342.93
453.98	343.42
454.418	344.66
454.856	339.09
455.295	338.3
455.733	342.84
456.171	344
456.609	345.12
457.047	344.56
457.485	350.1
457.923	350.56
458.361	346.22
458.798	347.36
459.236	347.76
459.674	350.41
460.111	352.39
460.549	348.64
460.987	346.16
461.424	344.43
461.862	343.76
462.299	337.43
462.736	339.69
463.173	340.22
463.611	338.6
464.048	338.66
464.485	340.8
464.922	336.81
465.359	334.17
465.796	336.27
466.233	334.57
466.67	332.28
467.106	332.9
467.543	328.04
467.98	325.03
468.416	315.58
468.853	312.94
469.29	303.78
469.726	300.95
470.162	294.22
470.599	286.24
471.035	282.08
471.471	275
471.907	272.34
472.344	270.95
472.78	272.2
473.216	274.68
473.652	270.78
474.088	270.18
474.523	270.26
474.959	271.49
475.395	268.66
475.831	268.74
476.266	269.95
476.702	268.69
477.138	266.41
477.573	265.24
478.008	265.5
478.444	267.06
478.879	270.54
479.314	271.67
479.75	272.38
480.185	273.54
480.62	275.63
481.055	276.78
481.49	279.34
481.925	282.68
482.36	288.85
482.795	295.2
483.229	302.54
483.664	307.95
484.099	309.38
484.534	314.19
484.968	318.45
485.403	318.75
485.837	318.45
486.271	318.47
486.706	318.78
487.14	314.5
487.574	310.61
488.009	308.76
488.443	306.52
488.877	311.24
489.311	312.71
489.745	316.82
490.179	321.1
490.613	329.06
491.046	332.4
491.48	335.99
491.914	338.5
492.348	342.81
492.781	346.57
493.215	349.48
493.648	350.26
494.082	354.47
494.515	356.63
494.948	362.8
495.382	365.45
495.815	369.4
496.248	374.28
496.681	382.49
497.114	390.12
497.547	396.86
497.98	406.55
498.413	413.45
498.846	421.42
499.279	427.93
499.711	432.01
500.144	436.61
500.577	445.83
501.009	454.72
501.442	463.18
501.874	467.88
502.306	472.14
502.739	480.47
503.171	491.2
503.603	496.36
504.036	505.15
504.468	512.69
504.9	522.25
505.332	529.72
505.764	536.42
506.196	544.21
506.627	556.37
507.059	568.71
507.491	576.93
507.923	581.1
508.354	594.85
508.786	605.43
509.217	620.34
509.649	634.47
510.08	650.07
510.512	665.22
510.943	679.12
511.374	690.55
511.805	707.3
512.237	724.04
512.668	747.85
513.099	769.02
513.53	791
513.961	808.68
514.391	833.64
514.822	860.57
515.253	888.1
515.684	909.23
516.114	932.44
516.545	951.42
516.975	971.37
517.406	987.27
517.836	992.48
518.267	1000.4
518.697	1016.16
519.127	1021.87
519.558	1029.27
519.988	1034
520.418	1043.15
520.848	1058.66
521.278	1066.6
521.708	1092.55
522.138	1103.26
522.567	1127.54
522.997	1147.95
523.427	1161.2
523.857	1175.47
524.286	1184.45
524.716	1197.6
525.145	1213.79
525.575	1223.06
526.004	1235.47
526.433	1222.44
526.863	1225.25
527.292	1219.85
527.721	1225.69
528.15	1230.88
528.579	1232.98
529.008	1242.64
529.437	1259.52
529.866	1269.84
530.295	1282.83
530.724	1293.54
531.152	1314.6
531.581	1324.95
532.01	1338.7
532.438	1345.07
532.867	1355.52
533.295	1369.72
533.723	1374.67
534.152	1374.88
534.58	1375.83
535.008	1364.51
535.436	1366.46
535.865	1372
536.293	1384.03
536.721	1396.17
537.149	1415.54
537.576	1419.28
538.004	1429.41
538.432	1435.54
538.86	1434.57
539.287	1440.52
539.715	1451.74
540.143	1453.34
540.57	1451.79
540.998	1448.93
541.425	1431.7
541.852	1416.48
542.28	1415.27
542.707	1403.05
543.134	1392.83
543.561	1388.98
543.988	1382.97
544.415	1382.64
544.842	1378.16
545.269	1372.75
545.696	1373.89
546.123	1382.78
546.549	1373.79
546.976	1363.74
547.403	1363.63
547.829	1365.13
548.256	1366.36
548.682	1363.87
549.108	1358.55
549.535	1357.44
549.961	1358.12
550.387	1347.88
550.813	1344.86
551.24	1350.44
551.666	1350.5
552.092	1342.35
552.518	1337.39
552.943	1332.7
553.369	1337.32
553.795	1340.9
554.221	1343.21
554.646	1340.44
555.072	1348.44
555.498	1352.02
555.923	1358.5
556.349	1370.02
556.774	1376.12
557.199	1376.4
557.625	1380.91
558.05	1376.23
558.475	1383.27
558.9	1381.29
559.325	1375.25
559.75	1369.85
560.175	1363.46
560.6	1357.8
561.025	1354.99
561.449	1354.54
561.874	1357.12
562.299	1358.79
562.723	1363.01
563.148	1354.83
563.572	1356.81
563.997	1363.27
564.421	1365.75
564.846	1365.6
565.27	1367.21
565.694	1364.76
566.118	1373.01
566.542	1378.47
566.966	1373.06
567.39	1368.31
567.814	1359.23
568.238	1357.53
568.662	1360.24
569.086	1361.55
569.509	1365.96
569.933	1353.87
570.357	1347.8
570.78	1330.95
571.204	1320.67
571.627	1313.02
572.05	1311.96
572.474	1310.29
572.897	1300.55
573.32	1293.86
573.743	1285.73
574.166	1271.22
574.589	1269.64
575.012	1262.24
575.435	1260.6
575.858	1252.42
576.281	1242.22
576.704	1228.37
577.126	1219.01
577.549	1208.74
577.972	1199.96
578.394	1191.22
578.817	1184.71
579.239	1169.79
579.661	1159.09
580.084	1147.82
580.506	1137.05
580.928	1132.79
581.35	1123.71
581.772	1119.19
582.194	1109.19
582.616	1098.69
583.038	1087.3
583.46	1078.03
583.882	1075.29
584.303	1076.39
584.725	1070.37
585.147	1072.68
585.568	1079.89
585.99	1088.47
586.411	1093.24
586.833	1103.66
587.254	1105.2
587.675	1113.97
588.096	1122.58
588.518	1117.37
588.939	1106.45
589.36	1106.24
589.781	1096.05
590.202	1077.01
590.623	1070.3
591.043	1068.1
591.464	1058
591.885	1054.78
592.305	1050.72
592.726	1040.48
593.147	1041.94
593.567	1038.27
593.987	1032.55
594.408	1028.43
594.828	1025.39
595.248	1020.91
595.669	1006.85
596.089	1002.34
596.509	996.93
596.929	986.95
597.349	987.58
597.769	980.25
598.189	975.65
598.608	975.87
599.028	977.37
599.448	977.37
599.867	967.41
600.287	963.84
600.706	959.9
601.126	953.41
601.545	952.77
601.965	951.46
602.384	947.36
602.803	948.61
603.222	943.72
603.641	937.87
604.061	934.41
604.48	931.53
604.898	936.26
605.317	938.84
605.736	939.4
606.155	936.02
606.574	929.34
606.992	931.78
607.411	927.64
607.829	921.35
608.248	918.83
608.666	916.15
609.085	914.48
609.503	907.27
609.921	902.59
610.339	902.87
610.758	901.77
611.176	896.08
611.594	888.95
612.012	884.98
612.43	886.49
612.847	888.83
613.265	889.36
613.683	891.97
614.101	892.28
614.518	887.86
614.936	879.54
615.353	869.41
615.771	867.12
616.188	866.13
616.606	863.34
617.023	857.85
617.44	847.94
617.857	841.25
618.274	834.92
618.691	830.75
619.108	823.99
619.525	819.03
619.942	822.56
620.359	823.42
620.776	819.63
621.192	816.36
621.609	814.94
622.026	819.16
622.442	823.08
622.859	823.59
623.275	818.04
623.691	820.93
624.108	828.99
624.524	837.88
624.94	837.64
625.356	843.94
625.772	851.79
626.188	858.04
626.604	859.02
627.02	856.04
627.436	855.27
627.852	860.61
628.268	869.55
628.683	862.88
629.099	856.42
629.514	852.93
629.93	855.13
630.345	857.97
630.761	855.13
631.176	857.7
631.591	853.86
632.007	849.54
632.422	846.57
632.837	838.37
633.252	836.87
633.667	829.69
634.082	823.38
634.497	814.04
634.911	801.15
635.326	797.12
635.741	784.33
636.155	775.74
636.57	775.41
636.984	773.96
637.399	773.4
637.813	770.89
638.228	768.31
638.642	768.65
639.056	760.7
639.47	758.82
639.884	752.57
640.298	745.76
640.712	743.89
641.126	734.33
641.54	726.96
641.954	720.18
642.368	711.31
642.781	706.11
643.195	693.76
643.609	692.22
644.022	685.71
644.436	680.54
644.849	671.41
645.262	662.4
645.676	660.01
646.089	654.88
646.502	645.64
646.915	639.12
647.328	626.22
647.741	624.09
648.154	614.48
648.567	612.58
648.98	603.73
649.393	602.76
649.805	597.98
650.218	592.13
650.631	581.9
651.043	575.75
651.456	571.18
651.868	570.09
652.28	576.39
652.693	581.73
653.105	582.5
653.517	586.49
653.929	584.19
654.341	586.83
654.753	579.02
655.165	580.05
655.577	577.44
655.989	573.13
656.401	566.05
656.813	545.47
657.224	532.4
657.636	514.85
658.047	503.79
658.459	491.93
658.87	483.98
659.282	475.19
659.693	462.84
660.104	453.29
660.515	443.54
660.926	439.51
661.338	435.7
661.749	430.96
662.159	424.2
662.57	418.92
662.981	413.16
663.392	406.67
663.803	406.06
664.213	401.41
664.624	396.78
665.035	395.85
665.445	387.66
665.855	382.44
666.266	376.69
666.676	373.42
667.086	366.3
667.497	366.25
667.907	363.22
668.317	357.91
668.727	358.08
669.137	356.24
669.547	354.54
669.956	354.62
670.366	354.1
670.776	354.4
671.186	355.17
671.595	356.78
672.005	356.55
672.414	355.44
672.824	355.09
673.233	353.99
673.642	355.78
674.052	357.25
674.461	359.46
674.87	362.23
675.279	361.85
675.688	362.39
676.097	365.33
676.506	364.82
676.915	371.74
677.323	373.9
677.732	373.66
678.141	373.92
678.549	369.23
678.958	368.99
679.366	369.41
679.775	371.38
680.183	379.76
680.592	383.14
681	387.4
681.408	385.92
681.816	390.76
682.224	397.54
682.632	405.98
683.04	424.48
683.448	439.31
683.856	458.31
684.264	481.15
684.671	499.66
685.079	524.78
685.487	552.23
685.894	588.76
686.302	620.93
686.709	649.53
687.116	683.11
687.524	712.99
687.931	740.94
688.338	766.1
688.745	786.77
689.152	811.13
689.559	842.8
689.966	876.59
690.373	897.18
690.78	928.77
691.187	974.12
691.593	1009.81
692	1041.03
692.407	1086.75
692.813	1140.7
693.22	1186.13
693.626	1232.84
694.032	1270.53
694.439	1324.83
694.845	1368.05
695.251	1423.79
695.657	1472.89
696.063	1542.96
696.469	1599.09
696.875	1650.84
697.281	1682.28
697.687	1720.27
698.093	1754.11
698.498	1811.79
698.904	1857.23
699.31	1926.21
699.715	1974.63
700.12	2044.92
700.526	2065.02
700.931	2119.4
701.337	2162.85
701.742	2193.19
702.147	2260.03
702.552	2287.6
702.957	2336.51
703.362	2357.71
703.767	2383.8
704.172	2418.13
704.577	2389.16
704.981	2428.13
705.386	2445.83
705.791	2443
706.195	2501.21
706.6	2511.89
707.004	2573.08
707.408	2554.02
707.813	2577.59
708.217	2573.4
