Data from N_2_DEC_CT_2N_Splice17_12-27-55-731.txt Node
Date: Sat Mar 14 12:27:55 EDT 2020
User: sa697716
Spectrometer: FLMS03696
Trigger mode: 0
Integration Time (sec): 3.180400E-1
Scans to average: 20
Electric dark correction enabled: true
Nonlinearity correction enabled: true
Boxcar width: 5
XAxis mode: Wavelengths
Number of Pixels in Spectrum: 2048
>>>>>Begin Spectral Data<<<<<
187.83	-349889.45
188.298	2431.67
188.766	1276.72
189.233	1153.39
189.701	1548.06
190.169	2175.63
190.636	772.83
191.104	596.99
191.571	37.72
192.039	-96.52
192.506	-87.83
192.974	359.13
193.441	-719.46
193.908	-313.63
194.375	-81.87
194.842	-63.25
195.31	-5.66
195.777	125.98
196.244	368.61
196.711	493.93
197.177	648.86
197.644	956.78
198.111	1659.72
198.578	2350.54
199.045	1906.62
199.511	3141.1
199.978	3664.44
200.445	3111.25
200.911	3406.69
201.378	3808.3
201.844	3432.52
202.31	5810.02
202.777	6016.81
203.243	3309.69
203.709	3163.3
204.176	3764.13
204.642	3081.9
205.108	2876.3
205.574	2324.65
206.04	2151.59
206.506	2029.09
206.972	1930.1
207.438	1887.03
207.903	2136.36
208.369	1880.26
208.835	1864.59
209.301	1943.58
209.766	1985.35
210.232	1962.58
210.697	2442
211.163	3005.76
211.628	4529.03
212.094	3805.91
212.559	4659.77
213.024	2899.99
213.49	3535.61
213.955	3454.37
214.42	3394.59
214.885	3170.49
215.35	3042.79
215.815	2950.63
216.28	3120.23
216.745	2546.02
217.21	2760.28
217.675	2549.91
218.14	2894.48
218.604	3274.14
219.069	3774.82
219.534	3992.88
219.998	4680.27
220.463	5727.2
220.927	7131.97
221.392	6752.71
221.856	6881.31
222.32	8717.04
222.785	10803.46
223.249	13665.26
223.713	15280.46
224.177	15303.77
224.642	19687.36
225.106	24260.28
225.57	26557.63
226.034	19684.63
226.497	30064.84
226.961	27164.91
227.425	31620.39
227.889	35127.18
228.353	35083.5
228.816	72526.83
229.28	69352.05
229.744	58418.07
230.207	35544.24
230.671	34978.09
231.134	57976.1
231.597	66739.11
232.061	66768.77
232.524	65119.22
232.987	44867.68
233.45	40414.2
233.914	36206.91
234.377	37127.37
234.84	34003.66
235.303	40083.73
235.766	44677.8
236.229	46129.82
236.691	29053.89
237.154	32650.75
237.617	24559.76
238.08	25133.82
238.542	29411.44
239.005	21024.55
239.468	20839.1
239.93	19612.87
240.393	17820.6
240.855	15647.46
241.317	16034.76
241.78	19525.41
242.242	20161.97
242.704	21766.79
243.166	18941.05
243.629	17206.36
244.091	19838.99
244.553	21755.96
245.015	23417.47
245.477	30295.03
245.939	44385.1
246.4	47091.83
246.862	45769
247.324	43159.98
247.786	48303.63
248.247	63388.43
248.709	65452.42
249.17	48935.37
249.632	46126.71
250.093	53495.88
250.555	46188.58
251.016	28183.98
251.477	26740.91
251.939	28869.18
252.4	30316.79
252.861	36034.28
253.322	33518.64
253.783	39932.46
254.244	51819.05
254.705	40854.82
255.166	36339.68
255.627	35814.96
256.088	50494.86
256.549	53669.77
257.009	46224.84
257.47	56093.6
257.931	45756.16
258.391	34267.88
258.852	35288.28
259.312	36983.82
259.773	45702.23
260.233	38620.3
260.694	32557.83
261.154	36961.31
261.614	29657.46
262.074	26524.53
262.534	27549.03
262.994	25987.52
263.455	34635.37
263.915	29194.13
264.374	27512.32
264.834	30044.4
265.294	33287.31
265.754	34495.16
266.214	32696.13
266.673	30607.56
267.133	38654.99
267.593	38384.75
268.052	46953.1
268.512	40852.18
268.971	49240.34
269.431	54021.56
269.89	48394.7
270.349	72594.51
270.809	81022.62
271.268	72792.46
271.727	163636.6
272.186	106044.93
272.645	79525.5
273.104	57375.25
273.563	83118.23
274.022	65436.05
274.481	55708.9
274.94	42914.41
275.399	31918.42
275.857	37179.71
276.316	50366.47
276.775	44778.08
277.233	44108.22
277.692	41283.96
278.15	46714.35
278.609	48088.44
279.067	44545.45
279.525	41331.53
279.984	53434.75
280.442	64215.87
280.9	63242.87
281.358	41564.32
281.816	38738.06
282.274	37933.35
282.732	39226.31
283.19	39450.92
283.648	34063.22
284.106	36271.47
284.564	36910.09
285.021	34215.1
285.479	25493.17
285.937	23199.47
286.394	20347.56
286.852	20943.96
287.309	22005.89
287.767	21248.28
288.224	20190.29
288.682	22131.76
289.139	24300.13
289.596	22254.95
290.053	23120.63
290.511	29185.29
290.968	35384.8
291.425	48025.98
291.882	40025.26
292.339	34838.06
292.796	34558.22
293.252	32592.02
293.709	25895.08
294.166	23208.32
294.623	25665.8
295.079	24641.17
295.536	24777.17
295.992	22514.67
296.449	22277.25
296.905	23142.28
297.362	22199.74
297.818	23381.38
298.274	24270.77
298.731	24747.7
299.187	24497.36
299.643	26294.84
300.099	31831.38
300.555	34909.24
301.011	29174.73
301.467	28151.48
301.923	32963.58
302.379	32208.17
302.835	31611.2
303.291	31658.94
303.746	36047.87
304.202	45517.31
304.658	45727.51
305.113	30779.33
305.569	30169.54
306.024	32164.47
306.479	30624.93
306.935	25831.37
307.39	28205.21
307.845	26107.56
308.301	26248.54
308.756	25573.02
309.211	24623.76
309.666	25250.88
310.121	31303.07
310.576	31765.88
311.031	31553.52
311.486	36164.9
311.94	36139.25
312.395	48339.85
312.85	90789.35
313.305	446064.13
313.759	2313154.76
314.214	167978.5
314.668	132999.17
315.123	111917.04
315.577	40134.53
316.032	35705.91
316.486	44703.05
316.94	35234.88
317.394	24527
317.849	19048.55
318.303	18052.29
318.757	17010.39
319.211	18821.48
319.665	16477.87
320.119	16669.62
320.572	23930.85
321.026	22359.99
321.48	18609.61
321.934	20329.61
322.387	20372.32
322.841	22016.4
323.295	19780.95
323.748	22819.23
324.202	23155.83
324.655	27842.68
325.108	38924.24
325.562	27481.08
326.015	32657.55
326.468	24698.53
326.921	27628.32
327.374	25746.45
327.827	26804
328.28	30361.38
328.733	20336.38
329.186	17865.8
329.639	17006.08
330.092	14336.91
330.545	13656.7
330.997	13775.29
331.45	15063.18
331.903	17622.65
332.355	30355.82
332.808	29497.41
333.26	24360.14
333.713	26445.46
334.165	26631.53
334.617	35620.44
335.069	28778.2
335.522	52015.67
335.974	57627.46
336.426	52687.12
336.878	36578.5
337.33	18569.14
337.782	18124.84
338.234	22660.08
338.686	27105.26
339.137	32149.69
339.589	30248.07
340.041	23713.19
340.493	20378.67
340.944	20832.88
341.396	22386.14
341.847	18814.59
342.299	22159.95
342.75	27025.62
343.201	23622.89
343.653	27147.8
344.104	33319.7
344.555	26223.04
345.006	40834.74
345.457	31264.17
345.908	24868.71
346.359	23418.72
346.81	19052.4
347.261	20088.63
347.712	19816.34
348.163	21274.83
348.613	21538.26
349.064	20112.68
349.515	17613.07
349.965	18063.93
350.416	21759.72
350.866	23887.85
351.317	27042.73
351.767	44814.4
352.217	56699.46
352.668	47092.73
353.118	43110.04
353.568	41559.65
354.018	32881.66
354.468	34697.01
354.918	24882.23
355.368	21793.17
355.818	30800.64
356.268	88534.23
356.718	370755.91
357.168	92200.31
357.617	46243.45
358.067	51470.28
358.517	48236.83
358.966	56524.04
359.416	63315.48
359.865	68475.81
360.315	81514.65
360.764	37997.77
361.213	21284.24
361.663	20170.88
362.112	24906.28
362.561	40253.3
363.01	30382.94
363.459	25587.64
363.908	27704.52
364.357	23529.39
364.806	39793.48
365.255	27365.39
365.703	25137.31
366.152	25170.14
366.601	20396.13
367.05	16554.28
367.498	15032.83
367.947	15703.52
368.395	16325.64
368.844	14459.22
369.292	17430.51
369.74	12030.39
370.189	18444.78
370.637	21569.69
371.085	18646.21
371.533	22722.64
371.981	21884.05
372.429	20867.8
372.877	21720.78
373.325	18198.83
373.773	18556.35
374.221	16537.94
374.669	20537.31
375.116	17751.11
375.564	17921.84
376.012	20038.02
376.459	16531.71
376.907	19791.41
377.354	23942.53
377.801	22359.39
378.249	25713.25
378.696	32900.7
379.143	39938
379.591	42606.28
380.038	72123.95
380.485	52226.01
380.932	56501.28
381.379	51768.07
381.826	38210.96
382.273	27236.21
382.72	23843.32
383.166	23327.16
383.613	15171.38
384.06	13701.21
384.506	15926.35
384.953	11755.18
385.4	11893.16
385.846	10458.53
386.292	10255.61
386.739	10105.28
387.185	10060.06
387.631	10138.11
388.078	9891.28
388.524	10658.76
388.97	9920.66
389.416	8315.31
389.862	8887.03
390.308	8448.94
390.754	8638.95
391.2	9434.17
391.645	9745
392.091	9398.69
392.537	9170.16
392.983	9277.64
393.428	9181.84
393.874	9901.38
394.319	10042.1
394.765	9636.33
395.21	10077.18
395.655	9613.95
396.101	9171.55
396.546	8412.29
396.991	8642.85
397.436	8174.21
397.881	8043.87
398.326	7797.69
398.771	7542.46
399.216	6734.91
399.661	6191.95
400.106	6270.49
400.551	6505.24
400.995	5914.99
401.44	5910.54
401.885	5611.84
402.329	5726.02
402.774	5535.36
403.218	5381.58
403.663	5224.05
404.107	5409.8
404.551	5488.18
404.995	5083.36
405.44	4958.3
405.884	5087.04
406.328	4980.8
406.772	5008.81
407.216	4596.87
407.66	4490.09
408.104	4330.35
408.547	4104.31
408.991	4019.31
409.435	3911.92
409.879	3883.39
410.322	3854.65
410.766	3743.21
411.209	3586.21
411.653	3479.23
412.096	3440.43
412.54	3477.16
412.983	3479.61
413.426	3509.61
413.869	3532.19
414.312	3481.89
414.756	3381.62
415.199	3250.43
415.642	3174.63
416.085	3194.06
416.527	3186.89
416.97	3253.76
417.413	3095.32
417.856	3072.5
418.298	3047.66
418.741	3031.37
419.184	3032.27
419.626	3165.23
420.069	3166.67
420.511	3188.44
420.953	3127.58
421.396	3108.84
421.838	3042.79
422.28	3121.63
422.722	3149.53
423.164	3215.11
423.606	3178.54
424.048	3197.4
424.49	3054.23
424.932	3061.33
425.374	3038.59
425.816	3097.96
426.258	3147.02
426.699	3159.32
427.141	3077.73
427.582	3094.38
428.024	3060.18
428.465	3041.4
428.907	2978.76
429.348	2969.22
429.789	2987.11
430.231	2938.59
430.672	2998.4
431.113	2959.41
431.554	2964.33
431.995	2959.14
432.436	2916.61
432.877	2908.29
433.318	2902.16
433.759	2925.13
434.2	2951.81
434.64	2946.24
435.081	2982.41
435.522	2854.53
435.962	2783.62
436.403	2750.05
436.843	2821.22
437.284	2791.2
437.724	2743.31
438.164	2777.91
438.604	2736.83
439.045	2649.44
439.485	2562.28
439.925	2538.02
440.365	2506.74
440.805	2499.99
441.245	2487.41
441.685	2411.82
442.125	2411.19
442.564	2438.43
443.004	2389.92
443.444	2395.64
443.883	2411.11
444.323	2417.29
444.762	2446.05
445.202	2497.02
445.641	2552.61
446.081	2561.75
446.52	2598.52
446.959	2588.74
447.398	2544.29
447.837	2540.05
448.276	2519.55
448.716	2559.16
449.154	2593.5
449.593	2529.96
450.032	2521.51
450.471	2483.33
450.91	2489.58
451.349	2481.01
451.787	2472.95
452.226	2508.3
452.664	2503.66
453.103	2504.81
453.541	2509.82
453.98	2499.73
454.418	2523.49
454.856	2483.01
455.295	2477.44
455.733	2492.12
456.171	2507.03
456.609	2504.54
457.047	2503.2
457.485	2532.86
457.923	2531.89
458.361	2498.63
458.798	2510.1
459.236	2508.42
459.674	2535.76
460.111	2555.58
460.549	2538.27
460.987	2538.42
461.424	2542.12
461.862	2536.31
462.299	2508.25
462.736	2513.03
463.173	2527.08
463.611	2494.91
464.048	2490.85
464.485	2516.54
464.922	2506.96
465.359	2508.3
465.796	2463.3
466.233	2457.7
466.67	2443.79
467.106	2446.74
467.543	2441.2
467.98	2427.94
468.416	2396.51
468.853	2404.03
469.29	2356.14
469.726	2347.37
470.162	2302.04
470.599	2313.62
471.035	2311.68
471.471	2279.04
471.907	2291.73
472.344	2292.93
472.78	2307.41
473.216	2346.93
473.652	2321.86
474.088	2323.04
474.523	2318.37
474.959	2348.43
475.395	2331.87
475.831	2317.99
476.266	2331.94
476.702	2326.82
477.138	2302.19
477.573	2294.34
478.008	2283.39
478.444	2288.76
478.879	2300.01
479.314	2303.19
479.75	2292.45
480.185	2296.42
480.62	2308.98
481.055	2309.01
481.49	2309.86
481.925	2324.75
482.36	2334.62
482.795	2371.26
483.229	2405.41
483.664	2423.64
484.099	2408.53
484.534	2420.04
484.968	2420
485.403	2410.09
485.837	2395.94
486.271	2380.11
486.706	2376.36
487.14	2355.03
487.574	2320.54
488.009	2305.23
488.443	2290.05
488.877	2307.56
489.311	2311.75
489.745	2333.07
490.179	2346.69
490.613	2376.66
491.046	2390.76
491.48	2401.47
491.914	2397.7
492.348	2409.2
492.781	2417.53
493.215	2420.28
493.648	2426.63
494.082	2446.05
494.515	2444.68
494.948	2464.96
495.382	2480.13
495.815	2487.57
496.248	2497.13
496.681	2533.08
497.114	2563.95
497.547	2586.44
497.98	2614.32
498.413	2616.18
498.846	2630.78
499.279	2647.55
499.711	2653.11
500.144	2650.53
500.577	2671.13
501.009	2695.59
501.442	2711.61
501.874	2702.86
502.306	2703.53
502.739	2714.45
503.171	2758.95
503.603	2762.56
504.036	2782.5
504.468	2789.03
504.9	2812.13
505.332	2822.7
505.764	2823.19
506.196	2833.57
506.627	2865.41
507.059	2889.73
507.491	2908.36
507.923	2882.8
508.354	2910.93
508.786	2925.87
509.217	2960.51
509.649	2985.13
510.08	3020.46
510.512	3045.69
510.943	3065.63
511.374	3074.03
511.805	3107.96
512.237	3137.68
512.668	3204.96
513.099	3253.43
513.53	3295.67
513.961	3314.63
514.391	3362.46
514.822	3410.18
515.253	3469.7
515.684	3502.62
516.114	3546.91
516.545	3569.67
516.975	3608.3
517.406	3627.34
517.836	3607.51
518.267	3601.84
518.697	3629.92
519.127	3625.69
519.558	3628.59
519.988	3620.01
520.418	3629.29
520.848	3654.53
521.278	3657.31
521.708	3619.85
522.138	3629.12
522.567	3684.45
522.997	3721.77
523.427	3732.01
523.857	3744.08
524.286	3743.59
524.716	3755.58
525.145	3775.75
525.575	3780.7
526.004	3795.2
526.433	3814.87
526.863	3799.24
527.292	3756.87
527.721	3757.57
528.15	3762.86
528.579	3756.43
529.008	3772.73
529.437	3814.57
529.866	3832.36
530.295	3855.37
530.724	3865.42
531.152	3908.83
531.581	3924.81
532.01	3952.62
532.438	3959.91
532.867	3981.35
533.295	4012.2
533.723	4014.37
534.152	4000.03
534.58	3993.01
535.008	3953.67
535.436	3952.14
535.865	3963.05
536.293	3987.51
536.721	4014.35
537.149	4057.77
537.576	4051.28
538.004	4067.28
538.432	4079.17
538.86	4070.83
539.287	4082.37
539.715	4106.77
540.143	4111.67
540.57	4101.29
540.998	4095.32
541.425	4044.47
541.852	4003.98
542.28	4006.1
542.707	3978.62
543.134	3955.18
543.561	3949.04
543.988	3936.55
544.415	3939.77
544.842	3930.67
545.269	3918.14
545.696	3921.15
546.123	3954.74
546.549	3935.63
546.976	3910.99
547.403	3912.82
547.829	3919.54
548.256	3928.31
548.682	3923.32
549.108	3910.55
549.535	3914.03
549.961	3921.97
550.387	3897.39
550.813	3886.28
551.24	3904.2
551.666	3910.41
552.092	3892.75
552.518	3881.18
552.943	3870.86
553.369	3889.04
553.795	3902.1
554.221	3904.35
554.646	3899.23
555.072	3922.74
555.498	3935.61
555.923	3952.5
556.349	3980.88
556.774	3996.01
557.199	3996.58
557.625	4011.2
558.05	3999.74
558.475	4024.23
558.9	4023.88
559.325	4007.69
559.75	3996.05
560.175	3985.21
560.6	3977.11
561.025	3978.84
561.449	3987.04
561.874	4003.36
562.299	4011.27
562.723	4027.73
563.148	4006.09
563.572	4015.74
563.997	4039.32
564.421	4053.76
564.846	4056.06
565.27	4062.02
565.694	4056.64
566.118	4082.74
566.542	4098.11
566.966	4085.92
567.39	4076.5
567.814	4052.92
568.238	4052.45
568.662	4068.12
569.086	4077.47
569.509	4098.32
569.933	4070.32
570.357	4063.78
570.78	4025.24
571.204	4004.08
571.627	3990.26
572.05	3997.11
572.474	4006.64
572.897	3991.13
573.32	3982.68
573.743	3972.23
574.166	3940.42
574.589	3951.63
575.012	3943.09
575.435	3949.96
575.858	3940.28
576.281	3924.94
576.704	3900.78
577.126	3886.74
577.549	3873.81
577.972	3864.29
578.394	3850.63
578.817	3843.97
579.239	3814.55
579.661	3794.22
580.084	3770.17
580.506	3753.32
580.928	3761.55
581.35	3750.54
581.772	3754.5
582.194	3735.42
582.616	3715.81
583.038	3696.2
583.46	3685.12
583.882	3687.06
584.303	3711.2
584.725	3713.22
585.147	3716.83
585.568	3744.83
585.99	3772.35
586.411	3784.89
586.833	3820.52
587.254	3826.68
587.675	3864.54
588.096	3899.91
588.518	3894.04
588.939	3857.99
589.36	3858.72
589.781	3853.71
590.202	3789.63
590.623	3783.93
591.043	3796.93
591.464	3779.59
591.885	3781.29
592.305	3777.13
592.726	3754.06
593.147	3765.83
593.567	3760.21
593.987	3746.97
594.408	3738.31
594.828	3745.24
595.248	3734.21
595.669	3687.34
596.089	3673.56
596.509	3663.16
596.929	3630.65
597.349	3631.83
597.769	3606.1
598.189	3590.41
598.608	3593.59
599.028	3597.6
599.448	3597.71
599.867	3564.62
600.287	3556.11
600.706	3542.95
601.126	3516.11
601.545	3512.19
601.965	3510.26
602.384	3497.7
602.803	3505.76
603.222	3494.61
603.641	3481.01
604.061	3471.5
604.48	3464.7
604.898	3488.05
605.317	3506.15
605.736	3516.78
606.155	3512.99
606.574	3494.31
606.992	3512.36
607.411	3504.8
607.829	3491.42
608.248	3490.21
608.666	3492.45
609.085	3496.78
609.503	3481.35
609.921	3470.96
610.339	3482.99
610.758	3489.49
611.176	3483.92
611.594	3466.63
612.012	3465.94
612.43	3479
612.847	3502.57
613.265	3508.27
613.683	3526.41
614.101	3537.52
614.518	3535.09
614.936	3515.46
615.353	3484.94
615.771	3485.57
616.188	3495.53
616.606	3493.42
617.023	3483.81
617.44	3454.59
617.857	3448.07
618.274	3434.2
618.691	3424.51
619.108	3407.8
619.525	3399.83
619.942	3421.02
620.359	3431.85
620.776	3422.68
621.192	3413.67
621.609	3411.18
622.026	3427.95
622.442	3444.92
622.859	3456.73
623.275	3439.62
623.691	3456.62
624.108	3486.87
624.524	3529.55
624.94	3531.41
625.356	3560.01
625.772	3599.89
626.188	3633.8
626.604	3639.82
627.02	3630.72
627.436	3626.04
627.852	3643.49
628.268	3676.97
628.683	3655.06
629.099	3633.38
629.514	3624.28
629.93	3637.36
630.345	3651.39
630.761	3645.29
631.176	3660.2
631.591	3645.04
632.007	3633.66
632.422	3638.48
632.837	3614.79
633.252	3613.92
633.667	3594
634.082	3576.15
634.497	3548.29
634.911	3501.18
635.326	3501.41
635.741	3464.84
636.155	3451.9
636.57	3465.39
636.984	3475.68
637.399	3489.51
637.813	3503.21
638.228	3513.6
638.642	3540.44
639.056	3524.98
639.47	3542.37
639.884	3531.31
640.298	3528.86
640.712	3539.41
641.126	3518.51
641.54	3510.89
641.954	3517.75
642.368	3497.2
642.781	3482.34
643.195	3443.62
643.609	3459.3
644.022	3454.95
644.436	3457.13
644.849	3432.39
645.262	3409.25
645.676	3428.37
646.089	3422.58
646.502	3379.81
646.915	3372.95
647.328	3335.04
647.741	3339.57
648.154	3308.29
648.567	3302.16
648.98	3265.58
649.393	3275.32
649.805	3273.1
650.218	3257.23
650.631	3212
651.043	3201.84
651.456	3188.03
651.868	3196.16
652.28	3255.31
652.693	3298.2
653.105	3316.52
653.517	3338.9
653.929	3330.63
654.341	3341.8
654.753	3299.46
655.165	3322.25
655.577	3317.65
655.989	3310.59
656.401	3296.6
656.813	3185.7
657.224	3137.41
657.636	3069.05
658.047	3034.07
658.459	2993.17
658.87	2987.91
659.282	2969.44
659.693	2914.08
660.104	2878.45
660.515	2845.54
660.926	2851.04
661.338	2855.41
661.749	2845.15
662.159	2821.27
662.57	2819.27
662.981	2814.14
663.392	2794.83
663.803	2814.22
664.213	2814.47
664.624	2807.87
665.035	2825.18
665.445	2781.5
665.855	2759.03
666.266	2734.09
666.676	2730.27
667.086	2701.36
667.497	2698.53
667.907	2678.74
668.317	2647.63
668.727	2625.07
669.137	2628.01
669.547	2616.38
669.956	2624.9
670.366	2628.66
670.776	2630.17
671.186	2640.74
671.595	2645.84
672.005	2654.97
672.414	2643.21
672.824	2628.38
673.233	2648.34
673.642	2649.27
674.052	2649.79
674.461	2645.4
674.87	2656.08
675.279	2637.26
675.688	2637.98
676.097	2631.48
676.506	2611.7
676.915	2655.77
677.323	2659.16
677.732	2645.37
678.141	2635.08
678.549	2595.26
678.958	2589.44
679.366	2581.05
679.775	2594.2
680.183	2612.24
680.592	2626.59
681	2636.21
681.408	2603.72
681.816	2619.86
682.224	2638.23
682.632	2653.83
683.04	2735.7
683.448	2791.6
683.856	2854.13
684.264	2920.42
684.671	2981.64
685.079	3059.65
685.487	3148.57
685.894	3285.47
686.302	3386.13
686.709	3454.18
687.116	3541.73
687.524	3596.27
687.931	3639.09
688.338	3677.68
688.745	3712.6
689.152	3755.49
689.559	3820.67
689.966	3871.74
690.373	3862.3
