Data from N_2_DEC_VA_2N_Splice17_12-07-26-921.txt Node
Date: Sat Mar 14 12:07:26 EDT 2020
User: sa697716
Spectrometer: FLMS03696
Trigger mode: 0
Integration Time (sec): 3.180400E-1
Scans to average: 20
Electric dark correction enabled: true
Nonlinearity correction enabled: true
Boxcar width: 5
XAxis mode: Wavelengths
Number of Pixels in Spectrum: 2048
>>>>>Begin Spectral Data<<<<<
187.83	-232565.43
188.298	1677.9
188.766	925.23
189.233	891.91
189.701	1291.52
190.169	1781.91
190.636	655.03
191.104	505.12
191.571	60.08
192.039	-73.18
192.506	-67.43
192.974	491
193.441	-996.32
193.908	-357.27
194.375	-80.14
194.842	32.35
195.31	58.34
195.777	99.57
196.244	346.77
196.711	535.18
197.177	729
197.644	1076.18
198.111	1891.82
198.578	2682.83
199.045	2157.24
199.511	3572.25
199.978	4224.84
200.445	3592.62
200.911	4027.59
201.378	4540.17
201.844	4102.95
202.31	7048.42
202.777	7361.21
203.243	4088.37
203.709	3938.91
204.176	4697.17
204.642	3868.81
205.108	3599.54
205.574	2963.17
206.04	2726.18
206.506	2549.59
206.972	2420.82
207.438	2338.75
207.903	2657.95
208.369	2327.26
208.835	2305.41
209.301	2423.3
209.766	2485.43
210.232	2445.16
210.697	3024.1
211.163	3743.96
211.628	5688.92
212.094	4763.4
212.559	5796.66
213.024	3621.91
213.49	4426.43
213.955	4319.08
214.42	4258.56
214.885	3977.57
215.35	3824.96
215.815	3622.78
216.28	3829.84
216.745	3133.24
217.21	3394.23
217.675	3144.12
218.14	3546.22
218.604	3984.98
219.069	4570.26
219.534	4764.86
219.998	5563.41
220.463	6793.5
220.927	8463.97
221.392	8008.08
221.856	8116.67
222.32	10274.19
222.785	12691.85
223.249	16009.11
223.713	17904.58
224.177	17929.33
224.642	23105.07
225.106	28479.65
225.57	31133.36
226.034	23075.56
226.497	35120.03
226.961	31644.67
227.425	36776.98
227.889	40824.95
228.353	40772.3
228.816	84127.18
229.28	80380.94
229.744	67702.36
230.207	41095.13
230.671	40340.49
231.134	66780.5
231.597	76857.68
232.061	76882.22
232.524	75028.46
232.987	51617.03
233.45	46387.09
233.914	41548.92
234.377	42542
234.84	38883.64
235.303	45811.5
235.766	51080.67
236.229	52733.85
236.691	33196.88
237.154	37271.47
237.617	27995.6
238.08	28680.48
238.542	33566.36
239.005	23965.48
239.468	23777.21
239.93	22389.23
240.393	20304.95
240.855	17795.99
241.317	18235.02
241.78	22186.11
242.242	22902.43
242.704	24653.63
243.166	21416.11
243.629	19401.37
244.091	22331.17
244.553	24420.69
245.015	26195.17
245.477	33864.7
245.939	49663.54
246.4	52602.19
246.862	51032.2
247.324	48024.36
247.786	53783.33
248.247	70420.78
248.709	72669.49
249.17	54285.83
249.632	51094.41
250.093	59172.4
250.555	51074.06
251.016	31092.43
251.477	29436.52
251.939	31723.98
252.4	33251.37
252.861	39461.59
253.322	36662.77
253.783	43579.84
254.244	56432.38
254.705	44474.5
255.166	39543.5
255.627	38872.18
256.088	54755.96
256.549	58192.85
257.009	50090.78
257.47	60781.24
257.931	49512.02
258.391	37112.45
258.852	38246.26
259.312	40121.67
259.773	49575.29
260.233	41826.38
260.694	35296.58
261.154	40062.04
261.614	32102.55
262.074	28720.74
262.534	29840.07
262.994	28106.96
263.455	37418.36
263.915	31526.39
264.374	29649.68
264.834	32371.19
265.294	35926.65
265.754	37169.23
266.214	35134.7
266.673	32912.5
267.133	41512.93
267.593	41143.71
268.052	50334.26
268.512	43777.78
268.971	52725.42
269.431	57826.85
269.89	51702.97
270.349	77438.53
270.809	86315.64
271.268	77604.77
271.727	174044.87
272.186	112641.8
272.645	84451.8
273.104	60913.47
273.563	88187.36
274.022	69417.17
274.481	59036.07
274.94	45500.22
275.399	33822.46
275.857	39383.16
276.316	53278.01
276.775	47398.34
277.233	46651.2
277.692	43663.54
278.15	49341.47
278.609	50706.55
279.067	46895.91
279.525	43540.1
279.984	56166.69
280.442	67454.82
280.9	66465.82
281.358	43692.11
281.816	40713.05
282.274	39883.03
282.732	41218.37
283.19	41454.87
283.648	35810.35
284.106	38157.53
284.564	38841.96
285.021	36025.58
285.479	26874.32
285.937	24472.69
286.394	21470.2
286.852	22108.76
287.309	23250.38
287.767	22464.93
288.224	21355.46
288.682	23416
289.139	25683.12
289.596	23471.9
290.053	24388.31
290.511	30722.33
290.968	37204.83
291.425	50436.4
291.882	41915.31
292.339	36403.47
292.796	36058.83
293.252	33943.81
293.709	26886.74
294.166	24083.06
294.623	26606.48
295.079	25515.15
295.536	25605.78
295.992	23250.21
296.449	22994.48
296.905	23880.88
297.362	22881.88
297.818	24067.45
298.274	24963.39
298.731	25485.49
299.187	25199.48
299.643	27056.11
300.099	32722.83
300.555	35908.35
301.011	29986.82
301.467	28855.06
301.923	33762.53
302.379	32970.95
302.835	32377.84
303.291	32426.1
303.746	36907.6
304.202	46639.6
304.658	46829.92
305.113	31489.8
305.569	30856.86
306.024	32902.99
306.479	31397.91
306.935	26494.88
307.39	28966.29
307.845	26774.23
308.301	26928.61
308.756	26233.48
309.211	25284.12
309.666	25889.07
310.121	32111.46
310.576	32600.2
311.031	32363.45
311.486	37071.53
311.94	37015.93
312.395	49516.49
312.85	93011.99
313.305	457108.4
313.759	2363296.23
314.214	171275.23
314.668	135831.22
315.123	114412.87
315.577	40964.74
316.032	36431.76
316.486	45631.52
316.94	36014.69
317.394	25072.09
317.849	19483.59
318.303	18450.99
318.757	17395.13
319.211	19214.97
319.665	16799.26
320.119	16970.14
320.572	24351.67
321.026	22719.77
321.48	18896.09
321.934	20616.29
322.387	20665.7
322.841	22304.03
323.295	20001.33
323.748	23088.56
324.202	23448.44
324.655	28139.42
325.108	39340.11
325.562	27789.78
326.015	33048.69
326.468	24960.35
326.921	27863.23
327.374	25938.5
327.827	27014.09
328.28	30631.44
328.733	20505.27
329.186	18011.1
329.639	17174.2
330.092	14464.65
330.545	13782.68
330.997	13892.12
331.45	15171.08
331.903	17788.64
332.355	30625.08
332.808	29776.76
333.26	24578.48
333.713	26704.4
334.165	26892.54
334.617	35934.48
335.069	29082.9
335.522	52585.06
335.974	58213.88
336.426	53310.13
336.878	36959.65
337.33	18738.7
337.782	18295.93
338.234	22885.68
338.686	27382.78
339.137	32485.39
339.589	30581.31
340.041	23950.5
340.493	20597.54
340.944	21099.06
341.396	22696.77
341.847	19058.68
342.299	22478.83
342.75	27392.51
343.201	23953.46
343.653	27507.73
344.104	33804.28
344.555	26592.71
345.006	41355.76
345.457	31598.06
345.908	25101.74
346.359	23601.7
346.81	19250.97
347.261	20266.83
347.712	19999.19
348.163	21461.31
348.613	21716.68
349.064	20267.85
349.515	17755.3
349.965	18234.96
350.416	21968.74
350.866	24099.34
351.317	27282.1
351.767	45135.63
352.217	57100.16
352.668	47365.24
353.118	43337.63
353.568	41841.82
354.018	33050.3
354.468	34859.14
354.918	25002.27
355.368	21885.92
355.818	30954.43
356.268	89160.55
356.718	373397.12
357.168	92871
357.617	46590.6
358.067	51924.94
358.517	48650.76
358.966	57108.19
359.416	64066.49
359.865	69248.91
360.315	82518.71
360.764	38514.36
361.213	21555.51
361.663	20435.3
362.112	25239.18
362.561	40792.12
363.01	30746.11
363.459	25892.97
363.908	27990.64
364.357	23762.48
364.806	40178.42
365.255	27615.01
365.703	25304.24
366.152	25316.68
366.601	20521.85
367.05	16666.92
367.498	15151.75
367.947	15833.1
368.395	16467.15
368.844	14605.38
369.292	17626.47
369.74	12179.12
370.189	18665.11
370.637	21896.98
371.085	18916.32
371.533	23068.43
371.981	22250.34
372.429	21238.43
372.877	22154.69
373.325	18579.37
373.773	18955.37
374.221	16932.22
374.669	21036.05
375.116	18238.88
375.564	18421.19
376.012	20678.81
376.459	17110.78
376.907	20525.42
377.354	24906.74
377.801	23266.44
378.249	26816.9
378.696	34419.95
379.143	41837.11
379.591	44859.05
380.038	76236.36
380.485	55406.39
380.932	60149.85
381.379	55271.27
381.826	40896.85
382.273	29223.65
382.72	25731.29
383.166	25223.47
383.613	16447.24
384.06	14900.87
384.506	17338.56
384.953	12830.65
385.4	13011.99
385.846	11483.38
386.292	11288.71
386.739	11136.05
387.185	11090.2
387.631	11200.03
388.078	10943.18
388.524	11820.76
388.97	11013.17
389.416	9252.15
389.862	9904.77
390.308	9457.88
390.754	9663.29
391.2	10563.51
391.645	10904.38
392.091	10494.87
392.537	10211.7
392.983	10323.24
393.428	10193.97
393.874	11002.95
394.319	11097.18
394.765	10580.84
395.21	10948.04
395.655	10343.92
396.101	9750.93
396.546	8832.99
396.991	8954.27
397.436	8344.71
397.881	8089.04
398.326	7710.64
398.771	7314.54
399.216	6433.1
399.661	5822.56
400.106	5811.19
400.551	5949.96
400.995	5335.54
401.44	5286.03
401.885	4971.25
402.329	5023.97
402.774	4820.34
403.218	4651.36
403.663	4479.9
404.107	4593.39
404.551	4616.65
404.995	4230.14
405.44	4076.25
405.884	4135.59
406.328	3997.73
406.772	3983.15
407.216	3622.6
407.66	3498.77
408.104	3324.78
408.547	3107.67
408.991	3008.05
409.435	2892.92
409.879	2850.76
410.322	2806.68
410.766	2705.66
411.209	2568.99
411.653	2464.13
412.096	2409.45
412.54	2407.24
412.983	2388.05
413.426	2390.56
413.869	2386.95
414.312	2337.73
414.756	2247.53
415.199	2144.98
415.642	2080.14
416.085	2077.53
416.527	2061.56
416.97	2093.58
417.413	1984.49
417.856	1962.78
418.298	1939.99
418.741	1925.36
419.184	1920.25
419.626	2001.03
420.069	1997.4
420.511	2001.79
420.953	1958.52
421.396	1936.2
421.838	1886.29
422.28	1924.83
422.722	1931.29
423.164	1956.88
423.606	1917.54
424.048	1910.25
424.49	1807.92
424.932	1795.38
425.374	1772.34
425.816	1800.08
426.258	1833.23
426.699	1848.19
427.141	1814.79
427.582	1838.39
428.024	1825.14
428.465	1811.74
428.907	1765.6
429.348	1745
429.789	1741.18
430.231	1696.44
430.672	1714.91
431.113	1669.33
431.554	1642.27
431.995	1603.42
432.436	1542.97
432.877	1507.83
433.318	1479.28
433.759	1473.48
434.2	1472.35
434.64	1456.82
435.081	1462.84
435.522	1388.62
435.962	1340.29
436.403	1310.94
436.843	1329.97
437.284	1303.02
437.724	1271.91
438.164	1282.04
438.604	1256.02
439.045	1212.29
439.485	1166.54
439.925	1147.41
440.365	1122.86
440.805	1113.89
441.245	1106.86
441.685	1071.42
442.125	1072.09
442.564	1085.41
443.004	1066.67
443.444	1071.21
443.883	1079.72
444.323	1080.89
444.762	1093.48
445.202	1118.56
445.641	1144.16
446.081	1146.55
446.52	1164.13
446.959	1158.91
447.398	1137.89
447.837	1132.22
448.276	1119.77
448.716	1139.62
449.154	1158
449.593	1136.21
450.032	1139.02
450.471	1127.55
450.91	1136.11
451.349	1137.92
451.787	1140.34
452.226	1163.42
452.664	1168.49
453.103	1175.27
453.541	1178.39
453.98	1178.98
454.418	1190.75
454.856	1172.6
455.295	1174.16
455.733	1185.27
456.171	1196.55
456.609	1201.07
457.047	1204.3
457.485	1223.41
457.923	1227.72
458.361	1213.01
458.798	1219.36
459.236	1219.56
459.674	1232.36
460.111	1239.36
460.549	1228.75
460.987	1225.61
461.424	1222.32
461.862	1216.14
462.299	1199.21
462.736	1196.67
463.173	1201.79
463.611	1184.83
464.048	1180.34
464.485	1188.99
464.922	1179.07
465.359	1173.68
465.796	1150.12
466.233	1140.19
466.67	1127.82
467.106	1123.02
467.543	1113.12
467.98	1099.89
468.416	1076.4
468.853	1070.76
469.29	1039.32
469.726	1027.77
470.162	1000.76
470.599	996.51
471.035	989.82
471.471	968.22
471.907	965.57
472.344	961.1
472.78	963.2
473.216	976.12
473.652	965.27
474.088	964.54
474.523	961.95
474.959	972.72
475.395	965.36
475.831	960.76
476.266	967.68
476.702	966.16
477.138	957.36
477.573	954.93
478.008	951.69
478.444	955.78
478.879	964.16
479.314	969.61
479.75	970.25
480.185	975.41
480.62	986.26
481.055	992.97
481.49	999.9
481.925	1015.19
482.36	1033.63
482.795	1066.07
483.229	1097.11
483.664	1123.24
484.099	1129.74
484.534	1149.84
484.968	1163.49
485.403	1170.7
485.837	1172.6
486.271	1176.79
486.706	1182.47
487.14	1174.76
487.574	1158.9
488.009	1154.26
488.443	1149.23
488.877	1165.23
489.311	1174.64
489.745	1193.88
490.179	1209.42
490.613	1236.84
491.046	1253.24
491.48	1269.21
491.914	1276.89
492.348	1294.77
492.781	1308.75
493.215	1319.84
493.648	1331.37
494.082	1348.93
494.515	1357.56
494.948	1380.41
495.382	1399.15
495.815	1416.82
496.248	1435.57
496.681	1471.75
497.114	1504.52
497.547	1533.82
497.98	1568.76
498.413	1589.81
498.846	1619.15
499.279	1648.22
499.711	1668.22
500.144	1685.16
500.577	1714.54
501.009	1748.69
501.442	1776.37
501.874	1787.17
502.306	1801.27
502.739	1823.89
503.171	1865.84
503.603	1881.14
504.036	1910.07
504.468	1931.06
504.9	1962.05
505.332	1986.14
505.764	2001.82
506.196	2025.53
506.627	2063.34
507.059	2099.12
507.491	2128.28
507.923	2126.82
508.354	2164.6
508.786	2191.01
509.217	2232
509.649	2266.63
510.08	2310.34
510.512	2346.76
510.943	2378.61
511.374	2403.41
511.805	2446.36
512.237	2487.31
512.668	2557.88
513.099	2615.27
513.53	2672.58
513.961	2711.42
514.391	2774.94
514.822	2837.8
515.253	2909.5
515.684	2957.77
516.114	3011.51
516.545	3048.09
516.975	3093.17
517.406	3120.57
517.836	3115.89
518.267	3116.05
518.697	3141.96
519.127	3139.64
519.558	3145.83
519.988	3141.96
520.418	3152.7
520.848	3178.98
521.278	3184.36
521.708	3161.79
522.138	3173.79
522.567	3226.53
522.997	3267
523.427	3289.13
523.857	3311.94
524.286	3320.14
524.716	3338.57
525.145	3364.52
525.575	3374.35
526.004	3393.21
526.433	3410.73
526.863	3403.03
527.292	3371.3
527.721	3372.33
528.15	3374.65
528.579	3366.57
529.008	3378.77
529.437	3417.89
529.866	3438.91
530.295	3467.06
530.724	3484.26
531.152	3533.4
531.581	3554.48
532.01	3582.57
532.438	3595.23
532.867	3619.09
533.295	3650.81
533.723	3659.4
534.152	3649.21
534.58	3642.57
535.008	3608
535.436	3606.86
535.865	3618.84
536.293	3646.52
536.721	3675.75
537.149	3722.93
537.576	3726.22
538.004	3750.53
538.432	3765.2
538.86	3761.56
539.287	3776.3
539.715	3802.9
540.143	3810.79
540.57	3801.84
540.998	3792.27
541.425	3744.08
541.852	3701.86
542.28	3696.88
542.707	3662.89
543.134	3633.43
543.561	3623.45
543.988	3606.96
544.415	3604.54
544.842	3591.58
545.269	3576.76
545.696	3578.89
546.123	3603.63
546.549	3582.61
546.976	3555.65
547.403	3553.33
547.829	3556.06
548.256	3559.59
548.682	3550.41
549.108	3531.28
549.535	3528.12
549.961	3530.42
550.387	3504.11
550.813	3490.5
551.24	3499.7
551.666	3501.21
552.092	3482.35
552.518	3468.99
552.943	3456.32
553.369	3471.65
553.795	3484.79
554.221	3486.55
554.646	3481.5
555.072	3500.99
555.498	3515.45
555.923	3537.49
556.349	3569.49
556.774	3587.73
557.199	3593.37
557.625	3608.86
558.05	3597.87
558.475	3621.04
558.9	3622.61
559.325	3608.72
559.75	3600.41
560.175	3590.56
560.6	3580.4
561.025	3580.11
561.449	3587.13
561.874	3604.22
562.299	3616.47
562.723	3636.54
563.148	3623.33
563.572	3639.95
563.997	3666.88
564.421	3687.31
564.846	3696.44
565.27	3711.75
565.694	3715.35
566.118	3748.04
566.542	3770.26
566.966	3765.53
567.39	3765.83
567.814	3751.98
568.238	3758.8
568.662	3780.66
569.086	3794.97
569.509	3819.11
569.933	3794.6
570.357	3789.5
570.78	3753.69
571.204	3734.09
571.627	3723.42
572.05	3729.46
572.474	3739.44
572.897	3723.05
573.32	3714.02
573.743	3703.24
574.166	3673.11
574.589	3684.16
575.012	3676.15
575.435	3682.88
575.858	3672.68
576.281	3654.72
576.704	3628.47
577.126	3608.19
577.549	3591.89
577.972	3578.13
578.394	3560.65
578.817	3547.9
579.239	3511.58
579.661	3486.98
580.084	3456.95
580.506	3433.12
580.928	3431.42
581.35	3413.9
581.772	3410.75
582.194	3386.75
582.616	3364.77
583.038	3340.21
583.46	3326.25
583.882	3324.75
584.303	3340.11
584.725	3336.71
585.147	3338.68
585.568	3364.28
585.99	3393.94
586.411	3410.08
586.833	3444.68
587.254	3450.6
587.675	3484.6
588.096	3514.77
588.518	3506.85
588.939	3471.2
589.36	3470.07
589.781	3458
590.202	3394.31
590.623	3376.39
591.043	3375.77
591.464	3349.75
591.885	3342.57
592.305	3330.33
592.726	3302.61
593.147	3306.75
593.567	3298.25
593.987	3282.72
594.408	3273.48
594.828	3275.2
595.248	3263.06
595.669	3221.42
596.089	3208.47
596.509	3196.26
596.929	3167.7
597.349	3168.91
597.769	3149.17
598.189	3135.69
598.608	3139.56
599.028	3145.96
599.448	3148.57
599.867	3123.09
600.287	3116.3
600.706	3105.82
601.126	3085.23
601.545	3083.81
601.965	3083.24
602.384	3072.94
602.803	3082.29
603.222	3073.18
603.641	3059.46
604.061	3052.61
604.48	3045.14
604.898	3066.53
605.317	3083.62
605.736	3091.52
606.155	3087.51
606.574	3069.9
606.992	3086.07
607.411	3077.36
607.829	3064.35
608.248	3061.88
608.666	3060.95
609.085	3064.84
609.503	3049.81
609.921	3037.5
610.339	3047
610.758	3051.31
611.176	3045.59
611.594	3028.52
612.012	3026.23
612.43	3036.45
612.847	3056.74
613.265	3062.35
613.683	3077.37
614.101	3084.13
614.518	3081.17
614.936	3061.95
615.353	3032.94
615.771	3030.96
616.188	3035.54
616.606	3032.84
617.023	3019.89
617.44	2988.88
617.857	2978.53
618.274	2961.8
618.691	2949.85
619.108	2932.33
619.525	2921.21
619.942	2939.55
620.359	2946.88
620.776	2938.42
621.192	2929.1
621.609	2928.57
622.026	2946.11
622.442	2959.37
622.859	2969.76
623.275	2955
623.691	2969.72
624.108	2998.04
624.524	3033.83
624.94	3037.22
625.356	3062.53
625.772	3096.62
626.188	3125.19
626.604	3130.88
627.02	3124.16
627.436	3119.35
627.852	3135.11
628.268	3163
628.683	3143.6
629.099	3123.54
629.514	3113.19
629.93	3122.37
630.345	3134.56
630.761	3127.77
631.176	3137.7
631.591	3121.38
632.007	3108.26
632.422	3106.73
632.837	3082.3
633.252	3076.06
633.667	3052.3
634.082	3031.03
634.497	2999.1
634.911	2949.07
635.326	2940.65
635.741	2900.32
636.155	2880.77
636.57	2882.63
636.984	2882.49
637.399	2883.55
637.813	2884.37
638.228	2882.83
638.642	2891.86
639.056	2869.24
639.47	2870.76
639.884	2847.24
640.298	2830.72
640.712	2823.34
641.126	2793.26
641.54	2771.92
641.954	2760.65
642.368	2726.82
642.781	2699.1
643.195	2655.97
643.609	2652.28
644.022	2635.08
644.436	2623.62
644.849	2592.8
645.262	2562.9
645.676	2563.28
646.089	2546.6
646.502	2505.34
646.915	2491.84
647.328	2453.19
647.741	2443.28
648.154	2409.34
648.567	2395.77
648.98	2360.15
649.393	2357.7
649.805	2347.03
650.218	2327.79
650.631	2288.09
651.043	2272.69
651.456	2255.32
651.868	2257.16
652.28	2297.83
652.693	2329.67
653.105	2347
653.517	2369.4
653.929	2368.41
654.341	2379.46
654.753	2349.31
655.165	2363.43
655.577	2355.84
655.989	2343.85
656.401	2324.47
656.813	2236.82
657.224	2189.05
657.636	2123.55
658.047	2078.72
658.459	2030.52
658.87	2006.84
659.282	1975.48
659.693	1922.32
660.104	1882.79
660.515	1847.2
660.926	1833.63
661.338	1821.98
661.749	1800.26
662.159	1769.7
662.57	1753.66
662.981	1735.38
663.392	1709.61
663.803	1709.51
664.213	1696.32
664.624	1678.74
665.035	1675.41
665.445	1639.13
665.855	1610.43
666.266	1581.78
666.676	1566.89
667.086	1538.55
667.497	1525.45
667.907	1504.53
668.317	1476.03
668.727	1456.04
669.137	1449.56
669.547	1436.82
669.956	1433.15
670.366	1430.43
670.776	1427.56
671.186	1428.66
671.595	1427.74
672.005	1429.9
672.414	1421.75
672.824	1413.65
673.233	1421.94
673.642	1421.69
674.052	1422.02
674.461	1422.63
674.87	1429.23
675.279	1422
675.688	1425.08
676.097	1424.57
676.506	1418.54
676.915	1448.66
677.323	1455.52
677.732	1455.29
678.141	1457.76
678.549	1444
678.958	1448.36
679.366	1453.12
679.775	1471.58
680.183	1497.21
680.592	1521.07
681	1544.3
681.408	1544.26
681.816	1575.38
682.224	1610.2
682.632	1647.72
683.04	1728.87
683.448	1802.4
683.856	1891.47
684.264	1992.68
684.671	2094.1
685.079	2211.63
685.487	2342.52
685.894	2512
686.302	2661.47
686.709	2785.37
687.116	2929.75
687.524	3046.98
687.931	3147.38
688.338	3236.85
688.745	3309.05
689.152	3387.08
689.559	3486.6
689.966	3575.53
690.373	3612.47
690.78	3689.83
691.187	3819.9
691.593	3904.35
