Data from N_2_DIV_PA_2N_Splice17_12-39-03-548.txt Node
Date: Sat Mar 14 12:39:03 EDT 2020
User: sa697716
Spectrometer: FLMS03696
Trigger mode: 0
Integration Time (sec): 3.180400E-1
Scans to average: 20
Electric dark correction enabled: true
Nonlinearity correction enabled: true
Boxcar width: 5
XAxis mode: Wavelengths
Number of Pixels in Spectrum: 2048
>>>>>Begin Spectral Data<<<<<
187.83	-271905.49
188.298	1987.28
188.766	1043.1
189.233	922.93
189.701	1384.73
190.169	1850.91
190.636	699.08
191.104	623.51
191.571	91.21
192.039	-95.44
192.506	-82.92
192.974	437.21
193.441	-861.5
193.908	-336.49
194.375	-116.04
194.842	-21.81
195.31	-5.25
195.777	133.69
196.244	360.14
196.711	394.84
197.177	521.13
197.644	747.23
198.111	1267.67
198.578	1807.18
199.045	1466.56
199.511	2393
199.978	2786.47
200.445	2389.85
200.911	2639.53
201.378	2910.75
201.844	2666.53
202.31	4507.46
202.777	4683.8
203.243	2607.2
203.709	2466.29
204.176	2920.86
204.642	2433.11
205.108	2262.67
205.574	1820.74
206.04	1652.31
206.506	1573.06
206.972	1462.46
207.438	1416.37
207.903	1609.04
208.369	1416.59
208.835	1413.19
209.301	1475.14
209.766	1489.91
210.232	1466.91
210.697	1820.3
211.163	2240.36
211.628	3322.94
212.094	2820.43
212.559	3485.3
213.024	2185.24
213.49	2664.93
213.955	2596.35
214.42	2520.12
214.885	2331.34
215.35	2252.37
215.815	2200.89
216.28	2332.65
216.745	1885.54
217.21	2040.46
217.675	1848.82
218.14	2056.2
218.604	2257.93
219.069	2555.69
219.534	2661.54
219.998	3063.72
220.463	3697.81
220.927	4480.59
221.392	4186.51
221.856	4236.44
222.32	5287.86
222.785	6477.93
223.249	8112.63
223.713	9033.91
224.177	9013.95
224.642	11538.33
225.106	14174.67
225.57	15391.75
226.034	11465.58
226.497	17484.61
226.961	15815.16
227.425	18411.68
227.889	20434.51
228.353	20401.98
228.816	42085.85
229.28	40356.04
229.744	33965.3
230.207	20696.57
230.671	20383.96
231.134	33634.48
231.597	38771.49
232.061	38709.48
232.524	37729.13
232.987	26021.91
233.45	23463.38
233.914	21065.91
234.377	21556.51
234.84	19774.65
235.303	23337.57
235.766	26080.9
236.229	27013.35
236.691	16985.18
237.154	19087.7
237.617	14391.36
238.08	14765.2
238.542	17293.98
239.005	12383.49
239.468	12322.84
239.93	11636.57
240.393	10572.03
240.855	9281.51
241.317	9482.54
241.78	11551.46
242.242	11965.33
242.704	12948.85
243.166	11279.42
243.629	10275.86
244.091	11860.78
244.553	12985.1
245.015	13951.21
245.477	18061.97
245.939	26501.39
246.4	28178.89
246.862	27418.11
247.324	25872.42
247.786	28928.15
248.247	37933.43
248.709	39117.72
249.17	29301.84
249.632	27707.64
250.093	32205.42
250.555	27837.19
251.016	17024.04
251.477	16177.87
251.939	17505.27
252.4	18382.31
252.861	21902.58
253.322	20411.87
253.783	24319.87
254.244	31583.63
254.705	24892.91
255.166	22133.72
255.627	21838.39
256.088	30823.79
256.549	32763.48
257.009	28225.61
257.47	34246.58
257.931	27881.73
258.391	20910.18
258.852	21546.93
259.312	22570.54
259.773	27887.28
260.233	23611.19
260.694	19950.23
261.154	22621.34
261.614	18180
262.074	16257.08
262.534	16927.62
262.994	15960.86
263.455	21277.75
263.915	17941.79
264.374	16923.26
264.834	18493.32
265.294	20495.48
265.754	21221.95
266.214	20094.41
266.673	18881.89
267.133	23873.26
267.593	23671.54
268.052	29021.05
268.512	25262.5
268.971	30564.62
269.431	33543.04
269.89	30045.02
270.349	45089.71
270.809	50334.89
271.268	45344.63
271.727	101584.25
272.186	65795.9
272.645	49369.26
273.104	35632
273.563	51590.82
274.022	40550
274.481	34523.63
274.94	26640.79
275.399	19794.94
275.857	23046.52
276.316	31172.02
276.775	27759.55
277.233	27352.2
277.692	25660.9
278.15	29060.09
278.609	29964.68
279.067	27729.64
279.525	25787.58
279.984	33298.89
280.442	40081.12
280.9	39586.82
281.358	26068.57
281.816	24301.3
282.274	23831.08
282.732	24627.94
283.19	24761.74
283.648	21328.58
284.106	22722.91
284.564	23090.63
285.021	21432.38
285.479	15979.09
285.937	14507.15
286.394	12739.85
286.852	13099.01
287.309	13753.12
287.767	13291.41
288.224	12624.35
288.682	13886.04
289.139	15254.25
289.596	13975.21
290.053	14533.55
290.511	18348.83
290.968	22300.14
291.425	30289.39
291.882	25307.96
292.339	22058.83
292.796	21897.67
293.252	20675.58
293.709	16449.28
294.166	14778.08
294.623	16355.96
295.079	15713.82
295.536	15810.84
295.992	14368.46
296.449	14216.97
296.905	14770.35
297.362	14185.89
297.818	14940.89
298.274	15519.62
298.731	15824.34
299.187	15647.77
299.643	16799.82
300.099	20325.1
300.555	22291.33
301.011	18639.92
301.467	18004.22
301.923	21070.65
302.379	20574.92
302.835	20212.4
303.291	20243.83
303.746	23040.99
304.202	29160.2
304.658	29266.5
305.113	19709.39
305.569	19333.34
306.024	20606.51
306.479	19573.35
306.935	16515.98
307.39	18028.43
307.845	16657.23
308.301	16783.85
308.756	16373.33
309.211	15778.09
309.666	16194.93
310.121	20092.13
310.576	20388.45
311.031	20208.83
311.486	23167.33
311.94	23167.97
312.395	31039.7
312.85	58371.53
313.305	286783.65
313.759	1487168.36
314.214	107608.43
314.668	85369.69
315.123	71994.01
315.577	25831.65
316.032	23040.54
316.486	28888.85
316.94	22841.86
317.394	15908.78
317.849	12370.48
318.303	11705.3
318.757	11041.69
319.211	12245.44
319.665	10732.89
320.119	10859.87
320.572	15600.32
321.026	14609.22
321.48	12186.6
321.934	13273.33
322.387	13295.55
322.841	14378.18
323.295	12967.4
323.748	14929.59
324.202	15145.91
324.655	18196.03
325.108	25479.73
325.562	17967.31
326.015	21341.45
326.468	16123.12
326.921	18052.49
327.374	16853.1
327.827	17555.53
328.28	19872.35
328.733	13322.14
329.186	11715.22
329.639	11157.14
330.092	9388.12
330.545	8971.5
330.997	9072.96
331.45	9945.09
331.903	11659.41
332.355	20063.84
332.808	19519.16
333.26	16078.08
333.713	17457.88
334.165	17599.14
334.617	23500.85
335.069	18967.94
335.522	34277.33
335.974	37789.9
336.426	34472.9
336.878	23889.9
337.33	12131.72
337.782	11854.72
338.234	14890.99
338.686	17791.21
339.137	21133
339.589	19878.4
340.041	15592.46
340.493	13371.38
340.944	13714.56
341.396	14762.17
341.847	12430.63
342.299	14688.93
342.75	17937.57
343.201	15625.04
343.653	17987.61
344.104	22064.52
344.555	17418.5
345.006	27127.77
345.457	20880.24
345.908	16635.88
346.359	15652.42
346.81	12751.89
347.261	13423
347.712	13224.51
348.163	14197.84
348.613	14429.56
349.064	13462.6
349.515	11772.86
349.965	12086.48
350.416	14523.5
350.866	15938.65
351.317	18050.68
351.767	29950.26
352.217	37884.5
352.668	31384.95
353.118	28785.43
353.568	27759.47
354.018	21966.26
354.468	23254.45
354.918	16681.27
355.368	14592.17
355.818	20616.82
356.268	59327.84
356.718	247954.06
357.168	61672.21
357.617	31005.61
358.067	34502.96
358.517	32304.22
358.966	37903.99
359.416	42503.05
359.865	46017.72
360.315	54841.66
360.764	25620.46
361.213	14362.43
361.663	13624.37
362.112	16835.91
362.561	27261.25
363.01	20546.19
363.459	17287.96
363.908	18783.32
364.357	15999.16
364.806	27033.24
365.255	18588.2
365.703	17069.85
366.152	17104.87
366.601	13892.99
367.05	11294.48
367.498	10258.06
367.947	10753.75
368.395	11213.48
368.844	9929.87
369.292	11951.81
369.74	8278.56
370.189	12721.24
370.637	14900.98
371.085	12865.81
371.533	15645.72
371.981	15120.86
372.429	14451.51
372.877	15052.25
373.325	12606.26
373.773	12856.33
374.221	11452.13
374.669	14206.94
375.116	12312.46
375.564	12455.57
376.012	13941.49
376.459	11516.01
376.907	13766.59
377.354	16691.91
377.801	15639.97
378.249	18036.1
378.696	23132.46
379.143	28084.79
379.591	30045.5
380.038	51000.62
380.485	36969.96
380.932	40182.9
381.379	36986.28
381.826	27373.62
382.273	19507.56
382.72	17073.84
383.166	16665.79
383.613	10843.07
384.06	9803.68
384.506	11396.97
384.953	8403.5
385.4	8474.16
385.846	7453.12
386.292	7277.2
386.739	7139.75
387.185	7085.65
387.631	7132.68
388.078	6964.83
388.524	7473.81
388.97	6942.53
389.416	5822.2
389.862	6214.08
390.308	5914.6
390.754	6027.82
391.2	6576.09
391.645	6762.53
392.091	6502.66
392.537	6290.71
392.983	6325.4
393.428	6264.48
393.874	6730.95
394.319	6770.98
394.765	6444.55
395.21	6654.94
395.655	6270.07
396.101	5898.06
396.546	5338.44
396.991	5402.81
397.436	5054.1
397.881	4904.83
398.326	4661.84
398.771	4436.83
399.216	3897.42
399.661	3524.99
400.106	3533.02
400.551	3634.46
400.995	3274.55
401.44	3258.47
401.885	3079.53
402.329	3119.6
402.774	3005.9
403.218	2924.31
403.663	2831.08
404.107	2925.72
404.551	2962.13
404.995	2728.39
405.44	2642.83
405.884	2696.13
406.328	2620.82
406.772	2626.82
407.216	2406.02
407.66	2337.52
408.104	2231.4
408.547	2100.49
408.991	2043.31
409.435	1975.21
409.879	1955.95
410.322	1936.96
410.766	1881.17
411.209	1798.23
411.653	1732.01
412.096	1703.8
412.54	1711.31
412.983	1705.37
413.426	1716.46
413.869	1722.12
414.312	1696.24
414.756	1641.06
415.199	1571.24
415.642	1531.76
416.085	1537.54
416.527	1528.9
416.97	1554.45
417.413	1478.18
417.856	1467.91
418.298	1454.52
418.741	1444.63
419.184	1445.76
419.626	1509.01
420.069	1514.69
420.511	1523.72
420.953	1494.45
421.396	1486.54
421.838	1455.18
422.28	1491.54
422.722	1503.69
423.164	1530.09
423.606	1507.94
424.048	1507.98
424.49	1436.9
424.932	1430.7
425.374	1411.88
425.816	1439.36
426.258	1466.64
426.699	1482.37
427.141	1457.73
427.582	1474.07
428.024	1461.91
428.465	1453.73
428.907	1421.36
429.348	1405.33
429.789	1406.07
430.231	1378.51
430.672	1397.39
431.113	1367.94
431.554	1350.78
431.995	1326.05
432.436	1286.9
432.877	1266.84
433.318	1250.91
433.759	1247.96
434.2	1249.7
434.64	1237.7
435.081	1242.79
435.522	1180.36
435.962	1139.52
436.403	1118.34
436.843	1135.04
437.284	1111.47
437.724	1080.22
438.164	1084.57
438.604	1062.24
439.045	1024.72
439.485	985.63
439.925	968.9
440.365	945.79
440.805	935.09
441.245	922.37
441.685	888.69
442.125	882.35
442.564	890.87
443.004	869.78
443.444	864.87
443.883	864.25
444.323	857.58
444.762	857.64
445.202	868.98
445.641	885.51
446.081	881.96
446.52	887.72
446.959	880.32
447.398	857.42
447.837	848.75
448.276	836.33
448.716	844.77
449.154	850.56
449.593	830.7
450.032	826.38
450.471	808.55
450.91	805.62
451.349	802.02
451.787	795.02
452.226	805.41
452.664	801.31
453.103	799
453.541	795.69
453.98	791.96
454.418	794.32
454.856	779.79
455.295	776.44
455.733	781.43
456.171	784.53
456.609	785.87
457.047	784.26
457.485	794.73
457.923	795.49
458.361	783.67
458.798	786.04
459.236	784.66
459.674	790.55
460.111	794.99
460.549	788.67
460.987	786.07
461.424	782.54
461.862	779.49
462.299	767.73
462.736	767.09
463.173	770.74
463.611	763.08
464.048	759.68
464.485	767.22
464.922	759.67
465.359	757.34
465.796	749.24
466.233	745.47
466.67	739.46
467.106	740.34
467.543	734.58
467.98	726.43
468.416	709.92
468.853	706.94
469.29	687.58
469.726	683.92
470.162	665.8
470.599	658.03
471.035	653.1
471.471	638.86
471.907	635.24
472.344	632.14
472.78	633.91
473.216	641.51
473.652	633.95
474.088	631.87
474.523	628.52
474.959	634.58
475.395	628.62
475.831	624.97
476.266	627.42
476.702	626.19
477.138	619.06
477.573	615.85
478.008	613.06
478.444	615.93
478.879	621.72
479.314	623.27
479.75	622.52
480.185	623.8
480.62	627.47
481.055	629.78
481.49	631.88
481.925	639.02
482.36	648.39
482.795	662.43
483.229	675.19
483.664	683.9
484.099	683.14
484.534	689.33
484.968	693.2
485.403	691.94
485.837	688.33
486.271	684.84
486.706	684
487.14	674.53
487.574	663.46
488.009	657.43
488.443	651.07
488.877	655.8
489.311	655.96
489.745	661.28
490.179	665.74
490.613	675.92
491.046	678.65
491.48	680.6
491.914	679.34
492.348	680.86
492.781	681.86
493.215	679.95
493.648	678.49
494.082	680.58
494.515	677.78
494.948	681.12
495.382	680.87
495.815	681.07
496.248	681
496.681	687.45
497.114	693.15
497.547	696.47
497.98	703.87
498.413	702.58
498.846	705.61
499.279	706.82
499.711	704.31
500.144	700.87
500.577	704.32
501.009	707.37
501.442	709.1
501.874	703.93
502.306	700.02
502.739	701.27
503.171	708.1
503.603	704.53
504.036	705.59
504.468	704.74
504.9	706.42
505.332	704.23
505.764	701.67
506.196	700.5
506.627	703.87
507.059	706.24
507.491	703.24
507.923	694.05
508.354	697.83
508.786	698.32
509.217	702.37
509.649	705.29
510.08	711.83
510.512	716.31
510.943	719.63
511.374	720.75
511.805	726.97
512.237	732.53
512.668	746.22
513.099	755.28
513.53	764.49
513.961	769.76
514.391	782.12
514.822	795.4
515.253	808.97
515.684	816.59
516.114	828.07
516.545	836.01
516.975	846.77
517.406	852.73
517.836	850.1
518.267	852.33
518.697	862.37
519.127	863.13
519.558	864.62
519.988	865.69
520.418	870.66
520.848	879.72
521.278	883.72
521.708	916.04
522.138	924.06
522.567	942.34
522.997	955.81
523.427	961.65
523.857	968.88
524.286	973.72
524.716	981.73
525.145	993.74
525.575	999.82
526.004	1008.11
526.433	981.58
526.863	981.1
527.292	976.5
527.721	981.25
528.15	987.47
528.579	992.05
529.008	999.94
529.437	1013.97
529.866	1021.43
530.295	1032.08
530.724	1039.87
531.152	1056.03
531.581	1065.66
532.01	1077.07
532.438	1082.37
532.867	1091.65
533.295	1102.68
533.723	1107.45
534.152	1108.09
534.58	1109.72
535.008	1101.98
535.436	1105.16
535.865	1110.77
536.293	1119.04
536.721	1127.5
537.149	1141.98
537.576	1142.35
538.004	1148.97
538.432	1152.85
538.86	1151.95
539.287	1155.63
539.715	1164.16
540.143	1163.99
540.57	1162.57
540.998	1161.7
541.425	1150.87
541.852	1140.32
542.28	1141.78
542.707	1133.31
543.134	1127.08
543.561	1125.72
543.988	1122.53
544.415	1122.92
544.842	1121.9
545.269	1118.57
545.696	1120.93
546.123	1129.87
546.549	1124.15
546.976	1117.18
547.403	1118.85
547.829	1119.8
548.256	1122
548.682	1120.6
549.108	1117.8
549.535	1118.13
549.961	1120.01
550.387	1112.12
550.813	1109.7
551.24	1114.89
551.666	1115.31
552.092	1109.47
552.518	1106.69
552.943	1103.92
553.369	1109.46
553.795	1112.25
554.221	1112.85
554.646	1110.22
555.072	1117.53
555.498	1117.16
555.923	1120.72
556.349	1128.75
556.774	1132.64
557.199	1130.36
557.625	1130.98
558.05	1125.21
558.475	1130.32
558.9	1128
559.325	1122.56
559.75	1116.67
560.175	1111.68
560.6	1106.76
561.025	1103.91
561.449	1102.57
561.874	1105.28
562.299	1106.06
562.723	1108.36
563.148	1099.02
563.572	1098.94
563.997	1100.74
564.421	1100.76
564.846	1098.15
565.27	1097.5
565.694	1093.03
566.118	1097.09
566.542	1100.1
566.966	1094.99
567.39	1089.73
567.814	1080.88
568.238	1077.86
568.662	1078.64
569.086	1078.03
569.509	1081.69
569.933	1072.16
570.357	1067.12
570.78	1054.21
571.204	1046.87
571.627	1039.69
572.05	1037.98
572.474	1038.92
572.897	1031.42
573.32	1028.07
573.743	1021.7
574.166	1010.96
574.589	1009.74
575.012	1005.8
575.435	1003.74
575.858	996.13
576.281	988.26
576.704	978.82
577.126	970.6
577.549	965
577.972	958.89
578.394	953.28
578.817	950.53
579.239	939.94
579.661	932.04
580.084	925.86
580.506	920.38
580.928	920.39
581.35	915.24
581.772	913.72
582.194	906.71
582.616	899.51
583.038	891.43
583.46	884.67
583.882	882.51
584.303	884.9
584.725	880.8
585.147	884.81
585.568	889.35
585.99	893.92
586.411	896.43
586.833	902.45
587.254	902.12
587.675	909.36
588.096	915.32
588.518	911.76
588.939	899.86
589.36	899.3
589.781	887.9
590.202	874.21
590.623	871.34
591.043	869.8
591.464	863.32
591.885	862.02
592.305	859.4
592.726	851.73
593.147	853.9
593.567	852.58
593.987	846.83
594.408	843.37
594.828	839.22
595.248	836.14
595.669	826.79
596.089	822.36
596.509	817.64
596.929	809.04
597.349	809.05
597.769	802.41
598.189	798.76
598.608	799.44
599.028	800.94
599.448	800.16
599.867	791.55
600.287	787.81
600.706	786.51
601.126	781.69
601.545	781.79
601.965	781.41
602.384	778.42
602.803	779.61
603.222	778.04
603.641	774.38
604.061	773.67
604.48	771.47
604.898	775.68
605.317	777.97
605.736	778.78
606.155	777.58
606.574	772.18
606.992	774.56
607.411	771.8
607.829	765.73
608.248	762.94
608.666	760.96
609.085	761.41
609.503	757.93
609.921	755
610.339	756.42
610.758	755.55
611.176	752.08
611.594	747.4
612.012	746.44
612.43	750.07
612.847	754.07
613.265	755.6
613.683	757.98
614.101	758.55
614.518	756.16
614.936	751.31
615.353	743.38
615.771	743.35
616.188	744.45
616.606	743.47
617.023	740.36
617.44	733.87
617.857	730.83
618.274	727.31
618.691	725.53
619.108	721.07
619.525	717.73
619.942	723.72
620.359	725.49
620.776	722.61
621.192	720.62
621.609	719.44
622.026	723.34
622.442	726.29
622.859	727.44
623.275	722.73
623.691	726.27
624.108	732.76
624.524	738.51
624.94	738.36
625.356	744.18
625.772	750.5
626.188	756.02
626.604	756.64
627.02	753.65
627.436	752.65
627.852	756.13
628.268	761.9
628.683	757.78
629.099	754.2
629.514	751.55
629.93	754.18
630.345	757.36
630.761	755.39
631.176	758.24
631.591	757.93
632.007	755.6
632.422	755.25
632.837	750.07
633.252	749.81
633.667	744.12
634.082	740.75
634.497	736.5
634.911	727.49
635.326	728.09
635.741	720.82
636.155	716.05
636.57	720.63
636.984	723.96
637.399	729.56
637.813	731.33
638.228	734.52
638.642	739.59
639.056	735.58
639.47	739.48
639.884	738.3
640.298	738.33
640.712	741.75
641.126	736.61
641.54	734.34
641.954	733.7
642.368	730.02
642.781	730.65
643.195	723.18
643.609	727.84
644.022	727.4
644.436	727.74
644.849	722.37
645.262	717.62
645.676	721.85
646.089	722.16
646.502	716.01
646.915	716.94
647.328	708.77
647.741	711.92
648.154	706.6
648.567	710.26
648.98	704.95
649.393	708.59
649.805	709.34
650.218	706.93
650.631	699.46
651.043	697.61
651.456	696.52
651.868	698.15
652.28	710.67
652.693	719.75
653.105	722.67
653.517	729.17
653.929	730.1
654.341	735.11
654.753	729.11
655.165	734.8
655.577	735.26
655.989	732.77
656.401	730.47
656.813	709.97
657.224	700.77
657.636	684.72
658.047	677.78
658.459	668.59
658.87	666.82
659.282	663.15
659.693	653.85
660.104	647.52
660.515	642.61
660.926	646.88
661.338	648.68
661.749	648.91
662.159	647.16
662.57	648.05
662.981	650.04
663.392	649.52
663.803	656.95
664.213	658.74
664.624	659.5
665.035	665.65
665.445	656.97
665.855	655.32
666.266	653.19
666.676	655.46
667.086	651.82
667.497	654.22
667.907	651.69
668.317	646.65
668.727	647.35
669.137	650.32
669.547	651.01
669.956	655.99
670.366	659.3
670.776	661.93
671.186	665.21
671.595	668.44
672.005	671.57
672.414	672.47
672.824	671.25
673.233	673.46
673.642	675.79
674.052	679.86
674.461	681.2
674.87	684.8
675.279	681.91
675.688	683.43
676.097	684.27
676.506	680.92
676.915	691.71
677.323	694.01
677.732	691.25
678.141	689.55
678.549	677.29
678.958	674.02
679.366	671.57
679.775	673.53
680.183	680.14
680.592	682
681	683.77
681.408	673.99
681.816	675.57
682.224	678.75
682.632	682.66
683.04	700.91
683.448	714.37
683.856	730.33
684.264	748.8
684.671	761.84
685.079	778.97
685.487	798.92
685.894	829.3
686.302	847.44
686.709	859.38
687.116	874.05
687.524	883.49
687.931	886.38
688.338	886.01
688.745	881.22
689.152	879.19
689.559	885.34
689.966	890.66
690.373	883.09
690.78	888.83
691.187	904.01
691.593	910.96
692	914.51
692.407	931.76
692.813	958.44
693.22	976.76
693.626	995.98
694.032	1012.17
694.439	1041.47
694.845	1064.4
695.251	1095.56
695.657	1126.93
696.063	1173.33
696.469	1208.82
696.875	1244.03
697.281	1263.71
697.687	1291
698.093	1316.51
698.498	1360.79
698.904	1396.48
699.31	1449.53
699.715	1493.94
700.12	1551.02
700.526	1573.14
700.931	1623.7
701.337	1665.35
701.742	1698.36
702.147	1759.49
702.552	1793.93
702.957	1844.6
703.362	1873.79
