Data from N_2_DEC_VA_2N_Splice17_12-06-54-406.txt Node
Date: Sat Mar 14 12:06:54 EDT 2020
User: sa697716
Spectrometer: FLMS03696
Trigger mode: 0
Integration Time (sec): 3.180400E-1
Scans to average: 20
Electric dark correction enabled: true
Nonlinearity correction enabled: true
Boxcar width: 5
XAxis mode: Wavelengths
Number of Pixels in Spectrum: 2048
>>>>>Begin Spectral Data<<<<<
187.83	-364094.33
188.298	2609.14
188.766	1383.27
189.233	1273.24
189.701	1776.45
190.169	2470.45
190.636	943.38
191.104	824.22
191.571	194.59
192.039	43.12
192.506	45.62
192.974	576.93
193.441	-703.47
193.908	-192.94
194.375	-58.89
194.842	62.27
195.31	169.85
195.777	193.65
196.244	461.94
196.711	623.25
197.177	791.71
197.644	1123.27
198.111	1925.43
198.578	2667.75
199.045	2157.48
199.511	3558.99
199.978	4135.48
200.445	3488.54
200.911	3858.33
201.378	4343.57
201.844	3925.89
202.31	6756.29
202.777	7043.34
203.243	3920.47
203.709	3740.52
204.176	4455.82
204.642	3664.25
205.108	3424.47
205.574	2828.53
206.04	2592.52
206.506	2409.01
206.972	2270.92
207.438	2186.38
207.903	2478.74
208.369	2175.4
208.835	2173.44
209.301	2271.34
209.766	2329.22
210.232	2293.77
210.697	2807.13
211.163	3463.13
211.628	5280.97
212.094	4421.95
212.559	5416.83
213.024	3373.64
213.49	4110.67
213.955	4016.53
214.42	3964.1
214.885	3700.16
215.35	3568.67
215.815	3423.32
216.28	3641.07
216.745	2975.02
217.21	3218.92
217.675	2972.43
218.14	3358.53
218.604	3759.23
219.069	4298.1
219.534	4484.4
219.998	5247.48
220.463	6369.41
220.927	7925.82
221.392	7482.42
221.856	7597.28
222.32	9623.33
222.785	11887.89
223.249	15016.25
223.713	16823.09
224.177	16820.17
224.642	21679.05
225.106	26690.84
225.57	29217.11
226.034	21655.04
226.497	32961.94
226.961	29701.19
227.425	34611.39
227.889	38396.87
228.353	38360.48
228.816	79133.96
229.28	75561.41
229.744	63668.39
230.207	38626.79
230.671	37976.97
231.134	62861.9
231.597	72404.09
232.061	72406.93
232.524	70398.09
232.987	48443.9
233.45	43523.59
233.914	38959.66
234.377	39960.98
234.84	36473.23
235.303	43034.1
235.766	47960.89
236.229	49487.05
236.691	31114.39
237.154	34921.97
237.617	26259.46
238.08	26880.37
238.542	31446.66
239.005	22477.39
239.468	22293.45
239.93	21017.26
240.393	19067.5
240.855	16719.05
241.317	17119.13
241.78	20845.44
242.242	21512.57
242.704	23178.23
243.166	20146.47
243.629	18249.49
244.091	20998.96
244.553	22963.72
245.015	24628.03
245.477	31822.66
245.939	46604.59
246.4	49332.18
246.862	47873.54
247.324	45126.28
247.786	50489.13
248.247	66077.13
248.709	68229.66
249.17	50963.5
249.632	47926.71
250.093	55457.3
250.555	47835.1
251.016	29118.6
251.477	27634.16
251.939	29765.93
252.4	31186.02
252.861	37058.89
253.322	34475.71
253.783	41012.14
254.244	53121.95
254.705	41885.23
255.166	37255.17
255.627	36642.25
256.088	51658.95
256.549	54868.32
257.009	47285.18
257.47	57390.55
257.931	46716.05
258.391	34987.35
258.852	36063.76
259.312	37821.56
259.773	46739.93
260.233	39466.77
260.694	33277.11
261.154	37777.02
261.614	30281.77
262.074	27086.52
262.534	28124.5
262.994	26487.95
263.455	35295.53
263.915	29730.84
264.374	28030.95
264.834	30585.28
265.294	33907.79
265.754	35139.72
266.214	33238.42
266.673	31140.49
267.133	39277.03
267.593	38963.64
268.052	47672.35
268.512	41422.28
268.971	49868.5
269.431	54602.84
269.89	48894.84
270.349	73269.05
270.809	81595.45
271.268	73317.74
271.727	164469.39
272.186	106505.36
272.645	79795.05
273.104	57602.56
273.563	83442.73
274.022	65662.2
274.481	55845.75
274.94	42990.6
275.399	31985.67
275.857	37260.4
276.316	50408.72
276.775	44855.11
277.233	44148.98
277.692	41316.94
278.15	46709.7
278.609	48018.15
279.067	44428.59
279.525	41281.57
279.984	53321.87
280.442	63993.78
280.9	63071.69
281.358	41473.86
281.816	38628.91
282.274	37837.1
282.732	39145.21
283.19	39355.07
283.648	33968.76
284.106	36210.83
284.564	36808.52
285.021	34149.21
285.479	25456.18
285.937	23163.42
286.394	20340.46
286.852	20939.27
287.309	21993
287.767	21226.16
288.224	20182.51
288.682	22136.96
289.139	24278.31
289.596	22196.95
290.053	23062.09
290.511	29091.5
290.968	35241
291.425	47741.69
291.882	39677.29
292.339	34503.65
292.796	34211.58
293.252	32182.62
293.709	25555.96
294.166	22891.48
294.623	25292.68
295.079	24256.2
295.536	24361.39
295.992	22107.8
296.449	21858.18
296.905	22707.46
297.362	21765.01
297.818	22901.89
298.274	23758.06
298.731	24214.78
299.187	23962.29
299.643	25733.29
300.099	31098.83
300.555	34111.86
301.011	28502.5
301.467	27443.56
301.923	32148.2
302.379	31404.07
302.835	30828.39
303.291	30871.81
303.746	35110.68
304.202	44338.17
304.658	44489.41
305.113	29956.5
305.569	29324.59
306.024	31295.87
306.479	29823.19
306.935	25130.92
307.39	27451.99
307.845	25362.72
308.301	25491.23
308.756	24845.85
309.211	23946.34
309.666	24556.84
310.121	30469.25
310.576	30966.73
311.031	30726.82
311.486	35227.7
311.94	35186.9
312.395	47015.2
312.85	88357.91
313.305	434979.95
313.759	2249911.73
314.214	163121.57
314.668	129112.34
315.123	108427.77
315.577	38889.05
316.032	34577.63
316.486	43347.35
316.94	34205.27
317.394	23828.51
317.849	18511.37
318.303	17499.12
318.757	16523.3
319.211	18236.04
319.665	15954.77
320.119	16160
320.572	23166.3
321.026	21625.33
321.48	17990.36
321.934	19622.57
322.387	19679.71
322.841	21244.11
323.295	19073.29
323.748	21961.96
324.202	22273.66
324.655	26781.91
325.108	37387.41
325.562	26378.79
326.015	31339.06
326.468	23667.3
326.921	26455.36
327.374	24636.45
327.827	25659.07
328.28	29094.54
328.733	19496.51
329.186	17159.31
329.639	16328.7
330.092	13761.78
330.545	13106.22
330.997	13232.18
331.45	14462.48
331.903	16944.28
332.355	29160.26
332.808	28319.78
333.26	23362.88
333.713	25373.57
334.165	25567.85
334.617	34164.67
335.069	27643.66
335.522	50095.44
335.974	55446.46
336.426	50644.75
336.878	35126.6
337.33	17836.27
337.782	17438
338.234	21823.42
338.686	26117.92
339.137	30954.14
339.589	29207.23
340.041	22882.23
340.493	19641.87
340.944	20093.45
341.396	21652.96
341.847	18199.66
342.299	21435.06
342.75	26135.04
343.201	22854.24
343.653	26236.3
344.104	32242.21
344.555	25350.87
345.006	39476.37
345.457	30175.45
345.908	23970.78
346.359	22533.11
346.81	18329.2
347.261	19307.35
347.712	19009.95
348.163	20390.97
348.613	20637.44
349.064	19261.88
349.515	16857.49
349.965	17256.53
350.416	20767.93
350.866	22803.16
351.317	25788.82
351.767	42686.94
352.217	53972.91
352.668	44807.9
353.118	41053.77
353.568	39674.37
354.018	31372.89
354.468	33080.01
354.918	23734.2
355.368	20820.84
355.818	29398.84
356.268	84581.89
356.718	354482.91
357.168	88166.16
357.617	44271.79
358.067	49270.66
358.517	46050.37
358.966	54050.47
359.416	60593.68
359.865	65512.15
360.315	78001.5
360.764	36519.38
361.213	20471.53
361.663	19406.55
362.112	24005.56
362.561	38796.18
363.01	29225.06
363.459	24690.32
363.908	26689.35
364.357	22718.78
364.806	38445.25
365.255	26444.86
365.703	24188.08
366.152	24251.85
366.601	19658.14
367.05	15959.36
367.498	14484.54
367.947	15158.25
368.395	15719.4
368.844	13920.59
369.292	16765.44
369.74	11587.43
370.189	17743.78
370.637	20804.83
371.085	17954.53
371.533	21929.18
371.981	21146.58
372.429	20206.24
372.877	21088.5
373.325	17688.09
373.773	18074.39
374.221	16151.68
374.669	20055.67
375.116	17392.52
375.564	17576.7
376.012	19680.64
376.459	16230.91
376.907	19460.97
377.354	23614.79
377.801	22115.55
378.249	25513.74
378.696	32749.81
379.143	39826.48
379.591	42685.46
380.038	72603.25
380.485	52754.49
380.932	57401.1
381.379	52797.8
381.826	39079.71
382.273	27943.66
382.72	24565.8
383.166	24109.88
383.613	15742.33
384.06	14266.82
384.506	16641.17
384.953	12303.78
385.4	12486.85
385.846	11011.02
386.292	10830.02
386.739	10697.88
387.185	10682.32
387.631	10774.58
388.078	10538.95
388.524	11368.06
388.97	10601.98
389.416	8911.53
389.862	9546.19
390.308	9110.87
390.754	9332.98
391.2	10216.75
391.645	10531.78
392.091	10109.34
392.537	9844.44
392.983	9948.88
393.428	9832.07
393.874	10595.6
394.319	10690.81
394.765	10217.37
395.21	10595.3
395.655	10001.02
396.101	9411.38
396.546	8542.39
396.991	8690.59
397.436	8110.91
397.881	7871.99
398.326	7510.2
398.771	7133.4
399.216	6271.83
399.661	5664.4
400.106	5647
400.551	5785.59
400.995	5199.07
401.44	5145.18
401.885	4835.81
402.329	4887.68
402.774	4680.69
403.218	4513.22
403.663	4349.21
404.107	4460.95
404.551	4486.29
404.995	4110.9
405.44	3962.37
405.884	4024.98
406.328	3894.76
406.772	3875.85
407.216	3524.73
407.66	3407.54
408.104	3236.74
408.547	3023.61
408.991	2920.49
409.435	2810.4
409.879	2766.58
410.322	2723.03
410.766	2620.89
411.209	2483.96
411.653	2381.39
412.096	2325.32
412.54	2322.21
412.983	2304.95
413.426	2307.38
413.869	2304.04
414.312	2255.06
414.756	2170.71
415.199	2068.25
415.642	2004.24
416.085	2000.94
416.527	1985.38
416.97	2014.02
417.413	1907.62
417.856	1887.12
418.298	1865.11
418.741	1851.92
419.184	1846.56
419.626	1924.27
420.069	1923.32
420.511	1929.99
420.953	1891.61
421.396	1870.88
421.838	1823.94
422.28	1861.29
422.722	1865.15
423.164	1889.78
423.606	1854.19
424.048	1846.59
424.49	1747.24
424.932	1735.32
425.374	1711.68
425.816	1734.95
426.258	1762.75
426.699	1775.69
427.141	1743.75
427.582	1765.42
428.024	1755.12
428.465	1743.44
428.907	1696.19
429.348	1675.28
429.789	1668.42
430.231	1625.24
430.672	1645.13
431.113	1601.99
431.554	1577.55
431.995	1537.49
432.436	1480.4
432.877	1442.59
433.318	1416.06
433.759	1410.4
434.2	1410.64
434.64	1396.46
435.081	1403.53
435.522	1331.85
435.962	1288
436.403	1260.31
436.843	1282.37
437.284	1258.93
437.724	1229.52
438.164	1237.85
438.604	1216.41
439.045	1171.45
439.485	1126.09
439.925	1105.57
440.365	1082.38
440.805	1074.01
441.245	1064.05
441.685	1030.8
442.125	1028.15
442.564	1040.89
443.004	1020.57
443.444	1023.41
443.883	1030.13
444.323	1032.66
444.762	1044.09
445.202	1066.02
445.641	1090.56
446.081	1094.26
446.52	1109.98
446.959	1108.54
447.398	1087.83
447.837	1085.15
448.276	1074.45
448.716	1095.37
449.154	1113.62
449.593	1095.25
450.032	1099.26
450.471	1086.83
450.91	1096.49
451.349	1099.48
451.787	1101.22
452.226	1124.28
452.664	1128.54
453.103	1135.44
453.541	1139.1
453.98	1138.84
454.418	1150.73
454.856	1132.79
455.295	1134.67
455.733	1144.37
456.171	1154.11
456.609	1156.61
457.047	1159.31
457.485	1175.63
457.923	1178.85
458.361	1163.53
458.798	1170.29
459.236	1167.02
459.674	1179.96
460.111	1187.33
460.549	1176.53
460.987	1173.57
461.424	1171.95
461.862	1165.88
462.299	1150.26
462.736	1147.2
463.173	1152.18
463.611	1136.14
464.048	1132.83
464.485	1141.22
464.922	1131.15
465.359	1127.32
465.796	1104.51
466.233	1095.53
466.67	1084.07
467.106	1079.43
467.543	1070.89
467.98	1059.35
468.416	1035.63
468.853	1027.95
469.29	997.79
469.726	986.78
470.162	961.32
470.599	957.18
471.035	950.83
471.471	930.17
471.907	927.05
472.344	923.02
472.78	926.01
473.216	939.16
473.652	930.69
474.088	930.74
474.523	929.12
474.959	938.71
475.395	930.95
475.831	925.97
476.266	932.47
476.702	933.23
477.138	923.69
477.573	920.8
478.008	917.72
478.444	921.73
478.879	928.49
479.314	932.09
479.75	932.5
480.185	938.22
480.62	948.26
481.055	953.99
481.49	961.29
481.925	975.7
482.36	991.95
482.795	1020.74
483.229	1051.6
483.664	1075.87
484.099	1083.33
484.534	1102.78
484.968	1115.09
485.403	1120.69
485.837	1123
486.271	1124.09
486.706	1129.83
487.14	1123.67
487.574	1110.43
488.009	1103.63
488.443	1099.05
488.877	1113.95
489.311	1121.77
489.745	1140.35
490.179	1156.54
490.613	1181.55
491.046	1197.3
491.48	1212.26
491.914	1219.22
492.348	1234.45
492.781	1249.43
493.215	1260.19
493.648	1269.7
494.082	1286.85
494.515	1294.89
494.948	1315.6
495.382	1334.24
495.815	1351.05
496.248	1369.25
496.681	1402.43
497.114	1434.25
497.547	1462.06
497.98	1493.77
498.413	1514.87
498.846	1542.65
499.279	1569.09
499.711	1587.13
500.144	1600.86
500.577	1629.1
501.009	1660.83
501.442	1687.7
501.874	1698.34
502.306	1712.01
502.739	1733.5
503.171	1771.56
503.603	1785.67
504.036	1813.91
504.468	1833.77
504.9	1865.76
505.332	1888.18
505.764	1901.78
506.196	1924.16
506.627	1960.31
507.059	1991.58
507.491	2019.03
507.923	2018.16
508.354	2053.28
508.786	2078.1
509.217	2118.03
509.649	2149.26
510.08	2190.45
510.512	2225.13
510.943	2255.86
511.374	2278.76
511.805	2322.27
512.237	2361.41
512.668	2429.06
513.099	2483.74
513.53	2536.89
513.961	2574.62
514.391	2636.67
514.822	2698.51
515.253	2768.9
515.684	2815.26
516.114	2867.62
516.545	2900.97
516.975	2945.22
517.406	2972.7
517.836	2968.01
518.267	2969.12
518.697	2993.31
519.127	2990.27
519.558	2993.44
519.988	2989.55
520.418	2999.23
520.848	3023.52
521.278	3029.31
521.708	3008.41
522.138	3020.8
522.567	3071.57
522.997	3110.48
523.427	3130.78
523.857	3152.72
524.286	3162.75
524.716	3180.52
525.145	3205.18
525.575	3215.3
526.004	3233.93
526.433	3249.59
526.863	3241.73
527.292	3210.95
527.721	3212.97
528.15	3217.14
528.579	3209.61
529.008	3221.28
529.437	3257.37
529.866	3276.84
530.295	3303.97
530.724	3318.95
531.152	3365.79
531.581	3385.36
532.01	3414.28
532.438	3424.85
532.867	3446.54
533.295	3478.06
533.723	3486.2
534.152	3478.82
534.58	3474.98
535.008	3440.81
535.436	3441.13
535.865	3453.44
536.293	3479.7
536.721	3508.05
537.149	3555.52
537.576	3558.95
538.004	3581.43
538.432	3596.41
538.86	3592.48
539.287	3605.91
539.715	3632.96
540.143	3641.17
540.57	3633.86
540.998	3625.08
541.425	3580.61
541.852	3540.03
542.28	3537.14
542.707	3506.1
543.134	3477.86
543.561	3468.16
543.988	3451.95
544.415	3449.49
544.842	3437.55
545.269	3422.98
545.696	3424.7
546.123	3447.45
546.549	3427.52
546.976	3400.57
547.403	3398.55
547.829	3402.71
548.256	3407.49
548.682	3400.75
549.108	3384.19
549.535	3383.65
549.961	3386.86
550.387	3364.83
550.813	3353.66
551.24	3365.11
551.666	3367.77
552.092	3349.45
552.518	3336.54
552.943	3323.46
553.369	3338.27
553.795	3348.92
554.221	3350.9
554.646	3346.14
555.072	3364.31
555.498	3376.43
555.923	3394.56
556.349	3424.28
556.774	3443.14
557.199	3448.8
557.625	3462.96
558.05	3454.23
558.475	3479.08
558.9	3478.75
559.325	3465.68
559.75	3458.12
560.175	3449.22
560.6	3441.21
561.025	3442.11
561.449	3449.38
561.874	3465.64
562.299	3481.05
562.723	3499.18
563.148	3486.97
563.572	3502.77
563.997	3527.59
564.421	3546.58
564.846	3556
565.27	3569.97
565.694	3574.04
566.118	3604.58
566.542	3624.86
566.966	3619.29
567.39	3617.82
567.814	3604.37
568.238	3610.79
568.662	3632.45
569.086	3645.92
569.509	3670.71
569.933	3649.05
570.357	3644.09
570.78	3610.54
571.204	3592.72
571.627	3582
572.05	3588.61
572.474	3595.08
572.897	3579.21
573.32	3571.24
573.743	3558.99
574.166	3527.12
574.589	3537.15
575.012	3528.91
575.435	3535.48
575.858	3525.47
576.281	3508.49
576.704	3483.09
577.126	3466.2
577.549	3450.22
577.972	3436.65
578.394	3422.61
578.817	3411.3
579.239	3377.59
579.661	3354.97
580.084	3325.39
580.506	3302.93
580.928	3300.18
581.35	3282.72
581.772	3277.98
582.194	3254.59
582.616	3232.7
583.038	3207.87
583.46	3194.11
583.882	3190.92
584.303	3206.06
584.725	3203.02
585.147	3204.24
585.568	3229.03
585.99	3258.1
586.411	3275.33
586.833	3309.51
587.254	3316.33
587.675	3350.49
588.096	3379.54
588.518	3370.83
588.939	3335.4
589.36	3332.65
589.781	3321.45
590.202	3259.89
590.623	3242.11
591.043	3238.81
591.464	3214.12
591.885	3207.71
592.305	3195.5
592.726	3167.64
593.147	3171.61
593.567	3164.56
593.987	3150.39
594.408	3141.57
594.828	3144.36
595.248	3133.58
595.669	3093.83
596.089	3079.72
596.509	3068.04
596.929	3042.48
597.349	3045.67
597.769	3026.45
598.189	3012.69
598.608	3016.29
599.028	3021.95
599.448	3023.5
599.867	2998.33
600.287	2993.77
600.706	2986.1
601.126	2965.22
601.545	2961.43
601.965	2959.94
602.384	2950.96
602.803	2959.75
603.222	2951.27
603.641	2939.76
604.061	2931.69
604.48	2927.12
604.898	2947.02
605.317	2961.05
605.736	2969.31
606.155	2966.45
606.574	2950.41
606.992	2965.1
607.411	2956.56
607.829	2944.05
608.248	2939.57
608.666	2941.35
609.085	2942.56
609.503	2927.57
609.921	2915.6
610.339	2924.04
610.758	2927.04
611.176	2921.32
611.594	2904.81
612.012	2903.08
612.43	2910.78
612.847	2929.65
613.265	2933.1
613.683	2947.46
614.101	2953.37
614.518	2950.94
614.936	2933.8
615.353	2906.19
615.771	2902.87
616.188	2909.09
616.606	2904.05
617.023	2893.96
617.44	2865.91
617.857	2857.08
618.274	2841.58
618.691	2829.89
619.108	2812.34
619.525	2801.41
619.942	2817.34
620.359	2826
620.776	2815.95
621.192	2809.28
621.609	2806.61
622.026	2822.49
622.442	2835.86
622.859	2845.84
623.275	2834.2
623.691	2848.06
624.108	2874.98
624.524	2909.65
624.94	2910.17
625.356	2935.07
625.772	2965.71
626.188	2994.83
626.604	2999.95
627.02	2991.6
627.436	2987.78
627.852	3002.25
628.268	3030.67
628.683	3011.58
629.099	2993.22
629.514	2985.15
629.93	2993.64
630.345	3004.9
630.761	2996.45
631.176	3005.47
631.591	2989.83
632.007	2974.08
632.422	2972.32
632.837	2948.6
633.252	2942.75
633.667	2920.87
634.082	2900.42
634.497	2870.38
634.911	2824.61
635.326	2818.04
635.741	2779.4
636.155	2759.59
636.57	2763.53
636.984	2762.14
637.399	2762.72
637.813	2762.89
638.228	2758.77
638.642	2767.59
639.056	2744.22
639.47	2744.5
639.884	2722.27
640.298	2705.61
640.712	2699.91
641.126	2670.11
641.54	2649.08
641.954	2638.7
642.368	2607.1
642.781	2582.33
643.195	2539.4
643.609	2536.12
644.022	2519.34
644.436	2507.98
644.849	2478.38
645.262	2451.17
645.676	2451.18
646.089	2434.85
646.502	2396.1
646.915	2380.79
647.328	2342.91
647.741	2334.35
648.154	2302.86
648.567	2289.26
648.98	2256.17
649.393	2254.03
649.805	2241.1
650.218	2222.54
650.631	2185.06
651.043	2168.04
651.456	2152.82
651.868	2152.91
652.28	2190.34
652.693	2220.19
653.105	2236.75
653.517	2256.83
653.929	2255.47
654.341	2266.66
654.753	2236.86
655.165	2251.62
655.577	2244.89
655.989	2233.14
656.401	2216.03
656.813	2132.46
657.224	2085.32
657.636	2022.53
658.047	1976.87
658.459	1931.67
658.87	1909.22
659.282	1880.68
659.693	1828.66
660.104	1789.94
660.515	1755.27
660.926	1742.08
661.338	1729.3
661.749	1708.42
662.159	1678.34
662.57	1661.77
662.981	1642.26
663.392	1616.31
663.803	1614.73
664.213	1601.13
664.624	1583.12
665.035	1577.78
665.445	1541.14
665.855	1514.85
666.266	1487.44
666.676	1472.4
667.086	1444.51
667.497	1431.56
667.907	1409.77
668.317	1380.11
668.727	1359.53
669.137	1352.06
669.547	1337.84
669.956	1334.1
670.366	1328.66
670.776	1322.11
671.186	1322.12
671.595	1320.81
672.005	1320.93
672.414	1313.39
672.824	1304.98
673.233	1309.93
673.642	1307.72
674.052	1307.58
674.461	1305.42
674.87	1308.96
675.279	1300.62
675.688	1299.92
676.097	1300.19
676.506	1291.57
676.915	1314.63
677.323	1319.73
677.732	1318.4
678.141	1319.6
678.549	1305.57
678.958	1309.05
679.366	1314.2
679.775	1331.72
680.183	1355.48
680.592	1374.88
681	1397.63
681.408	1400.4
681.816	1429.19
682.224	1462.45
682.632	1499.23
683.04	1575.54
683.448	1644.64
683.856	1727.25
684.264	1821.83
684.671	1917.4
685.079	2029.96
685.487	2149.91
685.894	2309.99
686.302	2450.84
686.709	2571.33
687.116	2710.68
687.524	2824.26
687.931	2924.16
688.338	3011.69
688.745	3088.24
689.152	3167.03
689.559	3264.91
689.966	3359.89
690.373	3399.64
690.78	3477.93
691.187	3602.54
