Data from N_2_DEC_ON_6N_Splice17_12-15-04-163.txt Node
Date: Sat Mar 14 12:15:04 EDT 2020
User: sa697716
Spectrometer: FLMS03696
Trigger mode: 0
Integration Time (sec): 3.180400E-1
Scans to average: 20
Electric dark correction enabled: true
Nonlinearity correction enabled: true
Boxcar width: 5
XAxis mode: Wavelengths
Number of Pixels in Spectrum: 2048
>>>>>Begin Spectral Data<<<<<
187.83	-280127.07
188.298	1992.84
188.766	1157.05
189.233	1010.52
189.701	1480.42
190.169	2098.59
190.636	773.45
191.104	611.69
191.571	66.35
192.039	-71.13
192.506	-44.38
192.974	391.74
193.441	-677.01
193.908	86.38
194.375	15.3
194.842	92.86
195.31	236.71
195.777	205.95
196.244	453.31
196.711	555.13
197.177	708.08
197.644	999.49
198.111	1723.36
198.578	2431.89
199.045	1942.28
199.511	3245.71
199.978	3848.77
200.445	3259.16
200.911	3603.91
201.378	4022.38
201.844	3632.01
202.31	6208.26
202.777	6489.19
203.243	3623.06
203.709	3453.33
204.176	4132.31
204.642	3390.4
205.108	3168.53
205.574	2589.33
206.04	2392.46
206.506	2241.91
206.972	2137.83
207.438	2072.09
207.903	2381.63
208.369	2083.56
208.835	2073.27
209.301	2161.88
209.766	2215.69
210.232	2185.68
210.697	2720.11
211.163	3357.16
211.628	5109.67
212.094	4286.99
212.559	5263.03
213.024	3271.85
213.49	3992.48
213.955	3901.43
214.42	3846.95
214.885	3594.29
215.35	3458.94
215.815	3293.81
216.28	3490.84
216.745	2847.35
217.21	3087.06
217.675	2855.33
218.14	3241.38
218.604	3654.4
219.069	4197.23
219.534	4418.69
219.998	5170
220.463	6302.18
220.927	7862.77
221.392	7452.93
221.856	7574.36
222.32	9608.01
222.785	11902.91
223.249	15024.38
223.713	16810.53
224.177	16836.28
224.642	21664.75
225.106	26729.68
225.57	29248.98
226.034	21729.1
226.497	33109.25
226.961	29946.54
227.425	34832.27
227.889	38659.53
228.353	38629.03
228.816	79777.42
229.28	76345.1
229.744	64434.36
230.207	39129.97
230.671	38450.15
231.134	63661.79
231.597	73281.83
232.061	73202.74
232.524	71440.83
232.987	49164.13
233.45	44209.49
233.914	39630.92
234.377	40621.95
234.84	37113.52
235.303	43731.67
235.766	48833.65
236.229	50417.31
236.691	31771.86
237.154	35671.77
237.617	26806.22
238.08	27461.38
238.542	32138.02
239.005	22992.92
239.468	22822.56
239.93	21517.96
240.393	19544.83
240.855	17150.43
241.317	17557.67
241.78	21367.86
242.242	22093.17
242.704	23842.03
243.166	20735.93
243.629	18811.92
244.091	21634.9
244.553	23665.74
245.015	25421.71
245.477	32898.88
245.939	48180.52
246.4	51087.55
246.862	49590.59
247.324	46711.51
247.786	52209.75
248.247	68446.24
248.709	70634.47
249.17	52773.31
249.632	49725.52
250.093	57568.81
250.555	49612.36
251.016	30236.08
251.477	28648.83
251.939	30859.54
252.4	32334.31
252.861	38434.43
253.322	35662.53
253.783	42398.67
254.244	54920.84
254.705	43220.9
255.166	38357.58
255.627	37721.42
256.088	53066.01
256.549	56297.85
257.009	48464.31
257.47	58790.46
257.931	47819.5
258.391	35814.97
258.852	36870.38
259.312	38604.7
259.773	47571.62
260.233	40117.3
260.694	33782.76
261.154	38263.72
261.614	30659.19
262.074	27365.9
262.534	28357.25
262.994	26671.53
263.455	35469.32
263.915	29830.6
264.374	28072.05
264.834	30626.93
265.294	33930.9
265.754	35118.42
266.214	33200
266.673	31045.22
267.133	39159.17
267.593	38811.72
268.052	47418.9
268.512	41226.96
268.971	49630.24
269.431	54347.62
269.89	48621.05
270.349	72789.1
270.809	81030.28
271.268	72807.64
271.727	163243.09
272.186	105569.5
272.645	79111.93
273.104	57100.1
273.563	82603.59
274.022	64971.15
274.481	55252.49
274.94	42529.38
275.399	31598.2
275.857	36763.13
276.316	49694.67
276.775	44210.42
277.233	43523.81
277.692	40703.33
278.15	45999.31
278.609	47266.2
279.067	43706.6
279.525	40551.72
279.984	52413.12
280.442	62988.83
280.9	62055.53
281.358	40843.76
281.816	38080.47
282.274	37289.84
282.732	38561.96
283.19	38759.56
283.648	33457.94
284.106	35654.55
284.564	36293.6
285.021	33650.89
285.479	25079.58
285.937	22852.08
286.394	20039.2
286.852	20641.79
287.309	21700.54
287.767	20959.34
288.224	19932.06
288.682	21880.3
289.139	24037.29
289.596	21989.37
290.053	22859.01
290.511	28852.14
290.968	34945.78
291.425	47433.74
291.882	39419.69
292.339	34267.8
292.796	33998.86
293.252	32012.83
293.709	25410.14
294.166	22747.89
294.623	25140.23
295.079	24116.44
295.536	24231.48
295.992	22028.59
296.449	21792.11
296.905	22682.83
297.362	21761.83
297.818	22907.07
298.274	23794.9
298.731	24294.16
299.187	24080.6
299.643	25864.29
300.099	31293.98
300.555	34313.41
301.011	28675.75
301.467	27643.97
301.923	32369.49
302.379	31630.17
302.835	31071.45
303.291	31081.38
303.746	35342.79
304.202	44614.89
304.658	44843.22
305.113	30166.46
305.569	29613.84
306.024	31620.49
306.479	30159.78
306.935	25398.38
307.39	27771.17
307.845	25686.16
308.301	25901.16
308.756	25292.25
309.211	24422.04
309.666	25036.65
310.121	31127.11
310.576	31633.87
311.031	31441.48
311.486	36034.4
311.94	36066.92
312.395	48323.97
312.85	90896.95
313.305	446954.87
313.759	2314780.14
314.214	167478.08
314.668	132820.86
315.123	111785.79
315.577	40129.31
316.032	35683.1
316.486	44686.51
316.94	35256.62
317.394	24516.17
317.849	19046.51
318.303	18027.53
318.757	17002.22
319.211	18811.03
319.665	16473.47
320.119	16660.6
320.572	23871.12
321.026	22282.6
321.48	18561.4
321.934	20256.44
322.387	20338.18
322.841	21978.12
323.295	19772.12
323.748	22802.41
324.202	23154.72
324.655	27826.72
325.108	38848.92
325.562	27459.25
326.015	32666.43
326.468	24692.02
326.921	27637.6
327.374	25728.37
327.827	26810.56
328.28	30333.58
328.733	20309.36
329.186	17872.13
329.639	17038.9
330.092	14398.36
330.545	13698.02
330.997	13799.25
331.45	15076.28
331.903	17636.66
332.355	30391.82
332.808	29521.12
333.26	24362.53
333.713	26428.71
334.165	26612.15
334.617	35503.41
335.069	28625.07
335.522	51776.67
335.974	57397.83
336.426	52505.41
336.878	36402.26
337.33	18434.98
337.782	18002.86
338.234	22541.04
338.686	27006.97
339.137	32002.8
339.589	30147.3
340.041	23648.98
340.493	20333.83
340.944	20819.73
341.396	22395.72
341.847	18856.91
342.299	22243.2
342.75	27101.27
343.201	23692.17
343.653	27237.22
344.104	33458.24
344.555	26322
345.006	40972.83
345.457	31342.4
345.908	24894.79
346.359	23393.34
346.81	19027.42
347.261	20071.51
347.712	19781.48
348.163	21228.25
348.613	21473.5
349.064	20055.68
349.515	17533.03
349.965	17980.79
350.416	21646.07
350.866	23754.75
351.317	26912.23
351.767	44584.82
352.217	56307.49
352.668	46719.88
353.118	42734.43
353.568	41186.74
354.018	32556.86
354.468	34363.02
354.918	24654
355.368	21606.43
355.818	30536.96
356.268	87787.99
356.718	366862.34
357.168	91273.29
357.617	45787.45
358.067	50978.61
358.517	47878.59
358.966	56169.22
359.416	62990.78
359.865	68121.81
360.315	80960.29
360.764	37749.3
361.213	21138.04
361.663	20046.8
362.112	24765
362.561	40068.24
363.01	30202.1
363.459	25427.1
363.908	27465.94
364.357	23303.57
364.806	39341.68
365.255	27047.24
365.703	24786.24
366.152	24816.35
366.601	20098.27
367.05	16283.68
367.498	14770.21
367.947	15431.56
368.395	16022.42
368.844	14198.66
369.292	17126.71
369.74	11823.73
370.189	18131.87
370.637	21254.53
371.085	18337.1
371.533	22343.86
371.981	21574.28
372.429	20559.82
372.877	21397.53
373.325	17885.79
373.773	18217.15
374.221	16215.62
374.669	20112.65
375.116	17395.89
375.564	17528.32
376.012	19604.37
376.459	16170.44
376.907	19306.08
377.354	23328.56
377.801	21728.01
378.249	24997.21
378.696	31967.95
379.143	38643.31
379.591	41214.56
380.038	69571.2
380.485	50290.12
380.932	54323.85
381.379	49638.47
381.826	36511.85
382.273	25967.81
382.72	22755.33
383.166	22179.38
383.613	14355.3
384.06	12962.24
384.506	14984.63
384.953	11012.52
385.4	11074.13
385.846	9689.09
386.292	9442.15
386.739	9246.5
387.185	9130.45
387.631	9122.62
388.078	8852.79
388.524	9471.45
388.97	8739.33
389.416	7275.56
389.862	7728.56
390.308	7315.58
390.754	7418.12
391.2	8050.65
391.645	8236.68
392.091	7884.06
392.537	7617.14
392.983	7619.45
393.428	7508.72
393.874	8047.35
394.319	8081.21
394.765	7667.89
395.21	7897.97
395.655	7419.88
396.101	6944.82
396.546	6260.56
396.991	6316.7
397.436	5862.36
397.881	5658.27
398.326	5350.4
398.771	5056.89
399.216	4424.97
399.661	3981.84
400.106	3957.89
400.551	4046.27
400.995	3630.59
401.44	3588.89
401.885	3367.17
402.329	3396.78
402.774	3256.92
403.218	3145.75
403.663	3032
404.107	3110.69
404.551	3131.28
404.995	2875.08
405.44	2768.51
405.884	2809.11
406.328	2717.84
406.772	2710.2
407.216	2473.21
407.66	2391.33
408.104	2274.53
408.547	2130.86
408.991	2062
409.435	1981.1
409.879	1950.47
410.322	1923.89
410.766	1856.52
411.209	1767.58
411.653	1697.32
412.096	1658.82
412.54	1659.09
412.983	1647.84
413.426	1650.92
413.869	1650.87
414.312	1622.26
414.756	1563.75
415.199	1493.5
415.642	1449.49
416.085	1450.81
416.527	1440.91
416.97	1465.76
417.413	1390.33
417.856	1374.87
418.298	1358.46
418.741	1349.37
419.184	1344.21
419.626	1399.91
420.069	1400.09
420.511	1406.38
420.953	1373.24
421.396	1359.32
421.838	1324.34
422.28	1354.39
422.722	1360.86
423.164	1380.08
423.606	1354.32
424.048	1354.78
424.49	1290.06
424.932	1279.84
425.374	1263.7
425.816	1285.35
426.258	1309.54
426.699	1321.21
427.141	1300.1
427.582	1321.14
428.024	1317.7
428.465	1311.89
428.907	1278.5
429.348	1260.7
429.789	1261.77
430.231	1234.64
430.672	1254.49
431.113	1226.33
431.554	1211.25
431.995	1182.67
432.436	1141.95
432.877	1116.29
433.318	1098.23
433.759	1095.72
434.2	1094.67
434.64	1086.59
435.081	1089.72
435.522	1033.81
435.962	997.57
436.403	978.07
436.843	993.07
437.284	972.84
437.724	947.41
438.164	950.73
438.604	928.39
439.045	895.65
439.485	857.56
439.925	841.41
440.365	819.52
440.805	808.09
441.245	797.64
441.685	768.98
442.125	764.5
442.564	768.85
443.004	750.9
443.444	752.05
443.883	754.48
444.323	750.38
444.762	753.06
445.202	763.99
445.641	778.44
446.081	776.47
446.52	784.85
446.959	777.25
447.398	760.83
447.837	753.67
448.276	739.07
448.716	747.27
449.154	754.43
449.593	738.03
450.032	738.03
450.471	725.33
450.91	725.58
451.349	722.74
451.787	720.24
452.226	733.53
452.664	734.06
453.103	735.88
453.541	734.73
453.98	733.25
454.418	739.06
454.856	727.9
455.295	727.1
455.733	732.3
456.171	736.84
456.609	738.6
457.047	736.7
457.485	747.23
457.923	749.36
458.361	739.18
458.798	743.32
459.236	741.34
459.674	745.29
460.111	749.46
460.549	742.79
460.987	740.4
461.424	738.05
461.862	734.34
462.299	722.87
462.736	722.68
463.173	725.44
463.611	717.1
464.048	714.67
464.485	721.34
464.922	714.24
465.359	711.05
465.796	702.58
466.233	696.17
466.67	690.83
467.106	689.8
467.543	682.99
467.98	675.01
468.416	658.48
468.853	653.1
469.29	633.64
469.726	626.98
470.162	610.3
470.599	602.34
471.035	597.49
471.471	583.5
471.907	580.28
472.344	576.44
472.78	576.86
473.216	583.93
473.652	578.04
474.088	576.98
474.523	575.49
474.959	580.23
475.395	574.17
475.831	570.73
476.266	573.43
476.702	571.47
477.138	564.96
477.573	563.21
478.008	560.69
478.444	561.95
478.879	566.25
479.314	568.17
479.75	568.39
480.185	571.15
480.62	575.69
481.055	577.15
481.49	580.71
481.925	588.78
482.36	598.46
482.795	615.02
483.229	632.43
483.664	645.43
484.099	647.92
484.534	657.59
484.968	664.39
485.403	667.26
485.837	667.64
486.271	667.83
486.706	669.8
487.14	662.68
487.574	651.63
488.009	645.56
488.443	640.21
488.877	646.87
489.311	649.68
489.745	657.51
490.179	663.61
490.613	675.58
491.046	680.79
491.48	685.39
491.914	686.84
492.348	693.05
492.781	698.25
493.215	700.63
493.648	703.08
494.082	709.33
494.515	710.12
494.948	718.4
495.382	723.47
495.815	728.91
496.248	735.98
496.681	750.49
497.114	762.53
497.547	774.37
497.98	789.32
498.413	796.47
498.846	808
499.279	819.35
499.711	825.77
500.144	831.48
500.577	845.75
501.009	858.99
501.442	871.74
501.874	876.59
502.306	880.4
502.739	891.34
503.171	910.73
503.603	916.71
504.036	930.14
504.468	939.79
504.9	955.46
505.332	965.38
505.764	973.11
506.196	984.38
506.627	1004.08
507.059	1022.43
507.491	1035.78
507.923	1037.61
508.354	1058.77
508.786	1074.43
509.217	1098.8
509.649	1119.49
510.08	1145.48
510.512	1169.18
510.943	1190.52
511.374	1207.32
511.805	1235.15
512.237	1262.56
512.668	1303.93
513.099	1339.5
513.53	1374.73
513.961	1402.67
514.391	1443.16
514.822	1485.23
515.253	1530.8
515.684	1564.33
516.114	1602.68
516.545	1631.87
516.975	1666.51
517.406	1690.89
517.836	1697.01
518.267	1709.31
518.697	1734.5
519.127	1743.84
519.558	1756.78
519.988	1765.24
520.418	1782.87
520.848	1808.59
521.278	1823.65
521.708	1838.77
522.138	1858.02
522.567	1900.86
522.997	1935.19
523.427	1957.72
523.857	1982.14
524.286	1997.47
524.716	2019.39
525.145	2044.38
525.575	2060.72
526.004	2080.48
526.433	2084.91
526.863	2088.38
527.292	2075.97
527.721	2084.59
528.15	2093.31
528.579	2094.74
529.008	2110.99
529.437	2140.13
529.866	2158.86
530.295	2181.36
530.724	2197.98
531.152	2233.16
531.581	2252.38
532.01	2277.33
532.438	2290.42
532.867	2310.31
533.295	2336.73
533.723	2345.6
534.152	2344.56
534.58	2346.26
535.008	2327.42
535.436	2331.2
535.865	2342.05
536.293	2360.16
536.721	2381.8
537.149	2414.66
537.576	2420.56
538.004	2436.94
538.432	2448.28
538.86	2447.9
539.287	2457.87
539.715	2476.89
540.143	2481.46
540.57	2477.19
540.998	2473.55
541.425	2444.41
541.852	2418.43
542.28	2416.65
542.707	2394.96
543.134	2376.46
543.561	2371.17
543.988	2361.03
544.415	2359.38
544.842	2350.9
545.269	2341.31
545.696	2343.5
546.123	2359.19
546.549	2343.9
546.976	2325.3
547.403	2326.15
547.829	2328.96
548.256	2330.81
548.682	2326.3
549.108	2316.44
549.535	2317.49
549.961	2320.18
550.387	2303.06
550.813	2295.23
551.24	2303.89
551.666	2304.88
552.092	2290.87
552.518	2281.41
552.943	2273.06
553.369	2281.19
553.795	2288.28
554.221	2288.28
554.646	2283.61
555.072	2297.59
555.498	2304.27
555.923	2314.83
556.349	2333.5
556.774	2346.15
557.199	2346.93
557.625	2354.21
558.05	2346.23
558.475	2358.75
558.9	2356.3
559.325	2344.33
559.75	2334.35
560.175	2324.64
560.6	2315.77
561.025	2312.59
561.449	2310.64
561.874	2317.46
562.299	2321.34
562.723	2329.91
563.148	2316.5
563.572	2321.06
563.997	2333.79
564.421	2341.02
564.846	2340.71
565.27	2345.26
565.694	2341.48
566.118	2356.66
566.542	2364.61
566.966	2356.77
567.39	2348.97
567.814	2333.26
568.238	2331.41
568.662	2337.56
569.086	2339.06
569.509	2347.39
569.933	2325.82
570.357	2315.08
570.78	2287.15
571.204	2269.12
571.627	2253.71
572.05	2250.37
572.474	2249.06
572.897	2231.84
573.32	2219.55
573.743	2206.7
574.166	2182
574.589	2179.71
575.012	2168.98
575.435	2166.33
575.858	2153.27
576.281	2137.92
576.704	2116.77
577.126	2099.96
577.549	2085.84
577.972	2071.61
578.394	2056.46
578.817	2046.35
579.239	2022.28
579.661	2004.08
580.084	1980.69
580.506	1962.69
580.928	1956.76
581.35	1941.97
581.772	1935.26
582.194	1916.24
582.616	1899.46
583.038	1880.2
583.46	1866.54
583.882	1862.08
584.303	1866.73
584.725	1861.98
585.147	1863.19
585.568	1875.42
585.99	1889.51
586.411	1897.05
586.833	1915.55
587.254	1917.53
587.675	1935.5
588.096	1951.14
588.518	1944.36
588.939	1922.9
589.36	1919.51
589.781	1907.26
590.202	1869.95
590.623	1857.96
591.043	1854.16
591.464	1836.69
591.885	1831.68
592.305	1822.4
592.726	1804.55
593.147	1805.79
593.567	1797.62
593.987	1788.55
594.408	1782.09
594.828	1780.66
595.248	1772.14
595.669	1749.67
596.089	1741.72
596.509	1733.16
596.929	1716.72
597.349	1716.37
597.769	1703.53
598.189	1695.89
598.608	1696.86
599.028	1698.29
599.448	1698.5
599.867	1683.24
600.287	1677.3
600.706	1671.67
601.126	1658.67
601.545	1657.3
601.965	1655.37
602.384	1647.78
602.803	1651.58
603.222	1644.61
603.641	1636.66
604.061	1631.49
604.48	1627.36
604.898	1636.37
605.317	1640.84
605.736	1643.2
606.155	1637.95
606.574	1625.28
606.992	1631.05
607.411	1623.62
607.829	1613.25
608.248	1607.9
608.666	1603.73
609.085	1600.69
609.503	1590.17
609.921	1582.63
610.339	1584.24
610.758	1582.91
611.176	1577
611.594	1564.93
612.012	1559.07
612.43	1561.88
612.847	1568.21
613.265	1567.66
613.683	1571.7
614.101	1571.28
614.518	1565.51
614.936	1552.2
615.353	1533.34
615.771	1528.25
616.188	1526.96
616.606	1522.51
617.023	1512.63
617.44	1494.21
617.857	1486.25
618.274	1475.45
618.691	1467.99
619.108	1456.2
619.525	1448.98
619.942	1455.75
620.359	1458.27
620.776	1451.93
621.192	1446.28
621.609	1442.93
622.026	1449.34
622.442	1455.69
622.859	1459.23
623.275	1449.62
623.691	1455.12
624.108	1466.49
624.524	1482.85
624.94	1482.41
625.356	1494.9
625.772	1509.45
626.188	1524.07
626.604	1526.72
627.02	1520.78
627.436	1517.72
627.852	1524.97
628.268	1539.24
628.683	1529.51
629.099	1520.24
629.514	1513.94
629.93	1517.56
630.345	1522.96
630.761	1517.77
631.176	1521.18
631.591	1513.35
632.007	1505.77
632.422	1502.93
632.837	1488.63
633.252	1484.79
633.667	1471.1
634.082	1460.54
634.497	1443.51
634.911	1419.7
635.326	1413.74
635.741	1393.68
636.155	1380.99
636.57	1380.37
636.984	1378.84
637.399	1378.35
637.813	1375.54
638.228	1373.07
638.642	1376.3
639.056	1364.29
639.47	1363.16
639.884	1351.11
640.298	1341.17
640.712	1337.21
641.126	1321.71
641.54	1308.98
641.954	1302
642.368	1287.03
642.781	1276.04
643.195	1254.19
643.609	1252.11
644.022	1242.74
644.436	1237.27
644.849	1221.75
645.262	1207.87
645.676	1207.36
646.089	1200.89
646.502	1180.91
646.915	1173.25
647.328	1152.36
647.741	1147.94
648.154	1130.84
648.567	1126.44
648.98	1109.94
649.393	1109.76
649.805	1102.84
650.218	1093.44
650.631	1075.58
651.043	1068.97
651.456	1061.83
651.868	1060.63
652.28	1077.65
652.693	1091.33
653.105	1096.21
653.517	1105.09
653.929	1104.39
654.341	1109.1
654.753	1093.74
655.165	1097.45
655.577	1092.11
655.989	1084.12
656.401	1074.72
656.813	1033.74
657.224	1011.25
657.636	979.59
658.047	958.47
658.459	935.09
658.87	923.75
659.282	909.77
659.693	887.43
660.104	871.39
660.515	856.4
660.926	852.03
661.338	847.75
661.749	838.8
662.159	827.15
662.57	821.87
662.981	816.23
663.392	807.2
663.803	811.43
664.213	807.65
664.624	801.67
665.035	802.48
665.445	788.43
665.855	780.87
666.266	772.32
666.676	769.48
667.086	758.87
667.497	756.63
667.907	750.77
668.317	740.96
668.727	737.23
669.137	737.61
669.547	735.13
669.956	736.58
670.366	737.57
670.776	739.18
671.186	742.73
671.595	747.18
672.005	749.83
672.414	749.27
672.824	746.54
673.233	750.11
673.642	751.88
674.052	754.95
674.461	757.96
674.87	762.98
675.279	760.74
675.688	761.68
676.097	762.56
676.506	760.87
676.915	774.9
677.323	779.3
677.732	778.98
678.141	779.69
678.549	769.59
678.958	768.56
679.366	768.87
679.775	774.2
680.183	786.31
680.592	793.06
681	799.36
681.408	794.3
681.816	802.68
682.224	812.57
682.632	823.8
683.04	855.07
683.448	882.11
683.856	913.73
684.264	952.44
684.671	986.69
685.079	1030.56
685.487	1078.58
685.894	1145.51
686.302	1201.46
686.709	1247.82
687.116	1302.08
687.524	1350.61
687.931	1391.85
688.338	1429.03
688.745	1460.66
689.152	1498.44
689.559	1548.91
689.966	1600.52
690.373	1625.18
690.78	1673.49
691.187	1748.11
691.593	1805.87
692	1855.88
692.407	1931.58
692.813	2022.07
693.22	2095.35
693.626	2172.45
694.032	2232.57
694.439	2322.94
694.845	2399.1
695.251	2492.08
695.657	2574.08
696.063	2696.98
696.469	2791.7
