Data from N_2_DIV_OH_2N_Splice17_12-21-38-757.txt Node
Date: Sat Mar 14 12:21:38 EDT 2020
User: sa697716
Spectrometer: FLMS03696
Trigger mode: 0
Integration Time (sec): 3.180400E-1
Scans to average: 20
Electric dark correction enabled: true
Nonlinearity correction enabled: true
Boxcar width: 5
XAxis mode: Wavelengths
Number of Pixels in Spectrum: 2048
>>>>>Begin Spectral Data<<<<<
187.83	-362811.34
188.298	2691.79
188.766	1438.12
189.233	1301.42
189.701	1732.02
190.169	2366.7
190.636	894.88
191.104	739.04
191.571	140.13
192.039	-38.29
192.506	-71.23
192.974	556.14
193.441	-662.11
193.908	-83.88
194.375	1.46
194.842	-7.04
195.31	61.69
195.777	130.31
196.244	387.5
196.711	527.46
197.177	669.01
197.644	964.8
198.111	1668.72
198.578	2334.64
199.045	1864.78
199.511	3046.38
199.978	3602.55
200.445	3066.72
200.911	3380.81
201.378	3742.34
201.844	3366.14
202.31	5764.17
202.777	5970
203.243	3329.48
203.709	3190.64
204.176	3826.65
204.642	3141.39
205.108	2915.68
205.574	2373.17
206.04	2183.46
206.506	2058.79
206.972	1944.22
207.438	1870.1
207.903	2131.89
208.369	1858.72
208.835	1838.71
209.301	1931.44
209.766	1993.92
210.232	1976.62
210.697	2436.22
211.163	2993.6
211.628	4541.06
212.094	3824.38
212.559	4687.77
213.024	2904.06
213.49	3559.81
213.955	3485.89
214.42	3379.45
214.885	3133.49
215.35	3005.67
215.815	2875.89
216.28	3044.62
216.745	2462.94
217.21	2630.12
217.675	2385.07
218.14	2661.67
218.604	2918.45
219.069	3262.22
219.534	3374.35
219.998	3881.28
220.463	4647.92
220.927	5674.45
221.392	5292.31
221.856	5329.4
222.32	6664.99
222.785	8197.08
223.249	10272.78
223.713	11429.84
224.177	11407.75
224.642	14572.9
225.106	17892.74
225.57	19509.04
226.034	14491.83
226.497	22075.88
226.961	19897.44
227.425	23146.89
227.889	25635.37
228.353	25582.89
228.816	52720.25
229.28	50386.42
229.744	42502.37
230.207	25792.56
230.671	25332.8
231.134	41798.85
231.597	48072.1
232.061	47949.1
232.524	46734.27
232.987	32151.04
233.45	28923.04
233.914	25925.85
234.377	26527.79
234.84	24244.33
235.303	28546.86
235.766	31863.93
236.229	32925.31
236.691	20715.41
237.154	23254.67
237.617	17473.5
238.08	17903.8
238.542	20940.14
239.005	14968.58
239.468	14864.7
239.93	14001.58
240.393	12721.71
240.855	11147.81
241.317	11405.8
241.78	13880.12
242.242	14355.88
242.704	15502.77
243.166	13488.05
243.629	12253.98
244.091	14123.43
244.553	15442.11
245.015	16591.42
245.477	21433.08
245.939	31372.65
246.4	33223.77
246.862	32253.04
247.324	30362.79
247.786	33906.29
248.247	44397.53
248.709	45672.48
249.17	34088.71
249.632	32155.07
250.093	37268.79
250.555	32167.5
251.016	19594.8
251.477	18594.51
251.939	20039.05
252.4	21013.24
252.861	24987.84
253.322	23232.31
253.783	27634.6
254.244	35799.84
254.705	28148.85
255.166	24977.23
255.627	24572.02
256.088	34675.67
256.549	36772.27
257.009	31679.51
257.47	38372.64
257.931	31228.12
258.391	23367.11
258.852	24072.67
259.312	25234.21
259.773	31137.28
260.233	26311.21
260.694	22168.21
261.154	25092.61
261.614	20142.11
262.074	17980.83
262.534	18670.66
262.994	17557.94
263.455	23356.48
263.915	19652.3
264.374	18456.07
264.834	20128.7
265.294	22261.99
265.754	23031.75
266.214	21814.48
266.673	20426.86
267.133	25735.04
267.593	25496.9
268.052	31178.7
268.512	27071.84
268.971	32655.02
269.431	35813.4
269.89	32063.59
270.349	48093.12
270.809	53649.9
271.268	48165.07
271.727	107924.45
272.186	69867.59
272.645	52382.46
273.104	37772.15
273.563	54706.39
274.022	42946.78
274.481	36564.14
274.94	28186.77
275.399	20942.38
275.857	24369.13
276.316	32947.86
276.775	29306.46
277.233	28837.14
277.692	27034.2
278.15	30630.29
278.609	31517.96
279.067	29241.17
279.525	27160.96
279.984	35086.25
280.442	42158.79
280.9	41618.21
281.358	27403.79
281.816	25549.08
282.274	25095.81
282.732	25905.36
283.19	26022.28
283.648	22506.61
284.106	23940.02
284.564	24346.95
285.021	22582.24
285.479	16837.55
285.937	15307.96
286.394	13446.14
286.852	13860.33
287.309	14561.22
287.767	14090.43
288.224	13416.94
288.682	14705.88
289.139	16154.66
289.596	14774.96
290.053	15343.22
290.511	19374.43
290.968	23499.25
291.425	31853.98
291.882	26458.86
292.339	22996.26
292.796	22775.01
293.252	21420.61
293.709	17019.72
294.166	15239.08
294.623	16844.66
295.079	16166.77
295.536	16238.81
295.992	14719.83
296.449	14558.31
296.905	15142.12
297.362	14520.09
297.818	15269.45
298.274	15839.7
298.731	16121.65
299.187	15977.98
299.643	17167.61
300.099	20762.3
300.555	22715.04
301.011	19009.43
301.467	18342.9
301.923	21458.03
302.379	20968.85
302.835	20583.69
303.291	20611.17
303.746	23457.27
304.202	29608.2
304.658	29707.07
305.113	19977.48
305.569	19616.63
306.024	20880.38
306.479	19870
306.935	16776.92
307.39	18321.19
307.845	16966.83
308.301	17087.78
308.756	16682.95
309.211	16088.37
309.666	16506.3
310.121	20504.83
310.576	20817.78
311.031	20706.13
311.486	23709.25
311.94	23687.8
312.395	31698.18
312.85	59524.18
313.305	292470.73
313.759	1515945.32
314.214	109838.33
314.668	87054
315.123	73310.12
315.577	26364.41
316.032	23465.01
316.486	29398.3
316.94	23232.4
317.394	16185
317.849	12594.17
318.303	11930.27
318.757	11248.96
319.211	12439.09
319.665	10901.27
320.119	11017.78
320.572	15758.36
321.026	14694.61
321.48	12240.84
321.934	13322.58
322.387	13348.79
322.841	14378.79
323.295	12917.82
323.748	14854.42
324.202	15077.34
324.655	18102.2
325.108	25300.38
325.562	17879.03
326.015	21263.3
326.468	16054.11
326.921	17938.33
327.374	16723.85
327.827	17451.63
328.28	19780.44
328.733	13287.84
329.186	11691.84
329.639	11124.3
330.092	9380.45
330.545	8928.97
330.997	9012.98
331.45	9869.54
331.903	11602.22
332.355	19966.05
332.808	19409.06
333.26	16020.9
333.713	17382.81
334.165	17508.04
334.617	23378.76
335.069	18907.96
335.522	34221.63
335.974	37862.07
336.426	34568.26
336.878	23933.84
337.33	12154.63
337.782	11883.33
338.234	14911.9
338.686	17851.98
339.137	21168.94
339.589	20004.85
340.041	15699.13
340.493	13505.68
340.944	13836.16
341.396	14914.62
341.847	12548.92
342.299	14784.81
342.75	18041.38
343.201	15747.61
343.653	18064.51
344.104	22150.84
344.555	17391.99
345.006	27027.38
345.457	20684.34
345.908	16462.29
346.359	15458.01
346.81	12581.78
347.261	13275.71
347.712	13034.73
348.163	13919.04
348.613	14118.1
349.064	13185.68
349.515	11557.75
349.965	11843.63
350.416	14262.14
350.866	15623.21
351.317	17700.41
351.767	29244.6
352.217	36923.9
352.668	30765.12
353.118	28281.55
353.568	27234.55
354.018	21579.19
354.468	22752.88
354.918	16341.25
355.368	14324.32
355.818	20237.71
356.268	58132.37
356.718	243962.78
357.168	60712.46
357.617	30460.92
358.067	33855.32
358.517	31748.23
358.966	37250.96
359.416	41844.73
359.865	45258.86
360.315	53819.17
360.764	25168.39
361.213	14129.84
361.663	13378.11
362.112	16548.76
362.561	26775.74
363.01	20223.19
363.459	17054.43
363.908	18436.99
364.357	15655.46
364.806	26398.67
365.255	18196.77
365.703	16687.56
366.152	16706.63
366.601	13547.73
367.05	11018.57
367.498	10006.2
367.947	10478.29
368.395	10900.75
368.844	9681.95
369.292	11677.06
369.74	8102.27
370.189	12432.02
370.637	14604.13
371.085	12651.48
371.533	15504.03
371.981	14961.58
372.429	14332.11
372.877	14945.04
373.325	12564.49
373.773	12839.98
374.221	11475.51
374.669	14279.33
375.116	12372.31
375.564	12504.33
376.012	14045.18
376.459	11611.74
376.907	13925.43
377.354	16881.99
377.801	15875.05
378.249	18316.52
378.696	23533.06
379.143	28669.63
379.591	30693.37
380.038	52191.28
380.485	37917.65
380.932	41040.18
381.379	37689.74
381.826	27945.09
382.273	19954.18
382.72	17464.98
383.166	17124.23
383.613	11159.45
384.06	10079.44
384.506	11707.3
384.953	8646.8
385.4	8752.19
385.846	7705.95
386.292	7547.63
386.739	7400.43
387.185	7340.92
387.631	7390.55
388.078	7209.32
388.524	7742.64
388.97	7194.76
389.416	6030.44
389.862	6433.69
390.308	6115.65
390.754	6247.73
391.2	6824.71
391.645	7032.82
392.091	6770.83
392.537	6554.54
392.983	6586.78
393.428	6512.36
393.874	7004.49
394.319	7060.67
394.765	6719.52
395.21	6923.65
395.655	6502.31
396.101	6089.88
396.546	5509.98
396.991	5567.33
397.436	5191.52
397.881	5009.78
398.326	4739.5
398.771	4486.91
399.216	3922.6
399.661	3534.79
400.106	3529.59
400.551	3613.71
400.995	3237.94
401.44	3193.71
401.885	2994.32
402.329	3015.03
402.774	2892.93
403.218	2797.47
403.663	2692.16
404.107	2761.09
404.551	2778.5
404.995	2541.62
405.44	2444.73
405.884	2476.52
406.328	2396.38
406.772	2387.55
407.216	2173.68
407.66	2097.46
408.104	1988.94
408.547	1857.87
408.991	1798.42
409.435	1725.78
409.879	1699.49
410.322	1674.06
410.766	1617.71
411.209	1533.3
411.653	1471.38
412.096	1439.31
412.54	1438.62
412.983	1426.28
413.426	1428.64
413.869	1424.59
414.312	1398.21
414.756	1347.9
415.199	1289.14
415.642	1250.98
416.085	1255.66
416.527	1243.91
416.97	1261.19
417.413	1195.32
417.856	1182.33
418.298	1169.4
418.741	1160.07
419.184	1155.96
419.626	1199.46
420.069	1196.1
420.511	1201.25
420.953	1172.8
421.396	1162.48
421.838	1132.52
422.28	1157.48
422.722	1166
423.164	1180.57
423.606	1162.39
424.048	1158.72
424.49	1104.36
424.932	1098.34
425.374	1080.9
425.816	1098.72
426.258	1117.34
426.699	1131.55
427.141	1114.76
427.582	1128.39
428.024	1125.89
428.465	1117.68
428.907	1090.6
429.348	1075.98
429.789	1075.18
430.231	1052.83
430.672	1067.02
431.113	1043.21
431.554	1024.72
431.995	1000.59
432.436	967.26
432.877	945.19
433.318	929.27
433.759	927.75
434.2	928.64
434.64	918.88
435.081	923.51
435.522	876.49
435.962	846.49
436.403	832.26
436.843	845.23
437.284	825.44
437.724	803.85
438.164	806.6
438.604	787.02
439.045	758.1
439.485	728.86
439.925	713.12
440.365	694.51
440.805	685.33
441.245	675.29
441.685	650.73
442.125	648.23
442.564	653.26
443.004	640.76
443.444	641.35
443.883	644.27
444.323	640.49
444.762	642.46
445.202	651.87
445.641	664.7
446.081	663.48
446.52	669.93
446.959	664.32
447.398	651.04
447.837	643.89
448.276	633.97
448.716	641.26
449.154	647.4
449.593	634.42
450.032	635.01
450.471	624.38
450.91	626.98
451.349	627.04
451.787	625.7
452.226	634.9
452.664	634.87
453.103	636.06
453.541	634.82
453.98	634.83
454.418	640.14
454.856	630.13
455.295	629.75
455.733	633.57
456.171	636.2
456.609	638.27
457.047	637.54
457.485	648.87
457.923	650.42
458.361	641.87
458.798	643.08
459.236	640.02
459.674	644.69
460.111	647.01
460.549	641.02
460.987	638.65
461.424	634.7
461.862	631.5
462.299	620.29
462.736	619.43
463.173	621.12
463.611	615.67
464.048	614.61
464.485	618.96
464.922	613.19
465.359	609.84
465.796	603.83
466.233	599.97
466.67	594.86
467.106	595.55
467.543	590.33
467.98	582.38
468.416	567.3
468.853	562.25
469.29	545.41
469.726	539.09
470.162	525.14
470.599	517.58
471.035	512.97
471.471	501
471.907	495.98
472.344	492.34
472.78	494.81
473.216	500.31
473.652	494.7
474.088	492.89
474.523	492.21
474.959	496.32
475.395	490.9
475.831	487.81
476.266	490.38
476.702	488.89
477.138	483.03
477.573	481.27
478.008	479.2
478.444	481.72
478.879	487.09
479.314	488.71
479.75	488.61
480.185	490.68
480.62	494.4
481.055	496.45
481.49	500.34
481.925	508.21
482.36	516.45
482.795	530.63
483.229	544.25
483.664	556.11
484.099	558.49
484.534	566.91
484.968	573.82
485.403	575.74
485.837	575.16
486.271	575.14
486.706	576.29
487.14	571.09
487.574	562.98
488.009	558.85
488.443	554.03
488.877	560.51
489.311	563.78
489.745	571.39
490.179	578.82
490.613	591.79
491.046	597.68
491.48	603.9
491.914	606.14
492.348	612.63
492.781	618.48
493.215	621.47
493.648	624.71
494.082	631.28
494.515	633.35
494.948	642.31
495.382	648.25
495.815	655.06
496.248	662.46
496.681	677.63
497.114	691.27
497.547	703.18
497.98	719.92
498.413	729.27
498.846	742.39
499.279	754.88
499.711	763.43
500.144	770.21
500.577	785.15
501.009	800.91
501.442	815.07
501.874	822.5
502.306	830.1
502.739	841.74
503.171	862.18
503.603	871.04
504.036	885.77
504.468	897.29
504.9	915.57
505.332	928.15
505.764	938.52
506.196	951.22
506.627	970.52
507.059	990.94
507.491	1007.15
507.923	1011.4
508.354	1033.74
508.786	1051.49
509.217	1076.74
509.649	1099.08
510.08	1125.88
510.512	1149.55
510.943	1172.49
511.374	1192.16
511.805	1220.54
512.237	1248.23
512.668	1291.26
513.099	1328.76
513.53	1366.55
513.961	1395.63
514.391	1436.81
514.822	1480.4
515.253	1529.35
515.684	1564.44
516.114	1603.29
516.545	1633.58
516.975	1669.48
517.406	1695.15
517.836	1702.18
518.267	1713.33
518.697	1738.95
519.127	1747.98
519.558	1761.87
519.988	1767.35
520.418	1783.33
520.848	1809.43
521.278	1823.25
521.708	1827.82
522.138	1846.03
522.567	1887.06
522.997	1920.77
523.427	1943.53
523.857	1967.81
524.286	1982
524.716	2004.24
525.145	2028.59
525.575	2044.06
526.004	2065.33
526.433	2079.64
526.863	2081.85
527.292	2070.46
527.721	2079.36
528.15	2088.14
528.579	2090.87
529.008	2106.59
529.437	2136.7
529.866	2156.48
530.295	2178.44
530.724	2193.54
531.152	2228.3
531.581	2247.2
532.01	2271.65
532.438	2284.1
532.867	2303.46
533.295	2328.44
533.723	2337.24
534.152	2336.46
534.58	2336.81
535.008	2318.69
535.436	2322.54
535.865	2335.24
536.293	2354.91
536.721	2375.46
537.149	2408.44
537.576	2412.64
538.004	2430.28
538.432	2441.15
538.86	2438.81
539.287	2449.7
539.715	2469.49
540.143	2475.89
540.57	2471.4
540.998	2468.5
541.425	2440.03
541.852	2414.52
542.28	2413.13
542.707	2391.94
543.134	2375.98
543.561	2372.61
543.988	2364.06
544.415	2363.63
544.842	2355.47
545.269	2346.09
545.696	2347.89
546.123	2364.61
546.549	2350.71
546.976	2334.46
547.403	2334.3
547.829	2336.3
548.256	2339.05
548.682	2334.13
549.108	2323.93
549.535	2324.98
549.961	2328.52
550.387	2311.36
550.813	2304.92
551.24	2313.68
551.666	2315.96
552.092	2303.64
552.518	2294.53
552.943	2286.36
553.369	2297.08
553.795	2303.39
554.221	2303.91
554.646	2299.55
555.072	2313.29
555.498	2319.06
555.923	2330.49
556.349	2349.79
556.774	2361.08
557.199	2364.44
557.625	2371.58
558.05	2362.17
558.475	2376.31
558.9	2375.52
559.325	2364.4
559.75	2355.6
560.175	2348.24
560.6	2339.44
561.025	2336.09
561.449	2336.1
561.874	2341.94
562.299	2347.37
562.723	2357.23
563.148	2344.16
563.572	2348.35
563.997	2360.86
564.421	2368.75
564.846	2369.16
565.27	2374.9
565.694	2372.14
566.118	2387.38
566.542	2397.61
566.966	2389.78
567.39	2383.07
567.814	2369.18
568.238	2368.18
568.662	2376.12
569.086	2379.59
569.509	2387.55
569.933	2366.42
570.357	2356.09
570.78	2329.06
571.204	2311.13
571.627	2296.61
572.05	2294.76
572.474	2293.72
572.897	2277.62
573.32	2266.13
573.743	2252.75
574.166	2228.7
574.589	2229.64
575.012	2220.76
575.435	2219.49
575.858	2208.05
576.281	2193.56
576.704	2172.41
577.126	2158.38
577.549	2143.6
577.972	2130.38
578.394	2116.67
578.817	2108.04
579.239	2082.31
579.661	2063.42
580.084	2041.79
580.506	2022.72
580.928	2017.53
581.35	2001.8
581.772	1993.44
582.194	1975.34
582.616	1958.32
583.038	1939.67
583.46	1925.24
583.882	1920.99
584.303	1925.5
584.725	1919.44
585.147	1920.57
585.568	1933.07
585.99	1948.75
586.411	1955.81
586.833	1973.65
587.254	1975.05
587.675	1992.83
588.096	2008.41
588.518	2001.91
588.939	1980.17
589.36	1976.38
589.781	1963.74
590.202	1925.87
590.623	1913.39
591.043	1910.69
591.464	1895.15
591.885	1890.8
592.305	1883.05
592.726	1864.99
593.147	1865.23
593.567	1857.81
593.987	1848.19
594.408	1840.53
594.828	1839.07
595.248	1832.22
595.669	1807.88
596.089	1797.48
596.509	1788.64
596.929	1770.79
597.349	1771.28
597.769	1758.9
598.189	1751.61
598.608	1752.68
599.028	1756.17
599.448	1755.13
599.867	1737.54
600.287	1731.94
600.706	1726.52
601.126	1713.38
601.545	1711.18
601.965	1708.51
602.384	1700.55
602.803	1704.17
603.222	1698.4
603.641	1689.46
604.061	1684.47
604.48	1678.54
604.898	1688.17
605.317	1694.05
605.736	1695.43
606.155	1691.29
606.574	1679.9
606.992	1686.47
607.411	1678.5
607.829	1667.48
608.248	1662.82
608.666	1659.21
609.085	1659.21
609.503	1648.26
609.921	1640.41
610.339	1643.45
610.758	1641.75
611.176	1635.47
611.594	1622.81
612.012	1617.99
612.43	1622
612.847	1629.32
613.265	1630.31
613.683	1634.99
614.101	1636.39
614.518	1630.02
614.936	1617.2
615.353	1599.51
615.771	1593.92
616.188	1594.25
616.606	1589.57
617.023	1578.98
617.44	1560.19
617.857	1551.46
618.274	1540.24
618.691	1531.48
619.108	1519.85
619.525	1511.83
619.942	1518.47
620.359	1522.77
620.776	1516.45
621.192	1511.3
621.609	1508.56
622.026	1516.15
622.442	1522.05
622.859	1526.42
623.275	1517.89
623.691	1524.64
624.108	1537.32
624.524	1554.08
624.94	1553.92
625.356	1564.89
625.772	1580.4
626.188	1593.26
626.604	1595.39
627.02	1590.49
627.436	1587.04
627.852	1594
628.268	1608.15
628.683	1597.42
629.099	1587.48
629.514	1580.48
629.93	1585.22
630.345	1590.08
630.761	1587.06
631.176	1591.46
631.591	1582.95
632.007	1574.56
632.422	1571
632.837	1556.56
633.252	1552.25
633.667	1537.75
634.082	1524.87
634.497	1505.85
634.911	1479.83
635.326	1471.04
635.741	1446.88
636.155	1432.66
636.57	1430.32
636.984	1427.28
637.399	1424.84
637.813	1419.97
638.228	1415
638.642	1415.99
639.056	1400.99
639.47	1396.34
639.884	1382.39
640.298	1370.56
640.712	1363.7
641.126	1345.05
641.54	1328.91
641.954	1318.59
642.368	1300.05
642.781	1285.22
643.195	1259.86
643.609	1254.87
644.022	1243.38
644.436	1234.33
644.849	1216.2
645.262	1198.4
645.676	1195.73
646.089	1187.07
646.502	1165.44
646.915	1155.59
647.328	1133.33
647.741	1127.84
648.154	1109.85
648.567	1103.4
648.98	1086.54
649.393	1084.24
649.805	1078.5
650.218	1067.52
650.631	1048.32
651.043	1040.09
651.456	1032.98
651.868	1033.34
652.28	1049.9
652.693	1063.19
653.105	1068.47
653.517	1077.65
653.929	1077.27
654.341	1080.63
654.753	1066.4
655.165	1071.35
655.577	1067.48
655.989	1059.09
656.401	1047.87
656.813	1008.79
657.224	986.02
657.636	953.99
658.047	932.36
658.459	908.69
658.87	896.44
659.282	881.52
659.693	858.02
660.104	840.37
660.515	823.2
660.926	818.24
661.338	809.85
661.749	799.51
662.159	787.13
662.57	778.11
662.981	769.37
663.392	759.06
663.803	759.21
664.213	753.06
664.624	743.99
665.035	743.96
665.445	726.71
665.855	718.32
666.266	708.28
666.676	703.09
667.086	692.06
667.497	688.73
667.907	680.79
668.317	670.37
668.727	665.75
669.137	664.92
669.547	660.16
669.956	661.4
670.366	661.06
670.776	661.81
671.186	664.6
671.595	667.56
672.005	669.62
672.414	668.68
672.824	667.11
673.233	669.93
673.642	672.14
674.052	676.18
674.461	678.48
674.87	682.74
675.279	680.52
675.688	682.33
676.097	683.44
676.506	681.43
676.915	695.08
677.323	698.41
677.732	698.44
678.141	699.09
678.549	690.23
678.958	690.99
679.366	693.22
679.775	700.06
680.183	713.19
680.592	722.48
681	731.03
681.408	728.76
681.816	740.62
682.224	753.67
682.632	769.78
683.04	804.35
683.448	834.84
683.856	871.36
684.264	914.6
684.671	953.79
685.079	1002.76
685.487	1060.76
685.894	1136.08
686.302	1202.68
686.709	1260.59
687.116	1327.75
687.524	1386.84
687.931	1440.79
688.338	1490.25
688.745	1533.6
689.152	1583.34
689.559	1646.65
689.966	1707.54
690.373	1746.1
690.78	1805.26
691.187	1891.39
691.593	1958.56
692	2019.49
692.407	2104.71
692.813	2206.8
693.22	2289.79
693.626	2375.65
694.032	2444.37
694.439	2545.85
694.845	2626.6
695.251	2726.79
695.657	2817.09
696.063	2946.97
696.469	3046.88
696.875	3136.56
697.281	3190.33
