Data from N_2_DEC_CT_2N_Splice17_12-28-22-443.txt Node
Date: Sat Mar 14 12:28:22 EDT 2020
User: sa697716
Spectrometer: FLMS03696
Trigger mode: 0
Integration Time (sec): 3.180400E-1
Scans to average: 20
Electric dark correction enabled: true
Nonlinearity correction enabled: true
Boxcar width: 5
XAxis mode: Wavelengths
Number of Pixels in Spectrum: 2048
>>>>>Begin Spectral Data<<<<<
187.83	-296939.86
188.298	2185.87
188.766	1237.73
189.233	1104.06
189.701	1547.38
190.169	2182.96
190.636	906.96
191.104	804.78
191.571	186.1
192.039	27.09
192.506	-60.36
192.974	487.2
193.441	-904.36
193.908	-34.62
194.375	32.44
194.842	58.45
195.31	236.7
195.777	263.02
196.244	491.62
196.711	576.77
197.177	714.64
197.644	999.33
198.111	1761.72
198.578	2482
199.045	1977.24
199.511	3221.94
199.978	3776.96
200.445	3153.8
200.911	3502.41
201.378	3933.22
201.844	3557.52
202.31	6079.01
202.777	6334.96
203.243	3487.37
203.709	3326.46
204.176	3950.75
204.642	3250.43
205.108	3026.37
205.574	2492.05
206.04	2261.96
206.506	2151.1
206.972	2042.97
207.438	1986.5
207.903	2274.53
208.369	2003.1
208.835	2003.12
209.301	2112.43
209.766	2178.76
210.232	2178.27
210.697	2706.41
211.163	3380.79
211.628	5083.17
212.094	4302.28
212.559	5271.32
213.024	3299.24
213.49	4044.58
213.955	3966.09
214.42	3905.79
214.885	3661.64
215.35	3552.46
215.815	3400.41
216.28	3610.54
216.745	2958.24
217.21	3235.51
217.675	3055.49
218.14	3485.88
218.604	3974.58
219.069	4634.07
219.534	4940
219.998	5858.78
220.463	7233.29
220.927	9148.42
221.392	8757.33
221.856	8976.15
222.32	11456.33
222.785	14224.41
223.249	18078
223.713	20304.97
224.177	20407.32
224.642	26359.36
225.106	32570.64
225.57	35706.28
226.034	26541.93
226.497	40483.04
226.961	36624.85
227.425	42722.69
227.889	47583.66
228.353	47643.84
228.816	98680.2
229.28	94514.64
229.744	79810.81
230.207	48522.99
230.671	47742.28
231.134	79317.38
231.597	91430.51
232.061	91564.78
232.524	89510.52
232.987	61687.42
233.45	55486.79
233.914	49794.27
234.377	51147.25
234.84	46827.04
235.303	55311.35
235.766	61804.56
236.229	63849.23
236.691	40255.8
237.154	45267.34
237.617	34045.31
238.08	34912.49
238.542	40957.02
239.005	29275.25
239.468	29044.95
239.93	27392.76
240.393	24896.76
240.855	21850.53
241.317	22400.52
241.78	27292.2
242.242	28206.2
242.704	30422.63
243.166	26456.13
243.629	23995.35
244.091	27664.99
244.553	30362.4
245.015	32660.69
245.477	42263.55
245.939	62011.71
246.4	65837.33
246.862	64037.93
247.324	60462.32
247.786	67769.41
248.247	89001.68
248.709	92083.92
249.17	68925.14
249.632	64909.28
250.093	75212.19
250.555	65068.63
251.016	39729.1
251.477	37718.46
251.939	40785.32
252.4	42839.95
252.861	51016.34
253.322	47484.58
253.783	56656.36
254.244	73624.84
254.705	58179.58
255.166	51846.45
255.627	51094.71
256.088	72116.24
256.549	76662.18
257.009	66061.51
257.47	80259.71
257.931	65408.48
258.391	49027.11
258.852	50510.55
259.312	52969.77
259.773	65453.04
260.233	55318.33
260.694	46667.34
261.154	53022.68
261.614	42564.64
262.074	38120.96
262.534	39625.03
262.994	37381.51
263.455	49899.85
263.915	42077.13
264.374	39670.25
264.834	43387.02
265.294	48171.68
265.754	49951.34
266.214	47321.44
266.673	44374.29
267.133	55999.64
267.593	55608.49
268.052	68100.64
268.512	59268.27
268.971	71514.7
269.431	78522.57
269.89	70309.36
270.349	105461.69
270.809	117637.53
271.268	105799.6
271.727	237666.95
272.186	154112.37
272.645	115735.6
273.104	83595.58
273.563	121110.24
274.022	95358.71
274.481	81087.73
274.94	62542.27
275.399	46574.75
275.857	54298.06
276.316	73500.69
276.775	65381.79
277.233	64401.79
277.692	60282.65
278.15	68198.95
278.609	70110.87
279.067	64903.15
279.525	60321.61
279.984	77967.69
280.442	93640.28
280.9	92276.76
281.358	60718.63
281.816	56609.78
282.274	55446.32
282.732	57328.69
283.19	57655.62
283.648	49834.05
284.106	53085.35
284.564	54008.76
285.021	49996.8
285.479	37237.41
285.937	33897.7
286.394	29740.92
286.852	30629.3
287.309	32176.42
287.767	31024.6
288.224	29437.45
288.682	32272.55
289.139	35412.92
289.596	32397.86
290.053	33692.65
290.511	42557.42
290.968	51617.54
291.425	70119.63
291.882	58297.88
292.339	50770.09
292.796	50481.57
293.252	47688.3
293.709	37942.09
294.166	34034.06
294.623	37658.37
295.079	36203.49
295.536	36385.62
295.992	33066.83
296.449	32714.56
296.905	34052.8
297.362	32684.01
297.818	34426.22
298.274	35722.15
298.731	36429.32
299.187	36076.96
299.643	38780.72
300.099	46925.41
300.555	51497.96
301.011	43045.87
301.467	41442.9
301.923	48612.2
302.379	47501.91
302.835	46674.07
303.291	46759.12
303.746	53252.77
304.202	67321.9
304.658	67616.15
305.113	45490.61
305.569	44589.56
306.024	47604.85
306.479	45446.47
306.935	38307.4
307.39	41923.94
307.845	38713.15
308.301	38953.39
308.756	37982.25
309.211	36603.63
309.666	37514.08
310.121	46525.44
310.576	47294.87
311.031	46914.33
311.486	53743.82
311.94	53707.63
312.395	71716.58
312.85	134809.95
313.305	662707.32
313.759	3422449.23
314.214	247842.73
314.668	196287.8
315.123	165109.17
315.577	59084.45
316.032	52516.96
316.486	65734.68
316.94	51775.85
317.394	36025.93
317.849	28003.74
318.303	26536.44
318.757	25065.98
319.211	27734.28
319.665	24290.63
320.119	24590.48
320.572	35287.14
321.026	32944.69
321.48	27462.21
321.934	30003.5
322.387	30081.92
322.841	32473.1
323.295	29128.32
323.748	33585.16
324.202	34073.24
324.655	40914.89
325.108	57120.69
325.562	40383.32
326.015	48051.32
326.468	36285.87
326.921	40579.5
327.374	37824.8
327.827	39377.28
328.28	44633.78
328.733	29883.53
329.186	26266.98
329.639	25020.21
330.092	21098.75
330.545	20073.03
330.997	20231.09
331.45	22060.73
331.903	25776.62
332.355	44391.13
332.808	43145.6
333.26	35565.13
333.713	38579.56
334.165	38865.51
334.617	51883.86
335.069	41967.02
335.522	75885.51
335.974	83965.28
336.426	76891.82
336.878	53353.51
337.33	26974.46
337.782	26321.78
338.234	32902.39
338.686	39381.43
339.137	46633.69
339.589	43903.97
340.041	34366.41
340.493	29536.21
340.944	30225.39
341.396	32516.26
341.847	27326.74
342.299	32210.41
342.75	39283.72
343.201	34416.81
343.653	39619.35
344.104	48749.14
344.555	38392.51
345.006	59762.88
345.457	45692.23
345.908	36392.54
346.359	34248.93
346.81	27920.28
347.261	29531.62
347.712	29140.17
348.163	31245.72
348.613	31557
349.064	29456.8
349.515	25819.64
349.965	26516.13
350.416	32037.45
350.866	35162.59
351.317	39775.93
351.767	65872.31
352.217	83172.13
352.668	68981.62
353.118	63211.16
353.568	61086.49
354.018	48292.82
354.468	50850.18
354.918	36419.46
355.368	31751.79
355.818	44828.19
356.268	128971.56
356.718	538789.53
357.168	134006.48
357.617	67193.06
358.067	74738.01
358.517	69930.56
358.966	81953.61
359.416	91777.88
359.865	99321.81
360.315	118384.56
360.764	55238.38
361.213	30947.4
361.663	29384.97
362.112	36269.35
362.561	58648.22
363.01	44272.49
363.459	37333.27
363.908	40418.85
364.357	34345.2
364.806	58089.7
365.255	39997.14
365.703	36619.17
366.152	36653.68
366.601	29705.8
367.05	24126.24
367.498	21884.25
367.947	22838.92
368.395	23748.94
368.844	21008.1
369.292	25347.81
369.74	17472.8
370.189	26766.53
370.637	31358.6
371.085	27064.36
371.533	32972.46
371.981	31770.19
372.429	30297.8
372.877	31562.99
373.325	26396.19
373.773	26907.96
374.221	23962.13
374.669	29730.28
375.116	25730.41
375.564	25960.24
376.012	29052.09
376.459	23945.32
376.907	28638.53
377.354	34660.65
377.801	32325.44
378.249	37140.4
378.696	47553.27
379.143	57708.85
379.591	61631.8
380.038	104220.96
380.485	75337.35
380.932	81338.83
381.379	74324.54
381.826	54714.74
382.273	38958.58
382.72	34112.26
383.166	33320.04
383.613	21617.58
384.06	19497.47
384.506	22582.45
384.953	16614.12
385.4	16793.25
385.846	14771.86
386.292	14479.23
386.739	14225.78
387.185	14087.73
387.631	14124.34
388.078	13712.18
388.524	14713.94
388.97	13616.58
389.416	11362.06
389.862	12104.16
390.308	11497.51
390.754	11683.92
391.2	12703.52
391.645	13035.79
392.091	12467.69
392.537	12087.01
392.983	12166.87
393.428	11966.75
393.874	12871.19
394.319	12949.42
394.765	12296.19
395.21	12669.34
395.655	11919.62
396.101	11173.45
396.546	10100.58
396.991	10242.94
397.436	9526.81
397.881	9212.98
398.326	8769.09
398.771	8293.17
399.216	7276.53
399.661	6571.27
400.106	6552.11
400.551	6712.32
400.995	6034.47
401.44	5971.18
401.885	5616.76
402.329	5690.07
402.774	5473.72
403.218	5291.03
403.663	5110.76
404.107	5259.12
404.551	5304.61
404.995	4872.84
405.44	4704.83
405.884	4787.79
406.328	4654.52
406.772	4652.01
407.216	4245.65
407.66	4112.99
408.104	3925.26
408.547	3684.23
408.991	3571.96
409.435	3445.24
409.879	3402.29
410.322	3362.86
410.766	3253.42
411.209	3092.88
411.653	2972.91
412.096	2910.56
412.54	2911.79
412.983	2888.38
413.426	2896.45
413.869	2898.29
414.312	2843.37
414.756	2741.25
415.199	2615.91
415.642	2533.8
416.085	2535.75
416.527	2518.06
416.97	2557.16
417.413	2425.37
417.856	2406.77
418.298	2381.04
418.741	2365.22
419.184	2364.59
419.626	2466.26
420.069	2470.72
420.511	2485.64
420.953	2430.49
421.396	2408.84
421.838	2349.42
422.28	2405.67
422.722	2412.16
423.164	2451.45
423.606	2413.66
424.048	2411
424.49	2291.18
424.932	2280.19
425.374	2255.73
425.816	2302.52
426.258	2348.6
426.699	2375.4
427.141	2337.28
427.582	2379.18
428.024	2370.27
428.465	2360.37
428.907	2304.43
429.348	2282.25
429.789	2279.5
430.231	2227.16
430.672	2256.91
431.113	2206.17
431.554	2177.89
431.995	2128.57
432.436	2046.69
432.877	1997.13
433.318	1957.41
433.759	1945.79
434.2	1943.41
434.64	1924.42
435.081	1929.34
435.522	1823.92
435.962	1755.51
436.403	1712.23
436.843	1736.75
437.284	1703.65
437.724	1659.99
438.164	1668.31
438.604	1633.06
439.045	1571.37
439.485	1505.36
439.925	1476.39
440.365	1443.22
440.805	1427.02
441.245	1413.15
441.685	1363.49
442.125	1358.98
442.564	1373.55
443.004	1346.02
443.444	1345.83
443.883	1351.03
444.323	1349.47
444.762	1359.8
445.202	1384.72
445.641	1413.31
446.081	1413.24
446.52	1427.5
446.959	1416.4
447.398	1382.94
447.837	1369.11
448.276	1352.53
448.716	1370.32
449.154	1387.47
449.593	1358.53
450.032	1357.22
450.471	1338.51
450.91	1343.09
451.349	1343.76
451.787	1342.94
452.226	1369.18
452.664	1373.17
453.103	1376.47
453.541	1377.83
453.98	1372.9
454.418	1385.21
454.856	1363.2
455.295	1361.85
455.733	1372.89
456.171	1382.48
456.609	1385.96
457.047	1388.14
457.485	1406.93
457.923	1410.83
458.361	1394.92
458.798	1404.09
459.236	1402.22
459.674	1415.71
460.111	1423.49
460.549	1411.23
460.987	1408.3
461.424	1404.33
461.862	1396.86
462.299	1377.17
462.736	1375.18
463.173	1378.64
463.611	1359.32
464.048	1353.52
464.485	1363.52
464.922	1352.43
465.359	1345.93
465.796	1317.83
466.233	1306.83
466.67	1292.16
467.106	1288.95
467.543	1277.99
467.98	1263.56
468.416	1234.36
468.853	1227
469.29	1191.16
469.726	1179.25
470.162	1149.49
470.599	1145
471.035	1137.14
471.471	1112.41
471.907	1108.64
472.344	1102.94
472.78	1105.52
473.216	1121.49
473.652	1108.72
474.088	1109.06
474.523	1104.81
474.959	1115.74
475.395	1105.86
475.831	1097.81
476.266	1104.06
476.702	1101.68
477.138	1090.08
477.573	1086.89
478.008	1082.14
478.444	1087.12
478.879	1095.13
479.314	1099.33
479.75	1099.34
480.185	1106.15
480.62	1118
481.055	1124.48
481.49	1133
481.925	1149.85
482.36	1169.09
482.795	1204.62
483.229	1239.04
483.664	1267.37
484.099	1274.89
484.534	1295.75
484.968	1308.13
485.403	1314.2
485.837	1316.16
486.271	1315.45
486.706	1318.52
487.14	1307.12
487.574	1287.14
488.009	1276.36
488.443	1267.07
488.877	1280.05
489.311	1285.67
489.745	1301.96
490.179	1314.58
490.613	1336.78
491.046	1349.1
491.48	1360.45
491.914	1363.1
492.348	1374.48
492.781	1384.2
493.215	1388.83
493.648	1393.65
494.082	1406.41
494.515	1407.92
494.948	1425.26
495.382	1438.36
495.815	1448.82
496.248	1460.9
496.681	1487.97
497.114	1510.73
497.547	1530.76
497.98	1555.99
498.413	1567.61
498.846	1586.4
499.279	1604.69
499.711	1612.89
500.144	1616.9
500.577	1636.49
501.009	1657.51
501.442	1674.81
501.874	1676.47
502.306	1679.97
502.739	1690.2
503.171	1717.32
503.603	1719.86
504.036	1736.51
504.468	1744.1
504.9	1764.43
505.332	1774.72
505.764	1779.56
506.196	1789.52
506.627	1814.29
507.059	1834.76
507.491	1850.93
507.923	1842.67
508.354	1866.23
508.786	1880.01
509.217	1908.31
509.649	1928.8
510.08	1958
510.512	1981.95
510.943	2002.46
511.374	2014.35
511.805	2044.37
512.237	2071.06
512.668	2122.23
513.099	2163.41
513.53	2203.44
513.961	2229.35
514.391	2275.27
514.822	2321.94
515.253	2374.78
515.684	2409.27
516.114	2450.47
516.545	2475.27
516.975	2508.74
517.406	2528.03
517.836	2519.52
518.267	2519.03
518.697	2537.97
519.127	2534.71
519.558	2536.8
519.988	2530.08
520.418	2535.9
520.848	2553.87
521.278	2557.3
521.708	2547.76
522.138	2556.68
522.567	2598.12
522.997	2628.32
523.427	2643.86
523.857	2661.7
524.286	2668.24
524.716	2682.71
525.145	2702.47
525.575	2710.07
526.004	2723.69
526.433	2727.4
526.863	2720.07
527.292	2694.07
527.721	2694.28
528.15	2695.88
528.579	2689.19
529.008	2698.6
529.437	2728.81
529.866	2743.62
530.295	2764.73
530.724	2777.59
531.152	2815.67
531.581	2831.07
532.01	2854.89
532.438	2864.26
532.867	2882.82
533.295	2905.93
533.723	2911.14
534.152	2903.37
534.58	2901.01
535.008	2872.93
535.436	2873.82
535.865	2882.23
536.293	2902.99
536.721	2926.14
537.149	2964.2
537.576	2966.12
538.004	2984.2
538.432	2995.12
538.86	2990.47
539.287	2999.54
539.715	3021.29
540.143	3024.96
540.57	3017.93
540.998	3011.02
541.425	2971.98
541.852	2937.88
542.28	2934.08
542.707	2908.52
543.134	2886.21
543.561	2878.76
543.988	2866.18
544.415	2863.88
544.842	2853.48
545.269	2841.1
545.696	2842.92
546.123	2862.28
546.549	2843.26
546.976	2822.95
547.403	2821.19
547.829	2822.4
548.256	2826.22
548.682	2819.46
549.108	2805.28
549.535	2803.92
549.961	2807.02
550.387	2785.78
550.813	2776.71
551.24	2787.1
551.666	2788.47
552.092	2773.34
552.518	2764.59
552.943	2755.22
553.369	2767.25
553.795	2777.66
554.221	2781
554.646	2776.18
555.072	2793.73
555.498	2805.24
555.923	2821.84
556.349	2845.58
556.774	2861.73
557.199	2865.27
557.625	2876.2
558.05	2869.67
558.475	2888.63
558.9	2890.81
559.325	2881.73
559.75	2876.45
560.175	2868.32
560.6	2862.87
561.025	2864.72
561.449	2869.84
561.874	2883.96
562.299	2894.99
562.723	2912.06
563.148	2900.99
563.572	2911.48
563.997	2934.74
564.421	2949.82
564.846	2956.94
565.27	2966.74
565.694	2968.53
566.118	2994.12
566.542	3011.24
566.966	3008.49
567.39	3007.13
567.814	2997.27
568.238	3004.23
568.662	3019.35
569.086	3031.44
569.509	3051.75
569.933	3034.74
570.357	3031.36
570.78	3004.47
571.204	2990.68
571.627	2980.38
572.05	2985.83
572.474	2990.88
572.897	2976.37
573.32	2969.97
573.743	2959.42
574.166	2934.21
574.589	2941.82
575.012	2934.63
575.435	2938.05
575.858	2928.34
576.281	2915.19
576.704	2894.19
577.126	2880.02
577.549	2867.16
577.972	2855.07
578.394	2839.88
578.817	2831.19
579.239	2804.69
579.661	2785.91
580.084	2761.61
580.506	2743.56
580.928	2743.37
581.35	2727.03
581.772	2724.45
582.194	2704.93
582.616	2688.25
583.038	2669.03
583.46	2655.73
583.882	2652.62
584.303	2665.22
584.725	2664.31
585.147	2668.86
585.568	2689.74
585.99	2714.7
586.411	2729.37
586.833	2758.79
587.254	2764.75
587.675	2794.94
588.096	2822.43
588.518	2816.14
588.939	2789.47
589.36	2790.09
589.781	2780.34
590.202	2730.03
590.623	2717.91
591.043	2717.77
591.464	2698.54
591.885	2692.82
592.305	2683.71
592.726	2660.96
593.147	2666.2
593.567	2658.25
593.987	2645.45
594.408	2638.23
594.828	2640.51
595.248	2630.3
595.669	2597.13
596.089	2586.53
596.509	2578.18
596.929	2557.3
597.349	2561.09
597.769	2545.66
598.189	2537.33
598.608	2541.86
599.028	2546.31
599.448	2547.81
599.867	2528.33
600.287	2522.99
600.706	2517.11
601.126	2501.69
601.545	2500.74
601.965	2499.87
602.384	2492.96
602.803	2500.23
603.222	2493.81
603.641	2485.24
604.061	2480.9
604.48	2477.09
604.898	2494.94
605.317	2507.66
605.736	2513.95
606.155	2511.82
606.574	2497.63
606.992	2509.7
607.411	2504.44
607.829	2492.91
608.248	2489.08
608.666	2487.83
609.085	2489.52
609.503	2478.49
609.921	2469.23
610.339	2476.69
610.758	2478.08
611.176	2473.34
611.594	2459.54
612.012	2455.89
612.43	2464.05
612.847	2480.39
613.265	2484.55
613.683	2496.18
614.101	2500.86
614.518	2497.16
614.936	2481.71
615.353	2457.76
615.771	2455.26
616.188	2459.24
616.606	2455.44
617.023	2446.14
617.44	2422.06
617.857	2413.67
618.274	2399.75
618.691	2390.77
619.108	2376.07
619.525	2367.64
619.942	2382.55
620.359	2390.59
620.776	2383.49
621.192	2377.52
621.609	2375.91
622.026	2389.87
622.442	2402.12
622.859	2412.44
623.275	2401.52
623.691	2415.13
624.108	2437.63
624.524	2467.44
624.94	2467.99
625.356	2488.28
625.772	2515.37
626.188	2539.55
626.604	2543.83
627.02	2538.11
627.436	2534.01
627.852	2546.65
628.268	2568.09
628.683	2552.66
629.099	2537.98
629.514	2530.31
629.93	2538.73
630.345	2549.72
630.761	2544.11
631.176	2552.36
631.591	2540.45
632.007	2529.53
632.422	2529.27
632.837	2510.84
633.252	2506.23
633.667	2487.77
634.082	2471.98
634.497	2450.1
634.911	2413.36
635.326	2408.24
635.741	2377.85
636.155	2363.81
636.57	2371.15
636.984	2375.16
637.399	2381.97
637.813	2388.94
638.228	2394.29
638.642	2410.24
639.056	2395.51
639.47	2402.28
639.884	2392.1
640.298	2386.21
640.712	2391.04
641.126	2372.77
641.54	2362.31
641.954	2361.3
642.368	2342.21
642.781	2327.2
643.195	2296.29
643.609	2302.91
644.022	2297.19
644.436	2294.83
644.849	2276.13
645.262	2256.11
645.676	2264.28
646.089	2257.59
646.502	2228.89
646.915	2220.87
647.328	2191.88
647.741	2189.49
648.154	2165.76
648.567	2159.07
648.98	2131.52
649.393	2133.49
649.805	2126.84
650.218	2112.48
650.631	2078.62
651.043	2066.27
651.456	2054.34
651.868	2057.2
652.28	2096.49
652.693	2124.26
653.105	2140.31
653.517	2161.73
653.929	2162.99
654.341	2172.96
654.753	2146.46
655.165	2161.28
655.577	2155.45
655.989	2146.43
656.401	2130.68
656.813	2052.97
657.224	2011.47
657.636	1953.82
658.047	1915.83
658.459	1875.52
658.87	1860.1
659.282	1836.81
659.693	1793.45
660.104	1764.2
660.515	1736.9
660.926	1733.44
661.338	1728.44
661.749	1716.06
662.159	1694.55
662.57	1685.69
662.981	1674.57
663.392	1656.58
663.803	1662.23
664.213	1655.9
664.624	1645.05
665.035	1648.24
665.445	1617.42
665.855	1598.1
666.266	1577.42
666.676	1570.04
667.086	1549.11
667.497	1543.55
667.907	1527.65
668.317	1506.71
668.727	1493.85
669.137	1492.61
669.547	1484.19
669.956	1485.12
670.366	1485.58
670.776	1485.93
671.186	1491.55
671.595	1494.21
672.005	1498.64
672.414	1494.02
672.824	1486.44
673.233	1495.28
673.642	1495.8
674.052	1497.04
674.461	1497.54
674.87	1503.38
675.279	1493.76
675.688	1493.06
676.097	1491.48
676.506	1482.67
676.915	1508.54
677.323	1511.53
677.732	1505.42
678.141	1502.3
678.549	1482.63
678.958	1481.47
679.366	1479.93
679.775	1490.89
680.183	1509.36
680.592	1521.81
681	1534.4
681.408	1522.73
681.816	1541.06
682.224	1560.84
682.632	1579.89
683.04	1640.31
683.448	1689.76
683.856	1751.87
684.264	1823.16
684.671	1891.32
685.079	1972.93
685.487	2062.93
685.894	2186.08
686.302	2286.08
686.709	2363.88
687.116	2458.85
687.524	2530.6
687.931	2589.85
688.338	2637.11
688.745	2673.09
689.152	2713.66
689.559	2772.78
