Data from N_2_HIR_IL_4N_Splice17_12-10-54-683.txt Node
Date: Sat Mar 14 12:10:54 EDT 2020
User: sa697716
Spectrometer: FLMS03696
Trigger mode: 0
Integration Time (sec): 3.180400E-1
Scans to average: 20
Electric dark correction enabled: true
Nonlinearity correction enabled: true
Boxcar width: 5
XAxis mode: Wavelengths
Number of Pixels in Spectrum: 2048
>>>>>Begin Spectral Data<<<<<
187.83	-266303.83
188.298	1981.16
188.766	1119.08
189.233	941.61
189.701	1257.25
190.169	1775.47
190.636	685.78
191.104	577.19
191.571	86.64
192.039	-77.44
192.506	-77.98
192.974	261.04
193.441	-395.54
193.908	40.27
194.375	-20.03
194.842	15.8
195.31	101.89
195.777	167.93
196.244	401.97
196.711	458.68
197.177	612.53
197.644	863.36
198.111	1489.63
198.578	2111.64
199.045	1709.95
199.511	2795.13
199.978	3246.03
200.445	2759.11
200.911	3023.67
201.378	3330.02
201.844	3042.87
202.31	5159.34
202.777	5401.02
203.243	2999.1
203.709	2861.23
204.176	3378.89
204.642	2789.06
205.108	2593.83
205.574	2095.03
206.04	1923.76
206.506	1821.65
206.972	1712.42
207.438	1664.32
207.903	1886.27
208.369	1654.59
208.835	1637.22
209.301	1725.04
209.766	1753.38
210.232	1750.7
210.697	2168.72
211.163	2657.65
211.628	4006.99
212.094	3397.78
212.559	4122.89
213.024	2569.18
213.49	3137.16
213.955	3053.96
214.42	2979.8
214.885	2787.09
215.35	2643.48
215.815	2553.85
216.28	2699.29
216.745	2191.21
217.21	2319.75
217.675	2114.04
218.14	2339.7
218.604	2578.58
219.069	2906.11
219.534	3012.53
219.998	3451.28
220.463	4139.19
220.927	5031.13
221.392	4719.89
221.856	4735.07
222.32	5948.54
222.785	7322.22
223.249	9174.55
223.713	10195.25
224.177	10159.34
224.642	13004.22
225.106	15982.65
225.57	17483.9
226.034	12969.19
226.497	19677.1
226.961	17779.77
227.425	20713.9
227.889	22939.39
228.353	22960.05
228.816	47418.6
229.28	45298.29
229.744	38148.78
230.207	23166.11
230.671	22754.01
231.134	37586.43
231.597	43304.38
232.061	43179.99
232.524	41991.3
232.987	28886.2
233.45	25977.88
233.914	23303.51
234.377	23880.74
234.84	21854.67
235.303	25772.37
235.766	28708.09
236.229	29666.7
236.691	18677.59
237.154	20978.57
237.617	15781.32
238.08	16190.04
238.542	18925.51
239.005	13487.73
239.468	13390.33
239.93	12604.07
240.393	11442.35
240.855	10056.01
241.317	10307.14
241.78	12531.08
242.242	12947.82
242.704	13985.04
243.166	12143.22
243.629	11032.13
244.091	12707.67
244.553	13901.43
245.015	14940.22
245.477	19314.65
245.939	28258.59
246.4	29951.43
246.862	29131.93
247.324	27465.68
247.786	30720.21
248.247	40230.14
248.709	41489.42
249.17	31049.22
249.632	29307.15
250.093	33962.94
250.555	29334.54
251.016	17909.35
251.477	16992.41
251.939	18328.91
252.4	19225.17
252.861	22820.27
253.322	21254.32
253.783	25284.91
254.244	32746.27
254.705	25762.52
255.166	22905.16
255.627	22529.6
256.088	31744.95
256.549	33687.48
257.009	28987
257.47	35138
257.931	28623.35
258.391	21426.82
258.852	22066.71
259.312	23164.15
259.773	28606.26
260.233	24207.42
260.694	20420.34
261.154	23157.26
261.614	18594.66
262.074	16613.88
262.534	17270.62
262.994	16268.39
263.455	21684.55
263.915	18285.18
264.374	17204.61
264.834	18795.97
265.294	20798.53
265.754	21547.73
266.214	20412.58
266.673	19117.69
267.133	24150.74
267.593	23951.09
268.052	29315.78
268.512	25499.75
268.971	30779.47
269.431	33768.95
269.89	30249.34
270.349	45392.17
270.809	50651.77
271.268	45540.1
271.727	102083.24
272.186	66106.23
272.645	49643.58
273.104	35858.76
273.563	51906.74
274.022	40801.54
274.481	34772.46
274.94	26804.54
275.399	19942.2
275.857	23220.79
276.316	31416.22
276.775	27981.34
277.233	27576.88
277.692	25833.93
278.15	29223.32
278.609	30119.56
279.067	27896.08
279.525	25885.26
279.984	33429.59
280.442	40122.73
280.9	39571.48
281.358	26024.54
281.816	24309.33
282.274	23813.28
282.732	24603.39
283.19	24740.96
283.648	21354.57
284.106	22737.08
284.564	23141.39
285.021	21461.88
285.479	16011.45
285.937	14554.14
286.394	12810.24
286.852	13176.89
287.309	13853.49
287.767	13396.08
288.224	12751.94
288.682	13990.47
289.139	15375.99
289.596	14085.12
290.053	14641.33
290.511	18469.78
290.968	22425.4
291.425	30356.19
291.882	25271.95
292.339	22007.22
292.796	21823.29
293.252	20570.56
293.709	16346.12
294.166	14643.42
294.623	16166.49
295.079	15509.82
295.536	15592.62
295.992	14159.64
296.449	14002.02
296.905	14547.96
297.362	13938.48
297.818	14654.49
298.274	15191.36
298.731	15464.72
299.187	15290.73
299.643	16405.29
300.099	19865.68
300.555	21787.85
301.011	18193.35
301.467	17553.27
301.923	20537.47
302.379	20064.87
302.835	19712.25
303.291	19736.36
303.746	22472.95
304.202	28424.92
304.658	28556.12
305.113	19198.89
305.569	18797.97
306.024	20053.01
306.479	19080.67
306.935	16087.26
307.39	17571.78
307.845	16226.28
308.301	16336.65
308.756	15915.46
309.211	15332.71
309.666	15714.52
310.121	19513.57
310.576	19824.23
311.031	19661.99
311.486	22541.11
311.94	22534.33
312.395	30139.02
312.85	56649.44
313.305	278428.98
313.759	1442940.99
314.214	104660.07
314.668	83060.33
315.123	69860.03
315.577	25067.62
316.032	22317.44
316.486	27942.86
316.94	22049.54
317.394	15367.84
317.849	11959.57
318.303	11294.63
318.757	10666.02
319.211	11783.28
319.665	10311.18
320.119	10425.21
320.572	14924.39
321.026	13968.84
321.48	11640.21
321.934	12686.91
322.387	12711.06
322.841	13722.81
323.295	12360.31
323.748	14209.73
324.202	14421.68
324.655	17317.07
325.108	24233.98
325.562	17126.68
326.015	20288.1
326.468	15322.83
326.921	17145.42
327.374	15995.34
327.827	16684.54
328.28	18864.43
328.733	12658.15
329.186	11133.01
329.639	10612.53
330.092	8941.73
330.545	8534.14
330.997	8630.32
331.45	9445.63
331.903	11070.28
332.355	19037.28
332.808	18457.38
333.26	15259.32
333.713	16553.62
334.165	16667.9
334.617	22247.32
335.069	17968.56
335.522	32407.27
335.974	35889.32
336.426	32777.74
336.878	22707.18
337.33	11508.57
337.782	11243.07
338.234	14081.66
338.686	16842.2
339.137	19988.03
339.589	18812.49
340.041	14740.48
340.493	12687.09
340.944	12961.68
341.396	13979.14
341.847	11761.38
342.299	13888.35
342.75	16966.25
343.201	14806.74
343.653	17035.13
344.104	20890.58
344.555	16441.35
345.006	25605.88
345.457	19612.65
345.908	15628.56
346.359	14684.31
346.81	11960.02
347.261	12575.01
347.712	12374.74
348.163	13263.31
348.613	13444.34
349.064	12546.94
349.515	10977.96
349.965	11275.18
350.416	13578.34
350.866	14854.83
351.317	16759.07
351.767	27716.5
352.217	35103.22
352.668	29139.84
353.118	26698.68
353.568	25683.39
354.018	20311.9
354.468	21436.53
354.918	15346.05
355.368	13407.16
355.818	18918.45
356.268	54421.41
356.718	228136.57
357.168	56916.1
357.617	28549.65
358.067	31785.51
358.517	29816.73
358.966	34938.38
359.416	39226.02
359.865	42383.93
360.315	50549.07
360.764	23667.19
361.213	13262.26
361.663	12516.85
362.112	15422.48
362.561	24856.19
363.01	18763.76
363.459	15799.06
363.908	17159
364.357	14613.28
364.806	24665.42
365.255	16924.62
365.703	15501.74
366.152	15544.81
366.601	12606.07
367.05	10234.76
367.498	9308.21
367.947	9710.14
368.395	10085.79
368.844	8906.99
369.292	10699.81
369.74	7396.32
370.189	11353.53
370.637	13293.25
371.085	11469.82
371.533	13999.02
371.981	13465.13
372.429	12851.04
372.877	13379.66
373.325	11207.65
373.773	11438.31
374.221	10191.12
374.669	12649.75
375.116	10919.05
375.564	11001.19
376.012	12311.75
376.459	10169.64
376.907	12155.65
377.354	14716.48
377.801	13765.83
378.249	15829.96
378.696	20286.33
379.143	24576.33
379.591	26275.33
380.038	44584.62
380.485	32401.65
380.932	35086.55
381.379	32170.91
381.826	23737.61
382.273	16948.62
382.72	14841.03
383.166	14517.15
383.613	9451.37
384.06	8569.98
384.506	9939.14
384.953	7325.98
385.4	7388.18
385.846	6489.53
386.292	6348.63
386.739	6234.02
387.185	6185.74
387.631	6213.77
388.078	6073.86
388.524	6503.58
388.97	6034.62
389.416	5053.92
389.862	5387.1
390.308	5137.49
390.754	5236.69
391.2	5701.62
391.645	5865.18
392.091	5644.15
392.537	5477.82
392.983	5502.32
393.428	5445.63
393.874	5848.17
394.319	5906.44
394.765	5635.96
395.21	5820.81
395.655	5484.39
396.101	5170.91
396.546	4697.91
396.991	4761.53
397.436	4446.96
397.881	4315.22
398.326	4111.97
398.771	3918.1
399.216	3445.83
399.661	3127.99
400.106	3128.13
400.551	3225.48
400.995	2907.38
401.44	2884.31
401.885	2719.99
402.329	2763.77
402.774	2665.45
403.218	2588.26
403.663	2499.5
404.107	2578.58
404.551	2603.7
404.995	2399.15
405.44	2318.76
405.884	2361.33
406.328	2302.98
406.772	2304.86
407.216	2103.74
407.66	2035.5
408.104	1939.95
408.547	1820.49
408.991	1768.94
409.435	1707.78
409.879	1690.34
410.322	1673.94
410.766	1622.54
411.209	1544.84
411.653	1485.26
412.096	1458.11
412.54	1464.96
412.983	1459.63
413.426	1472.2
413.869	1474.15
414.312	1450.22
414.756	1401.12
415.199	1339.83
415.642	1302.7
416.085	1307.75
416.527	1301.58
416.97	1325.99
417.413	1261.89
417.856	1250.06
418.298	1237.25
418.741	1229.79
419.184	1227.72
419.626	1279.69
420.069	1281.7
420.511	1288.89
420.953	1260.17
421.396	1251.89
421.838	1220.41
422.28	1248.86
422.722	1256.51
423.164	1275.54
423.606	1254.82
424.048	1254.56
424.49	1194.78
424.932	1187.59
425.374	1173.72
425.816	1198.11
426.258	1220.17
426.699	1236.13
427.141	1216.63
427.582	1234.5
428.024	1228.95
428.465	1222.61
428.907	1191.93
429.348	1175.33
429.789	1175.62
430.231	1150.12
430.672	1162.51
431.113	1133.03
431.554	1115.6
431.995	1087.57
432.436	1049.64
432.877	1026.73
433.318	1010.85
433.759	1006.7
434.2	1004.86
434.64	996.07
435.081	1001.21
435.522	949.52
435.962	918.46
436.403	899.51
436.843	914.49
437.284	895.17
437.724	869.29
438.164	870.55
438.604	851.88
439.045	822.31
439.485	788.8
439.925	769.78
440.365	750.13
440.805	740.33
441.245	730.37
441.685	701.95
442.125	696.46
442.564	702.28
443.004	684.1
443.444	682.54
443.883	684.03
444.323	676.99
444.762	678.82
445.202	687.34
445.641	698.66
446.081	693.83
446.52	698.9
446.959	692.06
447.398	675.37
447.837	668.28
448.276	656.06
448.716	660.87
449.154	666.55
449.593	649.17
450.032	646.39
450.471	632.51
450.91	632.25
451.349	630.02
451.787	627.91
452.226	635.73
452.664	634.49
453.103	634.18
453.541	631.74
453.98	630.71
454.418	634.84
454.856	624.5
455.295	622.46
455.733	626.4
456.171	629.85
456.609	630.64
457.047	629.48
457.485	638.78
457.923	640.46
458.361	631.71
458.798	633.44
459.236	631.53
459.674	635.38
460.111	639
460.549	632.95
460.987	629.66
461.424	626.47
461.862	623.25
462.299	613.2
462.736	611.57
463.173	613.83
463.611	607.65
464.048	607.28
464.485	613.53
464.922	608.69
465.359	606.3
465.796	599.35
466.233	595.31
466.67	590.99
467.106	589.57
467.543	583.37
467.98	575.85
468.416	559.86
468.853	554.65
469.29	536.92
469.726	530.55
470.162	516.97
470.599	509.53
471.035	503.73
471.471	490.17
471.907	486.32
472.344	483.11
472.78	483.64
473.216	489.81
473.652	483.01
474.088	480.53
474.523	477.77
474.959	480.97
475.395	476.54
475.831	472.66
476.266	474.81
476.702	473.39
477.138	468.44
477.573	466.34
478.008	463.39
478.444	465.72
478.879	469.35
479.314	470.66
479.75	468.36
480.185	469.99
480.62	473.78
481.055	476.05
481.49	478.87
481.925	485.14
482.36	492.7
482.795	505.3
483.229	517.6
483.664	528.39
484.099	530.6
484.534	539.86
484.968	544.5
485.403	546.66
485.837	545.81
486.271	544.07
486.706	543.8
487.14	537.65
487.574	528.56
488.009	523.05
488.443	517.9
488.877	522.54
489.311	523.16
489.745	529.16
490.179	532.61
490.613	541.62
491.046	545.3
491.48	548.23
491.914	548.68
492.348	552.46
492.781	555.31
493.215	555.85
493.648	555.93
494.082	559.06
494.515	557.9
494.948	563.83
495.382	566.23
495.815	569.43
496.248	574.01
496.681	582.45
497.114	590.56
497.547	597.85
497.98	607.25
498.413	611.93
498.846	619.33
499.279	625.58
499.711	628.25
500.144	629.74
500.577	638.01
501.009	645.02
501.442	652.66
501.874	653.65
502.306	654.6
502.739	661.37
503.171	672.76
503.603	675.03
504.036	681.72
504.468	685.62
504.9	694.45
505.332	699.25
505.764	702.55
506.196	708.96
506.627	720.41
507.059	731.54
507.491	737.27
507.923	735.37
508.354	748.82
508.786	758.05
509.217	772.99
509.649	786.16
510.08	802.48
510.512	818.41
510.943	831.09
511.374	841.91
511.805	859.98
512.237	878.36
512.668	905.72
513.099	926.73
513.53	950.83
513.961	969.95
514.391	997.44
514.822	1026.4
515.253	1056.63
515.684	1079.22
516.114	1105.5
516.545	1124.75
516.975	1147.96
517.406	1166.19
517.836	1172.46
518.267	1180.4
518.697	1197.74
519.127	1203.42
519.558	1211.94
519.988	1217.56
520.418	1229.72
520.848	1247.56
521.278	1258.02
521.708	1280.39
522.138	1293.73
522.567	1322.74
522.997	1348.07
523.427	1364.8
523.857	1383.37
524.286	1395.71
524.716	1411.58
525.145	1431.28
525.575	1442.46
526.004	1457.31
526.433	1449.84
526.863	1452
527.292	1446.7
527.721	1453.71
528.15	1460.37
528.579	1462.7
529.008	1473.68
529.437	1495.57
529.866	1508.13
530.295	1525.63
530.724	1538.47
531.152	1565.36
531.581	1580.26
532.01	1596.86
532.438	1605.27
532.867	1619.64
533.295	1638.06
533.723	1644.64
534.152	1644.24
534.58	1645.65
535.008	1633.74
535.436	1636.34
535.865	1643.67
536.293	1658.12
536.721	1672.82
537.149	1697.33
537.576	1701.39
538.004	1712.7
538.432	1721.33
538.86	1720.46
539.287	1727.59
539.715	1740.09
540.143	1744.59
540.57	1742.34
540.998	1739.65
541.425	1719.93
541.852	1701.06
542.28	1700.05
542.707	1685.82
543.134	1673.3
543.561	1670.27
543.988	1663.81
544.415	1662.94
544.842	1657.77
545.269	1651.26
545.696	1652.46
546.123	1664.96
546.549	1656.35
546.976	1644.54
547.403	1644.64
547.829	1646.16
548.256	1648.27
548.682	1646.86
549.108	1641.09
549.535	1639.95
549.961	1642.72
550.387	1630.56
550.813	1625.08
551.24	1629.85
551.666	1629.44
552.092	1620.26
552.518	1613.8
552.943	1607.87
553.369	1612.68
553.795	1617.17
554.221	1617.36
554.646	1612.97
555.072	1621.68
555.498	1624.96
555.923	1632.64
556.349	1645.98
556.774	1652.97
557.199	1653.88
557.625	1659.19
558.05	1651.88
558.475	1659.48
558.9	1657.55
559.325	1647.83
559.75	1641.66
560.175	1634.38
560.6	1626.94
561.025	1622.75
561.449	1621.78
561.874	1625.13
562.299	1625.88
562.723	1630.54
563.148	1619.72
563.572	1621.1
563.997	1627.5
564.421	1629.09
564.846	1626.5
565.27	1627.57
565.694	1623.77
566.118	1631.63
566.542	1635.88
566.966	1628.29
567.39	1621.61
567.814	1609.74
568.238	1606.93
568.662	1610.18
569.086	1611.23
569.509	1616.12
569.933	1599.34
570.357	1591.41
570.78	1570.65
571.204	1556.87
571.627	1544.82
572.05	1541.57
572.474	1540.12
572.897	1527.06
573.32	1517.58
573.743	1507.24
574.166	1489.55
574.589	1488.63
575.012	1479.06
575.435	1476.78
575.858	1466.98
576.281	1456.34
576.704	1441.01
577.126	1427.25
577.549	1417.27
577.972	1408.42
578.394	1396.72
578.817	1389.45
579.239	1371.37
579.661	1359.28
580.084	1344.59
580.506	1332.11
580.928	1327.11
581.35	1316.34
581.772	1312.59
582.194	1299.83
582.616	1287.2
583.038	1274.78
583.46	1264.48
583.882	1261.04
584.303	1263.28
584.725	1258.03
585.147	1259.33
585.568	1268.61
585.99	1277.48
586.411	1281.92
586.833	1293.45
587.254	1293.92
587.675	1303.86
588.096	1313.65
588.518	1308.28
588.939	1292.88
589.36	1290.27
589.781	1279.76
590.202	1254.55
590.623	1246.48
591.043	1242.57
591.464	1231.43
591.885	1227.96
592.305	1221.98
592.726	1208.5
593.147	1208.62
593.567	1203.94
593.987	1197.11
594.408	1191.13
594.828	1188.09
595.248	1182.21
595.669	1166.31
596.089	1159.6
596.509	1153.22
596.929	1142.24
597.349	1142.52
597.769	1132.9
598.189	1127.57
598.608	1127.17
599.028	1128.83
599.448	1128.37
599.867	1117.59
600.287	1113.18
600.706	1108.74
601.126	1100.81
601.545	1099.13
601.965	1096.92
602.384	1092.8
602.803	1093.88
603.222	1090.15
603.641	1083.81
604.061	1080.4
604.48	1076.9
604.898	1082.66
605.317	1086.85
605.736	1087.07
606.155	1084.64
606.574	1077.16
606.992	1080.6
607.411	1076.07
607.829	1069.03
608.248	1066.42
608.666	1063.36
609.085	1061.9
609.503	1055.37
609.921	1048.75
610.339	1049.34
610.758	1048.06
611.176	1044.3
611.594	1036.81
612.012	1033.62
612.43	1035.31
612.847	1038.9
613.265	1039.75
613.683	1042.87
614.101	1043.16
614.518	1039.5
614.936	1031.46
615.353	1019.48
615.771	1016.84
616.188	1016.57
616.606	1012.91
617.023	1006.88
617.44	996.23
617.857	989.6
618.274	982.96
618.691	977.66
619.108	970.87
619.525	966.23
619.942	970.5
620.359	971.3
620.776	966.82
621.192	964.12
621.609	962.33
622.026	966.79
622.442	972.33
622.859	974.42
623.275	968.23
623.691	972.4
624.108	980.46
624.524	992.21
624.94	993.58
625.356	1001.2
625.772	1010.35
626.188	1018.99
626.604	1020.72
627.02	1015.7
627.436	1013.97
627.852	1019.75
628.268	1029.11
628.683	1022.6
629.099	1014.8
629.514	1010.05
629.93	1012.62
630.345	1016.26
630.761	1013.58
631.176	1015.5
631.591	1012.17
632.007	1006.83
632.422	1004.85
632.837	994.56
633.252	991.81
633.667	983.62
634.082	976.03
634.497	965.51
634.911	950.21
635.326	945.3
635.741	931.2
636.155	921.49
636.57	921.49
636.984	919.31
637.399	919.15
637.813	917.11
638.228	913.92
638.642	914.62
639.056	905.3
639.47	902.2
639.884	894.13
640.298	887.26
640.712	883.89
641.126	872.1
641.54	863.69
641.954	856.68
642.368	845.88
642.781	838.91
643.195	825
643.609	823.08
644.022	817.73
644.436	813.36
644.849	802.98
645.262	793.07
645.676	793.2
646.089	789.43
646.502	779.14
646.915	774.87
647.328	762.51
647.741	759.86
648.154	749.64
648.567	748.95
648.98	739.2
649.393	738.72
649.805	736.5
650.218	731.15
650.631	718.58
651.043	713.59
651.456	709.92
651.868	710.09
652.28	722.09
652.693	732.61
653.105	736.31
653.517	744.61
653.929	746.48
654.341	751.6
654.753	742.77
655.165	749.33
655.577	749.12
655.989	745.06
656.401	740.18
656.813	716.63
657.224	703.37
657.636	683.43
658.047	671.17
658.459	658.75
658.87	652.38
659.282	645.53
659.693	632.29
660.104	622.78
660.515	615.46
660.926	615.16
661.338	615.1
661.749	611.42
662.159	606.92
662.57	605.28
662.981	602.92
663.392	599.71
663.803	604.77
664.213	604.89
664.624	603.6
665.035	607.62
665.445	599.62
665.855	595.32
666.266	592.27
666.676	593.24
667.086	587.94
667.497	589.66
667.907	586.76
668.317	581.38
668.727	581.28
669.137	583.08
669.547	582.08
669.956	585.21
670.366	587.82
670.776	590.77
671.186	594.73
671.595	599.05
672.005	602.11
672.414	602.59
672.824	602.6
673.233	605.86
673.642	609.52
674.052	614.28
674.461	619
674.87	624.87
675.279	624.36
675.688	626.42
676.097	629
676.506	629.1
676.915	641.68
677.323	645.12
677.732	645.28
678.141	645.42
678.549	637.5
678.958	636.94
679.366	635.44
679.775	639.06
680.183	648.1
680.592	653.63
681	657.99
681.408	653.45
681.816	659.64
682.224	665.93
682.632	673.84
683.04	696.89
683.448	713.92
683.856	737.37
684.264	763.62
684.671	786.92
685.079	815.38
685.487	846.52
685.894	891.66
686.302	927.58
686.709	956.74
687.116	990.8
687.524	1018.13
687.931	1041.6
688.338	1061.07
688.745	1077.6
689.152	1095.94
689.559	1127.06
689.966	1158.13
690.373	1172.53
690.78	1203.6
691.187	1252.5
691.593	1290.24
692	1324.56
692.407	1375.84
692.813	1439.71
693.22	1490.23
693.626	1546.39
694.032	1591.83
694.439	1660.27
694.845	1715.54
695.251	1784.76
695.657	1848.48
696.063	1941.92
696.469	2015.38
696.875	2084.98
697.281	2130.22
697.687	2184.88
698.093	2231.18
698.498	2307.66
698.904	2370.5
699.31	2462.59
