Data from N_2_DEC_OH_4N_Splice17_12-03-41-359.txt Node
Date: Sat Mar 14 12:03:41 EDT 2020
User: sa697716
Spectrometer: FLMS03696
Trigger mode: 0
Integration Time (sec): 3.180400E-1
Scans to average: 20
Electric dark correction enabled: true
Nonlinearity correction enabled: true
Boxcar width: 5
XAxis mode: Wavelengths
Number of Pixels in Spectrum: 2048
>>>>>Begin Spectral Data<<<<<
187.83	-243173.89
188.298	1790.07
188.766	969.99
189.233	882.06
189.701	1187.55
190.169	1700.12
190.636	610.88
191.104	450.4
191.571	23.5
192.039	-97.35
192.506	-88.48
192.974	451.04
193.441	-643.22
193.908	-109.77
194.375	12.98
194.842	-16.38
195.31	48.44
195.777	134.53
196.244	317.69
196.711	374.74
197.177	464.67
197.644	651.73
198.111	1134.41
198.578	1591.96
199.045	1280.01
199.511	2108.58
199.978	2471.29
200.445	2090.18
200.911	2303.72
201.378	2553.64
201.844	2326.72
202.31	3952.93
202.777	4113.64
203.243	2318.44
203.709	2199.01
204.176	2638.8
204.642	2171.97
205.108	2043.59
205.574	1689.91
206.04	1538.64
206.506	1447.85
206.972	1345.28
207.438	1296.85
207.903	1472.24
208.369	1289.22
208.835	1283.1
209.301	1337.36
209.766	1350.13
210.232	1332.17
210.697	1623.2
211.163	1980.94
211.628	2962.5
212.094	2518.7
212.559	3138.27
213.024	1960.69
213.49	2372.27
213.955	2314.95
214.42	2233.37
214.885	2082.13
215.35	1981.79
215.815	1912.65
216.28	2015.6
216.745	1624.81
217.21	1725.96
217.675	1518.45
218.14	1662.3
218.604	1798.1
219.069	1993.9
219.534	2041.33
219.998	2297.41
220.463	2714.77
220.927	3232.18
221.392	2981.12
221.856	2973.63
222.32	3656.06
222.785	4489.74
223.249	5575.37
223.713	6180.6
224.177	6113.99
224.642	7761.61
225.106	9468.27
225.57	10295.81
226.034	7662.26
226.497	11651.59
226.961	10511.33
227.425	12265.12
227.889	13550.24
228.353	13473.37
228.816	27642.45
229.28	26434.88
229.744	22152.08
230.207	13468.6
230.671	13193.56
231.134	21664.98
231.597	24846.05
232.061	24671.01
232.524	23887.13
232.987	16419.47
233.45	14819.67
233.914	13266.51
234.377	13495.66
234.84	12352.57
235.303	14533.19
235.766	16212.44
236.229	16726.42
236.691	10516.8
237.154	11793.59
237.617	8887.19
238.08	9073.63
238.542	10579.35
239.005	7561.03
239.468	7526.1
239.93	7088.67
240.393	6433.8
240.855	5631.28
241.317	5749.01
241.78	6987.37
242.242	7241.57
242.704	7828.48
243.166	6813.64
243.629	6196.1
244.091	7142.31
244.553	7816.11
245.015	8412.81
245.477	10865.29
245.939	15934.92
246.4	16929.5
246.862	16452.17
247.324	15460.47
247.786	17277.56
248.247	22574.13
248.709	23192.31
249.17	17336.82
249.632	16404.31
250.093	19011.18
250.555	16410.38
251.016	10023.49
251.477	9499.76
251.939	10240.48
252.4	10774.33
252.861	12732.18
253.322	11893.63
253.783	14189.11
254.244	18366.9
254.705	14423.21
255.166	12762.84
255.627	12592.28
256.088	17759.22
256.549	18859.7
257.009	16228.06
257.47	19641.46
257.931	16046.1
258.391	12029.4
258.852	12394.18
259.312	12976.98
259.773	15993.95
260.233	13590.06
260.694	11469.05
261.154	12956.73
261.614	10416.5
262.074	9314.94
262.534	9672.42
262.994	9126.15
263.455	12111.19
263.915	10196.95
264.374	9612.04
264.834	10496.31
265.294	11605.15
265.754	11997.66
266.214	11366.74
266.673	10628.4
267.133	13383.31
267.593	13269.01
268.052	16213.82
268.512	14109.35
268.971	17029.03
269.431	18653.76
269.89	16668.04
270.349	24999.02
270.809	27913.11
271.268	25071.22
271.727	56194.19
272.186	36439.53
272.645	27313.05
273.104	19642.36
273.563	28360.52
274.022	22241.41
274.481	18947.24
274.94	14613.27
275.399	10836.51
275.857	12579.49
276.316	17012.52
276.775	15131.81
277.233	14913.28
277.692	13990.51
278.15	15882.87
278.609	16418.51
279.067	15198.37
279.525	14124.33
279.984	18239.86
280.442	21919.74
280.9	21651.23
281.358	14254.09
281.816	13325.19
282.274	13036.28
282.732	13406.72
283.19	13469.8
283.648	11622.47
284.106	12380.33
284.564	12573.46
285.021	11695.33
285.479	8730.39
285.937	7939.94
286.394	6983.08
286.852	7163.75
287.309	7534.14
287.767	7330.29
288.224	6976.32
288.682	7631.6
289.139	8410.63
289.596	7705.76
290.053	7995.19
290.511	10059.04
290.968	12207.18
291.425	16541.73
291.882	13839.44
292.339	12050.07
292.796	11911.36
293.252	11199.07
293.709	8915.81
294.166	7962.51
294.623	8799.91
295.079	8422.5
295.536	8490.64
295.992	7704.22
296.449	7611.29
296.905	7905.73
297.362	7606.59
297.818	8003.96
298.274	8334.37
298.731	8482.8
299.187	8411.91
299.643	9020.78
300.099	10927.63
300.555	11957.15
301.011	9993.33
301.467	9684.34
301.923	11281.32
302.379	10974.33
302.835	10786.88
303.291	10762.94
303.746	12256.31
304.202	15453.12
304.658	15563.43
305.113	10468.67
305.569	10274.64
306.024	10945.12
306.479	10386.64
306.935	8807.94
307.39	9648.59
307.845	8907.56
308.301	9015.58
308.756	8787.33
309.211	8479.42
309.666	8671.68
310.121	10824.18
310.576	10983.6
311.031	10899.05
311.486	12464
311.94	12410.94
312.395	16575.17
312.85	31158.45
313.305	152151.41
313.759	790738.45
314.214	57412.3
314.668	45649.28
315.123	38336.8
315.577	13785.71
316.032	12293.97
316.486	15443.43
316.94	12191.62
317.394	8483.29
317.849	6599.31
318.303	6260.25
318.757	5912.65
319.211	6526.28
319.665	5707.64
320.119	5765.69
320.572	8250.6
321.026	7709.73
321.48	6410.98
321.934	6983.03
322.387	6998.66
322.841	7555.71
323.295	6817.93
323.748	7812.9
324.202	7933.32
324.655	9540.38
325.108	13371.91
325.562	9441.66
326.015	11220.26
326.468	8465.72
326.921	9476.37
327.374	8857.55
327.827	9249.8
328.28	10479.1
328.733	7057
329.186	6221.84
329.639	5926.62
330.092	4996.56
330.545	4776.75
330.997	4825.73
331.45	5298.29
331.903	6223.91
332.355	10684.78
332.808	10365.2
333.26	8539.8
333.713	9246.74
334.165	9299.75
334.617	12393.87
335.069	9940.13
335.522	17902.71
335.974	19835.02
336.426	18071.81
336.878	12479.06
337.33	6351.02
337.782	6201.93
338.234	7790.88
338.686	9342.67
339.137	11067.4
339.589	10442.64
340.041	8264.16
340.493	7115.75
340.944	7281.78
341.396	7869.38
341.847	6650.13
342.299	7867.45
342.75	9659.76
343.201	8413.66
343.653	9662.58
344.104	11868.34
344.555	9315.28
345.006	14413.29
345.457	11102.46
345.908	8810.35
346.359	8303.26
346.81	6745.99
347.261	7086.15
347.712	6940.85
348.163	7428.25
348.613	7551.12
349.064	7052.81
349.515	6187.03
349.965	6367.86
350.416	7635.27
350.866	8375.58
351.317	9412.72
351.767	15618.07
352.217	19721.31
352.668	16367.05
353.118	15017.42
353.568	14400.85
354.018	11380.53
354.468	12018.67
354.918	8637.05
355.368	7582.76
355.818	10681.61
356.268	30785.39
356.718	129406.34
357.168	32217.79
357.617	16222.19
358.067	18059.11
358.517	16926.27
358.966	19923.69
359.416	22408.43
359.865	24135.05
360.315	28662.43
360.764	13454.71
361.213	7563.15
361.663	7131.09
362.112	8821.66
362.561	14209.22
363.01	10724.18
363.459	9064.59
363.908	9802.68
364.357	8338.26
364.806	14074.83
365.255	9693.33
365.703	8902.51
366.152	8942.76
366.601	7270.79
367.05	5910.4
367.498	5408.71
367.947	5633.13
368.395	5855.29
368.844	5189.4
369.292	6213.86
369.74	4307.44
370.189	6583.8
370.637	7713.15
371.085	6654.44
371.533	8065.52
371.981	7761.19
372.429	7402.06
372.877	7728.17
373.325	6467.35
373.773	6594.78
374.221	5874.2
374.669	7287.84
375.116	6309.68
375.564	6358.75
376.012	7090.36
376.459	5894.71
376.907	7044.72
377.354	8489.6
377.801	7945.87
378.249	9185.41
378.696	11742.58
379.143	14251.85
379.591	15231.3
380.038	25899.45
380.485	18799.08
380.932	20389.75
381.379	18770.69
381.826	13917.55
382.273	9941.03
382.72	8689.62
383.166	8470.89
383.613	5535.73
384.06	5011.32
384.506	5810.92
384.953	4269.71
385.4	4291.71
385.846	3758.03
386.292	3649.26
386.739	3564.64
387.185	3530.23
387.631	3549.5
388.078	3464.81
388.524	3708.68
388.97	3438.03
389.416	2877.85
389.862	3064.44
390.308	2912.48
390.754	2974.13
391.2	3243.13
391.645	3318.79
392.091	3206.77
392.537	3108.12
392.983	3102.29
393.428	3073.76
393.874	3296.88
394.319	3324.69
394.765	3177.54
395.21	3269.33
395.655	3063.18
396.101	2860.85
396.546	2601.35
396.991	2613.51
397.436	2431.02
397.881	2355.42
398.326	2215.53
398.771	2103.33
399.216	1835.47
399.661	1648.2
400.106	1655.11
400.551	1705.99
400.995	1533.55
401.44	1516.15
401.885	1423.02
402.329	1441.74
402.774	1386.8
403.218	1358.41
403.663	1310.52
404.107	1353.88
404.551	1365.36
404.995	1245.55
405.44	1196.89
405.884	1215.49
406.328	1171.41
406.772	1173.18
407.216	1070.83
407.66	1034.3
408.104	973.27
408.547	910.59
408.991	880.21
409.435	846.97
409.879	838.57
410.322	829.14
410.766	803.12
411.209	767.89
411.653	735.22
412.096	720.92
412.54	721.27
412.983	719.12
413.426	725.86
413.869	723.96
414.312	713.53
414.756	687.88
415.199	655.39
415.642	637.43
416.085	640.84
416.527	636.34
416.97	644.97
417.413	613
417.856	603.63
418.298	594.31
418.741	588.21
419.184	583.2
419.626	603.75
420.069	601.78
420.511	605.22
420.953	590.65
421.396	584.86
421.838	568.87
422.28	580.9
422.722	587.09
423.164	593.62
423.606	587.14
424.048	586.75
424.49	559.37
424.932	556.74
425.374	547.53
425.816	556.67
426.258	566.99
426.699	572.44
427.141	567.48
427.582	575.6
428.024	571.86
428.465	565.28
428.907	551.27
429.348	544.69
429.789	547.06
430.231	536.59
430.672	545.42
431.113	534.53
431.554	528.84
431.995	511.88
432.436	494.86
432.877	486.87
433.318	483.82
433.759	480.42
434.2	482.26
434.64	477.61
435.081	480.81
435.522	454.46
435.962	438.1
436.403	429.79
436.843	434.44
437.284	423.13
437.724	409.58
438.164	405.78
438.604	399.9
439.045	386.26
439.485	372.29
439.925	363.69
440.365	355.21
440.805	349.78
441.245	345.32
441.685	333.7
442.125	331.22
442.564	333.2
443.004	326.77
443.444	324.11
443.883	323.21
444.323	317.52
444.762	316.92
445.202	321.07
445.641	326.83
446.081	322.41
446.52	324.8
446.959	323.4
447.398	315.55
447.837	310.79
448.276	305.16
448.716	310.25
449.154	312.87
449.593	305.75
450.032	304.45
450.471	297.47
450.91	297.79
451.349	298.08
451.787	294.55
452.226	298.52
452.664	298.1
453.103	298.23
453.541	293.39
453.98	292.53
454.418	293.93
454.856	289.1
455.295	287.98
455.733	289.89
456.171	289.45
456.609	291.15
457.047	291.25
457.485	296.74
457.923	297.55
458.361	293.79
458.798	294.82
459.236	292.7
459.674	293.91
460.111	295.84
460.549	293.32
460.987	290.94
461.424	288.09
461.862	286.14
462.299	280.92
462.736	280.58
463.173	282.5
463.611	282.1
464.048	283.14
464.485	286.39
464.922	282.89
465.359	279.46
465.796	283.45
466.233	282.57
466.67	282.1
467.106	282.66
467.543	279.64
467.98	274.13
468.416	264.88
468.853	261.05
469.29	251.76
469.726	248.62
470.162	242.87
470.599	234.8
471.035	232.16
471.471	225.64
471.907	222.48
472.344	220.91
472.78	222.17
473.216	223.34
473.652	219.92
474.088	218.8
474.523	218.93
474.959	220.9
475.395	217.88
475.831	215.71
476.266	215.97
476.702	214.66
477.138	211.84
477.573	211.04
478.008	210.96
478.444	212.82
478.879	215.03
479.314	214.64
479.75	214.52
480.185	214.77
480.62	215.15
481.055	215.35
481.49	216.37
481.925	219.16
482.36	223.82
482.795	228.72
483.229	233.51
483.664	237.74
484.099	238.18
484.534	240.96
484.968	243.94
485.403	244.92
485.837	243.73
486.271	243.16
486.706	242.77
487.14	238.56
487.574	234.34
488.009	231.6
488.443	228.26
488.877	231.64
489.311	231.94
489.745	234.26
490.179	237.31
490.613	243.39
491.046	244.82
491.48	245.72
491.914	245.67
492.348	247.42
492.781	249.58
493.215	250.94
493.648	250.49
494.082	252.09
494.515	252.46
494.948	255.16
495.382	254.7
495.815	256.88
496.248	259.95
496.681	264.46
497.114	268.18
497.547	272.4
497.98	277.99
498.413	281.17
498.846	285.51
499.279	288.29
499.711	289.21
500.144	290.97
500.577	296.21
501.009	300.12
501.442	304.95
501.874	307.27
502.306	308.16
502.739	314.02
503.171	320.87
503.603	323.32
504.036	327.81
504.468	331.8
504.9	337.74
505.332	341.05
505.764	344.73
506.196	348.91
506.627	356.12
507.059	363.22
507.491	365.43
507.923	366.43
508.354	374.44
508.786	381.3
509.217	391.02
509.649	399.73
510.08	409.91
510.512	420.03
510.943	429.31
511.374	437.25
511.805	448.03
512.237	459.93
512.668	475.83
513.099	490.34
513.53	505.75
513.961	518.48
514.391	536.24
514.822	555.5
515.253	576.04
515.684	592.21
516.114	610.52
516.545	626.57
516.975	644.03
517.406	658.1
517.836	664.15
518.267	672.61
518.697	687.15
519.127	695.13
519.558	703.91
519.988	710.65
520.418	719.96
520.848	733.26
521.278	742.68
521.708	774.83
522.138	786.97
522.567	808.45
522.997	826.42
523.427	838.27
523.857	851.16
524.286	861.04
524.716	873.91
525.145	888.89
525.575	900.21
526.004	911.34
526.433	895.69
526.863	899.12
527.292	898.36
527.721	906.25
528.15	914.07
528.579	918.37
529.008	927.71
529.437	943.38
529.866	954.67
530.295	966.33
530.724	977.63
531.152	995.77
531.581	1007.2
532.01	1019.25
532.438	1025.44
532.867	1035.27
533.295	1048.28
533.723	1053.02
534.152	1053
534.58	1054.78
535.008	1047.76
535.436	1049.94
535.865	1054.72
536.293	1063.46
536.721	1073.22
537.149	1089.12
537.576	1092.17
538.004	1100.52
538.432	1106.52
538.86	1106.82
539.287	1111.15
539.715	1120.08
540.143	1122.88
540.57	1122.22
540.998	1120.68
541.425	1109.09
541.852	1097.25
542.28	1096.03
542.707	1085.84
543.134	1078.41
543.561	1075.87
543.988	1071.77
544.415	1071.49
544.842	1067.03
545.269	1061.83
545.696	1063.85
546.123	1071.27
546.549	1065.34
546.976	1059.29
547.403	1059.86
547.829	1060.71
548.256	1062.05
548.682	1059.63
549.108	1054.84
549.535	1055.73
549.961	1057.75
550.387	1049.48
550.813	1046.25
551.24	1050.08
551.666	1048.87
552.092	1043.49
552.518	1039.79
552.943	1036.72
553.369	1040.65
553.795	1042.77
554.221	1041.54
554.646	1038.25
555.072	1043.51
555.498	1044.4
555.923	1047.21
556.349	1055.19
556.774	1057.99
557.199	1056.46
557.625	1057.41
558.05	1052.93
558.475	1057.38
558.9	1055.04
559.325	1048.55
559.75	1043.05
560.175	1037.43
560.6	1032.17
561.025	1027.69
561.449	1025.76
561.874	1026.3
562.299	1026.03
562.723	1026.01
563.148	1017.37
563.572	1016.32
563.997	1019.04
564.421	1018.18
564.846	1014.21
565.27	1012.66
565.694	1008.63
566.118	1011.36
566.542	1013.13
566.966	1005.34
567.39	999.71
567.814	990.31
568.238	987.27
568.662	985.68
569.086	982.59
569.509	982.29
569.933	971.47
570.357	962.37
570.78	946.68
571.204	935.86
571.627	927.21
572.05	921.83
572.474	917.84
572.897	907
573.32	900.73
573.743	891.87
574.166	879.91
574.589	874.9
575.012	868.35
575.435	864.78
575.858	856.41
576.281	847.52
576.704	837.01
577.126	827.42
577.549	819.35
577.972	810.26
578.394	803.6
578.817	799.41
579.239	787.66
579.661	779.6
580.084	770.16
580.506	761.38
580.928	756.89
581.35	749.83
581.772	745.94
582.194	736.94
582.616	728.18
583.038	718.64
583.46	709.08
583.882	706.46
584.303	705.07
584.725	701.39
585.147	703.25
585.568	706.36
585.99	710.07
586.411	712.6
586.833	718.57
587.254	718.44
587.675	723.03
588.096	728.07
588.518	723.49
588.939	715.5
589.36	712.73
589.781	703.28
590.202	691.35
590.623	685.13
591.043	681.34
591.464	674.5
591.885	671.54
592.305	667.62
592.726	660.38
593.147	660.65
593.567	657.29
593.987	652.89
594.408	649.15
594.828	645.54
595.248	642.68
595.669	634.47
596.089	629.96
596.509	625.98
596.929	619.81
597.349	619.74
597.769	613.86
598.189	610.38
598.608	610.44
599.028	611.07
599.448	610.71
599.867	604.51
600.287	601.65
600.706	599.31
601.126	594.96
601.545	593.61
601.965	591.49
602.384	587.84
602.803	587.93
603.222	584.79
603.641	580.42
604.061	578.02
604.48	574.79
604.898	576.81
605.317	577.58
605.736	577.26
606.155	575.81
606.574	571.05
606.992	572.87
607.411	569.15
607.829	564.19
608.248	562.01
608.666	558.98
609.085	558.42
609.503	553.79
609.921	550.49
610.339	550.67
610.758	548.12
611.176	545.01
611.594	540.41
612.012	538.75
612.43	539.24
612.847	539.73
613.265	539.88
613.683	540.81
614.101	540.56
614.518	536.65
614.936	530.75
615.353	524.5
615.771	522.07
616.188	520.95
616.606	517.91
617.023	513.83
617.44	507.84
617.857	503.12
618.274	497.31
618.691	494.29
619.108	490.36
619.525	486.41
619.942	487.86
620.359	487.98
620.776	484.69
621.192	482.88
621.609	481.54
622.026	483.59
622.442	485.67
622.859	486.96
623.275	482.67
623.691	484.25
624.108	488.21
624.524	493.02
624.94	492.61
625.356	496.17
625.772	500.61
626.188	504.57
626.604	505.14
627.02	502.9
627.436	501.94
627.852	505.76
628.268	510.22
628.683	506.5
629.099	502.37
629.514	500.14
629.93	500.8
630.345	501.47
630.761	499.02
631.176	499.23
631.591	497.05
632.007	493.94
632.422	491.18
632.837	485
633.252	484.41
633.667	480.44
634.082	476.85
634.497	471.69
634.911	465.02
635.326	462.76
635.741	455.22
636.155	449.36
636.57	449.2
636.984	448.17
637.399	448.28
637.813	445.61
638.228	443.22
638.642	441.92
639.056	435.81
639.47	432.67
639.884	427.94
640.298	424.36
640.712	422.38
641.126	415.3
641.54	409.31
641.954	404.66
642.368	399.49
642.781	396.93
643.195	389.16
643.609	388.4
644.022	384.89
644.436	381.72
644.849	375.1
645.262	369.72
645.676	368.7
646.089	365.98
646.502	361.28
646.915	357.72
647.328	350.3
647.741	349.63
648.154	344.1
648.567	344.17
648.98	339.45
649.393	339.28
649.805	338.23
650.218	335.92
650.631	331.26
651.043	329.3
651.456	327.56
651.868	326.76
652.28	330.85
652.693	335.47
653.105	336
653.517	339.77
653.929	339.81
654.341	341.61
654.753	338.07
655.165	339.82
655.577	338.67
655.989	337.3
656.401	334.8
656.813	325.37
657.224	319.15
657.636	309.55
658.047	304.72
658.459	299.61
658.87	296.34
659.282	293.11
659.693	287.98
660.104	283.85
660.515	279.97
660.926	279.29
661.338	277.55
661.749	275.24
662.159	274.64
662.57	272.92
662.981	272.68
663.392	271.29
663.803	272.71
664.213	272.18
664.624	270.95
665.035	272.86
665.445	269.52
665.855	269.75
666.266	270.05
666.676	269.28
667.086	267.02
667.497	267.72
667.907	267.54
668.317	265.74
668.727	269.14
669.137	270.94
669.547	271.88
669.956	273.93
670.366	276.07
670.776	278.5
671.186	282.48
671.595	285.7
672.005	288.12
672.414	289.01
672.824	291.22
673.233	291.38
673.642	294.67
674.052	298.03
674.461	302.05
674.87	306.01
675.279	306.29
675.688	307.87
676.097	311.1
676.506	312.49
676.915	320.32
677.323	323.27
677.732	324.36
678.141	325.8
678.549	323.17
678.958	324.68
679.366	324.8
679.775	328.64
680.183	335.81
680.592	339.53
681	343.07
681.408	341.83
681.816	345.93
682.224	350.22
682.632	355.96
683.04	368.84
683.448	378.7
683.856	392.25
684.264	406.75
684.671	417.15
685.079	431.58
685.487	447.88
685.894	472.13
686.302	489.83
686.709	505.45
687.116	523.29
687.524	539.65
687.931	552.92
688.338	563.11
688.745	571.35
689.152	583.6
689.559	601.29
689.966	620.85
690.373	630.13
690.78	648.71
691.187	677.36
691.593	700.47
692	719.81
692.407	751.92
692.813	793.09
693.22	828.22
693.626	863.42
694.032	896.57
694.439	941.68
694.845	979.93
695.251	1029.28
695.657	1074.33
696.063	1135.81
696.469	1187.34
696.875	1237.12
697.281	1272.05
697.687	1313.32
698.093	1352.98
698.498	1410.92
698.904	1459.13
699.31	1526.4
699.715	1580.85
700.12	1651.88
700.526	1683.26
700.931	1744.25
701.337	1794.28
701.742	1834.56
702.147	1903.6
702.552	1940.79
702.957	1995.91
703.362	2027.74
703.767	2064.99
704.172	2109.35
704.577	2098.02
704.981	2147.48
705.386	2175.79
705.791	2190.02
706.195	2257.32
706.6	2282.27
707.004	2354.53
707.408	2352.23
707.813	2390.93
708.217	2399.81
708.621	2418.63
709.025	2504.02
