Data from N_2_DEC_NC_4N_Splice17_12-25-30-279.txt Node
Date: Sat Mar 14 12:25:30 EDT 2020
User: sa697716
Spectrometer: FLMS03696
Trigger mode: 0
Integration Time (sec): 3.180400E-1
Scans to average: 20
Electric dark correction enabled: true
Nonlinearity correction enabled: true
Boxcar width: 5
XAxis mode: Wavelengths
Number of Pixels in Spectrum: 2048
>>>>>Begin Spectral Data<<<<<
187.83	-418960.8
188.298	2980.55
188.766	1602.41
189.233	1438.52
189.701	1966.92
190.169	2691.52
190.636	1027.46
191.104	809.52
191.571	143.34
192.039	-42.58
192.506	-68.02
192.974	405.75
193.441	-647.61
193.908	22
194.375	20.14
194.842	13.06
195.31	23.08
195.777	115.37
196.244	303.85
196.711	383.76
197.177	501.21
197.644	717.53
198.111	1270.48
198.578	1801.22
199.045	1440.02
199.511	2387.21
199.978	2817.09
200.445	2432.84
200.911	2720
201.378	3024.71
201.844	2777.21
202.31	4743.52
202.777	4967.73
203.243	2761.05
203.709	2635.06
204.176	3153.09
204.642	2587.51
205.108	2421.97
205.574	1972.62
206.04	1780.28
206.506	1672.01
206.972	1562.49
207.438	1524.1
207.903	1744.95
208.369	1522.81
208.835	1521.97
209.301	1598.49
209.766	1628.76
210.232	1607.92
210.697	1983.57
211.163	2443.9
211.628	3678.95
212.094	3103.65
212.559	3791.57
213.024	2370.12
213.49	2905.14
213.955	2827.15
214.42	2753.52
214.885	2574.95
215.35	2465.66
215.815	2375.14
216.28	2513.42
216.745	2051.2
217.21	2206.9
217.675	2006.87
218.14	2232.48
218.604	2469.78
219.069	2804.82
219.534	2947.72
219.998	3403.88
220.463	4130.37
220.927	5066.36
221.392	4769.83
221.856	4818.79
222.32	6048.21
222.785	7474.45
223.249	9382.15
223.713	10483.09
224.177	10465.73
224.642	13365.11
225.106	16407.72
225.57	17903.74
226.034	13301.47
226.497	20227.93
226.961	18297.24
227.425	21301.38
227.889	23630.3
228.353	23604.61
228.816	48598.23
229.28	46464.3
229.744	39184.32
230.207	23817.9
230.671	23369.99
231.134	38613.3
231.597	44494.63
232.061	44342.88
232.524	43108.23
232.987	29587.5
233.45	26585.59
233.914	23822.06
234.377	24390.39
234.84	22292.97
235.303	26222.18
235.766	29209.41
236.229	30113.3
236.691	18923
237.154	21228.07
237.617	15973.11
238.08	16352.69
238.542	19137.87
239.005	13669.28
239.468	13531.97
239.93	12723.17
240.393	11569.37
240.855	10159.09
241.317	10386.17
241.78	12605.69
242.242	13026.07
242.704	14068.26
243.166	12217.66
243.629	11075.06
244.091	12734.14
244.553	13945.33
245.015	14978.86
245.477	19321.85
245.939	28244.17
246.4	29932.34
246.862	29076.26
247.324	27340.16
247.786	30501.88
248.247	39970.38
248.709	41176.22
249.17	30775.24
249.632	28986.94
250.093	33586.57
250.555	28968.86
251.016	17644.48
251.477	16724.05
251.939	18038.25
252.4	18908.29
252.861	22437.04
253.322	20839.18
253.783	24783.19
254.244	32122.39
254.705	25276.92
255.166	22384.38
255.627	22022.86
256.088	31083.58
256.549	33021.29
257.009	28417.89
257.47	34453.66
257.931	28036.41
258.391	21019.95
258.852	21646.61
259.312	22651.58
259.773	27963.89
260.233	23686.44
260.694	19970.89
261.154	22643.63
261.614	18150.91
262.074	16193.69
262.534	16808.53
262.994	15844.59
263.455	21064.1
263.915	17732.25
264.374	16681.68
264.834	18164.38
265.294	20087.03
265.754	20801.4
266.214	19665.59
266.673	18411.45
267.133	23215.1
267.593	23003.52
268.052	28085.89
268.512	24397.41
268.971	29422.17
269.431	32225.95
269.89	28860.24
270.349	43304.02
270.809	48227.05
271.268	43278.22
271.727	96881.61
272.186	62709.06
272.645	47031.85
273.104	33925.05
273.563	49095.53
274.022	38561.51
274.481	32813.94
274.94	25257.49
275.399	18727.67
275.857	21772.54
276.316	29389.42
276.775	26160.24
277.233	25742.75
277.692	24067.87
278.15	27244.55
278.609	28044.98
279.067	25917.95
279.525	24061.06
279.984	31069.56
280.442	37318.7
280.9	36804.73
281.358	24244.21
281.816	22569.86
282.274	22101.53
282.732	22845.68
283.19	22927.2
283.648	19779.04
284.106	21073.88
284.564	21426.96
285.021	19871.09
285.479	14795.37
285.937	13433.26
286.394	11789.1
286.852	12141.59
287.309	12777.13
287.767	12349.12
288.224	11743.86
288.682	12873.67
289.139	14117.64
289.596	12905.49
290.053	13376.5
290.511	16862.66
290.968	20460.23
291.425	27718.85
291.882	23026.18
292.339	20020.18
292.796	19807.08
293.252	18633.57
293.709	14799.1
294.166	13235.2
294.623	14612.66
295.079	14022.14
295.536	14081.22
295.992	12771.62
296.449	12627.87
296.905	13127.27
297.362	12577.8
297.818	13214.27
298.274	13706.39
298.731	13950.69
299.187	13801.69
299.643	14792.13
300.099	17881.33
300.555	19596.28
301.011	16350.76
301.467	15769.4
301.923	18427.47
302.379	17965.55
302.835	17652.07
303.291	17665.99
303.746	20072.3
304.202	25376.49
304.658	25490.46
305.113	17134.13
305.569	16798.86
306.024	17927.5
306.479	17047.3
306.935	14399.16
307.39	15705.64
307.845	14513.1
308.301	14591.69
308.756	14192.8
309.211	13680.1
309.666	14022.52
310.121	17438.83
310.576	17659.58
311.031	17477
311.486	19947.27
311.94	19866.97
312.395	26529.49
312.85	49730.03
313.305	244111.69
313.759	1268492.67
314.214	91833.97
314.668	72752.52
315.123	60989.83
315.577	21944.06
316.032	19548.09
316.486	24514.39
316.94	19320.67
317.394	13455.08
317.849	10461.28
318.303	9883.45
318.757	9299.3
319.211	10260.39
319.665	8970.76
320.119	9088.2
320.572	12983.27
321.026	12139.07
321.48	10094.64
321.934	11009.11
322.387	11014.33
322.841	11897.87
323.295	10715.4
323.748	12330.9
324.202	12522.59
324.655	15032.29
325.108	21028.02
325.562	14852.08
326.015	17607.82
326.468	13319.89
326.921	14886.21
327.374	13908.61
327.827	14483.01
328.28	16396.68
328.733	10993.12
329.186	9656.94
329.639	9201.98
330.092	7752.81
330.545	7390.01
330.997	7450.69
331.45	8156.87
331.903	9581.59
332.355	16467.63
332.808	15983.81
333.26	13162.89
333.713	14317.44
334.165	14442
334.617	19267.34
335.069	15532.74
335.522	28099.79
335.974	31143.81
336.426	28348.58
336.878	19542.07
337.33	9910.34
337.782	9680.64
338.234	12147.92
338.686	14487.26
339.137	17107.69
339.589	16105.82
340.041	12633.77
340.493	10822.92
340.944	11042.28
341.396	11928.6
341.847	10056.37
342.299	11870.91
342.75	14503.72
343.201	12645.71
343.653	14521.04
344.104	17846.24
344.555	14042.63
345.006	21807.63
345.457	16758.23
345.908	13340.77
346.359	12553.57
346.81	10220.72
347.261	10758.61
347.712	10562.45
348.163	11311.41
348.613	11473.34
349.064	10704.33
349.515	9377.99
349.965	9608.04
350.416	11557.68
350.866	12678.3
351.317	14293.3
351.767	23661.61
352.217	29926.33
352.668	24860.47
353.118	22762.96
353.568	21896.77
354.018	17323.05
354.468	18244.99
354.918	13117.31
355.368	11438.9
355.818	16154.14
356.268	46455.36
356.718	194563.67
357.168	48435.23
357.617	24322.81
358.067	27025.52
358.517	25364.95
358.966	29802.84
359.416	33467.62
359.865	36123.09
360.315	43175.47
360.764	20182.92
361.213	11323.34
361.663	10731.08
362.112	13225.46
362.561	21296.32
363.01	16117.68
363.459	13569.58
363.908	14668.59
364.357	12491.67
364.806	21087.28
365.255	14434.26
365.703	13243.54
366.152	13246.6
366.601	10728.96
367.05	8750.62
367.498	7990.9
367.947	8340.12
368.395	8666.16
368.844	7688.5
369.292	9224.62
369.74	6378.98
370.189	9786.5
370.637	11461.01
371.085	9880.68
371.533	12041.23
371.981	11550.55
372.429	11023.82
372.877	11459.14
373.325	9597.42
373.773	9726.34
374.221	8659.93
374.669	10733.7
375.116	9273.49
375.564	9334.28
376.012	10411.75
376.459	8554.28
376.907	10214.49
377.354	12299.61
377.801	11473.66
378.249	13156.94
378.696	16860
379.143	20393.35
379.591	21736.69
380.038	36772.39
380.485	26548.2
380.932	28749.8
381.379	26382.72
381.826	19443.17
382.273	13837.1
382.72	12094.47
383.166	11796.88
383.613	7647.5
384.06	6891.61
384.506	7964.5
384.953	5856.44
385.4	5876.31
385.846	5135.79
386.292	4991.2
386.739	4886.78
387.185	4826.54
387.631	4824.05
388.078	4693.69
388.524	5018.75
388.97	4647.25
389.416	3887.68
389.862	4142.7
390.308	3943.02
390.754	4022.79
391.2	4389.83
391.645	4504.57
392.091	4337.64
392.537	4210.67
392.983	4226.38
393.428	4188.34
393.874	4504.31
394.319	4538.55
394.765	4318.94
395.21	4446.3
395.655	4172.22
396.101	3907.49
396.546	3534.83
396.991	3562.39
397.436	3320.7
397.881	3216.1
398.326	3038.96
398.771	2882.09
399.216	2526.34
399.661	2281.38
400.106	2291.36
400.551	2355.06
400.995	2122.09
401.44	2108.46
401.885	1993.11
402.329	2018.97
402.774	1942.68
403.218	1895.21
403.663	1832.35
404.107	1893.26
404.551	1918.79
404.995	1760.4
405.44	1699.71
405.884	1732.71
406.328	1679.15
406.772	1674.48
407.216	1528.69
407.66	1480.71
408.104	1406.41
408.547	1317.64
408.991	1276.89
409.435	1228.12
409.879	1213.31
410.322	1201.89
410.766	1161.12
411.209	1106.68
411.653	1065.93
412.096	1047.72
412.54	1050.26
412.983	1047.24
413.426	1055.57
413.869	1051.98
414.312	1034.69
414.756	998.06
415.199	952.46
415.642	927.78
416.085	929.69
416.527	923.25
416.97	937.96
417.413	890.18
417.856	878.42
418.298	868.72
418.741	865.05
419.184	861.5
419.626	896.29
420.069	899.04
420.511	904.95
420.953	887.44
421.396	879.79
421.838	856.88
422.28	877.09
422.722	887.5
423.164	900.4
423.606	887.41
424.048	885.53
424.49	844.23
424.932	838.86
425.374	826.08
425.816	838.21
426.258	851.22
426.699	859.55
427.141	848
427.582	857.5
428.024	851.7
428.465	846.88
428.907	826.19
429.348	816.67
429.789	816.14
430.231	799.24
430.672	809.04
431.113	792.8
431.554	783.02
431.995	763.24
432.436	738.66
432.877	724.35
433.318	712.33
433.759	711.53
434.2	710.57
434.64	704.93
435.081	707.65
435.522	674.34
435.962	648.51
436.403	638.02
436.843	648.21
437.284	631.3
437.724	613.58
438.164	613.57
438.604	599.32
439.045	579.9
439.485	557.71
439.925	546.46
440.365	532.73
440.805	528.31
441.245	521.76
441.685	502.81
442.125	501.4
442.564	506.08
443.004	497.19
443.444	496.89
443.883	497.88
444.323	495.64
444.762	497.77
445.202	506.62
445.641	519.4
446.081	517.19
446.52	524.13
446.959	522.55
447.398	512.68
447.837	509.5
448.276	504.45
448.716	512.03
449.154	516.55
449.593	508.37
450.032	507.63
450.471	498.02
450.91	501.05
451.349	503.5
451.787	502.11
452.226	512.41
452.664	514.15
453.103	516
453.541	515.51
453.98	517.69
454.418	521.86
454.856	516.23
455.295	516.89
455.733	522.18
456.171	523.97
456.609	526.62
457.047	527.47
457.485	536.57
457.923	539.32
458.361	533.59
458.798	536.4
459.236	535.88
459.674	539.48
460.111	543.23
460.549	537.85
460.987	537.37
461.424	535.36
461.862	531.78
462.299	522.59
462.736	521.55
463.173	523.59
463.611	517.89
464.048	517.09
464.485	522.21
464.922	517.81
465.359	515.82
465.796	511.79
466.233	508.58
466.67	505.36
467.106	506.16
467.543	502.14
467.98	495.76
468.416	483.62
468.853	479.17
469.29	465.2
469.726	460.75
470.162	448.92
470.599	441.08
471.035	437.58
471.471	426.96
471.907	423.55
472.344	419.97
472.78	422.29
473.216	428.45
473.652	424.55
474.088	424.09
474.523	422.27
474.959	426.68
475.395	423.88
475.831	421.91
476.266	424.88
476.702	424.5
477.138	421.22
477.573	420.09
478.008	417.93
478.444	420.23
478.879	424.98
479.314	427.85
479.75	427.9
480.185	429.21
480.62	432.06
481.055	434.8
481.49	439.47
481.925	446.67
482.36	455.81
482.795	468.98
483.229	481.84
483.664	492.6
484.099	495.29
484.534	503.95
484.968	510.5
485.403	513.79
485.837	513.68
486.271	513.08
486.706	514
487.14	508.94
487.574	502.48
488.009	499.28
488.443	496
488.877	502.54
489.311	505.31
489.745	513.12
490.179	520.22
490.613	532.49
491.046	538.61
491.48	544.59
491.914	547.76
492.348	553.73
492.781	560.29
493.215	564.22
493.648	568.18
494.082	576.78
494.515	580.67
494.948	590.73
495.382	598.21
495.815	606.57
496.248	616.12
496.681	631.1
497.114	646.03
497.547	659.8
497.98	676.81
498.413	687.93
498.846	701.14
499.279	714.16
499.711	723.44
500.144	731.4
500.577	746.79
501.009	763.17
501.442	778.63
501.874	786.08
502.306	793.99
502.739	807.24
503.171	828.1
503.603	837.98
504.036	854.02
504.468	865.63
504.9	883.21
505.332	896.81
505.764	907.68
506.196	920.53
506.627	942.32
507.059	962.11
507.491	978.36
507.923	982.54
508.354	1004.67
508.786	1021.8
509.217	1047.56
509.649	1068.95
510.08	1095.68
510.512	1119.81
510.943	1141.88
511.374	1158.96
511.805	1186.24
512.237	1212.7
512.668	1253.26
513.099	1287.58
513.53	1322.57
513.961	1349.98
514.391	1390.39
514.822	1430.33
515.253	1473.44
515.684	1505.59
516.114	1542.23
516.545	1568.99
516.975	1600.13
517.406	1621.89
517.836	1627.04
518.267	1635.05
518.697	1656.19
519.127	1661.84
519.558	1670.58
519.988	1675.45
520.418	1688.45
520.848	1709.52
521.278	1721.01
521.708	1737.27
522.138	1751.82
522.567	1788.2
522.997	1817.57
523.427	1835.84
523.857	1855.2
524.286	1867.35
524.716	1885.31
525.145	1905.05
525.575	1916.44
526.004	1931.86
526.433	1928.48
526.863	1928.44
527.292	1915.24
527.721	1921.94
528.15	1927.31
528.579	1927.7
529.008	1939.4
529.437	1964.06
529.866	1980.03
530.295	1999.94
530.724	2014.05
531.152	2044.18
531.581	2060.14
532.01	2079.89
532.438	2088.43
532.867	2105.36
533.295	2126.61
533.723	2133.58
534.152	2130.81
534.58	2129.79
535.008	2110.73
535.436	2111.78
535.865	2119.8
536.293	2136.28
536.721	2154.9
537.149	2184.14
537.576	2187.61
538.004	2200.67
538.432	2210.15
538.86	2208.95
539.287	2218.49
539.715	2234.31
540.143	2238.58
540.57	2234.53
540.998	2229.56
541.425	2202.08
541.852	2176.97
542.28	2174.33
542.707	2156.06
543.134	2138.45
543.561	2132.03
543.988	2122.81
544.415	2122.26
544.842	2115.36
545.269	2106.52
545.696	2108.16
546.123	2122.9
546.549	2111.04
546.976	2094.83
547.403	2094.17
547.829	2096.81
548.256	2100.05
548.682	2094.77
549.108	2084.93
549.535	2083.23
549.961	2085.52
550.387	2070.91
550.813	2064.47
551.24	2071.93
551.666	2073.44
552.092	2062.34
552.518	2054.2
552.943	2046.39
553.369	2055.74
553.795	2063.31
554.221	2065.05
554.646	2060.01
555.072	2072.53
555.498	2079.27
555.923	2088.63
556.349	2106.36
556.774	2115.9
557.199	2117.79
557.625	2125.07
558.05	2119.28
558.475	2131.5
558.9	2130.59
559.325	2122.71
559.75	2115.21
560.175	2108.14
560.6	2101.33
561.025	2099.36
561.449	2101.39
561.874	2108.82
562.299	2114.52
562.723	2121.6
563.148	2109.93
563.572	2114.82
563.997	2127.2
564.421	2134.45
564.846	2135.17
565.27	2140.38
565.694	2138.7
566.118	2153.39
566.542	2163.23
566.966	2157.32
567.39	2154.36
567.814	2142.71
568.238	2144.22
568.662	2151.9
569.086	2156.89
569.509	2167.63
569.933	2151.89
570.357	2144.5
570.78	2121.04
571.204	2107.16
571.627	2095.39
572.05	2093.77
572.474	2095.14
572.897	2080.73
573.32	2072.07
573.743	2062.54
574.166	2040.95
574.589	2041.44
575.012	2033.03
575.435	2031.46
575.858	2020.21
576.281	2007.49
576.704	1989.33
577.126	1975.28
577.549	1961.79
577.972	1950.82
578.394	1936.84
578.817	1928.01
579.239	1905.78
579.661	1888.92
580.084	1870.84
580.506	1854.99
580.928	1850.52
581.35	1838.14
581.772	1831.89
582.194	1817.58
582.616	1802.87
583.038	1786.06
583.46	1774.83
583.882	1771.84
584.303	1777.99
584.725	1774.42
585.147	1776.16
585.568	1787.84
585.99	1801.91
586.411	1810.76
586.833	1827.82
587.254	1829.85
587.675	1848.13
588.096	1862.32
588.518	1856.25
588.939	1836.34
589.36	1832.49
589.781	1822.91
590.202	1789.52
590.623	1779.98
591.043	1777.22
591.464	1761.4
591.885	1757.44
592.305	1749.87
592.726	1732.82
593.147	1733.67
593.567	1727.31
593.987	1718.99
594.408	1711.76
594.828	1710.19
595.248	1702.47
595.669	1681.12
596.089	1674.16
596.509	1665.6
596.929	1649.79
597.349	1652.14
597.769	1639.72
598.189	1632.21
598.608	1633.25
599.028	1635.43
599.448	1636.57
599.867	1622.7
600.287	1617.3
600.706	1612.01
601.126	1600.59
601.545	1598.7
601.965	1596.96
602.384	1592
602.803	1595.14
603.222	1589.99
603.641	1582.04
604.061	1575.9
604.48	1569.82
604.898	1578.82
605.317	1584.23
605.736	1586
606.155	1581.96
606.574	1569.72
606.992	1575.04
607.411	1569.55
607.829	1558.64
608.248	1554.06
608.666	1551.69
609.085	1550.28
609.503	1539.39
609.921	1530.94
610.339	1532.69
610.758	1530.63
611.176	1524.66
611.594	1512.35
612.012	1506.82
612.43	1510
612.847	1516.55
613.265	1515.55
613.683	1519.39
614.101	1520.14
614.518	1514
614.936	1501.37
615.353	1484.22
615.771	1479.29
616.188	1478.84
616.606	1473.9
617.023	1464.85
617.44	1447.36
617.857	1439.1
618.274	1429.2
618.691	1421.78
619.108	1411.09
619.525	1403.09
619.942	1409.69
620.359	1412.06
620.776	1405.66
621.192	1400.35
621.609	1396.56
622.026	1404.1
622.442	1409.75
622.859	1412.34
623.275	1403.56
623.691	1409.77
624.108	1423.13
624.524	1439.2
624.94	1438.24
625.356	1449.41
625.772	1464.06
626.188	1477.4
626.604	1478.3
627.02	1474.18
627.436	1470.52
627.852	1477.32
628.268	1489.44
628.683	1478.42
629.099	1468.96
629.514	1463.66
629.93	1467.27
630.345	1472.35
630.761	1467.59
631.176	1470.9
631.591	1463.98
632.007	1457.52
632.422	1455.64
632.837	1444.17
633.252	1441.32
633.667	1429.14
634.082	1418.66
634.497	1403.91
634.911	1380.86
635.326	1375.41
635.741	1354.88
636.155	1342.17
636.57	1342.83
636.984	1341.84
637.399	1341.65
637.813	1339.62
638.228	1337.06
638.642	1340.79
639.056	1328.65
639.47	1328.38
639.884	1319.27
640.298	1310.53
640.712	1307.38
641.126	1292.03
641.54	1280.29
641.954	1272.89
642.368	1257.27
642.781	1245.29
643.195	1223.34
643.609	1219.86
644.022	1209.84
644.436	1201.65
644.849	1186.71
645.262	1171.37
645.676	1169.43
646.089	1159.84
646.502	1140.1
646.915	1130.54
647.328	1108.19
647.741	1101.76
648.154	1084.06
648.567	1077.15
648.98	1059.33
649.393	1056.03
649.805	1047.8
650.218	1036.82
650.631	1017.38
651.043	1007.04
651.456	998.59
651.868	996.97
652.28	1012.4
652.693	1024.33
653.105	1026.79
653.517	1033.86
653.929	1030.28
654.341	1033.59
654.753	1017.47
655.165	1020.26
655.577	1013.68
655.989	1004.76
656.401	993.11
656.813	952.74
657.224	927.43
657.636	895.51
658.047	872.86
658.459	849.21
658.87	834.36
659.282	817.87
659.693	792.78
660.104	773.51
660.515	754.39
660.926	746.02
661.338	736.26
661.749	723.61
662.159	708.87
662.57	697.57
662.981	686.7
663.392	673.08
663.803	669.55
664.213	660.43
664.624	650.33
665.035	645.88
665.445	626.93
665.855	616.46
666.266	605.46
666.676	598.09
667.086	586.64
667.497	581.68
667.907	572.37
668.317	560.62
668.727	554.76
669.137	550.32
669.547	546.07
669.956	545.2
670.366	542.83
670.776	540.55
671.186	539.75
671.595	538.64
672.005	538.24
672.414	536.86
672.824	534.19
673.233	534.45
673.642	536.01
674.052	537.41
674.461	538.18
674.87	540.36
675.279	538.39
675.688	538.86
676.097	540.86
676.506	539.1
676.915	548.22
677.323	550.76
677.732	550.07
678.141	549.83
678.549	541.95
678.958	542.88
679.366	543.61
679.775	548.83
680.183	560.41
680.592	567.39
681	575.59
681.408	575.51
681.816	585.29
682.224	596.96
682.632	612.09
683.04	642.2
683.448	669.52
683.856	702.1
684.264	740.45
684.671	776.07
685.079	820.61
685.487	869.61
685.894	935.88
686.302	993.54
686.709	1047.09
687.116	1107.08
687.524	1160.28
687.931	1209
688.338	1254.41
688.745	1293.35
689.152	1338.97
689.559	1393.95
689.966	1448.8
690.373	1482.35
690.78	1536.73
691.187	1610.59
691.593	1667.97
692	1720.66
692.407	1793.54
692.813	1878.72
693.22	1948.2
693.626	2020.06
694.032	2076.71
694.439	2161.09
694.845	2225.59
695.251	2306.75
695.657	2380.05
696.063	2489.12
696.469	2568.33
696.875	2639.7
697.281	2682.05
697.687	2734.8
698.093	2773.04
698.498	2851.78
698.904	2911.03
699.31	3004.44
