Data from N_2_DEC_OH_4N_Splice17_12-04-08-072.txt Node
Date: Sat Mar 14 12:04:08 EDT 2020
User: sa697716
Spectrometer: FLMS03696
Trigger mode: 0
Integration Time (sec): 3.180400E-1
Scans to average: 20
Electric dark correction enabled: true
Nonlinearity correction enabled: true
Boxcar width: 5
XAxis mode: Wavelengths
Number of Pixels in Spectrum: 2048
>>>>>Begin Spectral Data<<<<<
187.83	-261420.09
188.298	1954.3
188.766	1057.48
189.233	934.19
189.701	1359.79
190.169	1838.68
190.636	695.07
191.104	602.19
191.571	83.81
192.039	-54.2
192.506	-140.28
192.974	284.93
193.441	-533.15
193.908	-144.86
194.375	-45.38
194.842	51.44
195.31	138.7
195.777	183.58
196.244	417.91
196.711	544.02
197.177	690.07
197.644	996.3
198.111	1747.35
198.578	2474.67
199.045	1994.75
199.511	3266.88
199.978	3847.43
200.445	3260.48
200.911	3626.24
201.378	4084.01
201.844	3690.59
202.31	6356.81
202.777	6605.29
203.243	3683.31
203.709	3559.32
204.176	4255.42
204.642	3508.24
205.108	3279.76
205.574	2684.14
206.04	2462.6
206.506	2316.11
206.972	2214.69
207.438	2140.71
207.903	2463.05
208.369	2167.49
208.835	2154.21
209.301	2267.01
209.766	2334.59
210.232	2306.84
210.697	2864.23
211.163	3577.34
211.628	5426.73
212.094	4574.46
212.559	5581.53
213.024	3468.44
213.49	4229.23
213.955	4136.48
214.42	4072.19
214.885	3819.58
215.35	3707.42
215.815	3557.3
216.28	3784.72
216.745	3120.69
217.21	3378.71
217.675	3178.05
218.14	3609.78
218.604	4130.11
219.069	4817.03
219.534	5125.53
219.998	6077.55
220.463	7467.99
220.927	9403.79
221.392	8955.74
221.856	9158.51
222.32	11707.41
222.785	14572.4
223.249	18526.63
223.713	20798.67
224.177	20900.37
224.642	27030.52
225.106	33466.07
225.57	36730.19
226.034	27294.88
226.497	41660.09
226.961	37673.33
227.425	43891.22
227.889	48789.72
228.353	48799.14
228.816	100808.53
229.28	96484.76
229.744	81298.77
230.207	49322.02
230.671	48507.37
231.134	80525.89
231.597	92781.09
232.061	92778.63
232.524	90600.53
232.987	62335.54
233.45	56125.92
233.914	50323.29
234.377	51620.62
234.84	47254.65
235.303	55792.01
235.766	62294.97
236.229	64330.47
236.691	40525.43
237.154	45573.99
237.617	34228.12
238.08	35077.42
238.542	41073.74
239.005	29347.65
239.468	29103.63
239.93	27426.25
240.393	24906.61
240.855	21857.68
241.317	22404.78
241.78	27295.11
242.242	28172.76
242.704	30413.14
243.166	26446.23
243.629	23965.9
244.091	27621.49
244.553	30260.51
245.015	32527.02
245.477	42078.81
245.939	61688.88
246.4	65387.61
246.862	63522.69
247.324	59894.08
247.786	67034.69
248.247	87996.7
248.709	91034.86
249.17	68080.62
249.632	64043.63
250.093	74127.62
250.555	63981.69
251.016	38986.54
251.477	36961.46
251.939	39849.38
252.4	41839.43
252.861	49725.89
253.322	46205.95
253.783	54975.48
254.244	71301.72
254.705	56284.96
255.166	50085.03
255.627	49303.98
256.088	69507.14
256.549	73840.86
257.009	63647.59
257.47	77216.07
257.931	62914.22
258.391	47141.45
258.852	48580.14
259.312	50940.24
259.773	62881.5
260.233	53136.96
260.694	44815.27
261.154	50873.46
261.614	40769.67
262.074	36468.49
262.534	37882.65
262.994	35707.61
263.455	47645.7
263.915	40136.68
264.374	37828.71
264.834	41323.27
265.294	45818.64
265.754	47460.61
266.214	44929.57
266.673	42136.37
267.133	53211.68
267.593	52835.2
268.052	64632.97
268.512	56199.64
268.971	67730.17
269.431	74275.49
269.89	66512.63
270.349	99736.05
270.809	111165.06
271.268	99922.36
271.727	224238.3
272.186	145128
272.645	108813.86
273.104	78638.81
273.563	113886.82
274.022	89691.25
274.481	76239.22
274.94	58729.68
275.399	43685.41
275.857	50938.01
276.316	68910.8
276.775	61335.17
277.233	60433.49
277.692	56551.81
278.15	63946.22
278.609	65733.59
279.067	60844.74
279.525	56543.84
279.984	73071.95
280.442	87750.91
280.9	86399.65
281.358	56873.71
281.816	52975.53
282.274	51855.19
282.732	53639.97
283.19	53883.03
283.648	46510.73
284.106	49540.49
284.564	50409.08
285.021	46758.57
285.479	34824.41
285.937	31706.09
286.394	27803.49
286.852	28662.27
287.309	30139.82
287.767	29076.26
288.224	27643.03
288.682	30361.55
289.139	33292.7
289.596	30434.05
290.053	31630.82
290.511	39946.44
290.968	48418.38
291.425	65741.76
291.882	54575.55
292.339	47465.23
292.796	47133.4
293.252	44427.27
293.709	35234.96
294.166	31590.31
294.623	34941.08
295.079	33529.76
295.536	33648.51
295.992	30554.53
296.449	30201.2
296.905	31393.16
297.362	30083.7
297.818	31656.11
298.274	32814.09
298.731	33477.34
299.187	33156.75
299.643	35587.24
300.099	43028.9
300.555	47234.83
301.011	39456.1
301.467	37973.3
301.923	44507.04
302.379	43448.12
302.835	42608.7
303.291	42654.49
303.746	48539.17
304.202	61263.35
304.658	61544.49
305.113	41395.77
305.569	40539.06
306.024	43228.06
306.479	41187.83
306.935	34696.57
307.39	37905.19
307.845	35010.93
308.301	35199.05
308.756	34281.57
309.211	33006.47
309.666	33774.5
310.121	41840.87
310.576	42462.4
311.031	42123.22
311.486	48281.01
311.94	48196.31
312.395	64458.28
312.85	121176.61
313.305	596528.66
313.759	3081948.29
314.214	223263.3
314.668	176890.5
315.123	148801.99
315.577	53343.99
316.032	47421.9
316.486	59397.46
316.94	46834.89
317.394	32554.97
317.849	25285.02
318.303	23929.12
318.757	22569.64
319.211	24929.44
319.665	21796.96
320.119	22046.31
320.572	31597.51
321.026	29477.02
321.48	24500.41
321.934	26756.29
322.387	26840.37
322.841	28976.11
323.295	25943.35
323.748	29924.03
324.202	30332.93
324.655	36413.42
325.108	50792.63
325.562	35846.84
326.015	42604.05
326.468	32146.08
326.921	35933.52
327.374	33465.17
327.827	34792.23
328.28	39423.48
328.733	26369.17
329.186	23186.33
329.639	22073.02
330.092	18614.63
330.545	17723.67
330.997	17866.63
331.45	19530.48
331.903	22806.32
332.355	39217.28
332.808	38113.84
333.26	31437.32
333.713	34087.51
334.165	34351.86
334.617	45954.34
335.069	37197.15
335.522	67237.13
335.974	74462.04
336.426	68080.28
336.878	47255.38
337.33	23955.66
337.782	23405.91
338.234	29295.76
338.686	35088.22
339.137	41573.07
339.589	39118.33
340.041	30604.09
340.493	26305.79
340.944	26904.52
341.396	28958.92
341.847	24330.22
342.299	28671.68
342.75	34938.75
343.201	30543.4
343.653	35142.71
344.104	43194.74
344.555	33971.55
345.006	52920.41
345.457	40446.66
345.908	32220.35
346.359	30270.62
346.81	24681.41
347.261	26054.16
347.712	25656.99
348.163	27540.13
348.613	27798.13
349.064	25928.94
349.515	22689
349.965	23249.53
350.416	28031.24
350.866	30732.66
351.317	34827.94
351.767	57594.06
352.217	72716.35
352.668	60352.9
353.118	55191
353.568	53292.82
354.018	42140.4
354.468	44429.78
354.918	31840.93
355.368	27852.32
355.818	39323.51
356.268	113011.54
356.718	472825.99
357.168	117546.98
357.617	59039.45
358.067	65741.98
358.517	61668.33
358.966	72236.12
359.416	80963.28
359.865	87587.09
360.315	104280.52
360.764	48676.75
361.213	27270.18
361.663	25850.29
362.112	31983.77
362.561	51634.23
363.01	38922.9
363.459	32707.19
363.908	35393.53
364.357	30019.21
364.806	50705.04
365.255	34877.3
365.703	31907.52
366.152	31909.2
366.601	25844.42
367.05	20927.91
367.498	19002.24
367.947	19867.18
368.395	20673.28
368.844	18294.33
369.292	22102.45
369.74	15240.6
370.189	23342.92
370.637	27357.86
371.085	23629.71
371.533	28795.9
371.981	27787.33
372.429	26460.8
372.877	27564.63
373.325	23084.07
373.773	23546.92
374.221	20967.79
374.669	26048.65
375.116	22519.34
375.564	22701.71
376.012	25394.51
376.459	20921.26
376.907	25019.77
377.354	30279.05
377.801	28180.32
378.249	32368.26
378.696	41280.27
379.143	49947.17
379.591	53254.38
380.038	90012.51
380.485	65088.05
380.932	70186.03
381.379	64117.1
381.826	47061.76
382.273	33463.39
382.72	29290.2
383.166	28472.22
383.613	18476.93
384.06	16644.94
384.506	19228.84
384.953	14129.66
385.4	14213.34
385.846	12469.26
386.292	12165.87
386.739	11912.61
387.185	11770.63
387.631	11750.17
388.078	11396.18
388.524	12188.62
388.97	11234.29
389.416	9358.83
389.862	9923.01
390.308	9389.88
390.754	9505.11
391.2	10300.83
391.645	10512.45
392.091	10011.84
392.537	9660.92
392.983	9668.27
393.428	9462.01
393.874	10131.81
394.319	10125.75
394.765	9574.02
395.21	9799.7
395.655	9156.83
396.101	8538.01
396.546	7691.43
396.991	7755.1
397.436	7189.2
397.881	6937.09
398.326	6569.42
398.771	6183.96
399.216	5397.23
399.661	4849.14
400.106	4821.74
400.551	4918.62
400.995	4404.93
401.44	4346.16
401.885	4075.14
402.329	4106.85
402.774	3921.13
403.218	3778.22
403.663	3637.51
404.107	3729.65
404.551	3745.06
404.995	3425.96
405.44	3300.65
405.884	3340.16
406.328	3227.38
406.772	3205.7
407.216	2912.28
407.66	2812.62
408.104	2671.16
408.547	2492.83
408.991	2407.08
409.435	2314.36
409.879	2280.3
410.322	2243.32
410.766	2163.85
411.209	2053.86
411.653	1967.45
412.096	1925.65
412.54	1922.22
412.983	1905.4
413.426	1908.5
413.869	1904.55
414.312	1863.11
414.756	1790.1
415.199	1704.63
415.642	1653.3
416.085	1651.97
416.527	1639.4
416.97	1660.65
417.413	1570.81
417.856	1553.45
418.298	1534.81
418.741	1523.32
419.184	1518.38
419.626	1580.18
420.069	1580.25
420.511	1586.3
420.953	1547.64
421.396	1531.46
421.838	1490.91
422.28	1524.78
422.722	1530.81
423.164	1552.92
423.606	1528.26
424.048	1526.9
424.49	1450.23
424.932	1441.86
425.374	1422.95
425.816	1451.08
426.258	1478.14
426.699	1493.45
427.141	1471.14
427.582	1493.41
428.024	1488.06
428.465	1476.5
428.907	1439.83
429.348	1424.33
429.789	1423.11
430.231	1390.48
430.672	1410.38
431.113	1378.35
431.554	1359.46
431.995	1326.18
432.436	1279.39
432.877	1248.97
433.318	1227.33
433.759	1220.87
434.2	1220.05
434.64	1209.98
435.081	1214.82
435.522	1151.58
435.962	1109.47
436.403	1085.08
436.843	1101.87
437.284	1076.24
437.724	1049.24
438.164	1053.53
438.604	1032.45
439.045	992.02
439.485	947.55
439.925	928.04
440.365	903.99
440.805	892.65
441.245	880.38
441.685	846.96
442.125	839.88
442.564	844.76
443.004	823.18
443.444	821.4
443.883	822.37
444.323	817.8
444.762	817.24
445.202	826.67
445.641	838.7
446.081	832.74
446.52	837.68
446.959	829.5
447.398	806.17
447.837	796.72
448.276	779.67
448.716	786.05
449.154	792.56
449.593	772.72
450.032	766.8
450.471	752.11
450.91	752.11
451.349	749.08
451.787	745.24
452.226	755.6
452.664	755
453.103	756
453.541	753.61
453.98	747.79
454.418	751.25
454.856	738.5
455.295	736.33
455.733	740.27
456.171	742.82
456.609	743.67
457.047	741.42
457.485	750.53
457.923	750.27
458.361	739.65
458.798	742.79
459.236	741.34
459.674	747.73
460.111	750.55
460.549	742.04
460.987	741.31
461.424	737.93
461.862	735.43
462.299	724.07
462.736	722.25
463.173	724.43
463.611	716.2
464.048	714.53
464.485	718.46
464.922	711.19
465.359	709.02
465.796	697.99
466.233	692.29
466.67	684.44
467.106	683.46
467.543	678.35
467.98	669.14
468.416	652.93
468.853	646.75
469.29	628.65
469.726	622.52
470.162	606.47
470.599	598.7
471.035	592.06
471.471	578.22
471.907	574.25
472.344	569.31
472.78	571.23
473.216	577.57
473.652	571.31
474.088	568.73
474.523	566.37
474.959	570.52
475.395	563.49
475.831	560.22
476.266	563.02
476.702	559.67
477.138	552.85
477.573	549.54
478.008	546.19
478.444	546.89
478.879	549.85
479.314	550.39
479.75	548.38
480.185	550.6
480.62	553.65
481.055	554.64
481.49	558.49
481.925	565.72
482.36	575.03
482.795	590.23
483.229	605.31
483.664	618.37
484.099	620.44
484.534	629.55
484.968	634.36
485.403	636.81
485.837	635.88
486.271	633.3
486.706	633.22
487.14	624.62
487.574	613.31
488.009	607.01
488.443	599.85
488.877	605.3
489.311	605.18
489.745	611.2
490.179	614.63
490.613	624.05
491.046	627.71
491.48	630.69
491.914	630.16
492.348	633.22
492.781	635.17
493.215	635.31
493.648	633.32
494.082	636.09
494.515	634.41
494.948	639.05
495.382	640.65
495.815	641.9
496.248	643.36
496.681	651.95
497.114	659.15
497.547	664.55
497.98	673.22
498.413	676.32
498.846	682.09
499.279	686.12
499.711	686.87
500.144	686.04
500.577	692.08
501.009	698.75
501.442	703.95
501.874	701.72
502.306	700.83
502.739	704.24
503.171	713.29
503.603	713.03
504.036	717.85
504.468	719.74
504.9	726.56
505.332	730.06
505.764	731.41
506.196	734.22
506.627	744.15
507.059	752.39
507.491	756.89
507.923	753.94
508.354	765.24
508.786	773.48
509.217	786.66
509.649	797.95
510.08	812.25
510.512	825.46
510.943	837.63
511.374	846.46
511.805	863.56
512.237	880.53
512.668	906.88
513.099	928.75
513.53	950.83
513.961	968.84
514.391	995.32
514.822	1024.73
515.253	1055.1
515.684	1077.67
516.114	1104.54
516.545	1125.09
516.975	1148
517.406	1166.24
517.836	1171.82
518.267	1181.31
518.697	1200.38
519.127	1209.16
519.558	1219.18
519.988	1226.77
520.418	1239.89
520.848	1258.38
521.278	1269.99
521.708	1294.83
522.138	1310.59
522.567	1342.99
522.997	1369.68
523.427	1388.1
523.857	1407.28
524.286	1420.31
524.716	1438.9
525.145	1460.14
525.575	1474.58
526.004	1491.6
526.433	1487.16
526.863	1491.32
527.292	1485.03
527.721	1493.29
528.15	1501.94
528.579	1506.01
529.008	1518.94
529.437	1541.18
529.866	1555.91
530.295	1574.16
530.724	1588.07
531.152	1615.08
531.581	1630.75
532.01	1649.51
532.438	1659.98
532.867	1675.23
533.295	1694.37
533.723	1701.63
534.152	1702.47
534.58	1704.78
535.008	1692.91
535.436	1696.11
535.865	1704.49
536.293	1718.15
536.721	1734.53
537.149	1759.44
537.576	1763.27
538.004	1775.16
538.432	1784.35
538.86	1783.72
539.287	1792.23
539.715	1806.14
540.143	1809.66
540.57	1807.31
540.998	1805.87
541.425	1784.81
541.852	1764.97
542.28	1763.26
542.707	1748.55
543.134	1735.54
543.561	1732.78
543.988	1726.06
544.415	1724.66
544.842	1719.13
545.269	1711.95
545.696	1712.37
546.123	1724.43
546.549	1714.75
546.976	1702.4
547.403	1702
547.829	1703.54
548.256	1704.25
548.682	1699.54
549.108	1692.61
549.535	1692.94
549.961	1695.19
550.387	1683.33
550.813	1677.66
551.24	1682.58
551.666	1683.42
552.092	1674.23
552.518	1668.1
552.943	1661.63
553.369	1666.95
553.795	1671.65
554.221	1670.77
554.646	1664.71
555.072	1672.77
555.498	1676.06
555.923	1683.07
556.349	1695.38
556.774	1701.58
557.199	1699.87
557.625	1702.97
558.05	1695.41
558.475	1701.72
558.9	1698.28
559.325	1689.37
559.75	1680.49
560.175	1671.65
560.6	1663.18
561.025	1658.22
561.449	1654.98
561.874	1656
562.299	1657
562.723	1659.72
563.148	1647.02
563.572	1647.53
563.997	1651.94
564.421	1653.03
564.846	1648.96
565.27	1647.26
565.694	1640.52
566.118	1647.1
566.542	1650.2
566.966	1639.58
567.39	1631.23
567.814	1617.74
568.238	1612.42
568.662	1612.48
569.086	1610.64
569.509	1612.69
569.933	1595.46
570.357	1584.87
570.78	1562.11
571.204	1546.51
571.627	1532.41
572.05	1527.39
572.474	1522.85
572.897	1507.91
573.32	1498.15
573.743	1484.9
574.166	1465.04
574.589	1461.28
575.012	1451.41
575.435	1447.31
575.858	1436.19
576.281	1424.25
576.704	1407.44
577.126	1393.68
577.549	1380.77
577.972	1369.23
578.394	1358.69
578.817	1351.7
579.239	1333.55
579.661	1320.23
580.084	1304.66
580.506	1291.47
580.928	1286.29
581.35	1274.81
581.772	1268.88
582.194	1256.47
582.616	1244.71
583.038	1230.86
583.46	1219.02
583.882	1215.09
584.303	1215.39
584.725	1209.82
585.147	1210.56
585.568	1217.56
585.99	1226.39
586.411	1230.66
586.833	1241.03
587.254	1239.29
587.675	1249.22
588.096	1258.02
588.518	1252.65
588.939	1238.98
589.36	1236.91
589.781	1226.33
590.202	1202.51
590.623	1193.96
591.043	1189.99
591.464	1178.38
591.885	1175.1
592.305	1169.24
592.726	1156.45
593.147	1156.15
593.567	1151.31
593.987	1144.11
594.408	1138.81
594.828	1136.74
595.248	1130.99
595.669	1116.5
596.089	1110.78
596.509	1104.99
596.929	1094.04
597.349	1094.58
597.769	1085.89
598.189	1080.1
598.608	1080.18
599.028	1081.4
599.448	1080.22
599.867	1069.63
600.287	1065.85
600.706	1061.34
601.126	1053.17
601.545	1050.46
601.965	1048.63
602.384	1043.85
602.803	1044.28
603.222	1039.46
603.641	1033.12
604.061	1029.32
604.48	1025.56
604.898	1029.95
605.317	1033.43
605.736	1034.63
606.155	1033.57
606.574	1026.65
606.992	1030.19
607.411	1026.74
607.829	1019.56
608.248	1016.5
608.666	1014.41
609.085	1013.38
609.503	1006.41
609.921	1000.77
610.339	1001.36
610.758	999.09
611.176	994.33
611.594	986.22
612.012	983.29
612.43	985.87
612.847	990.05
613.265	989.45
613.683	992.77
614.101	994.5
614.518	992.31
614.936	983.97
615.353	972.9
615.771	969.46
616.188	969.23
616.606	965.64
617.023	959.79
617.44	948.8
617.857	943.43
618.274	936.63
618.691	930.95
619.108	922.69
619.525	917.62
619.942	921.79
620.359	924.39
620.776	921.37
621.192	918.75
621.609	916.84
622.026	921.9
622.442	926.02
622.859	928.32
623.275	923.05
623.691	927.16
624.108	936.35
624.524	946.5
624.94	945.94
625.356	952.27
625.772	960.97
626.188	970.24
626.604	970.74
627.02	967.75
627.436	966.12
627.852	971.68
628.268	980.44
628.683	972.64
629.099	967.3
629.514	963.2
629.93	965.91
630.345	970.17
630.761	965.82
631.176	968.15
631.591	965.28
632.007	960.6
632.422	958.02
632.837	949.49
633.252	947.8
633.667	939.6
634.082	933.73
634.497	924.46
634.911	909.98
635.326	907.3
635.741	894.54
636.155	885.5
636.57	886.42
636.984	885.92
637.399	886.71
637.813	885.72
638.228	884.62
638.642	886.72
639.056	878.8
639.47	878.46
639.884	873
640.298	868.84
640.712	868.34
641.126	858.58
641.54	851.51
641.954	847.64
642.368	839.65
642.781	835.56
643.195	824.51
643.609	825.98
644.022	822.17
644.436	819.95
644.849	812.67
645.262	805.04
645.676	807.99
646.089	807.53
646.502	798.76
646.915	797.25
647.328	784.84
647.741	785
648.154	776.92
648.567	777.67
648.98	770.48
649.393	772.39
649.805	771.09
650.218	766.71
650.631	755.9
651.043	752.6
651.456	749.78
651.868	751.85
652.28	765.59
652.693	777.16
653.105	782.75
653.517	791.52
653.929	793.41
654.341	799.18
654.753	791.66
655.165	798.71
655.577	799.84
655.989	798.56
656.401	795.85
656.813	771.5
657.224	759.32
657.636	739.37
658.047	728.48
658.459	717.03
658.87	714.54
659.282	709.87
659.693	697.62
660.104	690.09
660.515	683.88
660.926	686.1
661.338	687.51
661.749	685.02
662.159	682.56
662.57	682.75
662.981	683.7
663.392	681.89
663.803	689.72
664.213	692.16
664.624	693.19
665.035	700.75
665.445	694.36
665.855	693.15
666.266	692.71
666.676	695.5
667.086	691.96
667.497	694.18
667.907	692.58
668.317	688.52
668.727	689.99
669.137	693.29
669.547	693.13
669.956	697.9
670.366	701.9
670.776	705.76
671.186	710.53
671.595	716.55
672.005	721.76
672.414	723.08
672.824	723.17
673.233	728.65
673.642	733.18
674.052	737.9
674.461	742.04
674.87	748.31
675.279	747.48
675.688	751.05
676.097	753.45
676.506	751.74
676.915	767.02
677.323	770.22
677.732	769.74
678.141	769.89
678.549	759.52
678.958	758.81
679.366	758.54
679.775	763.18
680.183	773.3
680.592	777.86
681	782.97
681.408	774.67
681.816	779.45
682.224	783.58
682.632	789.12
683.04	812.97
683.448	829.86
683.856	851.7
684.264	877.52
684.671	898.57
685.079	924.93
685.487	953.16
685.894	996.41
686.302	1028.75
686.709	1052.36
687.116	1081.36
687.524	1101.56
687.931	1116.56
688.338	1127.32
688.745	1132.69
689.152	1142.72
689.559	1164.47
689.966	1186.41
690.373	1192.63
690.78	1216.07
691.187	1257.41
691.593	1286.84
692	1314.27
692.407	1360.66
692.813	1418.52
693.22	1466.78
693.626	1517.7
694.032	1558.88
694.439	1625.46
694.845	1679
695.251	1746.14
695.657	1811.22
696.063	1904.62
696.469	1980.48
696.875	2052.26
697.281	2101.11
697.687	2158.94
698.093	2212.83
698.498	2300.1
698.904	2373.06
