Data from N_2_DIV_OH_2N_Splice17_12-21-35-790.txt Node
Date: Sat Mar 14 12:21:35 EDT 2020
User: sa697716
Spectrometer: FLMS03696
Trigger mode: 0
Integration Time (sec): 3.180400E-1
Scans to average: 20
Electric dark correction enabled: true
Nonlinearity correction enabled: true
Boxcar width: 5
XAxis mode: Wavelengths
Number of Pixels in Spectrum: 2048
>>>>>Begin Spectral Data<<<<<
187.83	-347309.29
188.298	2533.97
188.766	1317.33
189.233	1225.82
189.701	1654.68
190.169	2183.71
190.636	823.52
191.104	674.86
191.571	78.44
192.039	-75.73
192.506	-120.02
192.974	288.97
193.441	-434.64
193.908	31.41
194.375	27.17
194.842	43.48
195.31	133.36
195.777	179.43
196.244	410.94
196.711	493.18
197.177	654.5
197.644	940.01
198.111	1655.01
198.578	2320.29
199.045	1837.2
199.511	3014.28
199.978	3552.97
200.445	3013.43
200.911	3340.22
201.378	3745.02
201.844	3413.96
202.31	5775.58
202.777	6022.36
203.243	3314.53
203.709	3173.16
204.176	3811.32
204.642	3142.15
205.108	2910.99
205.574	2372.16
206.04	2173.12
206.506	2043.44
206.972	1937.63
207.438	1885.83
207.903	2144.39
208.369	1888.42
208.835	1868.67
209.301	1939.06
209.766	1989.61
210.232	1983.48
210.697	2446.45
211.163	3044.92
211.628	4583.04
212.094	3804.53
212.559	4638.26
213.024	2856.02
213.49	3459.13
213.955	3368.46
214.42	3292.77
214.885	3053.12
215.35	2914.55
215.815	2782.15
216.28	2908.26
216.745	2350.33
217.21	2516.97
217.675	2288.87
218.14	2562.6
218.604	2837.87
219.069	3191.39
219.534	3316.74
219.998	3803.33
220.463	4553.45
220.927	5560.9
221.392	5188.21
221.856	5231.05
222.32	6557.28
222.785	8078.75
223.249	10118.57
223.713	11224.61
224.177	11186.21
224.642	14282.35
225.106	17607.77
225.57	19211.69
226.034	14237.4
226.497	21651.9
226.961	19519.77
227.425	22733.1
227.889	25154.97
228.353	25163.08
228.816	51962.78
229.28	49740.22
229.744	41922.73
230.207	25393.4
230.671	24954.37
231.134	41210.9
231.597	47416.96
232.061	47307.27
232.524	46052.11
232.987	31676.63
233.45	28430.55
233.914	25455.39
234.377	26104.38
234.84	23865.78
235.303	28116.92
235.766	31356.55
236.229	32379.46
236.691	20399.05
237.154	22899.47
237.617	17216.01
238.08	17633.22
238.542	20654.23
239.005	14770.38
239.468	14636.5
239.93	13808.82
240.393	12546.2
240.855	11003.35
241.317	11270.33
241.78	13694.41
242.242	14165.59
242.704	15292.67
243.166	13302.24
243.629	12078.61
244.091	13891.5
244.553	15212.51
245.015	16338.67
245.477	21130.74
245.939	30953.13
246.4	32819.95
246.862	31876.33
247.324	29990.01
247.786	33551.17
248.247	43971.43
248.709	45284.38
249.17	33854.85
249.632	31862.17
250.093	36875.44
250.555	31793.41
251.016	19389.26
251.477	18374.55
251.939	19801.9
252.4	20761.05
252.861	24645.67
253.322	22879.95
253.783	27205.83
254.244	35269.7
254.705	27811.62
255.166	24698.08
255.627	24312.99
256.088	34271.22
256.549	36374.33
257.009	31307.58
257.47	37957.88
257.931	30852.71
258.391	23105.83
258.852	23788.3
259.312	24925.41
259.773	30731.41
260.233	25965.73
260.694	21888.39
261.154	24772.16
261.614	19851.17
262.074	17733.4
262.534	18407.61
262.994	17326.53
263.455	23061.02
263.915	19391.49
264.374	18244.75
264.834	19869.07
265.294	21992.1
265.754	22754.47
266.214	21499.71
266.673	20139.07
267.133	25355.16
267.593	25151.05
268.052	30803.66
268.512	26774.3
268.971	32322.94
269.431	35401.13
269.89	31711.41
270.349	47483.02
270.809	52905.8
271.268	47566.38
271.727	106655.82
272.186	69119.44
272.645	51797.65
273.104	37335.77
273.563	54035.43
274.022	42454.78
274.481	36143.69
274.94	27824.6
275.399	20706.41
275.857	24098.68
276.316	32596.95
276.775	28995.1
277.233	28570.22
277.692	26738.21
278.15	30253.82
278.609	31124.64
279.067	28818.58
279.525	26772.25
279.984	34593.27
280.442	41522.43
280.9	40958.3
281.358	26954.42
281.816	25157.9
282.274	24663.52
282.732	25490.39
283.19	25601.15
283.648	22128.01
284.106	23582.58
284.564	24004.14
285.021	22277.12
285.479	16628.98
285.937	15138.13
286.394	13316.75
286.852	13693.4
287.309	14404.41
287.767	13943.28
288.224	13291.64
288.682	14584.63
289.139	16013.15
289.596	14637.71
290.053	15221
290.511	19182.93
290.968	23237.12
291.425	31444.53
291.882	26169.81
292.339	22735.5
292.796	22531.97
293.252	21197.91
293.709	16813.54
294.166	15063.27
294.623	16637.45
295.079	15957.51
295.536	16053.52
295.992	14573.69
296.449	14412.86
296.905	14983.63
297.362	14372.06
297.818	15115.31
298.274	15680.11
298.731	15999.81
299.187	15807.35
299.643	16975.52
300.099	20531.41
300.555	22492.63
301.011	18808.04
301.467	18155.13
301.923	21240.65
302.379	20770.83
302.835	20385.8
303.291	20433.2
303.746	23220.82
304.202	29380.01
304.658	29535.35
305.113	19872.07
305.569	19462.56
306.024	20755.48
306.479	19742.19
306.935	16656.87
307.39	18204.3
307.845	16827.2
308.301	16946.06
308.756	16546.4
309.211	15950.89
309.666	16330.78
310.121	20306.87
310.576	20643.39
311.031	20482.93
311.486	23501.93
311.94	23516.42
312.395	31404.29
312.85	58996.01
313.305	289492.71
313.759	1499268.59
314.214	108602.49
314.668	86115.67
315.123	72390.67
315.577	25975.96
316.032	23111.31
316.486	28957.79
316.94	22834.79
317.394	15936.4
317.849	12404.11
318.303	11713.74
318.757	11058.77
319.211	12248.9
319.665	10720.74
320.119	10832.75
320.572	15512.64
321.026	14475.38
321.48	12026.52
321.934	13102.27
322.387	13091.46
322.841	14159.27
323.295	12755.25
323.748	14664.72
324.202	14873.46
324.655	17896.03
325.108	25063.22
325.562	17742.05
326.015	21133
326.468	16011.34
326.921	17939.39
327.374	16752.57
327.827	17463.18
328.28	19788.23
328.733	13289.58
329.186	11680.57
329.639	11117.46
330.092	9354.89
330.545	8913.63
330.997	9002.48
331.45	9834.16
331.903	11519.04
332.355	19827.55
332.808	19222.48
333.26	15872.17
333.713	17238.64
334.165	17376.28
334.617	23198.63
335.069	18783.29
335.522	33958.89
335.974	37561.45
336.426	34397.68
336.878	23836.06
337.33	12110.63
337.782	11845.93
338.234	14852.68
338.686	17769.13
339.137	21072.81
339.589	19874.84
340.041	15568.96
340.493	13378.1
340.944	13686.71
341.396	14731.78
341.847	12377.81
342.299	14583.03
342.75	17782.7
343.201	15532.95
343.653	17832.65
344.104	21900.59
344.555	17230.55
345.006	26792.47
345.457	20560.9
345.908	16358.68
346.359	15394.09
346.81	12539.68
347.261	13210.42
347.712	13009.79
348.163	13936.33
348.613	14136.46
349.064	13195.19
349.515	11556.31
349.965	11868.13
350.416	14261.07
350.866	15664.85
351.317	17665.34
351.767	29211.84
352.217	36930.76
352.668	30734.76
353.118	28110.36
353.568	27075.85
354.018	21429.96
354.468	22592.66
354.918	16213.01
355.368	14207.97
355.818	20039.03
356.268	57650.04
356.718	241906.17
357.168	60331.14
357.617	30178.33
358.067	33610.33
358.517	31522.93
358.966	36997.46
359.416	41569.17
359.865	44869.76
360.315	53472.21
360.764	25032.99
361.213	14052.1
361.663	13306.6
362.112	16372.78
362.561	26516.83
363.01	20047.09
363.459	16861.23
363.908	18219.03
364.357	15467.24
364.806	26196.81
365.255	18030.97
365.703	16531.4
366.152	16564.11
366.601	13464.24
367.05	10967.38
367.498	9966.4
367.947	10416
368.395	10854.64
368.844	9649.95
369.292	11651.39
369.74	8058.76
370.189	12341.92
370.637	14474.47
371.085	12527.2
371.533	15282.35
371.981	14758.96
372.429	14135.83
372.877	14755.41
373.325	12388.78
373.773	12655.1
374.221	11275.32
374.669	14046.26
375.116	12182.83
375.564	12335.45
376.012	13870.31
376.459	11481.47
376.907	13766.07
377.354	16664.81
377.801	15640.58
378.249	18076.21
378.696	23229.58
379.143	28337.98
379.591	30328.63
380.038	51716.99
380.485	37575.11
380.932	40660.94
381.379	37447.63
381.826	27749.4
382.273	19861.31
382.72	17423.73
383.166	17055.02
383.613	11118.76
384.06	10076.02
384.506	11707.55
384.953	8605.71
385.4	8709.04
385.846	7671.28
386.292	7499.51
386.739	7362.65
387.185	7299.27
387.631	7332.57
388.078	7150.49
388.524	7664.63
388.97	7114.01
389.416	5973.51
389.862	6392.58
390.308	6076.53
390.754	6207.83
391.2	6769.63
391.645	6967.97
392.091	6697.18
392.537	6512.45
392.983	6548.37
393.428	6472.11
393.874	6962.38
394.319	7005.61
394.765	6661.46
395.21	6874.48
395.655	6450.73
396.101	6056.57
396.546	5467.79
396.991	5533.55
397.436	5147.01
397.881	4980.76
398.326	4729.63
398.771	4471.71
399.216	3911.15
399.661	3519.08
400.106	3508.75
400.551	3592.7
400.995	3218.56
401.44	3182.77
401.885	2984.26
402.329	3005.83
402.774	2876.66
403.218	2777.04
403.663	2669.45
404.107	2740.76
404.551	2757.55
404.995	2524.27
405.44	2428.22
405.884	2461.06
406.328	2378.54
406.772	2367.85
407.216	2155.93
407.66	2077.66
408.104	1968.88
408.547	1840.93
408.991	1777.08
409.435	1707.94
409.879	1679.92
410.322	1656.8
410.766	1598.77
411.209	1519.43
411.653	1456.53
412.096	1426.4
412.54	1428.62
412.983	1418.92
413.426	1423.46
413.869	1422.21
414.312	1393.74
414.756	1342.14
415.199	1281.21
415.642	1245.04
416.085	1245.59
416.527	1239.34
416.97	1254.41
417.413	1189.82
417.856	1177.21
418.298	1166.41
418.741	1156.34
419.184	1154.16
419.626	1198.8
420.069	1196.53
420.511	1200.97
420.953	1174.27
421.396	1160.47
421.838	1130.77
422.28	1154.73
422.722	1159.73
423.164	1173.85
423.606	1153.69
424.048	1152.09
424.49	1097.99
424.932	1090.68
425.374	1074.46
425.816	1092.54
426.258	1114.28
426.699	1127.21
427.141	1112.03
427.582	1126.88
428.024	1119.11
428.465	1112.49
428.907	1082.99
429.348	1068.75
429.789	1072.62
430.231	1050.11
430.672	1065.56
431.113	1038.71
431.554	1024.2
431.995	998.73
432.436	963.84
432.877	943.35
433.318	929.5
433.759	927.43
434.2	929.27
434.64	918.36
435.081	921.86
435.522	873.89
435.962	843.19
436.403	824.98
436.843	835.26
437.284	819.7
437.724	798.66
438.164	800.57
438.604	783.94
439.045	754.19
439.485	723.71
439.925	709
440.365	691.52
440.805	684.04
441.245	677.74
441.685	655.75
442.125	650.94
442.564	655.37
443.004	640.07
443.444	638.23
443.883	642.35
444.323	637.53
444.762	640.71
445.202	650.44
445.641	664.62
446.081	660.86
446.52	666.19
446.959	660.94
447.398	648.49
447.837	643.44
448.276	634.47
448.716	639.11
449.154	645.79
449.593	631.75
450.032	631.45
450.471	619.38
450.91	620.92
451.349	621.64
451.787	619.92
452.226	627.89
452.664	628.58
453.103	629.72
453.541	630.33
453.98	630.2
454.418	633.25
454.856	623.29
455.295	622.85
455.733	629.14
456.171	632.1
456.609	633.34
457.047	632.91
457.485	641.61
457.923	644.38
458.361	635.36
458.798	637.19
459.236	635.08
459.674	638.65
460.111	641.15
460.549	633.88
460.987	631.12
461.424	627.59
461.862	625.92
462.299	616.62
462.736	614.27
463.173	615.29
463.611	609.73
464.048	610.14
464.485	616.27
464.922	610.85
465.359	608.7
465.796	601.67
466.233	599.24
466.67	594.36
467.106	593.35
467.543	588.37
467.98	582.26
468.416	567.16
468.853	562.01
469.29	545.1
469.726	539.07
470.162	523.11
470.599	515.44
471.035	510.34
471.471	497.72
471.907	494.25
472.344	490.43
472.78	491.34
473.216	496.55
473.652	491.22
474.088	489.42
474.523	488.34
474.959	494.08
475.395	489.22
475.831	486.03
476.266	487.15
476.702	485.08
477.138	479.87
477.573	478.31
478.008	477.29
478.444	478.69
478.879	483.56
479.314	484.55
479.75	483.95
480.185	486.6
480.62	490.81
481.055	493.78
481.49	497.84
481.925	504.04
482.36	513.14
482.795	526.45
483.229	541.01
483.664	551.9
484.099	555.78
484.534	563.84
484.968	570.13
485.403	571.67
485.837	570.64
486.271	570.27
486.706	572.7
487.14	566.28
487.574	558.92
488.009	554.69
488.443	550.77
488.877	556.32
489.311	559.29
489.745	566.18
490.179	572.92
490.613	586.16
491.046	592.14
491.48	597.48
491.914	600.14
492.348	605.83
492.781	611.25
493.215	615.46
493.648	618.63
494.082	624.84
494.515	628.09
494.948	637.51
495.382	643.47
495.815	650.15
496.248	658.64
496.681	673.58
497.114	687.7
497.547	699.89
497.98	715.13
498.413	724.94
498.846	738.39
499.279	750.39
499.711	758.85
500.144	765.96
500.577	781.19
501.009	796
501.442	810.09
501.874	816.39
502.306	823.12
502.739	836.22
503.171	855.61
503.603	864.95
504.036	878.73
504.468	889.5
504.9	905.74
505.332	918.43
505.764	928.8
506.196	941.05
506.627	961.69
507.059	982.16
507.491	997.1
507.923	1001.8
508.354	1024.44
508.786	1042.88
509.217	1069.09
509.649	1091.85
510.08	1118.65
510.512	1143.28
510.943	1166.73
511.374	1184.89
511.805	1213.25
512.237	1240.64
512.668	1283.01
513.099	1318.96
513.53	1355.77
513.961	1384.08
514.391	1426.27
514.822	1469.49
515.253	1515.49
515.684	1551.05
516.114	1591.59
516.545	1621.44
516.975	1657.37
517.406	1683.58
517.836	1691.84
518.267	1703.17
518.697	1728.72
519.127	1739.01
519.558	1751.46
519.988	1759.8
520.418	1774.71
520.848	1798.59
521.278	1811.64
521.708	1815.69
522.138	1832.95
522.567	1873.76
522.997	1908.45
523.427	1930.63
523.857	1952.72
524.286	1967.83
524.716	1989.13
525.145	2014.28
525.575	2029.91
526.004	2051.39
526.433	2065.64
526.863	2068.6
527.292	2056.67
527.721	2064.5
528.15	2074.07
528.579	2076.84
529.008	2091.84
529.437	2123.41
529.866	2143.13
530.295	2165.93
530.724	2181.88
531.152	2217.46
531.581	2236.52
532.01	2260.52
532.438	2272.46
532.867	2292.14
533.295	2316.47
533.723	2325.94
534.152	2322.44
534.58	2323.11
535.008	2305.27
535.436	2308.75
535.865	2319.45
536.293	2338.29
536.721	2360.88
537.149	2394.83
537.576	2398.91
538.004	2416.62
538.432	2427.17
538.86	2425.26
539.287	2435.12
539.715	2453.7
540.143	2459.74
540.57	2457.13
540.998	2454.78
541.425	2425.45
541.852	2398.05
542.28	2397.02
542.707	2376.29
543.134	2358.94
543.561	2355.21
543.988	2345.78
544.415	2345.51
544.842	2339.23
545.269	2329.49
545.696	2332.23
546.123	2348.35
546.549	2336.4
546.976	2318.96
547.403	2318.93
547.829	2322.56
548.256	2325.77
548.682	2321.49
549.108	2312.85
549.535	2310.61
549.961	2312.62
550.387	2294.84
550.813	2287.8
551.24	2296.01
551.666	2298.41
552.092	2286
552.518	2278.55
552.943	2270.21
553.369	2280.17
553.795	2285.91
554.221	2287.54
554.646	2283.75
555.072	2297.38
555.498	2303.94
555.923	2316.38
556.349	2336.55
556.774	2348.15
557.199	2347.83
557.625	2356.11
558.05	2348.03
558.475	2362.84
558.9	2361.43
559.325	2352.01
559.75	2343.51
560.175	2334.98
560.6	2324.56
561.025	2321.18
561.449	2323.06
561.874	2331.05
562.299	2335.99
562.723	2345.89
563.148	2330.97
563.572	2336.11
563.997	2347.53
564.421	2355.64
564.846	2356.19
565.27	2362.16
565.694	2358.13
566.118	2372.65
566.542	2381
566.966	2373.62
567.39	2367.72
567.814	2355.06
568.238	2354.55
568.662	2361.39
569.086	2364.64
569.509	2374.57
569.933	2354.13
570.357	2343.16
570.78	2315.66
571.204	2299.96
571.627	2286.28
572.05	2283.23
572.474	2280.69
572.897	2264.48
573.32	2253.72
573.743	2240.27
574.166	2215.42
574.589	2215.46
575.012	2207.42
575.435	2206.18
575.858	2193.95
576.281	2177.2
576.704	2155.79
577.126	2141.92
577.549	2128.14
577.972	2115.48
578.394	2101.17
578.817	2091.46
579.239	2066.56
579.661	2047.87
580.084	2026.11
580.506	2007.59
580.928	2003.14
581.35	1988.74
581.772	1981.08
582.194	1963.56
582.616	1947.08
583.038	1928.77
583.46	1915.8
583.882	1912.12
584.303	1917.59
584.725	1910.73
585.147	1911.48
585.568	1924.36
585.99	1939.23
586.411	1946.03
586.833	1963.61
587.254	1965.66
587.675	1984.09
588.096	1999.28
588.518	1992.24
588.939	1970.29
589.36	1967.98
589.781	1956.33
590.202	1919.35
590.623	1907.04
591.043	1905.19
591.464	1887.74
591.885	1881.94
592.305	1873.2
592.726	1854.37
593.147	1854.4
593.567	1846.38
593.987	1835.72
594.408	1828.9
594.828	1826.08
595.248	1818.61
595.669	1794.77
596.089	1785.68
596.509	1777.48
596.929	1759.66
597.349	1761.31
597.769	1749.27
598.189	1741.44
598.608	1741.92
599.028	1743.1
599.448	1743.44
599.867	1727.15
600.287	1721.64
600.706	1716.33
601.126	1703.41
601.545	1701.06
601.965	1698.65
602.384	1691.85
602.803	1695.15
603.222	1689.61
603.641	1681.02
604.061	1676.04
604.48	1670.94
604.898	1680.91
605.317	1685.91
605.736	1687.19
606.155	1684.48
606.574	1673
606.992	1678.56
607.411	1671.47
607.829	1660.55
608.248	1656.46
608.666	1652.47
609.085	1651.05
609.503	1639.21
609.921	1631.87
610.339	1634.76
610.758	1632.96
611.176	1626.03
611.594	1613.54
612.012	1609.37
612.43	1614.15
612.847	1622.15
613.265	1622.84
613.683	1627.17
614.101	1628.79
614.518	1623.28
614.936	1610.37
615.353	1591.05
615.771	1586.27
616.188	1586.38
616.606	1580.51
617.023	1570.59
617.44	1552.77
617.857	1544.03
618.274	1534.12
618.691	1524.8
619.108	1512.64
619.525	1504.01
619.942	1512.14
620.359	1514.32
620.776	1507.48
621.192	1503.52
621.609	1499.76
622.026	1506.52
622.442	1512.88
622.859	1515.83
623.275	1507.07
623.691	1513.58
624.108	1526.72
624.524	1543
624.94	1543.64
625.356	1555.91
625.772	1571.25
626.188	1585.83
626.604	1586.42
627.02	1581.28
627.436	1579.14
627.852	1588.26
628.268	1602.02
628.683	1591.59
629.099	1581.41
629.514	1576.17
629.93	1580.23
630.345	1584.36
630.761	1579.3
631.176	1584.1
631.591	1575.75
632.007	1567
632.422	1562.76
632.837	1547.96
633.252	1544.31
633.667	1529.73
634.082	1516.09
634.497	1497.8
634.911	1472.69
635.326	1466.24
635.741	1441.97
636.155	1427.47
636.57	1424.78
636.984	1420.2
637.399	1418.86
637.813	1413.47
638.228	1409.27
638.642	1409.55
639.056	1394.07
639.47	1389.9
639.884	1375.07
640.298	1364.04
640.712	1356.73
641.126	1338.13
641.54	1324
641.954	1312.59
642.368	1293.98
642.781	1277.76
643.195	1253.67
643.609	1248.84
644.022	1236.58
644.436	1226.79
644.849	1207.93
645.262	1190.73
645.676	1187.59
646.089	1176.81
646.502	1155.89
646.915	1145.57
647.328	1125.23
647.741	1119.76
648.154	1102.92
648.567	1095.58
648.98	1077.39
649.393	1076.06
649.805	1070.26
650.218	1060.43
650.631	1041.88
651.043	1033.83
651.456	1026.87
651.868	1026.17
652.28	1041.75
652.693	1053.03
653.105	1059.47
653.517	1069.38
653.929	1069.05
654.341	1072.81
654.753	1059.37
655.165	1065.55
655.577	1062.13
655.989	1055.18
656.401	1044.84
656.813	1005.87
657.224	983.66
657.636	951.23
658.047	930.28
658.459	906.42
658.87	893.99
659.282	878.95
659.693	854.33
660.104	835.67
660.515	818.79
660.926	812.66
661.338	804.25
661.749	794.14
662.159	781.89
662.57	773.52
662.981	765.63
663.392	755.04
663.803	754.18
664.213	748.08
664.624	739.8
665.035	738.63
665.445	722.13
665.855	713.61
666.266	703.02
666.676	697.77
667.086	686.65
667.497	683.89
667.907	676.14
668.317	665.12
668.727	661.07
669.137	659.79
669.547	656.22
669.956	657.8
670.366	658.24
670.776	658.46
671.186	661.16
671.595	662.9
672.005	663.77
672.414	663.88
672.824	663.91
673.233	666.58
673.642	667.98
674.052	670.02
674.461	671.97
674.87	675.33
675.279	674.02
675.688	676.03
676.097	678.33
676.506	676.83
676.915	689.24
677.323	692.62
677.732	691.88
678.141	694.71
678.549	687.41
678.958	688.14
679.366	690.56
679.775	698.04
680.183	710.92
680.592	720.4
681	730.06
681.408	728.11
681.816	739.08
682.224	752.69
682.632	766.83
683.04	800.84
683.448	831.46
683.856	868.36
684.264	909.85
684.671	949.68
685.079	999.65
685.487	1055.29
685.894	1131.34
686.302	1197.56
686.709	1254.88
687.116	1321.31
687.524	1380.79
687.931	1435.33
688.338	1484.14
688.745	1529.66
689.152	1580.99
689.559	1643.63
689.966	1706.36
690.373	1742.37
690.78	1802.44
691.187	1889.47
691.593	1958.14
692	2018.09
692.407	2102.31
692.813	2204.07
693.22	2287.19
693.626	2371.49
694.032	2439.29
694.439	2538.91
694.845	2618.95
695.251	2718.25
695.657	2808.71
696.063	2939.1
696.469	3037.29
