Data from N_2_HIR_IL_4N_Splice17_12-11-02-463.txt Node
Date: Sat Mar 14 12:11:02 EDT 2020
User: sa697716
Spectrometer: FLMS03696
Trigger mode: 0
Integration Time (sec): 3.180400E-1
Scans to average: 20
Electric dark correction enabled: true
Nonlinearity correction enabled: true
Boxcar width: 5
XAxis mode: Wavelengths
Number of Pixels in Spectrum: 2048
>>>>>Begin Spectral Data<<<<<
187.83	-250742.2
188.298	1902.63
188.766	1078.65
189.233	1005.17
189.701	1288.25
190.169	1775.62
190.636	706.68
191.104	633.89
191.571	148.5
192.039	-33.96
192.506	-88.18
192.974	362.96
193.441	-473.79
193.908	-32.97
194.375	32.79
194.842	30.2
195.31	145.45
195.777	163.25
196.244	349.13
196.711	446.35
197.177	548.37
197.644	788.54
198.111	1393.99
198.578	1970.3
199.045	1604.41
199.511	2638.17
199.978	3086.4
200.445	2588.2
200.911	2897.62
201.378	3276.03
201.844	2977.94
202.31	5088.6
202.777	5265.46
203.243	2907.01
203.709	2765.58
204.176	3311.95
204.642	2714.88
205.108	2524.94
205.574	2074.09
206.04	1879.83
206.506	1755.39
206.972	1656.09
207.438	1612.29
207.903	1843.66
208.369	1629.74
208.835	1621.08
209.301	1676.74
209.766	1708.64
210.232	1694.73
210.697	2096.4
211.163	2572.71
211.628	3874.76
212.094	3227.41
212.559	3953.91
213.024	2463.62
213.49	2991.31
213.955	2932.63
214.42	2866.22
214.885	2681.06
215.35	2568.29
215.815	2461.26
216.28	2617.21
216.745	2118.46
217.21	2280.25
217.675	2065.77
218.14	2281.26
218.604	2503.07
219.069	2803.1
219.534	2935.9
219.998	3383.69
220.463	4051.43
220.927	4924.52
221.392	4613.35
221.856	4664.12
222.32	5849.73
222.785	7202.19
223.249	9055.12
223.713	10106.66
224.177	10093.94
224.642	12896.3
225.106	15813.96
225.57	17273.13
226.034	12856.38
226.497	19572.16
226.961	17674.62
227.425	20583.98
227.889	22801.55
228.353	22775.34
228.816	46914.37
229.28	44897.62
229.744	37858.7
230.207	23028.27
230.671	22612.08
231.134	37365.89
231.597	42982.99
232.061	42867.18
232.524	41772.4
232.987	28770.2
233.45	25915.37
233.914	23245.88
234.377	23813.44
234.84	21773.28
235.303	25642.15
235.766	28648.13
236.229	29542
236.691	18579.17
237.154	20852.85
237.617	15668.43
238.08	16045.66
238.542	18760.35
239.005	13408.64
239.468	13292.8
239.93	12500.37
240.393	11359.03
240.855	9953.88
241.317	10192.54
241.78	12414.73
242.242	12837.85
242.704	13851.32
243.166	12049.82
243.629	10952.39
244.091	12605.9
244.553	13782.2
245.015	14807.68
245.477	19144.36
245.939	28054.05
246.4	29757.43
246.862	28870.23
247.324	27218.22
247.786	30458.95
248.247	39907.61
248.709	41130.81
249.17	30783.81
249.632	29096.25
250.093	33763.43
250.555	29141.53
251.016	17774.98
251.477	16872.4
251.939	18222.22
252.4	19102.41
252.861	22732.51
253.322	21151.7
253.783	25143.72
254.244	32588.39
254.705	25630.3
255.166	22765
255.627	22392.97
256.088	31605.37
256.549	33500.13
257.009	28843.28
257.47	34978.31
257.931	28444.87
258.391	21293.14
258.852	21965.39
259.312	23023.44
259.773	28439.05
260.233	24050.48
260.694	20277.76
261.154	22994.3
261.614	18486.96
262.074	16521.78
262.534	17162.03
262.994	16177.73
263.455	21554.25
263.915	18156.1
264.374	17081.73
264.834	18652.34
265.294	20672.88
265.754	21440.03
266.214	20282.7
266.673	18997.46
267.133	23983.74
267.593	23811.62
268.052	29136.78
268.512	25315.32
268.971	30533.35
269.431	33508.42
269.89	30016.57
270.349	45043.19
270.809	50286.99
271.268	45228.65
271.727	101507.65
272.186	65717.6
272.645	49309.66
273.104	35562.92
273.563	51542.42
274.022	40556.03
274.481	34571.83
274.94	26675.8
275.399	19820.08
275.857	23054.3
276.316	31181.22
276.775	27750.33
277.233	27345.54
277.692	25610.24
278.15	28976.55
278.609	29858.15
279.067	27624.98
279.525	25636.12
279.984	33099.21
280.442	39766.38
280.9	39258.44
281.358	25853.35
281.816	24099.19
282.274	23587.96
282.732	24352.58
283.19	24485.06
283.648	21144.09
284.106	22556.25
284.564	22972.63
285.021	21301.31
285.479	15872.84
285.937	14425.75
286.394	12663.62
286.852	13047.46
287.309	13733.95
287.767	13291.44
288.224	12663.08
288.682	13881.23
289.139	15217.64
289.596	13920.47
290.053	14476.13
290.511	18266.42
290.968	22138.32
291.425	30012.87
291.882	24984.61
292.339	21742.57
292.796	21565.67
293.252	20281.76
293.709	16128.55
294.166	14477.42
294.623	15992.3
295.079	15322.92
295.536	15408.55
295.992	14016.52
296.449	13879.3
296.905	14415.67
297.362	13811.32
297.818	14514.53
298.274	15080.18
298.731	15367.07
299.187	15182.26
299.643	16286.75
300.099	19728.61
300.555	21636.97
301.011	18077.36
301.467	17415.81
301.923	20386.9
302.379	19926.45
302.835	19590.17
303.291	19604.49
303.746	22310.76
304.202	28217.89
304.658	28346.3
305.113	19062.13
305.569	18680.95
306.024	19900.27
306.479	18951.21
306.935	16004.01
307.39	17507.14
307.845	16171.45
308.301	16284.34
308.756	15848.97
309.211	15257.42
309.666	15637.55
310.121	19398.83
310.576	19692.2
311.031	19541.37
311.486	22353.25
311.94	22293.58
312.395	29816.23
312.85	56034.51
313.305	275479.01
313.759	1428114.43
314.214	103725.88
314.668	82262.82
315.123	69262.78
315.577	24869.19
316.032	22102.12
316.486	27714.15
316.94	21887.75
317.394	15235.59
317.849	11840.39
318.303	11195.07
318.757	10562.38
319.211	11660.78
319.665	10190.86
320.119	10316.53
320.572	14798.85
321.026	13830.21
321.48	11520.22
321.934	12554.62
322.387	12583.5
322.841	13593.51
323.295	12240.59
323.748	14086.8
324.202	14271.59
324.655	17162.22
325.108	23968.92
325.562	16918.49
326.015	20145.9
326.468	15213.16
326.921	17010.42
327.374	15860.52
327.827	16508.4
328.28	18661.4
328.733	12514.49
329.186	11021.68
329.639	10505.99
330.092	8851.6
330.545	8433.75
330.997	8501.88
331.45	9304.67
331.903	10897.19
332.355	18743.12
332.808	18241.35
333.26	15049.56
333.713	16349.7
334.165	16489.42
334.617	22003.15
335.069	17766.76
335.522	32120.84
335.974	35583.5
336.426	32520.52
336.878	22544.61
337.33	11435.62
337.782	11169.38
338.234	14030.02
338.686	16751.47
339.137	19827.52
339.589	18689.49
340.041	14684.37
340.493	12618.21
340.944	12898.49
341.396	13884.49
341.847	11683.81
342.299	13792.63
342.75	16797.85
343.201	14633.07
343.653	16843.56
344.104	20689.64
344.555	16245.72
345.006	25200.91
345.457	19312.23
345.908	15352.19
346.359	14465
346.81	11787.59
347.261	12396.74
347.712	12193.09
348.163	13083.94
348.613	13257.62
349.064	12378.24
349.515	10863.61
349.965	11166.27
350.416	13439.11
350.866	14752.06
351.317	16612.14
351.767	27514.48
352.217	34754.67
352.668	28932.08
353.118	26454.22
353.568	25491.28
354.018	20169.43
354.468	21239.58
354.918	15251.64
355.368	13338.81
355.818	18830.75
356.268	54324.48
356.718	227712.35
357.168	56717.42
357.617	28416.79
358.067	31703.29
358.517	29731.6
358.966	34896.72
359.416	39240.74
359.865	42364.54
360.315	50460.48
360.764	23548.89
361.213	13181.61
361.663	12462.92
362.112	15394.46
362.561	24864.41
363.01	18735.59
363.459	15730.69
363.908	16980.82
364.357	14420.86
364.806	24305.85
365.255	16694.86
365.703	15302.33
366.152	15316.49
366.601	12422.79
367.05	10091.79
367.498	9191.13
367.947	9606.08
368.395	10003.86
368.844	8874.69
369.292	10677.3
369.74	7392.29
370.189	11329.2
370.637	13278.7
371.085	11460.35
371.533	13949.35
371.981	13409.42
372.429	12781.72
372.877	13285.04
373.325	11122.23
373.773	11312.08
374.221	10062.71
374.669	12499.71
375.116	10809.47
375.564	10919.88
376.012	12196.85
376.459	10056.16
376.907	12071.73
377.354	14599.38
377.801	13647.49
378.249	15707.69
378.696	20141.23
379.143	24443.75
379.591	26066.87
380.038	44150.93
380.485	31941.75
380.932	34660.15
381.379	31782.34
381.826	23396.86
382.273	16673.94
382.72	14642.68
383.166	14282.84
383.613	9298.36
384.06	8418.52
384.506	9791.66
384.953	7214.88
385.4	7276.77
385.846	6402.76
386.292	6264.87
386.739	6159.73
387.185	6101.43
387.631	6123.3
388.078	5973.67
388.524	6412.03
388.97	5953.27
389.416	4961.33
389.862	5295.14
390.308	5044.36
390.754	5140.38
391.2	5608.4
391.645	5765.26
392.091	5550.47
392.537	5385.63
392.983	5428.73
393.428	5360.98
393.874	5761.91
394.319	5833.19
394.765	5581.32
395.21	5762.47
395.655	5427.12
396.101	5116.38
396.546	4643.03
396.991	4711.89
397.436	4399.88
397.881	4274.13
398.326	4080.8
398.771	3879.98
399.216	3407.52
399.661	3079.15
400.106	3086.24
400.551	3178.47
400.995	2861.74
401.44	2843.12
401.885	2680.68
402.329	2720.35
402.774	2616.52
403.218	2541.06
403.663	2460.65
404.107	2544.19
404.551	2573.24
404.995	2370.19
405.44	2294.47
405.884	2338.04
406.328	2273.8
406.772	2276.74
407.216	2082.86
407.66	2021.06
408.104	1926.22
408.547	1811.58
408.991	1757.37
409.435	1694.89
409.879	1675.88
410.322	1659.81
410.766	1608.05
411.209	1531.61
411.653	1474.74
412.096	1446.57
412.54	1450.09
412.983	1442.91
413.426	1448.51
413.869	1450.77
414.312	1428.32
414.756	1381.38
415.199	1317.79
415.642	1281.98
416.085	1285.77
416.527	1277.26
416.97	1302.34
417.413	1238.48
417.856	1226.85
418.298	1216.3
418.741	1210.02
419.184	1210.01
419.626	1261.5
420.069	1263.27
420.511	1272.53
420.953	1244.4
421.396	1236.24
421.838	1204.54
422.28	1233.36
422.722	1242.38
423.164	1261.04
423.606	1241.66
424.048	1239.63
424.49	1180.06
424.932	1176.87
425.374	1159.71
425.816	1185.26
426.258	1208.13
426.699	1223.07
427.141	1208.85
427.582	1229.82
428.024	1223.94
428.465	1216.39
428.907	1189.38
429.348	1176.62
429.789	1176.57
430.231	1153.05
430.672	1167.97
431.113	1140.62
431.554	1123.55
431.995	1093.87
432.436	1051.63
432.877	1027.75
433.318	1010.34
433.759	1004.82
434.2	1003.9
434.64	992.76
435.081	996.5
435.522	944.23
435.962	910.17
436.403	892.17
436.843	903.42
437.284	885.93
437.724	863.94
438.164	866.25
438.604	846.74
439.045	814.05
439.485	781.78
439.925	765.07
440.365	745.68
440.805	734.76
441.245	723.28
441.685	697.12
442.125	690.92
442.564	694.25
443.004	679.41
443.444	675.97
443.883	675.79
444.323	670.05
444.762	670.1
445.202	678.07
445.641	691.14
446.081	689.04
446.52	694.09
446.959	687.21
447.398	669.85
447.837	660.38
448.276	647.47
448.716	654.17
449.154	657.38
449.593	642.2
450.032	639.9
450.471	626.3
450.91	623.7
451.349	621.65
451.787	618.79
452.226	627.53
452.664	624.97
453.103	627.07
453.541	624.76
453.98	625.04
454.418	628.4
454.856	617.96
455.295	615.31
455.733	620.68
456.171	622.66
456.609	623.55
457.047	622.81
457.485	633.98
457.923	635.46
458.361	626.59
458.798	627.47
459.236	625.84
459.674	629.6
460.111	634.09
460.549	628
460.987	626.27
461.424	623.84
461.862	622.31
462.299	611.64
462.736	610.14
463.173	611.37
463.611	606.8
464.048	604.44
464.485	609.76
464.922	603.78
465.359	600.96
465.796	594.45
466.233	589.7
466.67	583.18
467.106	581.56
467.543	575.96
467.98	568.84
468.416	553.14
468.853	549.1
469.29	531.61
469.726	525.9
470.162	511.48
470.599	502.87
471.035	497.65
471.471	485.74
471.907	482.36
472.344	478.65
472.78	480.04
473.216	485.47
473.652	479.5
474.088	478.02
474.523	475.98
474.959	479.04
475.395	474.98
475.831	472.44
476.266	474.22
476.702	472.59
477.138	466.63
477.573	463.74
478.008	460.08
478.444	461.33
478.879	465.25
479.314	467.08
479.75	466.93
480.185	467.69
480.62	469.92
481.055	472.19
481.49	474.73
481.925	481.25
482.36	490.04
482.795	504.57
483.229	517.43
483.664	527.73
484.099	529.07
484.534	536.92
484.968	542.63
485.403	544.72
485.837	542.85
486.271	541.63
486.706	541.72
487.14	534.81
487.574	525.26
488.009	519.85
488.443	514.52
488.877	519.95
489.311	520.46
489.745	525.18
490.179	529.14
490.613	539.61
491.046	543.66
491.48	547.54
491.914	547.44
492.348	550.17
492.781	553.17
493.215	554.37
493.648	553.59
494.082	557.75
494.515	557.47
494.948	562.91
495.382	564.91
495.815	568.18
496.248	571.7
496.681	580.59
497.114	589.94
497.547	596.88
497.98	606.68
498.413	610.82
498.846	617.4
499.279	623.52
499.711	625.9
500.144	627.12
500.577	634.33
501.009	641.63
501.442	649.4
501.874	649.12
502.306	649.98
502.739	655.8
503.171	667.1
503.603	669.29
504.036	676.24
504.468	681.68
504.9	690.11
505.332	696.25
505.764	699.95
506.196	705.03
506.627	717.95
507.059	729.05
507.491	735.26
507.923	734.32
508.354	746.36
508.786	756
509.217	770.38
509.649	783.45
510.08	797.92
510.512	812.69
510.943	826.07
511.374	835.25
511.805	852.7
512.237	869.97
512.668	896.99
513.099	921.05
513.53	944.27
513.961	962.62
514.391	989.92
514.822	1019.01
515.253	1049.81
515.684	1072.67
516.114	1100.01
516.545	1119.94
516.975	1144.02
517.406	1161.72
517.836	1166.81
518.267	1175.19
518.697	1192.17
519.127	1198.43
519.558	1207.97
519.988	1214.67
520.418	1226.82
520.848	1243.8
521.278	1254.46
521.708	1275.42
522.138	1289.33
522.567	1318.26
522.997	1342.27
523.427	1359.21
523.857	1376.87
524.286	1387.64
524.716	1402.42
525.145	1421.63
525.575	1433.99
526.004	1448.12
526.433	1442.3
526.863	1444.2
527.292	1437.43
527.721	1445.03
528.15	1451.72
528.579	1453.37
529.008	1465.37
529.437	1486.74
529.866	1499.55
530.295	1514.63
530.724	1527.85
531.152	1552.47
531.581	1566.74
532.01	1583.89
532.438	1592.36
532.867	1606.66
533.295	1625.56
533.723	1632.46
534.152	1632.01
534.58	1632.79
535.008	1621.95
535.436	1624.62
535.865	1633.36
536.293	1647.16
536.721	1663.22
537.149	1687.45
537.576	1690.59
538.004	1703.31
538.432	1711.03
538.86	1711.24
539.287	1719.96
539.715	1732.69
540.143	1736.65
540.57	1734.19
540.998	1730.88
541.425	1710.73
541.852	1692.33
542.28	1692.27
542.707	1677.39
543.134	1665.43
543.561	1661.97
543.988	1654.88
544.415	1654.1
544.842	1648.58
545.269	1641.74
545.696	1645.22
546.123	1657.17
546.549	1647.84
546.976	1634.69
547.403	1633.85
547.829	1635.4
548.256	1637.07
548.682	1634.46
549.108	1628.11
549.535	1628.45
549.961	1629.84
550.387	1617.13
550.813	1611.32
551.24	1616.36
551.666	1617.56
552.092	1608.79
552.518	1602.73
552.943	1597.75
553.369	1603.35
553.795	1606.67
554.221	1606.53
554.646	1604.32
555.072	1613.16
555.498	1615.86
555.923	1623.63
556.349	1637.11
556.774	1644.37
557.199	1644.86
557.625	1648.39
558.05	1641.95
558.475	1651.87
558.9	1649.6
559.325	1640.02
559.75	1632.64
560.175	1626.24
560.6	1618.83
561.025	1613.85
561.449	1611.98
561.874	1613.87
562.299	1614.96
562.723	1619.16
563.148	1607.01
563.572	1608.87
563.997	1615.77
564.421	1619.18
564.846	1616.91
565.27	1618.01
565.694	1614.83
566.118	1623.54
566.542	1630.03
566.966	1622.56
567.39	1615.87
567.814	1604.75
568.238	1600.83
568.662	1602.46
569.086	1602.48
569.509	1607.35
569.933	1592.02
570.357	1583.41
570.78	1562.31
571.204	1548.02
571.627	1537.2
572.05	1533.19
572.474	1530.9
572.897	1518.3
573.32	1509.66
573.743	1498.85
574.166	1480.98
574.589	1479.09
575.012	1471.32
575.435	1469.27
575.858	1459.44
576.281	1447.24
576.704	1431.05
577.126	1417.9
577.549	1407.34
577.972	1397.48
578.394	1387.45
578.817	1379.57
579.239	1361.31
579.661	1347.3
580.084	1332.07
580.506	1318.43
580.928	1313.54
581.35	1304.08
581.772	1298.99
582.194	1284.84
582.616	1272.36
583.038	1258.22
583.46	1247.68
583.882	1243.98
584.303	1246.42
584.725	1242.1
585.147	1244.19
585.568	1252.54
585.99	1261.88
586.411	1266.89
586.833	1279.64
587.254	1280.47
587.675	1291.31
588.096	1301.02
588.518	1295.79
588.939	1281.15
589.36	1279.16
589.781	1268.2
590.202	1243.77
590.623	1235.52
591.043	1232.68
591.464	1221.01
591.885	1217.42
592.305	1211.8
592.726	1199.41
593.147	1199.04
593.567	1194.8
593.987	1187.5
594.408	1182.14
594.828	1179.51
595.248	1173.6
595.669	1157.58
596.089	1151.34
596.509	1144.6
596.929	1132.39
597.349	1132.48
597.769	1123.91
598.189	1117.62
598.608	1116.82
599.028	1117.7
599.448	1116.69
599.867	1105.49
600.287	1102.43
600.706	1099.12
601.126	1091.48
601.545	1090.51
601.965	1089.01
602.384	1084.55
602.803	1085.68
603.222	1082.03
603.641	1077.26
604.061	1074.88
604.48	1072
604.898	1077.25
605.317	1080.28
605.736	1081.52
606.155	1078.25
606.574	1069.11
606.992	1072.27
607.411	1067.94
607.829	1060.19
608.248	1056.11
608.666	1052.88
609.085	1051.7
609.503	1044.64
609.921	1038.47
610.339	1039.41
610.758	1038.13
611.176	1035.8
611.594	1028.17
612.012	1024.87
612.43	1028.58
612.847	1033.38
613.265	1033.56
613.683	1035.71
614.101	1035.23
614.518	1031.29
614.936	1022.98
615.353	1011.69
615.771	1008.47
616.188	1008.42
616.606	1006.52
617.023	998.94
617.44	987.47
617.857	981.09
618.274	975.64
618.691	971.92
619.108	965
619.525	958.41
619.942	963.55
620.359	965.36
620.776	961.12
621.192	956.84
621.609	955.51
622.026	960.09
622.442	964.85
622.859	965.86
623.275	959.64
623.691	964.3
624.108	973.95
624.524	984.3
624.94	983.09
625.356	991.06
625.772	1000.7
626.188	1009.74
626.604	1010.93
627.02	1007.36
627.436	1006.27
627.852	1010.97
628.268	1019.98
628.683	1013.61
629.099	1007.24
629.514	1004.16
629.93	1006.97
630.345	1010.06
630.761	1005.84
631.176	1008.21
631.591	1004.81
632.007	1000.26
632.422	998.15
632.837	988.26
633.252	984.93
633.667	974.99
634.082	967.12
634.497	955.67
634.911	940.48
635.326	936.36
635.741	922.31
636.155	912.58
636.57	911.44
636.984	909.18
637.399	908.76
637.813	906.53
638.228	903.64
638.642	904.69
639.056	894.21
639.47	891.78
639.884	884.27
640.298	876.64
640.712	873.36
641.126	862.11
641.54	853.09
641.954	846.88
642.368	836.31
642.781	831.08
643.195	816.51
643.609	816.66
644.022	810.81
644.436	806.33
644.849	797.07
645.262	787.22
645.676	786.7
646.089	782.94
646.502	771.97
646.915	767.42
647.328	754.19
647.741	753.28
648.154	743.69
648.567	741.82
648.98	731.88
649.393	732.3
649.805	730.27
650.218	724.86
650.631	714.52
651.043	710.76
651.456	706.97
651.868	706.93
652.28	718.39
652.693	728.09
653.105	732.25
653.517	740.56
653.929	740.94
654.341	745.71
654.753	738.6
655.165	743.48
655.577	741.86
655.989	739.95
656.401	735.75
656.813	711.88
657.224	697.8
657.636	678.58
658.047	666.99
658.459	654.84
658.87	648.56
659.282	640.73
659.693	628.21
660.104	619.97
660.515	611.35
660.926	610.71
661.338	609.56
661.749	607.13
662.159	602.81
662.57	599.49
662.981	597.87
663.392	594.71
663.803	599.55
664.213	598.5
664.624	596.18
665.035	599.7
665.445	591.52
665.855	587.92
666.266	585.23
666.676	585.4
667.086	581.8
667.497	583.12
667.907	580.27
668.317	573.97
668.727	573.62
669.137	575.65
669.547	576.07
669.956	580.08
670.366	583.63
670.776	585.07
671.186	589.54
671.595	594.01
672.005	596.84
672.414	597.8
672.824	598.79
673.233	604.09
673.642	607.25
674.052	610.92
674.461	613.81
674.87	618.22
675.279	617.52
675.688	620.43
676.097	622.68
676.506	621.9
676.915	635.49
677.323	639.53
677.732	639.15
678.141	639.31
678.549	632.01
678.958	632.32
679.366	632.04
679.775	636.54
680.183	644.97
680.592	648.82
681	654.6
681.408	647.78
681.816	653.14
682.224	657.66
682.632	666.9
683.04	689.68
683.448	707.24
683.856	730.42
684.264	755.33
684.671	778.43
685.079	806.87
685.487	837.37
685.894	882.81
686.302	918.22
686.709	947.61
687.116	980.43
687.524	1005.07
687.931	1028.66
688.338	1048.49
688.745	1066.49
689.152	1085.29
689.559	1116.39
689.966	1146.8
690.373	1160.38
690.78	1190.99
691.187	1241.36
691.593	1279
692	1314.81
692.407	1365.33
692.813	1427.71
693.22	1479.31
693.626	1533.87
694.032	1579.28
694.439	1646.48
694.845	1703.04
695.251	1773.12
695.657	1836.33
696.063	1928.74
696.469	2000.11
696.875	2070.48
697.281	2115.97
697.687	2169.68
698.093	2215.87
698.498	2293.92
698.904	2358.16
699.31	2448.92
