Data from N_2_HIR_WI_4N_Splice17_12-32-34-735.txt Node
Date: Sat Mar 14 12:32:34 EDT 2020
User: sa697716
Spectrometer: FLMS03696
Trigger mode: 0
Integration Time (sec): 3.180400E-1
Scans to average: 20
Electric dark correction enabled: true
Nonlinearity correction enabled: true
Boxcar width: 5
XAxis mode: Wavelengths
Number of Pixels in Spectrum: 2048
>>>>>Begin Spectral Data<<<<<
187.83	-347287.69
188.298	2587.48
188.766	1368.93
189.233	1186.42
189.701	1641.46
190.169	2354.07
190.636	901.06
191.104	702.02
191.571	94
192.039	-86.55
192.506	-70.16
192.974	426.97
193.441	-459.17
193.908	-40.36
194.375	-12.98
194.842	18.86
195.31	124.53
195.777	183.64
196.244	397.77
196.711	473.17
197.177	617.8
197.644	895.86
198.111	1568
198.578	2207.38
199.045	1782.05
199.511	2921.42
199.978	3456.21
200.445	2944.32
200.911	3263.09
201.378	3652.17
201.844	3322.02
202.31	5645.49
202.777	5891.9
203.243	3296.41
203.709	3111.67
204.176	3712.17
204.642	3050.09
205.108	2834.7
205.574	2298.81
206.04	2097.11
206.506	1965.43
206.972	1868.24
207.438	1810.23
207.903	2051.84
208.369	1789.37
208.835	1807.55
209.301	1879.43
209.766	1922.47
210.232	1903.63
210.697	2379.43
211.163	2928.39
211.628	4424.51
212.094	3736.41
212.559	4581.79
213.024	2869.46
213.49	3492.22
213.955	3392.53
214.42	3335.33
214.885	3119.13
215.35	3000.47
215.815	2870.61
216.28	3054.35
216.745	2492.96
217.21	2682.56
217.675	2473.48
218.14	2794.04
218.604	3151.19
219.069	3630.72
219.534	3851.73
219.998	4525.57
220.463	5539.57
220.927	6905.62
221.392	6554.11
221.856	6686.23
222.32	8506.27
222.785	10564.76
223.249	13362.07
223.713	14974.46
224.177	15028.77
224.642	19377.75
225.106	23902.15
225.57	26193.5
226.034	19489.77
226.497	29768.67
226.961	26921.4
227.425	31343.66
227.889	34850.79
228.353	34936.37
228.816	72282.01
229.28	69199.13
229.744	58386.98
230.207	35526
230.671	34970.84
231.134	57993.8
231.597	66863
232.061	66899.65
232.524	65315.87
232.987	45028.14
233.45	40499.39
233.914	36351.82
234.377	37325.3
234.84	34207.39
235.303	40371.82
235.766	45109.85
236.229	46634.8
236.691	29380.12
237.154	33041.35
237.617	24884.91
238.08	25524.74
238.542	29918.37
239.005	21407.66
239.468	21230.97
239.93	20007.78
240.393	18197.55
240.855	15957.78
241.317	16342.49
241.78	19904.8
242.242	20588.71
242.704	22209.84
243.166	19321.12
243.629	17525.24
244.091	20174.7
244.553	22096.7
245.015	23729.26
245.477	30652.14
245.939	44952.47
246.4	47744.4
246.862	46412.54
247.324	43737.54
247.786	48974.73
248.247	64241.3
248.709	66453.73
249.17	49729.87
249.632	46923.44
250.093	54402.37
250.555	47027.04
251.016	28683.59
251.477	27178.61
251.939	29328.34
252.4	30772.13
252.861	36598.87
253.322	34029.86
253.783	40449.86
254.244	52419.33
254.705	41303.82
255.166	36731.82
255.627	36163.34
256.088	50978.1
256.549	54114.09
257.009	46539.42
257.47	56442.62
257.931	45916.13
258.391	34349.19
258.852	35410.49
259.312	37088.36
259.773	45775.36
260.233	38616.41
260.694	32518.83
261.154	36852.72
261.614	29572.65
262.074	26443.58
262.534	27451.75
262.994	25846.5
263.455	34440.08
263.915	28958.17
264.374	27275.25
264.834	29743.55
265.294	32975.52
265.754	34145.76
266.214	32311.63
266.673	30270.53
267.133	38195.61
267.593	37874.13
268.052	46335.2
268.512	40292.96
268.971	48622.73
269.431	53329.13
269.89	47761.48
270.349	71571.93
270.809	79788.79
271.268	71689.84
271.727	160701.51
272.186	103984.1
272.645	77998.27
273.104	56241.73
273.563	81352.57
274.022	63950.7
274.481	54357.31
274.94	41872.4
275.399	31112.66
275.857	36188.6
276.316	48929.53
276.775	43537.72
277.233	42895.38
277.692	40156.42
278.15	45438.05
278.609	46732.55
279.067	43252.55
279.525	40188.31
279.984	51883.68
280.442	62329.82
280.9	61453.94
281.358	40433.06
281.816	37660.35
282.274	36865.7
282.732	38072.1
283.19	38281.79
283.648	33074.19
284.106	35190.41
284.564	35777.79
285.021	33167.51
285.479	24712.15
285.937	22496.27
286.394	19732.27
286.852	20294.98
287.309	21329.57
287.767	20581.61
288.224	19545.52
288.682	21429.36
289.139	23516.5
289.596	21488.05
290.053	22317.21
290.511	28141.24
290.968	34066.98
291.425	46225.19
291.882	38468.21
292.339	33451.85
292.796	33211.71
293.252	31277.53
293.709	24828.63
294.166	22260.3
294.623	24622.07
295.079	23607.81
295.536	23706.82
295.992	21532.12
296.449	21291.16
296.905	22147.5
297.362	21246.5
297.818	22346.46
298.274	23199.1
298.731	23630.26
299.187	23397.14
299.643	25100.13
300.099	30402.74
300.555	33365.22
301.011	27892.54
301.467	26862.87
301.923	31399.21
302.379	30672.35
302.835	30122.56
303.291	30140.36
303.746	34356.94
304.202	43370.47
304.658	43583.66
305.113	29319.59
305.569	28734.69
306.024	30646.96
306.479	29195.91
306.935	24643.39
307.39	26895.97
307.845	24831.99
308.301	25012.91
308.756	24344.9
309.211	23447.4
309.666	24027.9
310.121	29814.17
310.576	30280.48
311.031	30017.64
311.486	34419.54
311.94	34371.7
312.395	45992.01
312.85	86468.04
313.305	424612.13
313.759	2200718.27
314.214	159466.4
314.668	126303.15
315.123	106120.32
315.577	38030.99
316.032	33847.71
316.486	42421.79
316.94	33465.05
317.394	23308.54
317.849	18086
318.303	17127.83
318.757	16126.54
319.211	17830.39
319.665	15604.19
320.119	15797.08
320.572	22650.36
321.026	21155.21
321.48	17615.76
321.934	19234.3
322.387	19262.04
322.841	20838.39
323.295	18732.57
323.748	21589.42
324.202	21908.97
324.655	26337.02
325.108	36828.05
325.562	26054.28
326.015	30995.04
326.468	23416.62
326.921	26177.02
327.374	24401.39
327.827	25416.98
328.28	28784.32
328.733	19323.07
329.186	17010.96
329.639	16194.18
330.092	13673.89
330.545	13009.19
330.997	13128.24
331.45	14337.54
331.903	16806.97
332.355	28932.19
332.808	28120.83
333.26	23188.55
333.713	25168.47
334.165	25380.94
334.617	33968.4
335.069	27414.78
335.522	49657.84
335.974	54941.71
336.426	50261.63
336.878	34787.97
337.33	17652.37
337.782	17232.24
338.234	21602.49
338.686	25863.78
339.137	30629.79
339.589	28791.02
340.041	22590.55
340.493	19394.05
340.944	19874.55
341.396	21405.88
341.847	18029.15
342.299	21251.86
342.75	25957.73
343.201	22689
343.653	26069.63
344.104	32044.6
344.555	25241.27
345.006	39302.36
345.457	30109.05
345.908	23948.2
346.359	22545.62
346.81	18349.78
347.261	19354.79
347.712	19035.65
348.163	20435.15
348.613	20670.8
349.064	19296.39
349.515	16896.73
349.965	17320.17
350.416	20855.12
350.866	22874.8
351.317	25865.29
351.767	42854.66
352.217	54146.22
352.668	45056.2
353.118	41211.95
353.568	39844.49
354.018	31506.66
354.468	33239.31
354.918	23847
355.368	20885.58
355.818	29537.96
356.268	84970.83
356.718	355972.97
357.168	88702.12
357.617	44554.83
358.067	49636.25
358.517	46462.26
358.966	54563.93
359.416	61235.15
359.865	66247.76
360.315	78932.2
360.764	36829.22
361.213	20629.3
361.663	19526.45
362.112	24086.1
362.561	38862.88
363.01	29335.01
363.459	24693.74
363.908	26727.53
364.357	22711.81
364.806	38406.16
365.255	26399.86
365.703	24200.74
366.152	24267.49
366.601	19680.81
367.05	15981.39
367.498	14538.05
367.947	15209.66
368.395	15842.75
368.844	14029.53
369.292	16924.73
369.74	11687.12
370.189	17918.95
370.637	21031.01
371.085	18144.27
371.533	22128.27
371.981	21390.76
372.429	20408.67
372.877	21268.33
373.325	17810.18
373.773	18188.29
374.221	16221.48
374.669	20139.22
375.116	17454.75
375.564	17631.15
376.012	19799.92
376.459	16356.07
376.907	19547.22
377.354	23699.65
377.801	22117.59
378.249	25480.75
378.696	32588.89
379.143	39559.18
379.591	42297.1
380.038	71806.62
380.485	52028.79
380.932	56228.94
381.379	51575.48
381.826	38120.03
382.273	27125.08
382.72	23768.63
383.166	23270.09
383.613	15165.48
384.06	13731
384.506	15939.21
384.953	11723.72
385.4	11839.7
385.846	10408.86
386.292	10189.74
386.739	10012.5
387.185	9954.03
387.631	10022.03
388.078	9741.03
388.524	10454.01
388.97	9676.72
389.416	8099.84
389.862	8644.32
390.308	8220.87
390.754	8380.11
391.2	9123.47
391.645	9367.64
392.091	8981.11
392.537	8693.33
392.983	8745.49
393.428	8613.63
393.874	9265.7
394.319	9339.24
394.765	8882.44
395.21	9155.46
395.655	8602.36
396.101	8088.2
396.546	7312.29
396.991	7398.59
397.436	6891.07
397.881	6680.7
398.326	6356.98
398.771	6020.71
399.216	5270.54
399.661	4752.6
400.106	4745.09
400.551	4870.65
400.995	4370.64
401.44	4332.84
401.885	4076.89
402.329	4128.51
402.774	3958.11
403.218	3828.13
403.663	3696.63
404.107	3802.67
404.551	3838.74
404.995	3526.41
405.44	3403.64
405.884	3462.11
406.328	3356.85
406.772	3353.74
407.216	3060.02
407.66	2963.63
408.104	2820.84
408.547	2639.48
408.991	2558.28
409.435	2466.49
409.879	2432.51
410.322	2405.14
410.766	2324.35
411.209	2212.23
411.653	2128.56
412.096	2086.1
412.54	2090.28
412.983	2077.26
413.426	2087.08
413.869	2086.81
414.312	2046.39
414.756	1973.51
415.199	1878.26
415.642	1823.73
416.085	1824.14
416.527	1810.48
416.97	1835.85
417.413	1739.12
417.856	1724.07
418.298	1708.27
418.741	1697.2
419.184	1694.42
419.626	1766.56
420.069	1771.57
420.511	1783.34
420.953	1744.89
421.396	1725.33
421.838	1685.19
422.28	1722.58
422.722	1729.81
423.164	1753.18
423.606	1723.57
424.048	1722.56
424.49	1635.43
424.932	1626.87
425.374	1601.88
425.816	1631.39
426.258	1662.93
426.699	1678.3
427.141	1656.27
427.582	1679.54
428.024	1671.86
428.465	1663.08
428.907	1623.29
429.348	1603.79
429.789	1604.24
430.231	1571.79
430.672	1593.24
431.113	1557.44
431.554	1534.9
431.995	1497.31
432.436	1443.61
432.877	1410.47
433.318	1384.88
433.759	1376.98
434.2	1378.9
434.64	1365.02
435.081	1368.84
435.522	1296.77
435.962	1249.5
436.403	1222.34
436.843	1239.42
437.284	1215.26
437.724	1184.24
438.164	1190.24
438.604	1163.34
439.045	1118.19
439.485	1070.55
439.925	1049.33
440.365	1024
440.805	1010.61
441.245	998.74
441.685	963.26
442.125	958.87
442.564	965.9
443.004	944.65
443.444	944.53
443.883	948.25
444.323	943.73
444.762	947.41
445.202	963.09
445.641	982.45
446.081	978.38
446.52	988.19
446.959	980
447.398	956.38
447.837	946.17
448.276	930.64
448.716	939.81
449.154	949.93
449.593	928.52
450.032	926.77
450.471	912.07
450.91	916.72
451.349	916.2
451.787	912.69
452.226	929.86
452.664	932.52
453.103	937.81
453.541	939.09
453.98	938.68
454.418	946.93
454.856	934.46
455.295	934.27
455.733	941.09
456.171	947.12
456.609	950.5
457.047	949.85
457.485	962.88
457.923	962.68
458.361	950.68
458.798	953.23
459.236	950.98
459.674	956.18
460.111	960.45
460.549	950.83
460.987	948.23
461.424	943.53
461.862	940.06
462.299	924.92
462.736	924.89
463.173	928.46
463.611	918.48
464.048	916.33
464.485	923.49
464.922	915.66
465.359	911.79
465.796	896.05
466.233	889.07
466.67	878.7
467.106	877.26
467.543	868.82
467.98	856.13
468.416	834.03
468.853	827.5
469.29	802.24
469.726	792.98
470.162	771.45
470.599	763.83
471.035	757.71
471.471	740.56
471.907	737.23
472.344	732.49
472.78	734.26
473.216	744.41
473.652	735.32
474.088	733.94
474.523	731.86
474.959	739.59
475.395	733.06
475.831	728.84
476.266	732.12
476.702	729.37
477.138	721.23
477.573	719.49
478.008	716.46
478.444	720.04
478.879	727.33
479.314	730.4
479.75	729.77
480.185	734.09
480.62	741.37
481.055	746.33
481.49	753.34
481.925	765.14
482.36	778.56
482.795	801.68
483.229	823.64
483.664	840.48
484.099	845.87
484.534	860.8
484.968	869.44
485.403	871.79
485.837	871.86
486.271	870.17
486.706	872.07
487.14	863.09
487.574	848.76
488.009	841.33
488.443	834.8
488.877	841.72
489.311	844
489.745	853.78
490.179	861.63
490.613	877.11
491.046	884.25
491.48	890.54
491.914	891.83
492.348	898.99
492.781	905.01
493.215	908.79
493.648	911.69
494.082	919.48
494.515	920.64
494.948	931.5
495.382	938.24
495.815	944.42
496.248	951.8
496.681	970.56
497.114	986.38
497.547	1000.15
497.98	1016.49
498.413	1024.25
498.846	1037.15
499.279	1048.9
499.711	1055.19
500.144	1059.22
500.577	1073.86
501.009	1089.86
501.442	1102.63
501.874	1105.01
502.306	1107.61
502.739	1118.25
503.171	1139.73
503.603	1143.71
504.036	1157.52
504.468	1165.56
504.9	1181.43
505.332	1191.53
505.764	1197.08
506.196	1206.35
506.627	1225.06
507.059	1244.25
507.491	1255.72
507.923	1251.73
508.354	1271.4
508.786	1284.04
509.217	1307.23
509.649	1325.18
510.08	1349.79
510.512	1370.22
510.943	1389.13
511.374	1403.07
511.805	1427.46
512.237	1450.96
512.668	1492.41
513.099	1524.75
513.53	1558.03
513.961	1582.05
514.391	1621.55
514.822	1659.05
515.253	1701.48
515.684	1730.56
516.114	1764.9
516.545	1787.57
516.975	1817.01
517.406	1836.33
517.836	1837.32
518.267	1841.79
518.697	1861.08
519.127	1862.54
519.558	1868.88
519.988	1870.47
520.418	1879.89
520.848	1899.28
521.278	1908.09
521.708	1919.63
522.138	1931.76
522.567	1967.85
522.997	1995.92
523.427	2013.17
523.857	2030.92
524.286	2041.56
524.716	2057.3
525.145	2077.05
525.575	2087.99
526.004	2103.5
526.433	2098.67
526.863	2096.18
527.292	2081.14
527.721	2087.08
528.15	2091.4
528.579	2090.52
529.008	2102.31
529.437	2129.16
529.866	2144.96
530.295	2164.37
530.724	2177.57
531.152	2209.26
531.581	2225.66
532.01	2246.42
532.438	2255.29
532.867	2272.41
533.295	2294.83
533.723	2300.95
534.152	2298.08
534.58	2298.02
535.008	2277.68
535.436	2279.16
535.865	2289.29
536.293	2306.92
536.721	2326.16
537.149	2358.21
537.576	2360.83
538.004	2374.49
538.432	2384.82
538.86	2382.88
539.287	2391.23
539.715	2407.74
540.143	2411.72
540.57	2406.07
540.998	2401.11
541.425	2371.55
541.852	2343.4
542.28	2340.53
542.707	2320.62
543.134	2301.78
543.561	2295.19
543.988	2283.9
544.415	2282.86
544.842	2274.66
545.269	2265.37
545.696	2266.25
546.123	2281.07
546.549	2267.37
546.976	2251
547.403	2249.73
547.829	2251.38
548.256	2253.44
548.682	2248.11
549.108	2236.2
549.535	2235.74
549.961	2238.21
550.387	2221.86
550.813	2214.83
551.24	2222.59
551.666	2223.53
552.092	2211.18
552.518	2203.04
552.943	2194.52
553.369	2204.63
553.795	2212.23
554.221	2212.85
554.646	2209.06
555.072	2222.12
555.498	2228.3
555.923	2239.24
556.349	2258.21
556.774	2270.36
557.199	2271.81
557.625	2279.82
558.05	2273.39
558.475	2288.05
558.9	2287.5
559.325	2277.44
559.75	2270.69
560.175	2263.88
560.6	2257.64
561.025	2256.31
561.449	2257.86
561.874	2265.83
562.299	2273.13
562.723	2282.09
563.148	2270.1
563.572	2277.33
563.997	2291.9
564.421	2300.67
564.846	2302.77
565.27	2308.36
565.694	2306.08
566.118	2322.1
566.542	2333.33
566.966	2327.13
567.39	2323.65
567.814	2311.94
568.238	2312.84
568.662	2321.17
569.086	2326.02
569.509	2337.42
569.933	2320.45
570.357	2312.85
570.78	2287.9
571.204	2273.57
571.627	2261.49
572.05	2260.62
572.474	2261.12
572.897	2246.05
573.32	2236.74
573.743	2225.77
574.166	2204.01
574.589	2204.8
575.012	2197.77
575.435	2198.06
575.858	2187.7
576.281	2174.98
576.704	2156.91
577.126	2143.6
577.549	2130.95
577.972	2120.91
578.394	2108.16
578.817	2099.21
579.239	2076.91
579.661	2060.34
580.084	2041
580.506	2023.64
580.928	2019.57
581.35	2006.77
581.772	2002.63
582.194	1986.23
582.616	1970.11
583.038	1952.38
583.46	1940.42
583.882	1938.02
584.303	1944.2
584.725	1938.29
585.147	1941.76
585.568	1955.82
585.99	1971.06
586.411	1980.05
586.833	2000.27
587.254	2003.3
587.675	2022.82
588.096	2039.99
588.518	2032.35
588.939	2010.62
589.36	2010.15
589.781	2000.42
590.202	1963.87
590.623	1953.68
591.043	1951.56
591.464	1936.01
591.885	1932.53
592.305	1925.68
592.726	1907.51
593.147	1911.43
593.567	1905.24
593.987	1895.81
594.408	1888.55
594.828	1888.34
595.248	1881.71
595.669	1857.8
596.089	1848.45
596.509	1839.8
596.929	1823.07
597.349	1824.51
597.769	1811.66
598.189	1805.64
598.608	1808.24
599.028	1811.89
599.448	1812.34
599.867	1796.8
600.287	1790.66
600.706	1786.15
601.126	1774.53
601.545	1774.08
601.965	1773.24
602.384	1765.84
602.803	1768.64
603.222	1762.38
603.641	1754.15
604.061	1749.19
604.48	1743.78
604.898	1754.83
605.317	1761.9
605.736	1764.29
606.155	1760.42
606.574	1749.02
606.992	1756.96
607.411	1751.27
607.829	1741.34
608.248	1736.84
608.666	1733.98
609.085	1733.31
609.503	1723.29
609.921	1715.19
610.339	1718.15
610.758	1717.86
611.176	1712.3
611.594	1699.93
612.012	1695.9
612.43	1700.84
612.847	1709.55
613.265	1711.79
613.683	1718.46
614.101	1720.4
614.518	1716.11
614.936	1704.03
615.353	1684.62
615.771	1680.7
616.188	1682
616.606	1677.85
617.023	1668.37
617.44	1650.53
617.857	1641.07
618.274	1629.73
618.691	1622.6
619.108	1611.42
619.525	1604.09
619.942	1613.07
620.359	1616.39
620.776	1611.19
621.192	1607.07
621.609	1604.85
622.026	1614.06
622.442	1621.67
622.859	1626.66
623.275	1617.8
623.691	1624.38
624.108	1639.46
624.524	1657.96
624.94	1659.3
625.356	1671.16
625.772	1688.4
626.188	1704.12
626.604	1704.47
627.02	1700.08
627.436	1697.77
627.852	1706.92
628.268	1722.93
628.683	1711.58
629.099	1701.16
629.514	1695.63
629.93	1701.59
630.345	1707.37
630.761	1702.56
631.176	1707.92
631.591	1699.76
632.007	1692.81
632.422	1690.65
632.837	1677.15
633.252	1673.72
633.667	1661.6
634.082	1649.5
634.497	1632.71
634.911	1607.47
635.326	1604.13
635.741	1582.91
636.155	1571.5
636.57	1573.88
636.984	1574.72
637.399	1576.08
637.813	1576.96
638.228	1576.89
638.642	1584.45
639.056	1573.32
639.47	1575.37
639.884	1565.27
640.298	1558.86
640.712	1558.94
641.126	1542.61
641.54	1531.92
641.954	1528.81
642.368	1514.93
642.781	1505.89
643.195	1483.52
643.609	1486.46
644.022	1480.39
644.436	1476.65
644.849	1463.06
645.262	1449.67
645.676	1454.79
646.089	1449.15
646.502	1429.83
646.915	1423.27
647.328	1400.92
647.741	1399.54
648.154	1382.48
648.567	1376.99
648.98	1359.66
649.393	1360.35
649.805	1355.38
650.218	1343.97
650.631	1323.75
651.043	1313.41
651.456	1304.75
651.868	1304.33
652.28	1326.37
652.693	1341.96
653.105	1352.12
653.517	1363.39
653.929	1361.22
654.341	1366.25
654.753	1349.09
655.165	1357.02
655.577	1355.3
655.989	1348.14
656.401	1338.12
656.813	1289.92
657.224	1262.79
657.636	1223.67
658.047	1198.83
658.459	1173.43
658.87	1161.8
659.282	1146.87
659.693	1119.01
660.104	1098.1
660.515	1080.26
660.926	1077
661.338	1072.25
661.749	1063.19
662.159	1050.17
662.57	1044.06
662.981	1037.44
663.392	1026.37
663.803	1030.38
664.213	1025.86
664.624	1018.5
665.035	1020.99
665.445	1003.31
665.855	992.73
666.266	982.29
666.676	978.12
667.086	965.41
667.497	961.86
667.907	953.06
668.317	939.63
668.727	932.33
669.137	932.51
669.547	927.41
669.956	928.6
670.366	930.15
670.776	930.57
671.186	935.78
671.595	940.12
672.005	944.2
672.414	943.25
672.824	941.14
673.233	947.73
673.642	949.2
674.052	953.14
674.461	954.23
674.87	958.97
675.279	954.61
675.688	954.78
676.097	953.84
676.506	949.16
676.915	966.69
677.323	968.82
677.732	965.98
678.141	965.87
678.549	953.41
678.958	953.01
679.366	951.91
679.775	959.62
680.183	972.83
680.592	982.48
681	989.66
681.408	981.08
681.816	990.93
682.224	1002.36
682.632	1015.07
683.04	1053.03
683.448	1083.86
683.856	1122.89
684.264	1167.58
684.671	1209.14
685.079	1257.61
685.487	1312.86
685.894	1391.68
686.302	1455.71
686.709	1505.99
687.116	1566.04
687.524	1611.68
687.931	1653.15
688.338	1685.54
688.745	1711.25
689.152	1742.83
689.559	1788.03
689.966	1833.78
690.373	1849.04
690.78	1890.16
691.187	1958.67
691.593	2007.61
692	2049.36
692.407	2113.74
692.813	2196.49
693.22	2258.07
693.626	2323.16
694.032	2373.35
694.439	2451.84
694.845	2512.35
695.251	2589.91
