Data from N_2_HIR_IL_4N_Splice17_12-11-00-619.txt Node
Date: Sat Mar 14 12:11:00 EDT 2020
User: sa697716
Spectrometer: FLMS03696
Trigger mode: 0
Integration Time (sec): 3.180400E-1
Scans to average: 20
Electric dark correction enabled: true
Nonlinearity correction enabled: true
Boxcar width: 5
XAxis mode: Wavelengths
Number of Pixels in Spectrum: 2048
>>>>>Begin Spectral Data<<<<<
187.83	-264602.83
188.298	1886.08
188.766	1000.07
189.233	938.32
189.701	1346.8
190.169	1915.49
190.636	726.17
191.104	606.13
191.571	122.81
192.039	-44.2
192.506	-47.28
192.974	528.31
193.441	-1006.22
193.908	-398.23
194.375	-68.43
194.842	-12.09
195.31	78.34
195.777	101.18
196.244	335.39
196.711	442.85
197.177	562.49
197.644	828.07
198.111	1414.96
198.578	1999.36
199.045	1609.97
199.511	2612.92
199.978	3052.02
200.445	2580.21
200.911	2897.3
201.378	3236.19
201.844	2953.85
202.31	5060.71
202.777	5225.99
203.243	2925.28
203.709	2794.86
204.176	3341.88
204.642	2787.31
205.108	2617.15
205.574	2148.91
206.04	1963.87
206.506	1825.52
206.972	1725.01
207.438	1658.45
207.903	1898.72
208.369	1648.94
208.835	1637.96
209.301	1711.46
209.766	1736.27
210.232	1718.82
210.697	2127.49
211.163	2647.44
211.628	3989.12
212.094	3316.43
212.559	4083.67
213.024	2514.28
213.49	3072.33
213.955	2985.27
214.42	2887.53
214.885	2700.21
215.35	2582.37
215.815	2483.52
216.28	2615.93
216.745	2126.89
217.21	2286.56
217.675	2068.94
218.14	2316.75
218.604	2561.93
219.069	2893.63
219.534	3012.93
219.998	3442.95
220.463	4133.07
220.927	5013.62
221.392	4670.91
221.856	4699.43
222.32	5883.24
222.785	7241.93
223.249	9088.42
223.713	10097.56
224.177	10063.52
224.642	12857.01
225.106	15808.39
225.57	17227.03
226.034	12838.46
226.497	19517.67
226.961	17623.57
227.425	20477.55
227.889	22697.07
228.353	22654.17
228.816	46697.33
229.28	44672.32
229.744	37681.43
230.207	22918.13
230.671	22524.22
231.134	37143.66
231.597	42860.28
232.061	42728.84
232.524	41693.12
232.987	28670.26
233.45	25768.32
233.914	23126.9
234.377	23685.91
234.84	21644.71
235.303	25485.42
235.766	28434.52
236.229	29373.58
236.691	18484.78
237.154	20771.33
237.617	15623.2
238.08	16016.46
238.542	18748.19
239.005	13397.29
239.468	13298.21
239.93	12527.74
240.393	11378.22
240.855	9979.22
241.317	10226.75
241.78	12406.48
242.242	12829.39
242.704	13839.2
243.166	12043.6
243.629	10933.87
244.091	12575.72
244.553	13756.47
245.015	14786.63
245.477	19103.57
245.939	27975.52
246.4	29607.17
246.862	28826.48
247.324	27185.78
247.786	30395.35
248.247	39813.12
248.709	41035.4
249.17	30714.18
249.632	28973.37
250.093	33626.49
250.555	29051.01
251.016	17749.9
251.477	16841.61
251.939	18159
252.4	19023.81
252.861	22633.15
253.322	21049.82
253.783	25070.56
254.244	32484.93
254.705	25603.81
255.166	22747.07
255.627	22409.7
256.088	31579.65
256.549	33594.5
257.009	28922.41
257.47	35097.36
257.931	28585.45
258.391	21392.36
258.852	22074.92
259.312	23150.16
259.773	28578.99
260.233	24159.63
260.694	20355.56
261.154	23081.32
261.614	18528.73
262.074	16559.3
262.534	17207.44
262.994	16210.53
263.455	21608.21
263.915	18179.03
264.374	17113.6
264.834	18681.17
265.294	20697.88
265.754	21473.79
266.214	20313.78
266.673	19022.8
267.133	24044.29
267.593	23856.84
268.052	29203.83
268.512	25390.52
268.971	30665.17
269.431	33649.78
269.89	30130.74
270.349	45133.81
270.809	50351.3
271.268	45306.97
271.727	101668.54
272.186	65783.2
272.645	49346.74
273.104	35567.32
273.563	51553.64
274.022	40533.56
274.481	34502.05
274.94	26617.25
275.399	19822.75
275.857	23067.41
276.316	31223.76
276.775	27791.67
277.233	27396.52
277.692	25669
278.15	29048.86
278.609	29894.89
279.067	27667.34
279.525	25722.51
279.984	33185.12
280.442	39861.18
280.9	39321.64
281.358	25867.68
281.816	24123.48
282.274	23641.05
282.732	24449.54
283.19	24591.11
283.648	21247.42
284.106	22652.32
284.564	23053.67
285.021	21417.03
285.479	15965.55
285.937	14534.21
286.394	12774.25
286.852	13136.01
287.309	13805.82
287.767	13334.71
288.224	12691.98
288.682	13911.44
289.139	15257.98
289.596	13965.98
290.053	14506.46
290.511	18283.65
290.968	22126.24
291.425	29987.7
291.882	24981.01
292.339	21751.5
292.796	21579.8
293.252	20322.73
293.709	16154.65
294.166	14497.03
294.623	16005.37
295.079	15353.09
295.536	15448.42
295.992	14044.14
296.449	13884.55
296.905	14417.47
297.362	13802.72
297.818	14511.29
298.274	15052.7
298.731	15335.33
299.187	15173.8
299.643	16298.97
300.099	19739.06
300.555	21615.08
301.011	18044.02
301.467	17394.44
301.923	20381.6
302.379	19926.46
302.835	19579.97
303.291	19623.77
303.746	22332.06
304.202	28216.85
304.658	28310.95
305.113	19018.45
305.569	18649.18
306.024	19897.96
306.479	18958.91
306.935	15993.85
307.39	17467.65
307.845	16129.74
308.301	16260.9
308.756	15837.53
309.211	15253.96
309.666	15646.8
310.121	19456.15
310.576	19747.71
311.031	19623.87
311.486	22455.79
311.94	22425.91
312.395	30035.61
312.85	56559.83
313.305	277296.94
313.759	1439053.52
314.214	104389.78
314.668	82799.07
315.123	69640.9
315.577	25000.41
316.032	22220.77
316.486	27837.05
316.94	21959.58
317.394	15283.64
317.849	11864.71
318.303	11242.23
318.757	10608.87
319.211	11716.73
319.665	10259.99
320.119	10381.77
320.572	14875.69
321.026	13890.89
321.48	11574.98
321.934	12653.04
322.387	12677.12
322.841	13687.97
323.295	12290.92
323.748	14116.23
324.202	14312.57
324.655	17169.71
325.108	23973.43
325.562	16944.79
326.015	20144.93
326.468	15232.49
326.921	17022.92
327.374	15882.42
327.827	16550.01
328.28	18756.11
328.733	12606.36
329.186	11091.78
329.639	10576.37
330.092	8929.28
330.545	8524.54
330.997	8605.48
331.45	9410.15
331.903	11024.77
332.355	18964.89
332.808	18411.15
333.26	15225.3
333.713	16558.31
334.165	16721.12
334.617	22312.23
335.069	17992.61
335.522	32495.96
335.974	35971.12
336.426	32822.34
336.878	22723.46
337.33	11519.37
337.782	11257.07
338.234	14095.91
338.686	16795.17
339.137	19871.56
339.589	18723.68
340.041	14637.89
340.493	12570.62
340.944	12854.5
341.396	13842.37
341.847	11627.92
342.299	13725.95
342.75	16781.27
343.201	14628.72
343.653	16818.36
344.104	20629.16
344.555	16202.58
345.006	25257.5
345.457	19323.13
345.908	15354.07
346.359	14464.13
346.81	11773.76
347.261	12377.73
347.712	12158.47
348.163	13040.31
348.613	13218.47
349.064	12341.56
349.515	10816.66
349.965	11113.95
350.416	13389.8
350.866	14682.04
351.317	16589.02
351.767	27531.89
352.217	34858.9
352.668	28991.39
353.118	26522.24
353.568	25575.44
354.018	20249.47
354.468	21376.7
354.918	15333.1
355.368	13426.02
355.818	18998.68
356.268	54700.47
356.718	228681.3
357.168	56854.47
357.617	28486.15
358.067	31689.2
358.517	29710.03
358.966	34883.42
359.416	39161.1
359.865	42332.51
360.315	50367.05
360.764	23505.68
361.213	13129.72
361.663	12431.07
362.112	15350.44
362.561	24795.96
363.01	18735.79
363.459	15745.29
363.908	16997.29
364.357	14433.14
364.806	24387.72
365.255	16765.33
365.703	15373.31
366.152	15448.4
366.601	12545.32
367.05	10188.43
367.498	9254.04
367.947	9666.71
368.395	10053.44
368.844	8920.57
369.292	10746.46
369.74	7422.41
370.189	11369.48
370.637	13334.23
371.085	11501.98
371.533	13972.22
371.981	13451.78
372.429	12829.13
372.877	13357
373.325	11206.18
373.773	11397.98
374.221	10148.48
374.669	12593.52
375.116	10908
375.564	10993.75
376.012	12280.3
376.459	10144.8
376.907	12139.56
377.354	14677.69
377.801	13703.66
378.249	15732.39
378.696	20122.52
379.143	24386.39
379.591	26003.63
380.038	44073.37
380.485	31930.18
380.932	34608.33
381.379	31786.39
381.826	23459.5
382.273	16726.72
382.72	14668.36
383.166	14359.61
383.613	9352.72
384.06	8454.98
384.506	9828.28
384.953	7222.78
385.4	7293.43
385.846	6409.01
386.292	6267.12
386.739	6157.08
387.185	6106.14
387.631	6143.66
388.078	6000.87
388.524	6454.71
388.97	6002.71
389.416	5039.64
389.862	5384.59
390.308	5125.46
390.754	5222.84
391.2	5689.33
391.645	5848.47
392.091	5640.89
392.537	5472.28
392.983	5484.42
393.428	5415.83
393.874	5828.65
394.319	5870.27
394.765	5607.9
395.21	5793.15
395.655	5464.22
396.101	5146.52
396.546	4668.78
396.991	4726.09
397.436	4409.81
397.881	4295.01
398.326	4094.89
398.771	3892.77
399.216	3425.46
399.661	3099.81
400.106	3108.3
400.551	3199.53
400.995	2881.77
401.44	2866.2
401.885	2705.98
402.329	2747.51
402.774	2640.04
403.218	2564.51
403.663	2481.28
404.107	2558.24
404.551	2590.84
404.995	2385.01
405.44	2309.21
405.884	2356.41
406.328	2289.18
406.772	2289.27
407.216	2092.81
407.66	2033.58
408.104	1938.3
408.547	1822.88
408.991	1768.8
409.435	1706.57
409.879	1687.3
410.322	1671.44
410.766	1615.89
411.209	1542.94
411.653	1483.67
412.096	1458.01
412.54	1461.58
412.983	1458.09
413.426	1463.82
413.869	1465.04
414.312	1442.06
414.756	1391.36
415.199	1329.15
415.642	1295.11
416.085	1297.16
416.527	1294.27
416.97	1315.8
417.413	1249.99
417.856	1237.3
418.298	1226.27
418.741	1220.04
419.184	1217.2
419.626	1269.53
420.069	1270.5
420.511	1278.44
420.953	1252.32
421.396	1242.2
421.838	1211.78
422.28	1241.01
422.722	1249.46
423.164	1266.7
423.606	1245.16
424.048	1244.46
424.49	1182.95
424.932	1175.2
425.374	1159.73
425.816	1180.28
426.258	1203.79
426.699	1218.84
427.141	1203.43
427.582	1221.83
428.024	1219.43
428.465	1215.24
428.907	1183.27
429.348	1168.16
429.789	1168.16
430.231	1143.24
430.672	1159.81
431.113	1132.48
431.554	1116.68
431.995	1088.64
432.436	1050.76
432.877	1025.42
433.318	1007.52
433.759	1004.15
434.2	1006.38
434.64	1000.51
435.081	1003.25
435.522	949.17
435.962	913.08
436.403	892.09
436.843	904.88
437.284	883.48
437.724	859.02
438.164	861.65
438.604	844.22
439.045	813.58
439.485	778.05
439.925	761.23
440.365	743.05
440.805	733.9
441.245	725.19
441.685	697.61
442.125	691.84
442.564	697.08
443.004	680.74
443.444	678.47
443.883	677.38
444.323	671.73
444.762	672.39
445.202	681.05
445.641	692.88
446.081	687.09
446.52	691.29
446.959	683.73
447.398	666.56
447.837	657.71
448.276	645.15
448.716	652.51
449.154	657.09
449.593	643.46
450.032	640.09
450.471	625.74
450.91	626.22
451.349	625.24
451.787	621.89
452.226	630.61
452.664	630.91
453.103	631.1
453.541	628.1
453.98	626.93
454.418	629.87
454.856	620.46
455.295	620.18
455.733	624.12
456.171	627.36
456.609	629.47
457.047	629.46
457.485	637.28
457.923	639.59
458.361	630.1
458.798	631.92
459.236	630.2
459.674	634.43
460.111	637.38
460.549	631.37
460.987	627.69
461.424	624.62
461.862	620.69
462.299	612.4
462.736	610.22
463.173	613.38
463.611	606.95
464.048	606.32
464.485	611.31
464.922	606.13
465.359	603.76
465.796	597.37
466.233	593.85
466.67	588.91
467.106	586.94
467.543	581.38
467.98	573.33
468.416	558.3
468.853	552.03
469.29	535.31
469.726	529.08
470.162	515.16
470.599	507.84
471.035	502.58
471.471	490.02
471.907	486.35
472.344	483.13
472.78	484.34
473.216	489.96
473.652	483.07
474.088	481.51
474.523	479.39
474.959	482.52
475.395	476.02
475.831	472.19
476.266	474.33
476.702	471.67
477.138	465.53
477.573	463.29
478.008	460.96
478.444	462.91
478.879	466.42
479.314	468.31
479.75	466.99
480.185	469.43
480.62	472.92
481.055	474.11
481.49	477.69
481.925	484.59
482.36	492.58
482.795	506
483.229	519.58
483.664	530.29
484.099	531.1
484.534	538.85
484.968	543.71
485.403	544.96
485.837	544.02
486.271	542.51
486.706	541.74
487.14	534.7
487.574	525.38
488.009	519.54
488.443	514.68
488.877	520.16
489.311	521.48
489.745	527.46
490.179	531.63
490.613	541.13
491.046	544.59
491.48	548.26
491.914	548.75
492.348	551.97
492.781	555.36
493.215	555.26
493.648	554.26
494.082	557.91
494.515	557.43
494.948	562.65
495.382	565.58
495.815	569.72
496.248	573.09
496.681	582.54
497.114	590.45
497.547	597.52
497.98	607.4
498.413	612.34
498.846	619.08
499.279	624.46
499.711	627.28
500.144	628.56
500.577	635.69
501.009	644.2
501.442	651.76
501.874	652.95
502.306	654.42
502.739	660.44
503.171	671.65
503.603	674.24
504.036	681.45
504.468	685.96
504.9	694.8
505.332	699.76
505.764	703.05
506.196	708.72
506.627	719.46
507.059	729.99
507.491	736.45
507.923	735.3
508.354	747.2
508.786	756.28
509.217	771.01
509.649	783.24
510.08	799.01
510.512	813.67
510.943	826.16
511.374	836.89
511.805	853.63
512.237	870.87
512.668	898.41
513.099	922.04
513.53	945.81
513.961	963.74
514.391	991.43
514.822	1020.68
515.253	1051.31
515.684	1073.96
516.114	1100.43
516.545	1120.09
516.975	1144
517.406	1161.68
517.836	1167.17
518.267	1175.85
518.697	1193.56
519.127	1200.48
519.558	1208.82
519.988	1215.14
520.418	1227.03
520.848	1244.82
521.278	1255.82
521.708	1278.46
522.138	1291.53
522.567	1321.15
522.997	1345.24
523.427	1361.76
523.857	1378.99
524.286	1391.41
524.716	1406.99
525.145	1424.92
525.575	1437.04
526.004	1452.35
526.433	1444.01
526.863	1446.28
527.292	1438.19
527.721	1444.91
528.15	1451.45
528.579	1453.28
529.008	1464.14
529.437	1485.34
529.866	1499.7
530.295	1516.55
530.724	1528.74
531.152	1554.49
531.581	1568.98
532.01	1586.36
532.438	1594.85
532.867	1609.41
533.295	1627.91
533.723	1634.63
534.152	1634.55
534.58	1635.55
535.008	1622.87
535.436	1625.33
535.865	1633.8
536.293	1647.38
536.721	1662.78
537.149	1687.51
537.576	1691.38
538.004	1703.08
538.432	1711.11
538.86	1710.45
539.287	1717.58
539.715	1731.07
540.143	1734.2
540.57	1731.69
540.998	1729.75
541.425	1710.95
541.852	1691.65
542.28	1690.01
542.707	1676.92
543.134	1664.13
543.561	1660.35
543.988	1653.53
544.415	1652.94
544.842	1648.66
545.269	1642.42
545.696	1643.8
546.123	1654.29
546.549	1645.85
546.976	1634.44
547.403	1634.08
547.829	1636.94
548.256	1639.39
548.682	1636.51
549.108	1628.8
549.535	1628.85
549.961	1629.88
550.387	1617.7
550.813	1612.72
551.24	1617.87
551.666	1618.42
552.092	1608.36
552.518	1601.12
552.943	1594.55
553.369	1601.61
553.795	1605.91
554.221	1605.96
554.646	1602.71
555.072	1611.48
555.498	1614.91
555.923	1623.03
556.349	1636.52
556.774	1643.53
557.199	1644.82
557.625	1650.28
558.05	1642.89
558.475	1652.99
558.9	1650.79
559.325	1642.9
559.75	1637.02
560.175	1630.15
560.6	1621.83
561.025	1617.37
561.449	1616.62
561.874	1619.48
562.299	1620.76
562.723	1625.64
563.148	1613.59
563.572	1614.3
563.997	1620.82
564.421	1622.03
564.846	1621.02
565.27	1622.57
565.694	1618.42
566.118	1626.81
566.542	1630.91
566.966	1622.55
567.39	1616.25
567.814	1603.73
568.238	1601.47
568.662	1602.77
569.086	1603.32
569.509	1605.72
569.933	1589.99
570.357	1582.14
570.78	1561.62
571.204	1547.44
571.627	1536.44
572.05	1532.13
572.474	1530.78
572.897	1518.52
573.32	1511.05
573.743	1500.18
574.166	1483.54
574.589	1482.18
575.012	1473.83
575.435	1470.18
575.858	1461.67
576.281	1450.46
576.704	1435.61
577.126	1423.03
577.549	1412.03
577.972	1400.76
578.394	1391.28
578.817	1383.44
579.239	1365.05
579.661	1351.05
580.084	1337.12
580.506	1323.82
580.928	1319.57
581.35	1309.31
581.772	1304.01
582.194	1291.38
582.616	1280.2
583.038	1266.3
583.46	1255.94
583.882	1251.78
584.303	1253.54
584.725	1247.93
585.147	1249.2
585.568	1256.63
585.99	1265.87
586.411	1270.1
586.833	1280.02
587.254	1280.67
587.675	1291.35
588.096	1301.57
588.518	1296.82
588.939	1283.66
589.36	1281.14
589.781	1271.24
590.202	1246.49
590.623	1238.55
591.043	1235.47
591.464	1224.29
591.885	1220.06
592.305	1214.06
592.726	1201.55
593.147	1202.39
593.567	1195.92
593.987	1189.43
594.408	1183.92
594.828	1181.82
595.248	1175.77
595.669	1160.59
596.089	1154.8
596.509	1148.45
596.929	1137.6
597.349	1137.44
597.769	1127.16
598.189	1121.43
598.608	1121
599.028	1121.21
599.448	1119.3
599.867	1108.19
600.287	1104.01
600.706	1100.37
601.126	1092.18
601.545	1090.86
601.965	1088.15
602.384	1083.82
602.803	1086.67
603.222	1082.48
603.641	1077.47
604.061	1074.61
604.48	1070.9
604.898	1076.68
605.317	1078.93
605.736	1079.58
606.155	1076.5
606.574	1069.51
606.992	1073.07
607.411	1068.21
607.829	1061.61
608.248	1058.07
608.666	1055.46
609.085	1054.48
609.503	1046.76
609.921	1041.91
610.339	1043.23
610.758	1041.53
611.176	1037.57
611.594	1029.92
612.012	1026.75
612.43	1028.69
612.847	1031.68
613.265	1032.38
613.683	1035.35
614.101	1036.45
614.518	1032.75
614.936	1023.69
615.353	1012.84
615.771	1009.93
616.188	1009.77
616.606	1006
617.023	999.54
617.44	989.57
617.857	983.4
618.274	975.88
618.691	970.84
619.108	963.45
619.525	958.35
619.942	961.94
620.359	963.29
620.776	958.86
621.192	956.38
621.609	954.34
622.026	959.28
622.442	964.09
622.859	966.47
623.275	960.25
623.691	963.93
624.108	972.75
624.524	983.55
624.94	982.88
625.356	991.3
625.772	1000.58
626.188	1009.32
626.604	1010.14
627.02	1007.02
627.436	1006.19
627.852	1012.96
628.268	1022.48
628.683	1016.34
629.099	1009.99
629.514	1007.44
629.93	1009.93
630.345	1013.14
630.761	1010.14
631.176	1012.87
631.591	1008.01
632.007	1002.87
632.422	999.9
632.837	990.22
633.252	987.42
633.667	979.12
634.082	970.28
634.497	959.26
634.911	943.76
635.326	939.64
635.741	925.33
636.155	915.9
636.57	915.28
636.984	913.55
637.399	912.77
637.813	909.44
638.228	906.47
638.642	906.75
639.056	896.51
639.47	894.33
639.884	887.23
640.298	880.26
640.712	876.64
641.126	865.06
641.54	855.91
641.954	849.74
642.368	839.55
642.781	831.95
643.195	818.03
643.609	817.84
644.022	811.44
644.436	806.12
644.849	796.69
645.262	786.99
645.676	786.28
646.089	782.13
646.502	771.28
646.915	766.62
647.328	753.55
647.741	752.06
648.154	741.45
648.567	739.92
648.98	731.39
649.393	731.58
649.805	729.94
650.218	724.66
650.631	713.42
651.043	708.89
651.456	705.38
651.868	706.52
652.28	718.11
652.693	727.9
653.105	733.27
653.517	740.51
653.929	740.52
654.341	744.65
654.753	737.35
655.165	743
655.577	742.24
655.989	740.43
656.401	734.54
656.813	711.3
657.224	697.6
657.636	677.41
658.047	665.42
658.459	652.32
658.87	646.06
659.282	638.39
659.693	625.07
660.104	616.58
660.515	606.99
660.926	607.87
661.338	607.22
661.749	604.54
662.159	599.6
662.57	598.27
662.981	597.5
663.392	594.76
663.803	599.28
664.213	599.25
664.624	598.01
665.035	603.05
665.445	593.96
665.855	590.33
666.266	587.08
666.676	588.14
667.086	582.49
667.497	583.08
667.907	580.86
668.317	576
668.727	576.47
669.137	578.27
669.547	578.54
669.956	582.86
670.366	586.41
670.776	589.46
671.186	593.76
671.595	598.79
672.005	603.08
672.414	603.73
672.824	604.32
673.233	608.07
673.642	611.88
674.052	614.92
674.461	618.34
674.87	622.65
675.279	622.39
675.688	624.72
676.097	625.96
676.506	624.14
676.915	636.24
677.323	638.99
677.732	637.53
678.141	637.64
678.549	629.96
678.958	629.76
679.366	629.84
679.775	633.88
680.183	643.05
680.592	648.98
681	654.2
681.408	648.69
681.816	654.82
682.224	662.68
682.632	670.19
683.04	693.12
683.448	710.44
683.856	732.85
684.264	758.83
684.671	780.34
685.079	807.29
685.487	838.86
685.894	885.38
686.302	920.82
686.709	948.56
687.116	982.46
687.524	1008.82
687.931	1032.48
688.338	1053.62
688.745	1069.02
689.152	1089.12
689.559	1119.88
689.966	1149.78
690.373	1164.39
690.78	1195.24
691.187	1244.31
691.593	1282.9
692	1316.33
692.407	1368.22
692.813	1430.69
693.22	1483.26
693.626	1538.24
694.032	1584.94
694.439	1654.56
694.845	1709.28
695.251	1778.41
695.657	1841.72
696.063	1932.5
696.469	2005.75
696.875	2073.37
697.281	2118.78
697.687	2172.29
698.093	2220.23
698.498	2298.75
698.904	2361.37
