Data from N_2_DIV_WI_4N_Splice17_12-18-08-021.txt Node
Date: Sat Mar 14 12:18:08 EDT 2020
User: sa697716
Spectrometer: FLMS03696
Trigger mode: 0
Integration Time (sec): 3.180400E-1
Scans to average: 20
Electric dark correction enabled: true
Nonlinearity correction enabled: true
Boxcar width: 5
XAxis mode: Wavelengths
Number of Pixels in Spectrum: 2048
>>>>>Begin Spectral Data<<<<<
187.83	-340795.89
188.298	2444.98
188.766	1342.34
189.233	1203.25
189.701	1703.33
190.169	2274.02
190.636	897.63
191.104	720.45
191.571	143.62
192.039	-58.96
192.506	-53.56
192.974	380.69
193.441	-733.12
193.908	-38.09
194.375	-19.77
194.842	63.67
195.31	80.11
195.777	148.9
196.244	348.49
196.711	431.38
197.177	525.31
197.644	751.43
198.111	1329.65
198.578	1883.67
199.045	1495.97
199.511	2468.58
199.978	2873.94
200.445	2451.81
200.911	2732.15
201.378	3051.47
201.844	2758.48
202.31	4702.7
202.777	4903.5
203.243	2716.24
203.709	2600.99
204.176	3103.39
204.642	2555.01
205.108	2406.58
205.574	1969.86
206.04	1800.03
206.506	1695.43
206.972	1634.88
207.438	1586.7
207.903	1814.05
208.369	1584.77
208.835	1591.42
209.301	1668.66
209.766	1726.58
210.232	1700.5
210.697	2112.11
211.163	2615.57
211.628	3963.85
212.094	3293.73
212.559	4094.92
213.024	2555.9
213.49	3124.04
213.955	3056.19
214.42	3015.9
214.885	2817.81
215.35	2723.98
215.815	2616.34
216.28	2797.37
216.745	2301.28
217.21	2543.05
217.675	2375.23
218.14	2736.55
218.604	3141.03
219.069	3676.69
219.534	3910.49
219.998	4647.92
220.463	5743.98
220.927	7237.65
221.392	6916.06
221.856	7085.57
222.32	9015.71
222.785	11209.97
223.249	14210.34
223.713	15943.17
224.177	15987.71
224.642	20641.75
225.106	25489.59
225.57	27894.34
226.034	20729.04
226.497	31576.31
226.961	28511.43
227.425	33233.49
227.889	36959.55
228.353	36938.36
228.816	76243.34
229.28	72979.25
229.744	61561.62
230.207	37334.09
230.671	36754.25
231.134	60834.1
231.597	70134.87
232.061	70187.12
232.524	68431.72
232.987	47058.43
233.45	42307.65
233.914	37947.96
234.377	38885.66
234.84	35544.59
235.303	41871.39
235.766	46655.6
236.229	48200.89
236.691	30334.7
237.154	34072.76
237.617	25600.09
238.08	26207.6
238.542	30663.92
239.005	21901.9
239.468	21693.73
239.93	20404.52
240.393	18534.07
240.855	16241.33
241.317	16622.38
241.78	20184.22
242.242	20812.16
242.704	22429.88
243.166	19507.87
243.629	17673.06
244.091	20315.95
244.553	22224.47
245.015	23892.76
245.477	30876.91
245.939	45272.88
246.4	47967.07
246.862	46618.04
247.324	43896.85
247.786	49056.92
248.247	64195.04
248.709	66321.5
249.17	49608.04
249.632	46690.4
250.093	54012.88
250.555	46594.7
251.016	28351.71
251.477	26853.43
251.939	28945.38
252.4	30338.03
252.861	36092.46
253.322	33527.45
253.783	39853.52
254.244	51574.68
254.705	40624.61
255.166	36134.91
255.627	35538.5
256.088	50089.92
256.549	53155.16
257.009	45686.6
257.47	55365.37
257.931	44980.09
258.391	33684.02
258.852	34700.3
259.312	36401.92
259.773	44971.05
260.233	37958.27
260.694	32002.65
261.154	36253.2
261.614	29098.38
262.074	26033.82
262.534	27051.54
262.994	25479.83
263.455	33949.42
263.915	28574.27
264.374	26870.31
264.834	29296.62
265.294	32471.94
265.754	33626.38
266.214	31832.56
266.673	29805.36
267.133	37585.93
267.593	37247.45
268.052	45560.94
268.512	39571.46
268.971	47653.58
269.431	52222.16
269.89	46742.36
270.349	70009.38
270.809	77956.25
271.268	70039.25
271.727	156921.93
272.186	101506.47
272.645	76117.48
273.104	54895.97
273.563	79458.05
274.022	62503.21
274.481	53176.15
274.94	40919.09
275.399	30402.26
275.857	35385.3
276.316	47784.68
276.775	42500.85
277.233	41855.39
277.692	39142.92
278.15	44231.4
278.609	45460.74
279.067	42065.49
279.525	39021.26
279.984	50428.79
280.442	60481.59
280.9	59525.86
281.358	39159.46
281.816	36454.26
282.274	35690.31
282.732	36864.01
283.19	37002.87
283.648	31943.93
284.106	33975.41
284.564	34543.01
285.021	31981.04
285.479	23824.9
285.937	21684.35
286.394	19001.71
286.852	19544.67
287.309	20516.72
287.767	19798.46
288.224	18829.7
288.682	20621.62
289.139	22604.98
289.596	20634.84
290.053	21409.96
290.511	26987.13
290.968	32660.52
291.425	44336.29
291.882	36841.92
292.339	32011.97
292.796	31704.08
293.252	29824.35
293.709	23650.93
294.166	21168.06
294.623	23395.89
295.079	22437.77
295.536	22515.13
295.992	20428.93
296.449	20171.24
296.905	20953.87
297.362	20065.76
297.818	21086.91
298.274	21850.26
298.731	22260.81
299.187	22021.5
299.643	23633.13
300.099	28555.24
300.555	31282.63
301.011	26108.96
301.467	25124.83
301.923	29375.02
302.379	28646.04
302.835	28119.7
303.291	28111.17
303.746	31966.63
304.202	40307.88
304.658	40420.54
305.113	27160.63
305.569	26598.93
306.024	28325.59
306.479	26940.64
306.935	22702.59
307.39	24791.12
307.845	22853.51
308.301	22986.36
308.756	22348.73
309.211	21519.81
309.666	22010.92
310.121	27300.94
310.576	27674.42
311.031	27438.12
311.486	31399.97
311.94	31341.05
312.395	41836.52
312.85	78597.82
313.305	385870.02
313.759	1997864.8
314.214	144659.81
314.668	114487.94
315.123	96156.81
315.577	34453.59
316.032	30605.82
316.486	38337.69
316.94	30181.03
317.394	21001.35
317.849	16297.64
318.303	15417.35
318.757	14526.08
319.211	16038.19
319.665	14023.16
320.119	14172.5
320.572	20319.34
321.026	18963.92
321.48	15753.17
321.934	17178.94
322.387	17211.58
322.841	18577.53
323.295	16684.39
323.748	19222.05
324.202	19487.3
324.655	23417.11
325.108	32691.52
325.562	23070.09
326.015	27396.75
326.468	20698.47
326.921	23124.85
327.374	21542.91
327.827	22407.3
328.28	25359.3
328.733	16983.92
329.186	14920.01
329.639	14186.75
330.092	11954.06
330.545	11369.09
330.997	11473.6
331.45	12539.24
331.903	14669.49
332.355	25220.16
332.808	24529.41
333.26	20233.43
333.713	21936.26
334.165	22106.59
334.617	29528.6
335.069	23845.21
335.522	43146.23
335.974	47736.21
336.426	43557.5
336.878	30166.04
337.33	15273.56
337.782	14897.48
338.234	18640.47
338.686	22288.29
339.137	26369.71
339.589	24818.79
340.041	19450.75
340.493	16725.84
340.944	17096.45
341.396	18422.91
341.847	15486.95
342.299	18237.6
342.75	22232.03
343.201	19427.73
343.653	22335.11
344.104	27449.19
344.555	21605.36
345.006	33618
345.457	25692.2
345.908	20420.72
346.359	19196.92
346.81	15637.14
347.261	16512.77
347.712	16271.21
348.163	17429.61
348.613	17617.33
349.064	16442.58
349.515	14407.72
349.965	14785.64
350.416	17813.71
350.866	19541.4
351.317	22098.22
351.767	36634.67
352.217	46268.9
352.668	38457.17
353.118	35184.84
353.568	33931.89
354.018	26799.35
354.468	28189.57
354.918	20182.62
355.368	17634.4
355.818	24945.38
356.268	71762.24
356.718	299699.53
357.168	74520.06
357.617	37333.77
358.067	41535.22
358.517	38908.92
358.966	45634.66
359.416	51195.19
359.865	55264.08
360.315	65744.96
360.764	30644.98
361.213	17144.03
361.663	16242.27
362.112	20075.16
362.561	32418.67
363.01	24456.36
363.459	20549.86
363.908	22208.78
364.357	18842.88
364.806	31848.97
365.255	21903.62
365.703	20031.23
366.152	20029.67
366.601	16235.39
367.05	13142.71
367.498	11934.78
367.947	12461.2
368.395	12959.95
368.844	11470.51
369.292	13809.1
369.74	9549.23
370.189	14642.79
370.637	17156.82
371.085	14798.88
371.533	18002.3
371.981	17322.85
372.429	16478.74
372.877	17134.34
373.325	14355.26
373.773	14610.17
374.221	12993.66
374.669	16069.22
375.116	13837.8
375.564	13966.15
376.012	15612.9
376.459	12866.05
376.907	15371.01
377.354	18587.71
377.801	17294.91
378.249	19829.8
378.696	25320.48
379.143	30642.63
379.591	32669.14
380.038	55241.35
380.485	39762.32
380.932	42876.53
381.379	39197.59
381.826	28822.53
382.273	20478.96
382.72	17907.1
383.166	17435.25
383.613	11282.33
384.06	10142.27
384.506	11681.43
384.953	8570.2
385.4	8622.97
385.846	7548.72
386.292	7319.99
386.739	7146.52
387.185	7046.41
387.631	7043.77
388.078	6826.52
388.524	7300.81
388.97	6745.33
389.416	5627.27
389.862	5969.89
390.308	5652.14
390.754	5734.14
391.2	6231.19
391.645	6389.12
392.091	6103.61
392.537	5882.59
392.983	5884.78
393.428	5783.52
393.874	6191.57
394.319	6220.14
394.765	5895.27
395.21	6054.7
395.655	5670.85
396.101	5295.29
396.546	4762.88
396.991	4793.26
397.436	4445.14
397.881	4289.92
398.326	4061.31
398.771	3836.21
399.216	3340.08
399.661	3004.53
400.106	2988.04
400.551	3053.24
400.995	2737.46
401.44	2703.39
401.885	2536.67
402.329	2564.51
402.774	2451.11
403.218	2366.63
403.663	2275.81
404.107	2340.23
404.551	2353.63
404.995	2152.86
405.44	2071.82
405.884	2101.55
406.328	2034.85
406.772	2024.82
407.216	1840.12
407.66	1777.38
408.104	1685.11
408.547	1575.54
408.991	1522.2
409.435	1462.52
409.879	1441.53
410.322	1419.96
410.766	1368.66
411.209	1299.26
411.653	1246.54
412.096	1220.35
412.54	1219.77
412.983	1209.15
413.426	1211.97
413.869	1206.21
414.312	1183.07
414.756	1139.45
415.199	1082.77
415.642	1050.89
416.085	1049.58
416.527	1039.99
416.97	1052.31
417.413	999.21
417.856	988.27
418.298	976.59
418.741	968.76
419.184	963.58
419.626	1000.11
420.069	1001.29
420.511	1005.04
420.953	982.13
421.396	973.72
421.838	949.87
422.28	968.3
422.722	974.07
423.164	989.08
423.606	973.9
424.048	971.9
424.49	924.26
424.932	919.19
425.374	904.41
425.816	921.04
426.258	935.69
426.699	946.76
427.141	934.3
427.582	945.35
428.024	936.12
428.465	929.84
428.907	906.73
429.348	896.69
429.789	895.48
430.231	878.54
430.672	888.66
431.113	869.5
431.554	854.01
431.995	832.77
432.436	805.42
432.877	787.72
433.318	775.54
433.759	772.24
434.2	771.87
434.64	765.38
435.081	767.9
435.522	728.2
435.962	703.26
436.403	692.05
436.843	700.97
437.284	684.24
437.724	665.7
438.164	664.47
438.604	650.24
439.045	625.71
439.485	599.21
439.925	584.69
440.365	570.25
440.805	560.13
441.245	550.61
441.685	529.23
442.125	523.6
442.564	526.92
443.004	517.03
443.444	514.26
443.883	514.92
444.323	510.25
444.762	510.42
445.202	516.06
445.641	527.35
446.081	523.22
446.52	528.59
446.959	525.62
447.398	513.88
447.837	507
448.276	498.05
448.716	500.16
449.154	504.28
449.593	494.36
450.032	491.94
450.471	481.01
450.91	482.65
451.349	480.77
451.787	477.38
452.226	484.32
452.664	483.42
453.103	484.62
453.541	484.88
453.98	485.01
454.418	487.56
454.856	482.38
455.295	481.78
455.733	485.34
456.171	486.75
456.609	488.25
457.047	487.21
457.485	494.22
457.923	494.51
458.361	487.76
458.798	487.62
459.236	485.06
459.674	486.7
460.111	488.81
460.549	483.77
460.987	482.64
461.424	480.22
461.862	478.05
462.299	470.54
462.736	471.97
463.173	473.41
463.611	469.85
464.048	469.54
464.485	473.21
464.922	468.21
465.359	465.04
465.796	462.5
466.233	460.22
466.67	458.11
467.106	458.74
467.543	452.38
467.98	445.87
468.416	435.31
468.853	432.4
469.29	419.61
469.726	415.01
470.162	404.5
470.599	395.42
471.035	390.69
471.471	379.05
471.907	375.39
472.344	372.84
472.78	374.43
473.216	378.2
473.652	372.63
474.088	370.78
474.523	370.49
474.959	373.22
475.395	369.17
475.831	367
476.266	369.01
476.702	367.77
477.138	363.63
477.573	361.64
478.008	359.46
478.444	362.55
478.879	367.13
479.314	368
479.75	367.69
480.185	369.45
480.62	371.89
481.055	372.78
481.49	375.62
481.925	380.28
482.36	387.77
482.795	397.37
483.229	406.08
483.664	413.29
484.099	414.35
484.534	420.73
484.968	425.15
485.403	426.19
485.837	425.55
486.271	424.16
486.706	424.58
487.14	419.12
487.574	413.23
488.009	409.96
488.443	406.01
488.877	411
489.311	411.82
489.745	416.65
490.179	420.89
490.613	430.35
491.046	434.54
491.48	438.34
491.914	438.81
492.348	442.77
492.781	445.74
493.215	447.85
493.648	448.49
494.082	452.82
494.515	453.86
494.948	460.28
495.382	463.62
495.815	467.57
496.248	472.66
496.681	482.46
497.114	491.07
497.547	499.04
497.98	509.44
498.413	515.57
498.846	524.01
499.279	531.25
499.711	535.46
500.144	538.49
500.577	548.01
501.009	557.59
501.442	566.37
501.874	569.7
502.306	573.95
502.739	582.43
503.171	595.64
503.603	600.2
504.036	609.77
504.468	617.12
504.9	628.38
505.332	636.55
505.764	642.65
506.196	651.59
506.627	665.83
507.059	678.49
507.491	687.51
507.923	689.43
508.354	704.54
508.786	716.31
509.217	733.5
509.649	749.03
510.08	767.22
510.512	784.61
510.943	800.44
511.374	813.11
511.805	833.6
512.237	854.09
512.668	884.09
513.099	910.02
513.53	936.58
513.961	957.48
514.391	986.53
514.822	1017.81
515.253	1051.32
515.684	1076.49
516.114	1105.17
516.545	1127.28
516.975	1153.53
517.406	1172.7
517.836	1178.66
518.267	1188.22
518.697	1208.71
519.127	1216.8
519.558	1226.64
519.988	1232.88
520.418	1245.73
520.848	1263.9
521.278	1274.88
521.708	1297.82
522.138	1311.89
522.567	1342.41
522.997	1367.41
523.427	1382.66
523.857	1401.37
524.286	1413.22
524.716	1429.11
525.145	1448.68
525.575	1461.32
526.004	1476.09
526.433	1468.71
526.863	1470.73
527.292	1464.67
527.721	1472.18
528.15	1478.75
528.579	1480.39
529.008	1491.73
529.437	1513.4
529.866	1525.88
530.295	1542.96
530.724	1555.64
531.152	1580.82
531.581	1594.63
532.01	1611.16
532.438	1619.26
532.867	1633.68
533.295	1650.89
533.723	1656.96
534.152	1656.02
534.58	1655.96
535.008	1641.95
535.436	1643.6
535.865	1650.46
536.293	1664.03
536.721	1679.19
537.149	1703.06
537.576	1705.96
538.004	1718.02
538.432	1725.46
538.86	1725.06
539.287	1732.26
539.715	1745.57
540.143	1749.53
540.57	1746.05
540.998	1744.18
541.425	1723.12
541.852	1703.99
542.28	1702.82
542.707	1688.18
543.134	1676.11
543.561	1671.82
543.988	1665.29
544.415	1664.12
544.842	1659.17
545.269	1653.76
545.696	1654.79
546.123	1666.77
546.549	1657.1
546.976	1646.05
547.403	1646.39
547.829	1647.87
548.256	1650.2
548.682	1647.63
549.108	1640.53
549.535	1639.72
549.961	1640.5
550.387	1628.17
550.813	1622.23
551.24	1627.1
551.666	1627.71
552.092	1618.13
552.518	1611.34
552.943	1604.95
553.369	1610.76
553.795	1614.66
554.221	1615.28
554.646	1612.4
555.072	1621.86
555.498	1625.58
555.923	1633.55
556.349	1645.24
556.774	1652.17
557.199	1652.84
557.625	1656.86
558.05	1649.36
558.475	1658.44
558.9	1655.79
559.325	1647.7
559.75	1640.32
560.175	1633.23
560.6	1626.35
561.025	1622.86
561.449	1622.18
561.874	1625.55
562.299	1628.7
562.723	1633.67
563.148	1622.68
563.572	1624.8
563.997	1630.87
564.421	1633.15
564.846	1630.63
565.27	1631.12
565.694	1627.86
566.118	1635.23
566.542	1639.4
566.966	1631.78
567.39	1625.59
567.814	1614.07
568.238	1610.81
568.662	1614.02
569.086	1612.68
569.509	1617.77
569.933	1602.33
570.357	1593.09
570.78	1572.82
571.204	1559.53
571.627	1546.85
572.05	1542.72
572.474	1539.48
572.897	1525.44
573.32	1514.48
573.743	1504.75
574.166	1486.56
574.589	1483.62
575.012	1473.76
575.435	1469.78
575.858	1459.07
576.281	1447.31
576.704	1432.26
577.126	1419.37
577.549	1408.36
577.972	1397.67
578.394	1387.14
578.817	1379.19
579.239	1360.86
579.661	1347.88
580.084	1333.27
580.506	1319.67
580.928	1313.89
581.35	1302.28
581.772	1297.2
582.194	1285.05
582.616	1273.29
583.038	1259.65
583.46	1249.08
583.882	1246.21
584.303	1248.36
584.725	1243.11
585.147	1244.96
585.568	1253.3
585.99	1262.09
586.411	1266.49
586.833	1276.64
587.254	1276.73
587.675	1286.21
588.096	1295.27
588.518	1289.78
588.939	1275.52
589.36	1272.72
589.781	1260.78
590.202	1236.72
590.623	1228.06
591.043	1225.25
591.464	1214.68
591.885	1211.32
592.305	1206.45
592.726	1194.1
593.147	1193.54
593.567	1188.56
593.987	1181.49
594.408	1176.26
594.828	1172.93
595.248	1168.31
595.669	1153.23
596.089	1147.13
596.509	1140.82
596.929	1128.72
597.349	1128.66
597.769	1120.82
598.189	1114.35
598.608	1114.84
599.028	1116.97
599.448	1116.48
599.867	1104.99
600.287	1099.51
600.706	1094.27
601.126	1085.01
601.545	1083.66
601.965	1081.39
602.384	1076
602.803	1078.01
603.222	1073.7
603.641	1066.99
604.061	1063.84
604.48	1060.28
604.898	1065.54
605.317	1067.63
605.736	1068.28
606.155	1066.42
606.574	1058.03
606.992	1060.4
607.411	1055.29
607.829	1047.77
608.248	1043.23
608.666	1039.03
609.085	1036.65
609.503	1028.85
609.921	1023.69
610.339	1024.27
610.758	1020.62
611.176	1015.59
611.594	1006.77
612.012	1001.87
612.43	1002.58
612.847	1005.81
613.265	1005.49
613.683	1007.18
614.101	1007.02
614.518	1002.11
614.936	992.3
615.353	980.55
615.771	976.98
616.188	976.64
616.606	972.99
617.023	966.29
617.44	955.34
617.857	947.44
618.274	940.1
618.691	933.93
619.108	926.2
619.525	920.92
619.942	923.79
620.359	924.24
620.776	918.65
621.192	913.94
621.609	911.75
622.026	914.99
622.442	919.22
622.859	920.42
623.275	915.08
623.691	917.63
624.108	925.78
624.524	935.62
624.94	935.23
625.356	942.86
625.772	952.17
626.188	959.57
626.604	961.62
627.02	957.96
627.436	956.02
627.852	960.07
628.268	969.54
628.683	963.08
629.099	956.77
629.514	953.22
629.93	954.27
630.345	957.32
630.761	953.91
631.176	953.88
631.591	950.69
632.007	945.41
632.422	942.99
632.837	932.73
633.252	929.37
633.667	920.07
634.082	911.85
634.497	901.54
634.911	886.44
635.326	881.83
635.741	868.49
636.155	857.95
636.57	857.28
636.984	855.59
637.399	855.3
637.813	851.98
638.228	848.87
638.642	849.67
639.056	840.2
639.47	837.71
639.884	830.18
640.298	823.77
640.712	821.27
641.126	810.18
641.54	800.68
641.954	793.55
642.368	783.96
642.781	778.17
643.195	762.74
643.609	760.36
644.022	753.41
644.436	747.21
644.849	735.88
645.262	725.34
645.676	723.64
646.089	718.83
646.502	707.61
646.915	701.99
647.328	687.7
647.741	685.41
648.154	675.66
648.567	673.6
648.98	663.55
649.393	663.41
649.805	659.6
650.218	653.57
650.631	641.86
651.043	636.75
651.456	630.74
651.868	629.86
652.28	638.88
652.693	645.8
653.105	647.83
653.517	653.06
653.929	652.09
654.341	655.22
654.753	646.05
655.165	648.53
655.577	645.14
655.989	641.78
656.401	634.63
656.813	611.72
657.224	597.41
657.636	577.97
658.047	565.99
658.459	552.48
658.87	544.04
659.282	536.26
659.693	522.68
660.104	513.89
660.515	503.72
660.926	501.08
661.338	497.94
661.749	493.47
662.159	487.68
662.57	482.75
662.981	478.9
663.392	474.76
663.803	475.8
664.213	474.08
664.624	469.95
665.035	470.63
665.445	462.66
665.855	458.71
666.266	454.89
666.676	453.32
667.086	448.18
667.497	447.49
667.907	443.37
668.317	437.21
668.727	436.26
669.137	436.29
669.547	436.02
669.956	437.77
670.366	438.72
670.776	438.92
671.186	441.57
671.595	444.82
672.005	447.44
672.414	447.99
672.824	448.89
673.233	450.77
673.642	453.1
674.052	456.21
674.461	458.25
674.87	461.03
675.279	460.5
675.688	460.65
676.097	461.77
676.506	460.88
676.915	469.85
677.323	473.15
677.732	472.85
678.141	472.49
678.549	466.14
678.958	465.79
679.366	466.05
679.775	469.41
680.183	478.52
680.592	483.8
681	488.18
681.408	484.98
681.816	489.56
682.224	495.31
682.632	503.51
683.04	522.6
683.448	538.97
683.856	559.82
684.264	583.05
684.671	602.78
685.079	628.6
685.487	657.05
685.894	697.62
686.302	730.43
686.709	760.36
687.116	794.04
687.524	824.43
687.931	853.68
688.338	878.16
688.745	900.81
689.152	928.23
689.559	961.96
689.966	999.02
690.373	1020.6
690.78	1057.44
691.187	1110.51
691.593	1155.12
692	1192.99
692.407	1244.75
692.813	1309.75
693.22	1364.96
693.626	1420.61
694.032	1469.61
694.439	1537.08
694.845	1595.56
695.251	1665.38
695.657	1728.43
696.063	1818.33
696.469	1891.17
696.875	1960.12
697.281	2004.93
697.687	2057.31
698.093	2104.55
698.498	2180.04
698.904	2242.51
699.31	2328.3
699.715	2393.01
700.12	2482.99
