Data from N_2_DEC_NC_4N_Splice17_12-25-09-498.txt Node
Date: Sat Mar 14 12:25:09 EDT 2020
User: sa697716
Spectrometer: FLMS03696
Trigger mode: 0
Integration Time (sec): 3.180400E-1
Scans to average: 20
Electric dark correction enabled: true
Nonlinearity correction enabled: true
Boxcar width: 5
XAxis mode: Wavelengths
Number of Pixels in Spectrum: 2048
>>>>>Begin Spectral Data<<<<<
187.83	-391516.29
188.298	2771.64
188.766	1559.21
189.233	1454.01
189.701	2107.22
190.169	2808.94
190.636	1023.39
191.104	784.96
191.571	100.71
192.039	-67.5
192.506	-52.75
192.974	499.83
193.441	-691.98
193.908	60.59
194.375	21.14
194.842	163.87
195.31	241.58
195.777	208.83
196.244	447.6
196.711	471.7
197.177	546.99
197.644	752.53
198.111	1332.97
198.578	1825.7
199.045	1474.23
199.511	2398.66
199.978	2754.38
200.445	2349.74
200.911	2574.24
201.378	2849
201.844	2577.07
202.31	4435.61
202.777	4679.39
203.243	2596.21
203.709	2478.66
204.176	2950.77
204.642	2475.31
205.108	2333.03
205.574	1914.07
206.04	1760.79
206.506	1661.52
206.972	1584.35
207.438	1535.61
207.903	1730.74
208.369	1507.73
208.835	1512.96
209.301	1574.64
209.766	1613.9
210.232	1589.52
210.697	1962.61
211.163	2402.02
211.628	3577.09
212.094	3000.69
212.559	3688
213.024	2314.65
213.49	2829.59
213.955	2762.04
214.42	2705.58
214.885	2495.42
215.35	2388.36
215.815	2300.1
216.28	2449.12
216.745	1991.06
217.21	2138.93
217.675	1954.7
218.14	2200.04
218.604	2450.95
219.069	2794.75
219.534	2932.53
219.998	3400.42
220.463	4112.81
220.927	5029.92
221.392	4724.28
221.856	4787.6
222.32	6047.34
222.785	7444.19
223.249	9319.26
223.713	10378.06
224.177	10360.2
224.642	13232.86
225.106	16262.02
225.57	17832.08
226.034	13283.25
226.497	20255.62
226.961	18277.39
227.425	21248.02
227.889	23537.71
228.353	23544.28
228.816	48638.09
229.28	46451.35
229.744	39131.9
230.207	23817.25
230.671	23371.38
231.134	38516.94
231.597	44344.85
232.061	44201.47
232.524	42944.12
232.987	29537.19
233.45	26504.75
233.914	23682.24
234.377	24237.8
234.84	22183.65
235.303	26063.43
235.766	28988.53
236.229	29883.74
236.691	18754.18
237.154	21073.9
237.617	15864.73
238.08	16219.62
238.542	19000.18
239.005	13591.13
239.468	13455.89
239.93	12663.89
240.393	11519.24
240.855	10122.43
241.317	10366.54
241.78	12601.97
242.242	12999.58
242.704	14025.35
243.166	12210.21
243.629	11078.17
244.091	12741.13
244.553	13953.13
245.015	14975.15
245.477	19304.98
245.939	28225.44
246.4	29904.42
246.862	29044.01
247.324	27368.12
247.786	30551.71
248.247	39995.62
248.709	41195.1
249.17	30750.98
249.632	28965.96
250.093	33558.86
250.555	28934.48
251.016	17619.5
251.477	16720.52
251.939	18013.6
252.4	18862.54
252.861	22428.38
253.322	20845.2
253.783	24753.4
254.244	32105.99
254.705	25263.98
255.166	22421.5
255.627	22059
256.088	31096.51
256.549	32990.64
257.009	28366.55
257.47	34440.14
257.931	27980.13
258.391	20971.74
258.852	21623.21
259.312	22665.86
259.773	28004.12
260.233	23681.58
260.694	19983.63
261.154	22677.16
261.614	18191.85
262.074	16283.42
262.534	16898.82
262.994	15934.27
263.455	21183.94
263.915	17841.97
264.374	16773.12
264.834	18301.44
265.294	20262.45
265.754	20966.74
266.214	19815.18
266.673	18524.24
267.133	23363.52
267.593	23143.65
268.052	28273.5
268.512	24565.97
268.971	29599.04
269.431	32456.1
269.89	29010.35
270.349	43418.25
270.809	48397.12
271.268	43482.14
271.727	97493.87
272.186	63038.76
272.645	47315.09
273.104	34096.07
273.563	49312.35
274.022	38718.1
274.481	32886.87
274.94	25348.9
275.399	18838.12
275.857	21916.74
276.316	29589.44
276.775	26304.87
277.233	25870.73
277.692	24188.97
278.15	27339.04
278.609	28159.89
279.067	26070.94
279.525	24232.89
279.984	31252.06
280.442	37501.1
280.9	36921.54
281.358	24293.58
281.816	22646.31
282.274	22193.46
282.732	22910.43
283.19	23035.44
283.648	19856.68
284.106	21139.27
284.564	21485.01
285.021	19909.67
285.479	14845.47
285.937	13505.02
286.394	11866.61
286.852	12200.29
287.309	12816.2
287.767	12398.02
288.224	11789.84
288.682	12920.88
289.139	14182.25
289.596	12945.6
290.053	13449.31
290.511	16940.89
290.968	20545.06
291.425	27818.78
291.882	23182.45
292.339	20135.75
292.796	19930.39
293.252	18752.59
293.709	14902.14
294.166	13327.86
294.623	14711.18
295.079	14094.65
295.536	14160.64
295.992	12843.07
296.449	12692.04
296.905	13161.31
297.362	12640.82
297.818	13285.91
298.274	13784.61
298.731	14003.94
299.187	13866.76
299.643	14893.62
300.099	18013.75
300.555	19720.03
301.011	16468.69
301.467	15871.4
301.923	18567.03
302.379	18112.06
302.835	17749.81
303.291	17759.91
303.746	20217.53
304.202	25505.89
304.658	25602.21
305.113	17217.93
305.569	16906.75
306.024	18001.99
306.479	17126.74
306.935	14429.38
307.39	15719.13
307.845	14536.86
308.301	14629.71
308.756	14253.21
309.211	13729.72
309.666	14071.1
310.121	17455.61
310.576	17668.07
311.031	17537.55
311.486	20045.23
311.94	19998.44
312.395	26756.68
312.85	50271.76
313.305	245968.22
313.759	1273685.26
314.214	92340.74
314.668	73228.59
315.123	61590.14
315.577	22109.14
316.032	19649.25
316.486	24586.82
316.94	19435.55
317.394	13534.6
317.849	10508.25
318.303	9959.29
318.757	9407.02
319.211	10373.8
319.665	9075.04
320.119	9176.85
320.572	13138.66
321.026	12251.65
321.48	10201.56
321.934	11104.02
322.387	11094.5
322.841	11969.32
323.295	10806.08
323.748	12409.61
324.202	12590.39
324.655	15102.96
325.108	21102.17
325.562	14912.68
326.015	17721.09
326.468	13405.31
326.921	14992.37
327.374	14008.72
327.827	14599.02
328.28	16495.99
328.733	11074.72
329.186	9743.58
329.639	9283.43
330.092	7807.75
330.545	7434.45
330.997	7499.26
331.45	8206.69
331.903	9625.26
332.355	16530.68
332.808	16057.1
333.26	13220.57
333.713	14347.63
334.165	14437.44
334.617	19264.41
335.069	15571.14
335.522	28089.09
335.974	31066.46
336.426	28359.05
336.878	19612.94
337.33	9965.79
337.782	9751.16
338.234	12219.44
338.686	14589.94
339.137	17296.68
339.589	16266.8
340.041	12759.56
340.493	10951.75
340.944	11241.13
341.396	12079.64
341.847	10181.71
342.299	12011.88
342.75	14662.46
343.201	12799.62
343.653	14688.77
344.104	18006.32
344.555	14143.16
345.006	21932.28
345.457	16855.17
345.908	13354.36
346.359	12576.49
346.81	10214.32
347.261	10742.9
347.712	10532.79
348.163	11277.23
348.613	11464
349.064	10690.58
349.515	9367.45
349.965	9628.27
350.416	11559.12
350.866	12672.62
351.317	14317.58
351.767	23668.85
352.217	29875.31
352.668	24814.12
353.118	22704.06
353.568	21817.73
354.018	17284.27
354.468	18232.91
354.918	13116.14
355.368	11499.26
355.818	16305.07
356.268	46909.68
356.718	197187.96
357.168	49199.33
357.617	24681.34
358.067	27392
358.517	25651.27
358.966	30085.48
359.416	33767.11
359.865	36389.81
360.315	43327.26
360.764	20190.53
361.213	11300.56
361.663	10686.27
362.112	13176.3
362.561	21286.95
363.01	16114.34
363.459	13581.77
363.908	14709.78
364.357	12514.53
364.806	21109.54
365.255	14535.46
365.703	13369.45
366.152	13382.97
366.601	10835.97
367.05	8811.74
367.498	8017.96
367.947	8358.52
368.395	8677.69
368.844	7684.36
369.292	9234.96
369.74	6398.24
370.189	9764.91
370.637	11377.61
371.085	9821.11
371.533	11997.75
371.981	11528.66
372.429	11016.58
372.877	11503.92
373.325	9625.02
373.773	9803.24
374.221	8712.52
374.669	10786.43
375.116	9326.93
375.564	9404.39
376.012	10519.07
376.459	8655.45
376.907	10332.91
377.354	12414.03
377.801	11577.84
378.249	13323.75
378.696	16974.96
379.143	20627.25
379.591	22006.71
380.038	37201.07
380.485	26967.24
380.932	29078.75
381.379	26633.83
381.826	19653.66
382.273	14020.75
382.72	12250.62
383.166	11921.25
383.613	7744.13
384.06	6983.28
384.506	8083.19
384.953	5946.48
385.4	5968.64
385.846	5240.03
386.292	5095.32
386.739	4973.74
387.185	4909.2
387.631	4906.26
388.078	4780.76
388.524	5116.71
388.97	4728.68
389.416	3945.22
389.862	4200.7
390.308	3985.74
390.754	4045.76
391.2	4396.19
391.645	4514.5
392.091	4354.62
392.537	4224.39
392.983	4232.68
393.428	4191.41
393.874	4504.7
394.319	4551.44
394.765	4341.93
395.21	4483.52
395.655	4219.8
396.101	3973.45
396.546	3603.53
396.991	3634.41
397.436	3393.88
397.881	3289.65
398.326	3115.24
398.771	2957.52
399.216	2586.14
399.661	2332.17
400.106	2338.22
400.551	2404.88
400.995	2163.3
401.44	2142.61
401.885	2016.73
402.329	2035.82
402.774	1959.5
403.218	1913.02
403.663	1846.88
404.107	1906.35
404.551	1928.11
404.995	1766.96
405.44	1706.37
405.884	1734.84
406.328	1683.52
406.772	1684.97
407.216	1543.27
407.66	1494.25
408.104	1416.91
408.547	1330.65
408.991	1288.42
409.435	1238.4
409.879	1223.86
410.322	1210.12
410.766	1171.82
411.209	1118.02
411.653	1073.17
412.096	1054.74
412.54	1057.45
412.983	1054
413.426	1059.83
413.869	1060.87
414.312	1047.64
414.756	1012.15
415.199	967.85
415.642	942.69
416.085	945.88
416.527	939.82
416.97	951.43
417.413	903.27
417.856	892.59
418.298	881.67
418.741	876.43
419.184	871.29
419.626	905.45
420.069	902.99
420.511	906.97
420.953	887.32
421.396	880.24
421.838	861.19
422.28	883.87
422.722	890.48
423.164	903.97
423.606	889.32
424.048	889.02
424.49	847.96
424.932	844.84
425.374	833.79
425.816	848.75
426.258	865.16
426.699	874.07
427.141	859.3
427.582	869.15
428.024	864.32
428.465	858.31
428.907	837.21
429.348	824.85
429.789	826.98
430.231	810.53
430.672	820.71
431.113	801.33
431.554	787.57
431.995	769.26
432.436	743.2
432.877	727.7
433.318	715.53
433.759	711.94
434.2	714.93
434.64	708.35
435.081	709.71
435.522	673.75
435.962	650.52
436.403	640.65
436.843	648.56
437.284	636.21
437.724	619.02
438.164	620.39
438.604	608.06
439.045	584.61
439.485	562.77
439.925	552.17
440.365	539.1
440.805	532.54
441.245	526.95
441.685	508.83
442.125	505.81
442.564	510.79
443.004	500.41
443.444	501.03
443.883	503.69
444.323	500.03
444.762	500.65
445.202	507.95
445.641	522.1
446.081	519.49
446.52	526.36
446.959	523.98
447.398	513.38
447.837	511.87
448.276	504.33
448.716	510.51
449.154	517.4
449.593	510.08
450.032	511.44
450.471	500.77
450.91	501.52
451.349	503.23
451.787	502.62
452.226	512.09
452.664	513.31
453.103	516.58
453.541	518.29
453.98	518.6
454.418	522.45
454.856	516.62
455.295	518.07
455.733	525.23
456.171	528.12
456.609	531.11
457.047	531.44
457.485	540.36
457.923	542.57
458.361	535.92
458.798	538.38
459.236	537.52
459.674	539.67
460.111	542.27
460.549	536.49
460.987	534.9
461.424	532.11
461.862	529.35
462.299	521.93
462.736	520.86
463.173	523.25
463.611	518.32
464.048	518.01
464.485	524.68
464.922	520.23
465.359	517.85
465.796	515.72
466.233	512.46
466.67	509.42
467.106	508.4
467.543	504.07
467.98	497.31
468.416	485.59
468.853	480.79
469.29	465.83
469.726	461.1
470.162	448.64
470.599	439.3
471.035	435.24
471.471	425.08
471.907	422.22
472.344	419.92
472.78	422.07
473.216	426.5
473.652	423.28
474.088	422.73
474.523	422.51
474.959	427.62
475.395	424.63
475.831	422.66
476.266	424.42
476.702	423.81
477.138	420.35
477.573	419.29
478.008	418.94
478.444	420.75
478.879	425.98
479.314	428.23
479.75	428.6
480.185	430.98
480.62	435.57
481.055	438.76
481.49	442.97
481.925	450.1
482.36	459.42
482.795	472.24
483.229	485.08
483.664	494.92
484.099	497.09
484.534	505.68
484.968	511.91
485.403	513.62
485.837	514
486.271	513.61
486.706	514.57
487.14	509.14
487.574	501.83
488.009	499.31
488.443	496.66
488.877	503.38
489.311	506.03
489.745	513.61
490.179	521.18
490.613	533.71
491.046	540.2
491.48	546.17
491.914	549.02
492.348	556.44
492.781	561.88
493.215	565.92
493.648	569.7
494.082	578.39
494.515	581.77
494.948	591.46
495.382	598.53
495.815	606.3
496.248	615.77
496.681	630.6
497.114	645.16
497.547	659.57
497.98	676.12
498.413	687.78
498.846	701.09
499.279	714.07
499.711	724.21
500.144	732.71
500.577	748.03
501.009	763.16
501.442	779.43
501.874	785.91
502.306	792.59
502.739	806.89
503.171	827.07
503.603	836.35
504.036	852.58
504.468	863.93
504.9	880.66
505.332	894.77
505.764	906.12
506.196	920.12
506.627	941.91
507.059	963.04
507.491	978.11
507.923	982.3
508.354	1004.73
508.786	1022.43
509.217	1047.17
509.649	1069.56
510.08	1094.23
510.512	1117.69
510.943	1137.79
511.374	1155.18
511.805	1181.84
512.237	1207.17
512.668	1247.36
513.099	1281.53
513.53	1315.87
513.961	1342.87
514.391	1381.66
514.822	1421.13
515.253	1465.01
515.684	1497.62
516.114	1532.94
516.545	1559.72
516.975	1592.24
517.406	1614.52
517.836	1619.68
518.267	1627.65
518.697	1649.99
519.127	1656.9
519.558	1667.22
519.988	1672.08
520.418	1684.53
520.848	1707.04
521.278	1717.25
521.708	1734.1
522.138	1748.53
522.567	1784.1
522.997	1812.56
523.427	1830.67
523.857	1849.98
524.286	1862.35
524.716	1880.21
525.145	1901.18
525.575	1912.72
526.004	1928.98
526.433	1924.48
526.863	1925.47
527.292	1913.25
527.721	1919.21
528.15	1925.07
528.579	1923.96
529.008	1935.23
529.437	1959.89
529.866	1975.47
530.295	1995.29
530.724	2008.54
531.152	2038.2
531.581	2053.61
532.01	2074.1
532.438	2084.04
532.867	2100.01
533.295	2122.07
533.723	2128.86
534.152	2125.33
534.58	2125.32
535.008	2105.39
535.436	2107.72
535.865	2117.24
536.293	2133.07
536.721	2150.6
537.149	2181.46
537.576	2184.36
538.004	2198.1
538.432	2207.95
538.86	2207
539.287	2215.47
539.715	2232.8
540.143	2236.58
540.57	2231.99
540.998	2227.87
541.425	2201.74
541.852	2175.28
542.28	2173.19
542.707	2154.26
543.134	2137.81
543.561	2132.64
543.988	2122.72
544.415	2120.96
544.842	2114.23
545.269	2105.18
545.696	2106.7
546.123	2121.08
546.549	2108.97
546.976	2093.87
547.403	2092.41
547.829	2095.04
548.256	2096.12
548.682	2092.33
549.108	2083.06
549.535	2081.64
549.961	2084.04
550.387	2068.02
550.813	2060.04
551.24	2067.97
551.666	2068.67
552.092	2057.67
552.518	2049.7
552.943	2043.02
553.369	2051.41
553.795	2056.44
554.221	2059.19
554.646	2055
555.072	2067.57
555.498	2073.86
555.923	2083.85
556.349	2100.77
556.774	2112
557.199	2113.08
557.625	2119.5
558.05	2111.11
558.475	2125.06
558.9	2122.43
559.325	2114.08
559.75	2108.3
560.175	2101.66
560.6	2093.83
561.025	2092.46
561.449	2093.58
561.874	2100.38
562.299	2107.64
562.723	2117.7
563.148	2106.6
563.572	2113.07
563.997	2125.36
564.421	2131.79
564.846	2133.21
565.27	2138.93
565.694	2138.02
566.118	2153
566.542	2163.25
566.966	2157.22
567.39	2153.48
567.814	2142.76
568.238	2143.8
568.662	2152.33
569.086	2156.91
569.509	2167.63
569.933	2150.54
570.357	2142.13
570.78	2119.31
571.204	2105.67
571.627	2094.47
572.05	2093.9
572.474	2093.42
572.897	2080.33
573.32	2070.49
573.743	2059.25
574.166	2039.02
574.589	2041.16
575.012	2033.94
575.435	2032.81
575.858	2022.05
576.281	2009.41
576.704	1990.84
577.126	1977.67
577.549	1964.26
577.972	1953.91
578.394	1941.99
578.817	1932.62
579.239	1910.02
579.661	1893.78
580.084	1873.97
580.506	1858.8
580.928	1853.05
581.35	1840.06
581.772	1834.69
582.194	1818.01
582.616	1803.07
583.038	1787.27
583.46	1775.5
583.882	1771.71
584.303	1777.45
584.725	1773.93
585.147	1775.34
585.568	1788.39
585.99	1802.36
586.411	1810.51
586.833	1828.95
587.254	1830.82
587.675	1847.36
588.096	1860.69
588.518	1855.61
588.939	1835.85
589.36	1833.49
589.781	1821.49
590.202	1787.65
590.623	1777.38
591.043	1774.56
591.464	1760.07
591.885	1756.34
592.305	1749.41
592.726	1734.29
593.147	1735.12
593.567	1728.83
593.987	1719.49
594.408	1714.4
594.828	1712.22
595.248	1705.86
595.669	1684.32
596.089	1675.46
596.509	1667.2
596.929	1651.77
597.349	1652.56
597.769	1640.08
598.189	1631.91
598.608	1633.74
599.028	1635.73
599.448	1635.96
599.867	1620.19
600.287	1615.04
600.706	1610.24
601.126	1598.94
601.545	1597.05
601.965	1595.36
602.384	1589.66
602.803	1593.64
603.222	1586.86
603.641	1578.93
604.061	1575
604.48	1570.45
604.898	1579.19
605.317	1584.12
605.736	1585.86
606.155	1581.39
606.574	1570.14
606.992	1575.04
607.411	1568.22
607.829	1558.52
608.248	1554.15
608.666	1549.73
609.085	1548.22
609.503	1536.92
609.921	1529.22
610.339	1530.84
610.758	1530.06
611.176	1524.12
611.594	1513.44
612.012	1507.7
612.43	1510.47
612.847	1517.05
613.265	1515.88
613.683	1520.06
614.101	1520.78
614.518	1515.31
614.936	1502.78
615.353	1484.54
615.771	1480.1
616.188	1480.06
616.606	1476.34
617.023	1467.19
617.44	1450.58
617.857	1442.95
618.274	1431.6
618.691	1423.69
619.108	1412.26
619.525	1404.62
619.942	1411.54
620.359	1412.64
620.776	1405.22
621.192	1399.4
621.609	1397.14
622.026	1402.01
622.442	1407.29
622.859	1411.7
623.275	1404.06
623.691	1409.56
624.108	1422.17
624.524	1437.4
624.94	1437.26
625.356	1448.12
625.772	1462.84
626.188	1475.4
626.604	1477.76
627.02	1473.59
627.436	1470.94
627.852	1477.46
628.268	1490.68
628.683	1479.92
629.099	1470.92
629.514	1464.97
629.93	1469.74
630.345	1474.69
630.761	1468.93
631.176	1473.09
631.591	1467.22
632.007	1459.72
632.422	1457.52
632.837	1444.68
633.252	1441.56
633.667	1429.23
634.082	1418.46
634.497	1403.41
634.911	1381.39
635.326	1377.02
635.741	1356.89
636.155	1344.49
636.57	1344.08
636.984	1342.49
637.399	1342.82
637.813	1340.77
638.228	1338.47
638.642	1342.95
639.056	1329.76
639.47	1328.17
639.884	1317.5
640.298	1308.18
640.712	1305.02
641.126	1290.81
641.54	1278.37
641.954	1270.48
642.368	1254.33
642.781	1241.98
643.195	1220.06
643.609	1216.8
644.022	1206.05
644.436	1199.19
644.849	1183.59
645.262	1167.73
645.676	1165.76
646.089	1157.32
646.502	1137.59
646.915	1128.74
647.328	1107.89
647.741	1102.03
648.154	1086.01
648.567	1080.63
648.98	1063.47
649.393	1060.5
649.805	1053.73
650.218	1042.72
650.631	1024.35
651.043	1014.79
651.456	1005.84
651.868	1004
652.28	1018.92
652.693	1027.71
653.105	1030.4
653.517	1034.85
653.929	1031.42
654.341	1031.55
654.753	1015.74
655.165	1018.48
655.577	1011.48
655.989	1002.82
656.401	988.96
656.813	948.63
657.224	926.09
657.636	893.15
658.047	871.81
658.459	847.42
658.87	832.99
659.282	814.65
659.693	789.13
660.104	770.25
660.515	751.43
660.926	745.11
661.338	735.47
661.749	722.31
662.159	708.09
662.57	697.04
662.981	686.74
663.392	674.73
663.803	671.2
664.213	662.32
664.624	651.56
665.035	647.48
665.445	628.82
665.855	617.37
666.266	606.2
666.676	598.62
667.086	586.22
667.497	580.85
667.907	571.73
668.317	560.38
668.727	554.41
669.137	550.51
669.547	545.02
669.956	543.72
670.366	540.6
670.776	538.37
671.186	537.77
671.595	538.11
672.005	537.67
672.414	536.1
672.824	534.16
673.233	535.23
673.642	537.13
674.052	538.31
674.461	540.15
674.87	543.97
675.279	542.27
675.688	542.85
676.097	543.78
676.506	541.25
676.915	550.62
677.323	553.8
677.732	552.29
678.141	551.64
678.549	544.92
678.958	544.69
679.366	545.17
679.775	550.73
680.183	562.23
680.592	569.42
681	577.36
681.408	576.06
681.816	585.85
682.224	597.27
682.632	611.86
683.04	641.59
683.448	668.24
683.856	701.35
684.264	738.3
684.671	773.46
685.079	818.09
685.487	868
685.894	935.84
686.302	996.17
686.709	1050.42
687.116	1111.74
687.524	1166.23
687.931	1216
688.338	1262.27
688.745	1304.38
689.152	1350.92
689.559	1407.46
689.966	1462.65
690.373	1495.05
690.78	1544.2
691.187	1617.71
691.593	1676.3
692	1727.18
692.407	1797.95
692.813	1883.43
693.22	1952.1
693.626	2021.88
694.032	2077.93
694.439	2161.29
694.845	2227.47
695.251	2309.96
695.657	2381.45
696.063	2487.57
696.469	2566.47
696.875	2640.22
697.281	2679.81
697.687	2727.94
698.093	2767.73
698.498	2846.11
698.904	2905.78
