Data from N_2_HIR_WI_4N_Splice17_12-32-28-798.txt Node
Date: Sat Mar 14 12:32:28 EDT 2020
User: sa697716
Spectrometer: FLMS03696
Trigger mode: 0
Integration Time (sec): 3.180400E-1
Scans to average: 20
Electric dark correction enabled: true
Nonlinearity correction enabled: true
Boxcar width: 5
XAxis mode: Wavelengths
Number of Pixels in Spectrum: 2048
>>>>>Begin Spectral Data<<<<<
187.83	-316087.38
188.298	2304.68
188.766	1279.05
189.233	1110.92
189.701	1561.48
190.169	2202.11
190.636	837.41
191.104	700.8
191.571	112.04
192.039	-55.23
192.506	-36.92
192.974	471.08
193.441	-679.55
193.908	-112.54
194.375	-72.34
194.842	11.72
195.31	180.79
195.777	197.06
196.244	428.11
196.711	501.99
197.177	639.28
197.644	925.67
198.111	1560.56
198.578	2199.47
199.045	1764.85
199.511	2912.53
199.978	3395.56
200.445	2897.02
200.911	3218.67
201.378	3592.83
201.844	3251.86
202.31	5565.36
202.777	5805.04
203.243	3239.73
203.709	3067.33
204.176	3663.04
204.642	3011.47
205.108	2818.23
205.574	2280.48
206.04	2081.39
206.506	1953.64
206.972	1855.71
207.438	1799.35
207.903	2031.51
208.369	1785.83
208.835	1790.17
209.301	1868.09
209.766	1908.03
210.232	1892.29
210.697	2334.39
211.163	2890.03
211.628	4377.7
212.094	3671.78
212.559	4493.75
213.024	2811.06
213.49	3446.01
213.955	3365.75
214.42	3319.59
214.885	3112.1
215.35	2972.92
215.815	2877.14
216.28	3056.51
216.745	2496.91
217.21	2719.1
217.675	2517.45
218.14	2856
218.604	3205.91
219.069	3715.97
219.534	3927.15
219.998	4616.94
220.463	5658.17
220.927	7025.81
221.392	6662.76
221.856	6790.73
222.32	8610.91
222.785	10670.35
223.249	13505.75
223.713	15158.17
224.177	15184.12
224.642	19557.44
225.106	24109.68
225.57	26416.07
226.034	19629.92
226.497	29884.26
226.961	27059.57
227.425	31539.59
227.889	35101.28
228.353	35120.62
228.816	72586.9
229.28	69502.7
229.744	58672.52
230.207	35691.11
230.671	35133.6
231.134	58300.38
231.597	67307.41
232.061	67390.01
232.524	65780.27
232.987	45358.3
233.45	40875.32
233.914	36675.86
234.377	37666.35
234.84	34509.44
235.303	40715.5
235.766	45485.47
236.229	47080.74
236.691	29699.77
237.154	33341.69
237.617	25123.28
238.08	25733.54
238.542	30130.41
239.005	21560.6
239.468	21379.29
239.93	20157.06
240.393	18313.16
240.855	16080.23
241.317	16457.22
241.78	20025.12
242.242	20702.79
242.704	22310.92
243.166	19420.22
243.629	17626.75
244.091	20295.38
244.553	22244.72
245.015	23922.92
245.477	30975.19
245.939	45375.22
246.4	48143.97
246.862	46778.58
247.324	44096.91
247.786	49406.87
248.247	64778.98
248.709	66907.23
249.17	50066.2
249.632	47171.76
250.093	54607.68
250.555	47176.64
251.016	28779.37
251.477	27287.65
251.939	29449.43
252.4	30901.81
252.861	36766.68
253.322	34185.06
253.783	40729.3
254.244	52810.37
254.705	41625.5
255.166	37004.1
255.627	36389.57
256.088	51289.84
256.549	54462.09
257.009	46850.2
257.47	56777.73
257.931	46170.04
258.391	34549.37
258.852	35554.34
259.312	37250.95
259.773	45977.14
260.233	38818.04
260.694	32730.23
261.154	37079.77
261.614	29729.93
262.074	26601.76
262.534	27621.02
262.994	26012.99
263.455	34647.99
263.915	29168.06
264.374	27477.74
264.834	29972.13
265.294	33220.38
265.754	34368.7
266.214	32547.24
266.673	30471
267.133	38435.46
267.593	38125.86
268.052	46670.13
268.512	40602.98
268.971	48952.41
269.431	53678.48
269.89	48076.82
270.349	72060.61
270.809	80407.12
271.268	72274.69
271.727	162237.65
272.186	104955.63
272.645	78719.85
273.104	56725.18
273.563	82048.96
274.022	64511.72
274.481	54819.06
274.94	42196.92
275.399	31356.12
275.857	36497.62
276.316	49324.26
276.775	43880.16
277.233	43244.53
277.692	40487.26
278.15	45808.56
278.609	47120.37
279.067	43611.61
279.525	40459.84
279.984	52281.09
280.442	62789.12
280.9	61801.46
281.358	40652.58
281.816	37863.26
282.274	37043.47
282.732	38265.22
283.19	38434.19
283.648	33200.23
284.106	35341.8
284.564	35968.15
285.021	33335
285.479	24834.71
285.937	22617.26
286.394	19820.38
286.852	20386.09
287.309	21406.48
287.767	20655.31
288.224	19633.22
288.682	21512.37
289.139	23577.34
289.596	21554.82
290.053	22385.85
290.511	28244.47
290.968	34229.53
291.425	46466.03
291.882	38630.24
292.339	33629.32
292.796	33345.95
293.252	31427.26
293.709	24969.48
294.166	22393.99
294.623	24762.78
295.079	23762.86
295.536	23858.98
295.992	21633.21
296.449	21401.6
296.905	22262.42
297.362	21351.78
297.818	22475.66
298.274	23306.82
298.731	23729.29
299.187	23471.21
299.643	25201.37
300.099	30459.42
300.555	33407.96
301.011	27946.36
301.467	26914.47
301.923	31495.32
302.379	30736.45
302.835	30205.42
303.291	30255.59
303.746	34449.27
304.202	43526.36
304.658	43737.83
305.113	29448.8
305.569	28856.82
306.024	30756.21
306.479	29323.95
306.935	24731.48
307.39	27041.59
307.845	24961.63
308.301	25120.9
308.756	24485.89
309.211	23612.48
309.666	24179.96
310.121	30007.38
310.576	30479.42
311.031	30296.43
311.486	34672.77
311.94	34669.74
312.395	46388.36
312.85	87234.71
313.305	428568.86
313.759	2218361.35
314.214	160710.16
314.668	127272.73
315.123	107079.64
315.577	38378.58
316.032	34071.17
316.486	42696.74
316.94	33668.57
317.394	23428.59
317.849	18201.27
318.303	17244.88
318.757	16264.05
319.211	17971.83
319.665	15737.39
320.119	15915.81
320.572	22846.27
321.026	21356.19
321.48	17783.94
321.934	19390.89
322.387	19429.15
322.841	20993.69
323.295	18856.17
323.748	21739.14
324.202	22084.29
324.655	26521.36
325.108	37078.02
325.562	26167.51
326.015	31090.61
326.468	23488.71
326.921	26277.41
327.374	24505.8
327.827	25534.92
328.28	28934.03
328.733	19429.33
329.186	17082.83
329.639	16280.7
330.092	13729.85
330.545	13089.47
330.997	13207.66
331.45	14452.76
331.903	16941.74
332.355	29186.36
332.808	28373.4
333.26	23427.57
333.713	25393.96
334.165	25589.57
334.617	34189.77
335.069	27624.44
335.522	49975.54
335.974	55409.89
336.426	50631.87
336.878	35077.21
337.33	17779.68
337.782	17354.29
338.234	21713.58
338.686	25990.8
339.137	30790.85
339.589	28977.66
340.041	22740.81
340.493	19555.94
340.944	20030.43
341.396	21574.5
341.847	18142.13
342.299	21387.02
342.75	26120.51
343.201	22812.49
343.653	26239.56
344.104	32255.4
344.555	25435.43
345.006	39563.1
345.457	30276.51
345.908	24065.18
346.359	22640.97
346.81	18444.11
347.261	19453.82
347.712	19160.55
348.163	20584.84
348.613	20848.15
349.064	19451.79
349.515	17022.5
349.965	17485.74
350.416	21073.01
350.866	23131.54
351.317	26144.99
351.767	43309.65
352.217	54709.43
352.668	45360.22
353.118	41555.35
353.568	40053.04
354.018	31704.4
354.468	33471.36
354.918	23991.67
355.368	21013.28
355.818	29656.67
356.268	85378.49
356.718	357819.22
357.168	89168.43
357.617	44825.83
358.067	49839.45
358.517	46776.61
358.966	54917.04
359.416	61547.81
359.865	66588.26
360.315	79313.49
360.764	37097.86
361.213	20803.89
361.663	19715.75
362.112	24338
362.561	39356.73
363.01	29713.06
363.459	24990.54
363.908	27015.27
364.357	22941.69
364.806	38757.54
365.255	26633.24
365.703	24385.23
366.152	24432.96
366.601	19829.51
367.05	16112.47
367.498	14644.75
367.947	15300.75
368.395	15926.07
368.844	14128.81
369.292	17053.63
369.74	11799.14
370.189	18102.67
370.637	21267.41
371.085	18373.05
371.533	22391.33
371.981	21601.86
372.429	20587.9
372.877	21478.3
373.325	17994.55
373.773	18351.6
374.221	16372.9
374.669	20301.73
375.116	17593.68
375.564	17767.05
376.012	19913.99
376.459	16457.9
376.907	19697.65
377.354	23880.43
377.801	22307.28
378.249	25736.13
378.696	32983.65
379.143	40015.42
379.591	42777.65
380.038	72461.24
380.485	52415.39
380.932	56687.6
381.379	51959.82
381.826	38317.52
382.273	27317.95
382.72	23957.58
383.166	23367.82
383.613	15199.1
384.06	13757.23
384.506	15968.36
384.953	11757.8
385.4	11901.32
385.846	10456.26
386.292	10232
386.739	10061.31
387.185	9983.19
387.631	10026.14
388.078	9772.8
388.524	10495.43
388.97	9718.96
389.416	8138.76
389.862	8696.69
390.308	8259.61
390.754	8420.45
391.2	9174.35
391.645	9419.42
392.091	9030.23
392.537	8762.74
392.983	8815.6
393.428	8697.19
393.874	9350.47
394.319	9403.9
394.765	8930.58
395.21	9205.37
395.655	8663.31
396.101	8130.49
396.546	7366.97
396.991	7463.21
397.436	6942.63
397.881	6717.34
398.326	6377.34
398.771	6051.48
399.216	5300.65
399.661	4788.8
400.106	4784.56
400.551	4902.08
400.995	4401.7
401.44	4358
401.885	4102.14
402.329	4154.95
402.774	3989.99
403.218	3864.58
403.663	3725.77
404.107	3840.02
404.551	3865.08
404.995	3546.07
405.44	3427.47
405.884	3486.51
406.328	3377.89
406.772	3368.23
407.216	3068.45
407.66	2968.98
408.104	2822.48
408.547	2647.16
408.991	2563.33
409.435	2472.29
409.879	2441.11
410.322	2410.2
410.766	2329.4
411.209	2216.1
411.653	2130.62
412.096	2087.93
412.54	2091.43
412.983	2082.69
413.426	2089.04
413.869	2088.77
414.312	2052.26
414.756	1979.85
415.199	1889.3
415.642	1833.42
416.085	1835.32
416.527	1821.52
416.97	1851.12
417.413	1755.31
417.856	1736.04
418.298	1716.07
418.741	1706.16
419.184	1702.69
419.626	1773.11
420.069	1771.15
420.511	1782.86
420.953	1743.39
421.396	1728.66
421.838	1686.97
422.28	1725.27
422.722	1735.07
423.164	1763.91
423.606	1735.79
424.048	1733.52
424.49	1645.21
424.932	1638.75
425.374	1616.14
425.816	1647.29
426.258	1677.89
426.699	1695.45
427.141	1670.55
427.582	1697.23
428.024	1687.7
428.465	1678.92
428.907	1635.66
429.348	1616.87
429.789	1614.23
430.231	1578.39
430.672	1599.81
431.113	1563.35
431.554	1540.23
431.995	1502.38
432.436	1446.77
432.877	1412.26
433.318	1384.15
433.759	1381.12
434.2	1382.42
434.64	1369.99
435.081	1376
435.522	1303.27
435.962	1254.37
436.403	1228.22
436.843	1246.45
437.284	1219.89
437.724	1188.63
438.164	1194.2
438.604	1165.99
439.045	1122.17
439.485	1076.72
439.925	1052.58
440.365	1025.93
440.805	1014.44
441.245	1001.07
441.685	963.94
442.125	958.29
442.564	965.68
443.004	945.46
443.444	945.33
443.883	948.64
444.323	943.41
444.762	949.16
445.202	965.05
445.641	984
446.081	981.53
446.52	992.61
446.959	984.68
447.398	963.32
447.837	951.24
448.276	937.54
448.716	947.23
449.154	956.65
449.593	934.91
450.032	933.46
450.471	918.58
450.91	920.82
451.349	919.48
451.787	916.84
452.226	932.76
452.664	936.29
453.103	939.05
453.541	939.87
453.98	939.98
454.418	947.55
454.856	931.38
455.295	931.91
455.733	939.96
456.171	945.87
456.609	948.15
457.047	948.55
457.485	962.47
457.923	963.63
458.361	951.88
458.798	953.56
459.236	950.3
459.674	959.92
460.111	961.88
460.549	951.35
460.987	948.48
461.424	945.84
461.862	940.51
462.299	925.06
462.736	923.2
463.173	923.93
463.611	914.54
464.048	912.49
464.485	919.97
464.922	912.98
465.359	909.15
465.796	894.94
466.233	887.1
466.67	878.76
467.106	877.66
467.543	870.4
467.98	859.92
468.416	838.63
468.853	832.76
469.29	805.89
469.726	796.53
470.162	775.86
470.599	767.9
471.035	761.26
471.471	741.78
471.907	737.28
472.344	733.44
472.78	735.89
473.216	744.74
473.652	736.27
474.088	735.8
474.523	734.02
474.959	741.18
475.395	735
475.831	730.2
476.266	734.78
476.702	733.02
477.138	723.98
477.573	721
478.008	717.75
478.444	721.2
478.879	727.69
479.314	731.02
479.75	729.54
480.185	733.38
480.62	741.92
481.055	746.37
481.49	752
481.925	764.05
482.36	778.27
482.795	800.86
483.229	822.09
483.664	840.22
484.099	843.84
484.534	858.82
484.968	867.21
485.403	869.33
485.837	869.08
486.271	868.39
486.706	869.3
487.14	859.7
487.574	846.96
488.009	840.07
488.443	833.81
488.877	842.36
489.311	844.7
489.745	854.87
490.179	862.95
490.613	879.28
491.046	886.94
491.48	894.25
491.914	896.67
492.348	903.79
492.781	910.29
493.215	911.7
493.648	913.9
494.082	922.04
494.515	922.67
494.948	933.84
495.382	941.12
495.815	948.35
496.248	956.01
496.681	972.68
497.114	988.38
497.547	1002.4
497.98	1020.63
498.413	1028.89
498.846	1042.31
499.279	1055.52
499.711	1061.05
500.144	1065.1
500.577	1078.6
501.009	1093.15
501.442	1107.07
501.874	1108.84
502.306	1111.39
502.739	1121.36
503.171	1142.77
503.603	1147.87
504.036	1160.44
504.468	1169.54
504.9	1185.01
505.332	1194.85
505.764	1200.86
506.196	1209.62
506.627	1229.28
507.059	1247.49
507.491	1259.09
507.923	1255.09
508.354	1273.61
508.786	1287.07
509.217	1309.78
509.649	1327.23
510.08	1351.65
510.512	1372.85
510.943	1391.58
511.374	1405.35
511.805	1430.13
512.237	1453.87
512.668	1494.28
513.099	1526.87
513.53	1559.69
513.961	1583.49
514.391	1622.26
514.822	1660.32
515.253	1702.75
515.684	1732.81
516.114	1767.49
516.545	1791.69
516.975	1822.68
517.406	1842.06
517.836	1842.42
518.267	1847.46
518.697	1866.56
519.127	1868.18
519.558	1874.64
519.988	1876.05
520.418	1885.97
520.848	1905.55
521.278	1912.4
521.708	1922.95
522.138	1935.96
522.567	1972.27
522.997	2000.31
523.427	2016.36
523.857	2035.06
524.286	2044.15
524.716	2060.4
525.145	2080.37
525.575	2089.47
526.004	2105.31
526.433	2100.58
526.863	2098.6
527.292	2083.3
527.721	2088.59
528.15	2094.21
528.579	2093.13
529.008	2104.9
529.437	2132.11
529.866	2146.99
530.295	2168.95
530.724	2183.15
531.152	2215.93
531.581	2232.09
532.01	2252.2
532.438	2261.12
532.867	2278.55
533.295	2301.71
533.723	2309.16
534.152	2305.52
534.58	2305.34
535.008	2284.11
535.436	2285.92
535.865	2295.12
536.293	2312.85
536.721	2332.34
537.149	2363.24
537.576	2365.23
538.004	2379.02
538.432	2386.68
538.86	2382.76
539.287	2392.44
539.715	2408.51
540.143	2411.21
540.57	2405.6
540.998	2400.17
541.425	2371.71
541.852	2346.02
542.28	2344
542.707	2323.03
543.134	2306.97
543.561	2302.57
543.988	2291.04
544.415	2289.11
544.842	2280.94
545.269	2271.35
545.696	2272.22
546.123	2287.86
546.549	2273.64
546.976	2255.93
547.403	2255.52
547.829	2256.93
548.256	2258.25
548.682	2253.55
549.108	2243.02
549.535	2241.59
549.961	2243.47
550.387	2227.91
550.813	2219.14
551.24	2227.11
551.666	2227.59
552.092	2214.79
552.518	2206.44
552.943	2198.99
553.369	2207.41
553.795	2215.44
554.221	2217.03
554.646	2214.3
555.072	2226.98
555.498	2235.33
555.923	2247.22
556.349	2267.86
556.774	2279.04
557.199	2281.13
557.625	2289.28
558.05	2283.39
558.475	2296.93
558.9	2296.96
559.325	2286.5
559.75	2279.31
560.175	2270.96
560.6	2262.55
561.025	2260.65
561.449	2261.93
561.874	2270.07
562.299	2276.4
562.723	2286.54
563.148	2275.91
563.572	2282.15
563.997	2295.14
564.421	2303.89
564.846	2306.96
565.27	2313.57
565.694	2312.45
566.118	2330.33
566.542	2340.72
566.966	2333.95
567.39	2330.27
567.814	2317.59
568.238	2319.1
568.662	2329.07
569.086	2334.06
569.509	2345.02
569.933	2326.39
570.357	2318.85
570.78	2293.1
571.204	2278.8
571.627	2266.86
572.05	2265.38
572.474	2266.04
572.897	2250.45
573.32	2241.43
573.743	2229.64
574.166	2208.03
574.589	2210.35
575.012	2202.62
575.435	2202.72
575.858	2192.18
576.281	2179.29
576.704	2159.92
577.126	2146.01
577.549	2134.4
577.972	2124.06
578.394	2112.94
578.817	2103.77
579.239	2081.01
579.661	2062.87
580.084	2043.97
580.506	2028.2
580.928	2024.13
581.35	2011.71
581.772	2007.25
582.194	1990.8
582.616	1974.11
583.038	1956.14
583.46	1944.43
583.882	1941.87
584.303	1949.53
584.725	1944.43
585.147	1946.5
585.568	1961.53
585.99	1978.63
586.411	1987.35
586.833	2007.51
587.254	2010.41
587.675	2031.35
588.096	2048.48
588.518	2041.39
588.939	2019.88
589.36	2018.44
589.781	2007.09
590.202	1969.95
590.623	1958.38
591.043	1955.93
591.464	1939.84
591.885	1934.77
592.305	1926.62
592.726	1908.21
593.147	1911.37
593.567	1906.36
593.987	1898.08
594.408	1892.53
594.828	1892.12
595.248	1885.3
595.669	1862.24
596.089	1854.11
596.509	1846.98
596.929	1830.08
597.349	1831.14
597.769	1817.66
598.189	1809.22
598.608	1810.99
599.028	1813.39
599.448	1813.3
599.867	1797.24
600.287	1792.78
600.706	1787.38
601.126	1776.03
601.545	1774.22
601.965	1773.32
602.384	1767.26
602.803	1771.13
603.222	1764.25
603.641	1755.54
604.061	1751.03
604.48	1746.54
604.898	1757.27
605.317	1764.17
605.736	1766.72
606.155	1763.41
606.574	1753.76
606.992	1761.06
607.411	1755.93
607.829	1745.79
608.248	1742.51
608.666	1740.22
609.085	1739.44
609.503	1728.52
609.921	1719.61
610.339	1722.3
610.758	1722.67
611.176	1715.79
611.594	1704.88
612.012	1700.6
612.43	1706.03
612.847	1714.93
613.265	1715.74
613.683	1722.79
614.101	1725.5
614.518	1722.83
614.936	1710.43
615.353	1691.36
615.771	1688.43
616.188	1689.49
616.606	1685.57
617.023	1676.13
617.44	1658.2
617.857	1650.16
618.274	1639.41
618.691	1631.74
619.108	1619.31
619.525	1611.81
619.942	1621.56
620.359	1625.16
620.776	1618.49
621.192	1613.34
621.609	1611.47
622.026	1620.23
622.442	1627.57
622.859	1631.68
623.275	1622.17
623.691	1629.13
624.108	1644.14
624.524	1662.35
624.94	1662.2
625.356	1675.31
625.772	1693.5
626.188	1709.82
626.604	1711.63
627.02	1707.28
627.436	1706.09
627.852	1715.49
628.268	1731.1
628.683	1719.58
629.099	1708.03
629.514	1702.83
629.93	1708.2
630.345	1712.84
630.761	1707.37
631.176	1713.11
631.591	1706.56
632.007	1697.71
632.422	1696.09
632.837	1682.4
633.252	1678.94
633.667	1665.97
634.082	1653.44
634.497	1637.62
634.911	1613.03
635.326	1608.93
635.741	1587.03
636.155	1575.15
636.57	1577.22
636.984	1577.11
637.399	1580.6
637.813	1581.67
638.228	1582.69
638.642	1590.48
639.056	1578.31
639.47	1580.88
639.884	1571.66
640.298	1565.69
640.712	1564.65
641.126	1550.91
641.54	1541.32
641.954	1536.03
642.368	1522.32
642.781	1512.67
643.195	1490.33
643.609	1491.97
644.022	1486.11
644.436	1482.41
644.849	1468.43
645.262	1454.93
645.676	1458.31
646.089	1452.82
646.502	1433.98
646.915	1428.58
647.328	1407.54
647.741	1406.36
648.154	1389.63
648.567	1384.59
648.98	1366.44
649.393	1365.7
649.805	1360.92
650.218	1349.69
650.631	1328.38
651.043	1319.27
651.456	1310.37
651.868	1311
652.28	1332.36
652.693	1349.63
653.105	1357.27
653.517	1369.44
653.929	1368.95
654.341	1374.98
654.753	1358.42
655.165	1364.53
655.577	1360.62
655.989	1353.19
656.401	1340.92
656.813	1293.12
657.224	1265.06
657.636	1227.09
658.047	1202.83
658.459	1176.15
658.87	1164.04
659.282	1148.19
659.693	1119.86
660.104	1100.04
660.515	1082.64
660.926	1080.49
661.338	1074.87
661.749	1066.65
662.159	1053.25
662.57	1044.67
662.981	1038.2
663.392	1027.62
663.803	1031.48
664.213	1029.23
664.624	1022.2
665.035	1023.5
665.445	1004.56
665.855	994.58
666.266	982.06
666.676	978.16
667.086	966.43
667.497	965.07
667.907	955.41
668.317	942.13
668.727	935.94
669.137	935.22
669.547	930.82
669.956	932.25
670.366	933.27
670.776	935.44
671.186	940.27
671.595	944.42
672.005	946.63
672.414	944.46
672.824	942.35
673.233	947.15
673.642	949.88
674.052	953.18
674.461	955.36
674.87	960.8
675.279	956.15
675.688	955.61
676.097	955.84
676.506	951.39
676.915	968.38
677.323	971.03
677.732	968.67
678.141	968.74
678.549	956.06
678.958	955.02
679.366	954.58
679.775	961.38
680.183	975.44
680.592	984.53
681	992.32
681.408	985.34
681.816	995.84
682.224	1008.38
682.632	1020.73
683.04	1058.6
683.448	1089.29
683.856	1127.39
684.264	1172.6
684.671	1212.66
685.079	1261.79
685.487	1316.78
685.894	1394.43
686.302	1459.01
686.709	1509.54
687.116	1569.57
687.524	1617.67
687.931	1659.23
688.338	1693.71
688.745	1720.23
689.152	1752.73
689.559	1799.5
689.966	1843.82
690.373	1859.39
690.78	1897.54
691.187	1964.91
691.593	2011.46
692	2051.9
692.407	2116.29
692.813	2195.33
693.22	2257.71
693.626	2323.24
694.032	2370.69
694.439	2449.67
694.845	2510.32
