Data from N_2_DEC_ON_6N_Splice17_12-14-34-317.txt Node
Date: Sat Mar 14 12:14:34 EDT 2020
User: sa697716
Spectrometer: FLMS03696
Trigger mode: 0
Integration Time (sec): 3.180400E-1
Scans to average: 20
Electric dark correction enabled: true
Nonlinearity correction enabled: true
Boxcar width: 5
XAxis mode: Wavelengths
Number of Pixels in Spectrum: 2048
>>>>>Begin Spectral Data<<<<<
187.83	-230283.25
188.298	1838.33
188.766	1000.78
189.233	881.48
189.701	1217.34
190.169	1634.45
190.636	638.64
191.104	534.67
191.571	72.39
192.039	-30.92
192.506	14.47
192.974	614.63
193.441	-992.15
193.908	-270.34
194.375	-39.17
194.842	40.78
195.31	146.88
195.777	209.95
196.244	400.96
196.711	452.2
197.177	557.22
197.644	760.04
198.111	1295.84
198.578	1803.41
199.045	1433.33
199.511	2296.84
199.978	2660.47
200.445	2223.41
200.911	2452.77
201.378	2744.19
201.844	2491.06
202.31	4230.92
202.777	4435.1
203.243	2461
203.709	2339.06
204.176	2743.42
204.642	2249.8
205.108	2084.1
205.574	1700.45
206.04	1537
206.506	1435.95
206.972	1343.53
207.438	1295.89
207.903	1434.43
208.369	1265.85
208.835	1266.93
209.301	1322.33
209.766	1346.08
210.232	1320.83
210.697	1615.63
211.163	1969.89
211.628	2913.42
212.094	2426.78
212.559	3015.63
213.024	1914.64
213.49	2320.5
213.955	2237.03
214.42	2185.35
214.885	2036.85
215.35	1956.57
215.815	1894.11
216.28	1996.24
216.745	1601.39
217.21	1708.04
217.675	1501.44
218.14	1631.25
218.604	1755
219.069	1937.03
219.534	1966.44
219.998	2193
220.463	2564.95
220.927	3019.87
221.392	2760.27
221.856	2756.44
222.32	3380.18
222.785	4121.77
223.249	5078.71
223.713	5605.75
224.177	5542.16
224.642	7003.85
225.106	8556.19
225.57	9259.14
226.034	6879.62
226.497	10417.04
226.961	9383.63
227.425	10875.16
227.889	11949.23
228.353	11909.42
228.816	24428.76
229.28	23320.97
229.744	19576.86
230.207	11872.61
230.671	11660.97
231.134	19085.68
231.597	21946.92
232.061	21721.65
232.524	21085.86
232.987	14491.13
233.45	13008.51
233.914	11621.72
234.377	11841.08
234.84	10849.42
235.303	12746.3
235.766	14186.27
236.229	14669.45
236.691	9216.52
237.154	10336.87
237.617	7789.96
238.08	7973.2
238.542	9337.09
239.005	6686.51
239.468	6634.78
239.93	6234.62
240.393	5668.46
240.855	4979.75
241.317	5077.99
241.78	6158.31
242.242	6390.17
242.704	6902.68
243.166	6024.23
243.629	5496.56
244.091	6315.64
244.553	6913.56
245.015	7445.04
245.477	9615.79
245.939	14035.54
246.4	14911.76
246.862	14478.22
247.324	13635.4
247.786	15214.56
248.247	19838.34
248.709	20325.89
249.17	15205.86
249.632	14409.04
250.093	16688.58
250.555	14368.35
251.016	8790.27
251.477	8344.45
251.939	9006.94
252.4	9409.07
252.861	11168.26
253.322	10419.17
253.783	12360.13
254.244	16001.64
254.705	12537.91
255.166	11117.26
255.627	10948
256.088	15434.23
256.549	16351.97
257.009	14037.1
257.47	16982.47
257.931	13777.93
258.391	10300.97
258.852	10633.39
259.312	11115.87
259.773	13706.68
260.233	11591.13
260.694	9777.93
261.154	11031.1
261.614	8881.79
262.074	7941.33
262.534	8253.07
262.994	7773.5
263.455	10334.56
263.915	8678.65
264.374	8159.72
264.834	8881.4
265.294	9791.7
265.754	10105.92
266.214	9551.36
266.673	8902.35
267.133	11174.01
267.593	11052.18
268.052	13507.6
268.512	11704.03
268.971	14115.45
269.431	15474.05
269.89	13826.25
270.349	20727.37
270.809	23101.13
271.268	20769.67
271.727	46437.36
272.186	30103.74
272.645	22598.3
273.104	16225.78
273.563	23475.17
274.022	18387.61
274.481	15643.45
274.94	12067.22
275.399	8967.64
275.857	10422.57
276.316	14064.12
276.775	12534.49
277.233	12355.27
277.692	11568.73
278.15	13135.88
278.609	13551.37
279.067	12562.75
279.525	11683.18
279.984	15077.45
280.442	18140.2
280.9	17995.69
281.358	11882.51
281.816	11106.82
282.274	10901.24
282.732	11266.57
283.19	11310.14
283.648	9752.06
284.106	10423.81
284.564	10611.12
285.021	9862.67
285.479	7335.38
285.937	6643.4
286.394	5850.09
286.852	6010.28
287.309	6323.3
287.767	6137.55
288.224	5856.03
288.682	6446.21
289.139	7067.3
289.596	6466.67
290.053	6708.04
290.511	8461.19
290.968	10257.22
291.425	13861.84
291.882	11560.05
292.339	10052.93
292.796	9937.14
293.252	9372.74
293.709	7450.67
294.166	6677.55
294.623	7379.92
295.079	7082.41
295.536	7140.43
295.992	6495.73
296.449	6411.84
296.905	6684.35
297.362	6419.9
297.818	6742.32
298.274	7002.7
298.731	7124.53
299.187	7046.67
299.643	7577.74
300.099	9179.79
300.555	10054.96
301.011	8418.19
301.467	8180.79
301.923	9504.52
302.379	9279.76
302.835	9151.87
303.291	9156.75
303.746	10394.71
304.202	13141.97
304.658	13178.79
305.113	8874.65
305.569	8727.13
306.024	9294.49
306.479	8802.51
306.935	7468.18
307.39	8171.57
307.845	7560.17
308.301	7643.26
308.756	7464.8
309.211	7224.69
309.666	7410.87
310.121	9266
310.576	9381.02
311.031	9304.12
311.486	10668.29
311.94	10644.55
312.395	14237.34
312.85	26683.76
313.305	130764.34
313.759	682438.69
314.214	49588.91
314.668	39505.9
315.123	33206.03
315.577	11970.98
316.032	10681.62
316.486	13397.43
316.94	10624.46
317.394	7425.81
317.849	5783.71
318.303	5470.24
318.757	5167.48
319.211	5698.87
319.665	4976.12
320.119	5023.31
320.572	7173.93
321.026	6721.15
321.48	5593.43
321.934	6093.03
322.387	6105.87
322.841	6609.64
323.295	5990.5
323.748	6856.75
324.202	6969.65
324.655	8373.29
325.108	11767.61
325.562	8336.54
326.015	9886.6
326.468	7477.94
326.921	8353.45
327.374	7808.25
327.827	8147.2
328.28	9200.03
328.733	6207.87
329.186	5457.84
329.639	5231.06
330.092	4400.73
330.545	4194.27
330.997	4240.45
331.45	4656.27
331.903	5485.45
332.355	9400.62
332.808	9125.82
333.26	7525.8
333.713	8162.97
334.165	8221.93
334.617	10941.78
335.069	8805.56
335.522	15908.34
335.974	17664.9
336.426	16102.53
336.878	11090.07
337.33	5648.81
337.782	5536.97
338.234	6976.27
338.686	8335.83
339.137	9924.19
339.589	9340.3
340.041	7359.95
340.493	6357.93
340.944	6489.52
341.396	7015.83
341.847	5922.25
342.299	6990.8
342.75	8541.48
343.201	7432.29
343.653	8537.64
344.104	10444.61
344.555	8223.9
345.006	12698.64
345.457	9747.83
345.908	7749.45
346.359	7304.9
346.81	5953.06
347.261	6255.6
347.712	6133.4
348.163	6563.94
348.613	6699.98
349.064	6264.54
349.515	5482.93
349.965	5643.54
350.416	6794.81
350.866	7444.47
351.317	8391.65
351.767	13901.41
352.217	17531.52
352.668	14616.38
353.118	13390.21
353.568	12828.99
354.018	10161.71
354.468	10717.72
354.918	7728.94
355.368	6729.71
355.818	9551.13
356.268	27339.73
356.718	114934.16
357.168	28822.75
357.617	14506.33
358.067	16169.09
358.517	15190.89
358.966	17946.6
359.416	20258.43
359.865	21879.06
360.315	26245.51
360.764	12266
361.213	6914.6
361.663	6523.55
362.112	8046.7
362.561	12964.82
363.01	9810.64
363.459	8278.85
363.908	8940.4
364.357	7620.72
364.806	12852.21
365.255	8812.46
365.703	8104.42
366.152	8165.19
366.601	6661.9
367.05	5417.87
367.498	4934.17
367.947	5127.89
368.395	5294.4
368.844	4700.63
369.292	5624.87
369.74	3903.55
370.189	5958.13
370.637	6983.77
371.085	5993.7
371.533	7287.13
371.981	7006.67
372.429	6732.33
372.877	7032.79
373.325	5959.64
373.773	6046.89
374.221	5399.3
374.669	6698.78
375.116	5806.3
375.564	5876.57
376.012	6590.05
376.459	5420.26
376.907	6479.46
377.354	7780.11
377.801	7298.73
378.249	8356.84
378.696	10688.58
379.143	12962.59
379.591	13869.01
380.038	23694.96
380.485	17143.84
380.932	18477.96
381.379	17137.55
381.826	12714.91
382.273	9110.01
382.72	7945.88
383.166	7771.62
383.613	5072.1
384.06	4586.18
384.506	5307.85
384.953	3878.29
385.4	3901.52
385.846	3445.11
386.292	3339.39
386.739	3260.06
387.185	3211.34
387.631	3238.12
388.078	3176.19
388.524	3409.08
388.97	3163.53
389.416	2662.6
389.862	2853.19
390.308	2720.86
390.754	2776.08
391.2	3019.31
391.645	3117.54
392.091	3024.61
392.537	2940.9
392.983	2940.66
393.428	2929.44
393.874	3145.89
394.319	3192.58
394.765	3055.05
395.21	3139.1
395.655	2960.33
396.101	2793.58
396.546	2531.63
396.991	2555.41
397.436	2376.06
397.881	2307.99
398.326	2180.86
398.771	2083.62
399.216	1812.58
399.661	1631.47
400.106	1644.39
400.551	1692.18
400.995	1526.64
401.44	1513.38
401.885	1424.03
402.329	1442.58
402.774	1388.66
403.218	1355.76
403.663	1306.73
404.107	1346.02
404.551	1364.41
404.995	1248.68
405.44	1200.79
405.884	1217.35
406.328	1175.77
406.772	1173.7
407.216	1073.44
407.66	1037.88
408.104	979.5
408.547	917.06
408.991	892.39
409.435	857.02
409.879	850.76
410.322	840.68
410.766	815.92
411.209	780.66
411.653	751.23
412.096	739.46
412.54	740.14
412.983	738.53
413.426	745.4
413.869	742.36
414.312	731.78
414.756	705.52
415.199	676.04
415.642	657.85
416.085	660.14
416.527	656.4
416.97	666.62
417.413	633.2
417.856	627.21
418.298	619.01
418.741	612.97
419.184	608.78
419.626	628.2
420.069	627.58
420.511	631.38
420.953	620.23
421.396	613.08
421.838	594.15
422.28	609.49
422.722	612.51
423.164	620.9
423.606	616.17
424.048	615.56
424.49	588.26
424.932	583.66
425.374	573.42
425.816	580.05
426.258	593.1
426.699	600.76
427.141	593.1
427.582	598.67
428.024	594.77
428.465	588.08
428.907	572
429.348	565.99
429.789	570.39
430.231	560.91
430.672	568.67
431.113	554.63
431.554	547.09
431.995	533.52
432.436	517.32
432.877	506.51
433.318	500.85
433.759	503.27
434.2	502.63
434.64	495.76
435.081	497.4
435.522	473.08
435.962	457.05
436.403	449.66
436.843	455.35
437.284	445.51
437.724	435.03
438.164	434.17
438.604	423.15
439.045	408.56
439.485	394.6
439.925	386.61
440.365	378.53
440.805	372.8
441.245	367.84
441.685	353.61
442.125	351.13
442.564	352.15
443.004	346.45
443.444	347.17
443.883	348.42
444.323	344.73
444.762	345.05
445.202	348
445.641	357.73
446.081	357.57
446.52	361.44
446.959	359.09
447.398	352.86
447.837	349.47
448.276	342
448.716	347.7
449.154	349.42
449.593	343.49
450.032	344.49
450.471	338.42
450.91	338.19
451.349	340.58
451.787	340.27
452.226	344.65
452.664	344.07
453.103	346.43
453.541	343.31
453.98	346.13
454.418	346.75
454.856	342.03
455.295	340.52
455.733	343.41
456.171	343.15
456.609	345.25
457.047	344.91
457.485	351.3
457.923	352.64
458.361	348.95
458.798	348.76
459.236	348.36
459.674	349.56
460.111	351.74
460.549	349.21
460.987	348
461.424	344.18
461.862	343.6
462.299	337.76
462.736	337.3
463.173	338.72
463.611	337.74
464.048	338.58
464.485	342.92
464.922	339.64
465.359	336.9
465.796	338.44
466.233	337.95
466.67	335.82
467.106	336.87
467.543	332.07
467.98	327.35
468.416	317.14
468.853	312.77
469.29	302.63
469.726	298.58
470.162	291.24
470.599	283.25
471.035	280.43
471.471	273.54
471.907	270.1
472.344	270.05
472.78	271.52
473.216	273.89
473.652	271.69
474.088	270.02
474.523	270.09
474.959	273.02
475.395	270.31
475.831	268.3
476.266	270.12
476.702	269.51
477.138	266.66
477.573	265.17
478.008	265.24
478.444	265.86
478.879	269.9
479.314	270.61
479.75	269.33
480.185	270.3
480.62	272.24
481.055	272.47
481.49	274.3
481.925	278.31
482.36	284.58
482.795	291.36
483.229	298.72
483.664	304.22
484.099	305.32
484.534	310.98
484.968	313.9
485.403	314.74
485.837	314.69
486.271	314.59
486.706	314.58
487.14	310.08
487.574	307.23
488.009	305.82
488.443	304.03
488.877	308.29
489.311	309.6
489.745	314.45
490.179	319.15
490.613	327.57
491.046	330.83
491.48	334.48
491.914	337.59
492.348	339.5
492.781	342.5
493.215	344.03
493.648	345.97
494.082	350.31
494.515	352.39
494.948	358.35
495.382	361.06
495.815	366.08
496.248	371.73
496.681	379.48
497.114	388.44
497.547	396.51
497.98	407.44
498.413	414.3
498.846	422.44
499.279	429.53
499.711	434.86
500.144	440.58
500.577	450.43
501.009	459.6
501.442	469.51
501.874	475.16
502.306	480.49
502.739	490.1
503.171	502.29
503.603	508.35
504.036	518.56
504.468	527.27
504.9	538.63
505.332	547.02
505.764	554.61
506.196	563.43
506.627	577
507.059	590.48
507.491	600.26
507.923	604.72
508.354	619.96
508.786	633
509.217	649
509.649	664.43
510.08	682.12
510.512	699.32
510.943	715.37
511.374	728.99
511.805	748.28
512.237	766.98
512.668	794.94
513.099	819.9
513.53	844.39
513.961	864.75
514.391	892.66
514.822	922.82
515.253	954.13
515.684	977.55
516.114	1004.94
516.545	1026.75
516.975	1051.25
517.406	1070.09
517.836	1077.71
518.267	1088.38
518.697	1107.51
519.127	1116.25
519.558	1126.61
519.988	1133.53
520.418	1146.36
520.848	1163.91
521.278	1174.84
521.708	1200.35
522.138	1214.11
522.567	1241.49
522.997	1264
523.427	1279.52
523.857	1295.99
524.286	1307.28
524.716	1322.72
525.145	1341.1
525.575	1353.61
526.004	1368.66
526.433	1359.21
526.863	1361.92
527.292	1356.43
527.721	1364.46
528.15	1372.03
528.579	1374.66
529.008	1386.36
529.437	1406.37
529.866	1418.07
530.295	1432.02
530.724	1443.48
531.152	1467.32
531.581	1481.22
532.01	1497.8
532.438	1505.29
532.867	1518.43
533.295	1535.77
533.723	1540.78
534.152	1540.19
534.58	1542.39
535.008	1531.38
535.436	1533.48
535.865	1541.42
536.293	1553.17
536.721	1567.09
537.149	1588.84
537.576	1592.12
538.004	1602.6
538.432	1610.37
538.86	1610.83
539.287	1616.62
539.715	1628.54
540.143	1631.09
540.57	1627.91
540.998	1624.98
541.425	1605.62
541.852	1589.03
542.28	1587.13
542.707	1573.38
543.134	1561.49
543.561	1556.83
543.988	1550.91
544.415	1550.37
544.842	1546.3
545.269	1539.91
545.696	1542.21
546.123	1552.65
546.549	1543.23
546.976	1533.68
547.403	1532.89
547.829	1533.8
548.256	1536.34
548.682	1533.68
549.108	1527.3
549.535	1524.95
549.961	1526.39
550.387	1513.86
550.813	1509.9
551.24	1515.44
551.666	1515.49
552.092	1507.62
552.518	1502.4
552.943	1497.17
553.369	1503.13
553.795	1506.88
554.221	1509.06
554.646	1505.73
555.072	1515.96
555.498	1517.95
555.923	1525.18
556.349	1536.46
556.774	1543.42
557.199	1543.68
557.625	1547.46
558.05	1541.43
558.475	1550.09
558.9	1548.65
559.325	1541.19
559.75	1533.92
560.175	1528.76
560.6	1522.2
561.025	1519.67
561.449	1518.37
561.874	1522.21
562.299	1525.17
562.723	1530.17
563.148	1519.66
563.572	1521.51
563.997	1528.55
564.421	1532.23
564.846	1531.44
565.27	1533.13
565.694	1529.17
566.118	1537.81
566.542	1542.48
566.966	1535.75
567.39	1529.87
567.814	1520.5
568.238	1518.23
568.662	1520.02
569.086	1520.91
569.509	1525.63
569.933	1511.48
570.357	1504.16
570.78	1485.33
571.204	1472.99
571.627	1462.91
572.05	1459.71
572.474	1457.37
572.897	1445.57
573.32	1439.4
573.743	1429.03
574.166	1412.03
574.589	1409.76
575.012	1401.02
575.435	1398.44
575.858	1388.61
576.281	1377.19
576.704	1362.41
577.126	1349.26
577.549	1338.45
577.972	1326.49
578.394	1315.76
578.817	1308.31
579.239	1292.08
579.661	1280.12
580.084	1265.69
580.506	1253.55
580.928	1248.53
581.35	1238.49
581.772	1234.54
582.194	1222.29
582.616	1212.07
583.038	1198.82
583.46	1187.8
583.882	1183.22
584.303	1185.02
584.725	1180.38
585.147	1181.72
585.568	1188.87
585.99	1197.48
586.411	1201.57
586.833	1211.6
587.254	1211.12
587.675	1222.95
588.096	1233.05
588.518	1229.02
588.939	1215.15
589.36	1212.32
589.781	1202.07
590.202	1179.73
590.623	1171.49
591.043	1168.18
591.464	1157.84
591.885	1155.2
592.305	1148.9
592.726	1136.95
593.147	1136.77
593.567	1133.36
593.987	1126.68
594.408	1121.69
594.828	1119.05
595.248	1114.83
595.669	1101.01
596.089	1095.09
596.509	1088.44
596.929	1077.83
597.349	1076.96
597.769	1068.82
598.189	1061.88
598.608	1062.49
599.028	1064.32
599.448	1063.26
599.867	1052.57
600.287	1048.28
600.706	1045.06
601.126	1037.79
601.545	1036.25
601.965	1035.66
602.384	1030.33
602.803	1031.81
603.222	1027.8
603.641	1021.56
604.061	1017.88
604.48	1013.37
604.898	1018.2
605.317	1020.22
605.736	1021.02
606.155	1018.31
606.574	1010.63
606.992	1013.58
607.411	1008.97
607.829	1001.43
608.248	997.65
608.666	995.26
609.085	993.22
609.503	985.99
609.921	979.34
610.339	979.34
610.758	976.06
611.176	970.71
611.594	962.27
612.012	958.32
612.43	959.44
612.847	962.56
613.265	961.1
613.683	963.1
614.101	962.67
614.518	958.22
614.936	948.83
615.353	937.4
615.771	933.1
616.188	931.72
616.606	926.73
617.023	919.92
617.44	908.25
617.857	900.75
618.274	893.52
618.691	888.28
619.108	880.74
619.525	875.41
619.942	878.7
620.359	880.08
620.776	875.6
621.192	872.91
621.609	870.43
622.026	874.8
622.442	879.05
622.859	879.9
623.275	872.81
623.691	876.42
624.108	883.45
624.524	893.21
624.94	893.16
625.356	900.56
625.772	909.31
626.188	917.07
626.604	917.03
627.02	912.98
627.436	912.2
627.852	917.77
628.268	926.41
628.683	919.61
629.099	913.93
629.514	909.55
629.93	911.46
630.345	914.5
630.761	910.64
631.176	913.01
631.591	910.87
632.007	905.52
632.422	902.4
632.837	893.3
633.252	890.58
633.667	881.65
634.082	874.14
634.497	863.68
634.911	848.93
635.326	844.69
635.741	830.92
636.155	821.15
636.57	820.26
636.984	818.48
637.399	818.3
637.813	815.54
638.228	812.37
638.642	811.93
639.056	802.41
639.47	799.71
639.884	792.75
640.298	786.28
640.712	783.21
641.126	772.26
641.54	763.39
641.954	755.6
642.368	745.66
642.781	737.77
643.195	724.82
643.609	722.19
644.022	714.49
644.436	707.89
644.849	697.19
645.262	685.92
645.676	683.17
646.089	677.3
646.502	665.9
646.915	659.3
647.328	647.14
647.741	642.83
648.154	631.88
648.567	629.59
648.98	619.69
649.393	617.84
649.805	613.09
650.218	607.04
650.631	596.66
651.043	591.44
651.456	586.47
651.868	583.46
652.28	591.63
652.693	598.55
653.105	599.22
653.517	603.06
653.929	601.08
654.341	602.4
654.753	594.1
655.165	594.72
655.577	590.9
655.989	585.39
656.401	577.93
656.813	554.95
657.224	541.1
657.636	521.69
658.047	509.61
658.459	496.33
658.87	488.25
659.282	478.6
659.693	465.72
660.104	455.09
660.515	444.91
660.926	441.24
661.338	436.76
661.749	429.94
662.159	423.06
662.57	417.07
662.981	412.1
663.392	406.31
663.803	405.53
664.213	400.82
664.624	394.84
665.035	394.2
665.445	385.59
665.855	380.53
666.266	375.57
666.676	372.22
667.086	365.81
667.497	363.49
667.907	359.35
668.317	353.47
668.727	353.03
669.137	351.47
669.547	349.21
669.956	349.3
670.366	349.38
670.776	350.01
671.186	351.71
671.595	353.5
672.005	354.06
672.414	353.58
672.824	353.7
673.233	352.31
673.642	355.95
674.052	357.94
674.461	360.41
674.87	362.01
675.279	360.85
675.688	361.05
676.097	362.48
676.506	362.14
676.915	369.32
677.323	371.42
677.732	371.98
678.141	371.6
678.549	367.15
678.958	367.23
679.366	367.91
679.775	370.49
680.183	378.59
680.592	383.32
681	388.35
681.408	387.05
681.816	392.13
682.224	399.39
682.632	408.04
683.04	427.27
683.448	442.58
683.856	463.13
684.264	486.79
684.671	507.66
685.079	533.1
685.487	562.74
685.894	602.25
686.302	636.9
686.709	668.06
687.116	704.24
687.524	736.18
687.931	767.66
688.338	796.83
688.745	822.42
689.152	850.74
689.559	886.77
689.966	922.62
690.373	947.6
690.78	984.49
691.187	1035.05
691.593	1076.31
692	1114.32
692.407	1165.5
692.813	1227.77
693.22	1279.86
693.626	1332.22
694.032	1378.41
694.439	1442.32
694.845	1494.54
695.251	1559.06
695.657	1617.79
696.063	1700.67
696.469	1764.18
696.875	1824.52
697.281	1861.64
697.687	1906.83
698.093	1947.89
698.498	2015.98
698.904	2070.05
699.31	2149.15
699.715	2207.25
700.12	2286.56
700.526	2310.47
700.931	2373.79
701.337	2425.78
701.742	2463.24
702.147	2538.74
702.552	2573.15
702.957	2628.55
703.362	2655.14
703.767	2686.39
704.172	2726.43
704.577	2697.64
704.981	2745.71
705.386	2768.1
705.791	2770.33
706.195	2838.92
706.6	2855.14
707.004	2928.83
707.408	2910.7
707.813	2938.96
