Data from N_2_DEC_NC_4N_Splice17_12-25-24-343.txt Node
Date: Sat Mar 14 12:25:24 EDT 2020
User: sa697716
Spectrometer: FLMS03696
Trigger mode: 0
Integration Time (sec): 3.180400E-1
Scans to average: 20
Electric dark correction enabled: true
Nonlinearity correction enabled: true
Boxcar width: 5
XAxis mode: Wavelengths
Number of Pixels in Spectrum: 2048
>>>>>Begin Spectral Data<<<<<
187.83	-378166.56
188.298	2727.87
188.766	1431.05
189.233	1303.17
189.701	1853.23
190.169	2482.27
190.636	903.11
191.104	735.59
191.571	68.44
192.039	-61.02
192.506	-68.5
192.974	408.43
193.441	-571.93
193.908	-24.09
194.375	-40.92
194.842	60.55
195.31	156.21
195.777	149.94
196.244	399.57
196.711	426.31
197.177	549.5
197.644	786.7
198.111	1368.16
198.578	1909.39
199.045	1521.99
199.511	2491.34
199.978	2901.04
200.445	2466.85
200.911	2745.4
201.378	3028.97
201.844	2748.7
202.31	4701.41
202.777	4902.14
203.243	2720.48
203.709	2580.64
204.176	3106.54
204.642	2566.91
205.108	2398.74
205.574	1950.52
206.04	1787.29
206.506	1680.5
206.972	1590.36
207.438	1546.48
207.903	1763.57
208.369	1543.9
208.835	1555.94
209.301	1605.28
209.766	1645.95
210.232	1617.41
210.697	1980.69
211.163	2424.32
211.628	3655.46
212.094	3080.04
212.559	3759.13
213.024	2318.5
213.49	2839.57
213.955	2745.32
214.42	2691.96
214.885	2527.04
215.35	2434.17
215.815	2362.71
216.28	2512.42
216.745	2051.27
217.21	2216.62
217.675	2019.98
218.14	2280.24
218.604	2525.7
219.069	2868.37
219.534	3010.01
219.998	3462.36
220.463	4184.59
220.927	5105.37
221.392	4783.61
221.856	4828.25
222.32	6050.12
222.785	7479.54
223.249	9376.92
223.713	10453.8
224.177	10439.68
224.642	13292.05
225.106	16341.25
225.57	17813.74
226.034	13290.57
226.497	20236.09
226.961	18232.19
227.425	21215.85
227.889	23449.12
228.353	23429.3
228.816	48273.63
229.28	46224.28
229.744	39037.26
230.207	23775.56
230.671	23382.52
231.134	38513.65
231.597	44322.11
232.061	44273.99
232.524	43084.72
232.987	29673.96
233.45	26675.31
233.914	23939.45
234.377	24470.96
234.84	22384.41
235.303	26299.31
235.766	29299.32
236.229	30252.55
236.691	19013.84
237.154	21333.15
237.617	16062.39
238.08	16432.92
238.542	19192.23
239.005	13683.34
239.468	13550.91
239.93	12756.22
240.393	11584.79
240.855	10149.54
241.317	10376.35
241.78	12611.99
242.242	13027.34
242.704	14047.64
243.166	12222.25
243.629	11101.84
244.091	12783.03
244.553	14000.7
245.015	15017.4
245.477	19393.78
245.939	28407.41
246.4	30100.84
246.862	29224.18
247.324	27517.36
247.786	30717.81
248.247	40183.87
248.709	41340.22
249.17	30864.94
249.632	29076.94
250.093	33686.55
250.555	29051.75
251.016	17703.4
251.477	16756.73
251.939	18069.93
252.4	18920.95
252.861	22463.57
253.322	20873.48
253.783	24844.43
254.244	32180.91
254.705	25339.64
255.166	22476.18
255.627	22114.48
256.088	31192.07
256.549	33144.82
257.009	28502.24
257.47	34583.26
257.931	28138.97
258.391	21073.48
258.852	21702.66
259.312	22724.88
259.773	28042.53
260.233	23708.74
260.694	19967.74
261.154	22591.28
261.614	18135.5
262.074	16187.92
262.534	16802.13
262.994	15838.43
263.455	21059.78
263.915	17722.74
264.374	16668.71
264.834	18161.48
265.294	20102.77
265.754	20822.16
266.214	19697.99
266.673	18411.88
267.133	23219.01
267.593	23020.18
268.052	28122.41
268.512	24439.39
268.971	29440.51
269.431	32270.6
269.89	28872.76
270.349	43216.71
270.809	48130.92
271.268	43258.9
271.727	97001.8
272.186	62766.99
272.645	46982.2
273.104	33855.73
273.563	49030.18
274.022	38511.24
274.481	32773.45
274.94	25228.36
275.399	18741.58
275.857	21804.57
276.316	29422.95
276.775	26153.63
277.233	25760.76
277.692	24107.54
278.15	27240.31
278.609	27991.53
279.067	25914.86
279.525	24071.32
279.984	31074.02
280.442	37319.31
280.9	36800.05
281.358	24229.41
281.816	22588.83
282.274	22098.28
282.732	22828.8
283.19	22941.65
283.648	19807.34
284.106	21067.76
284.564	21418.35
285.021	19875.7
285.479	14826.6
285.937	13463.74
286.394	11813.16
286.852	12154.27
287.309	12778.66
287.767	12351.32
288.224	11741.04
288.682	12864.98
289.139	14125.92
289.596	12890.21
290.053	13363.43
290.511	16829.93
290.968	20397.57
291.425	27632.34
291.882	22979.47
292.339	19967.71
292.796	19772.94
293.252	18643.21
293.709	14805.77
294.166	13250.31
294.623	14642.23
295.079	14040.05
295.536	14097.11
295.992	12787.97
296.449	12629.15
296.905	13132.57
297.362	12624.44
297.818	13277.53
298.274	13786.84
298.731	14027.27
299.187	13881.55
299.643	14879.93
300.099	17993.88
300.555	19723.73
301.011	16483.6
301.467	15930.18
301.923	18605.86
302.379	18106.08
302.835	17775.17
303.291	17725.72
303.746	20173.62
304.202	25475.11
304.658	25575.11
305.113	17184.09
305.569	16826.58
306.024	17926.34
306.479	16991.09
306.935	14337.83
307.39	15674.58
307.845	14459.83
308.301	14553.41
308.756	14163.48
309.211	13636.29
309.666	13967.01
310.121	17368.24
310.576	17630.16
311.031	17469.7
311.486	19998.08
311.94	19924.51
312.395	26606
312.85	49974.76
313.305	245501.25
313.759	1272087.39
314.214	92229.14
314.668	73267.6
315.123	61648.78
315.577	22067.07
316.032	19658.3
316.486	24685.19
316.94	19549.74
317.394	13615.12
317.849	10588.57
318.303	10019.45
318.757	9456.5
319.211	10429.94
319.665	9104.23
320.119	9194.17
320.572	13184.52
321.026	12312.24
321.48	10223.71
321.934	11101.78
322.387	11114.93
322.841	11954.33
323.295	10751.09
323.748	12353.31
324.202	12523.62
324.655	15033.82
325.108	21025.5
325.562	14827.81
326.015	17568.29
326.468	13301.3
326.921	14888.07
327.374	13866.49
327.827	14476.66
328.28	16356.33
328.733	10963.64
329.186	9664.34
329.639	9211.42
330.092	7748.47
330.545	7386.2
330.997	7465.49
331.45	8157.25
331.903	9552.88
332.355	16398.96
332.808	15910.48
333.26	13136.57
333.713	14260.57
334.165	14333.85
334.617	19102.68
335.069	15418.06
335.522	27867.57
335.974	30847.07
336.426	28067.43
336.878	19399.82
337.33	9850.29
337.782	9622.55
338.234	12055.71
338.686	14404.31
339.137	17013.74
339.589	16015
340.041	12546.12
340.493	10783.85
340.944	11027.98
341.396	11923.31
341.847	10047.1
342.299	11873.81
342.75	14505.33
343.201	12645.73
343.653	14560.86
344.104	17948.79
344.555	14132.35
345.006	21952.4
345.457	16849.95
345.908	13364.69
346.359	12540.06
346.81	10186.65
347.261	10710.93
347.712	10531.36
348.163	11293.58
348.613	11453.04
349.064	10660.25
349.515	9306.96
349.965	9553.87
350.416	11455.94
350.866	12544.16
351.317	14165.45
351.767	23493.15
352.217	29651.7
352.668	24625.12
353.118	22539.6
353.568	21659.38
354.018	17136.52
354.468	18111.91
354.918	13031.45
355.368	11427.28
355.818	16165.02
356.268	46531.21
356.718	195279.11
357.168	48802.51
357.617	24492.87
358.067	27227.21
358.517	25519.87
358.966	30014.44
359.416	33725.53
359.865	36325.37
360.315	43260.98
360.764	20211.93
361.213	11338.58
361.663	10708.42
362.112	13195.21
362.561	21324.58
363.01	16061.98
363.459	13502.36
363.908	14593.2
364.357	12391.26
364.806	20922.81
365.255	14386
365.703	13200.6
366.152	13201.2
366.601	10704.47
367.05	8684.07
367.498	7903.95
367.947	8281.53
368.395	8610.44
368.844	7627.33
369.292	9185.74
369.74	6378.94
370.189	9744.06
370.637	11434.38
371.085	9872.75
371.533	12020.62
371.981	11573.06
372.429	11033.91
372.877	11475.13
373.325	9619.01
373.773	9792.97
374.221	8701.34
374.669	10747.89
375.116	9292.54
375.564	9350.16
376.012	10440.48
376.459	8601.11
376.907	10241.07
377.354	12362.98
377.801	11559.8
378.249	13274.33
378.696	16967.12
379.143	20582.07
379.591	21959.71
380.038	37223.21
380.485	26938.58
380.932	29128.21
381.379	26757.14
381.826	19780.27
382.273	14030.26
382.72	12231.86
383.166	11915.74
383.613	7730.53
384.06	6973.48
384.506	8055.24
384.953	5915.18
385.4	5947.5
385.846	5198.14
386.292	5035.39
386.739	4922.59
387.185	4868.89
387.631	4882.13
388.078	4756.66
388.524	5088.34
388.97	4694.94
389.416	3922.71
389.862	4167.42
390.308	3949.8
390.754	4031.72
391.2	4389.97
391.645	4501.42
392.091	4335.37
392.537	4199.22
392.983	4197.66
393.428	4151
393.874	4471.94
394.319	4511.77
394.765	4302
395.21	4423.97
395.655	4151.9
396.101	3906.5
396.546	3539.83
396.991	3567.46
397.436	3323.47
397.881	3235.79
398.326	3068.21
398.771	2915.05
399.216	2555.64
399.661	2315.78
400.106	2328.89
400.551	2402.98
400.995	2160.17
401.44	2143.8
401.885	2020.93
402.329	2046.62
402.774	1963.66
403.218	1913.67
403.663	1844.72
404.107	1900.65
404.551	1916.8
404.995	1761.43
405.44	1695.42
405.884	1728.61
406.328	1673.05
406.772	1676.71
407.216	1532.51
407.66	1484.62
408.104	1408.24
408.547	1322.47
408.991	1283.74
409.435	1235.18
409.879	1220.54
410.322	1206.19
410.766	1166.84
411.209	1113.15
411.653	1068.84
412.096	1049.7
412.54	1050.65
412.983	1046.35
413.426	1052.25
413.869	1052.13
414.312	1037.32
414.756	1000.86
415.199	958.39
415.642	931.45
416.085	934.38
416.527	929.02
416.97	944.37
417.413	898.05
417.856	885.92
418.298	876.77
418.741	871.06
419.184	867.79
419.626	899.81
420.069	901
420.511	907.34
420.953	891.67
421.396	884.68
421.838	860.17
422.28	879.89
422.722	889.06
423.164	899.58
423.606	884.44
424.048	881.51
424.49	840.48
424.932	834.57
425.374	820.94
425.816	833.88
426.258	848.61
426.699	860.2
427.141	848.65
427.582	858.84
428.024	855.42
428.465	849.79
428.907	828.84
429.348	819.67
429.789	819.46
430.231	806.49
430.672	817.41
431.113	798.87
431.554	788.99
431.995	770.35
432.436	744.45
432.877	727.16
433.318	717.4
433.759	714.67
434.2	714.62
434.64	707.99
435.081	709.46
435.522	672.77
435.962	647.92
436.403	634.29
436.843	641.19
437.284	627.88
437.724	612.09
438.164	612.21
438.604	600.98
439.045	581.33
439.485	560.54
439.925	549.05
440.365	535.92
440.805	529.79
441.245	524.69
441.685	507.36
442.125	504.69
442.564	509.23
443.004	501.59
443.444	502.04
443.883	503.05
444.323	499.57
444.762	500.19
445.202	508.68
445.641	521.32
446.081	520.02
446.52	527.2
446.959	525.4
447.398	515.49
447.837	510.93
448.276	503.34
448.716	510.92
449.154	516.5
449.593	507.58
450.032	507.99
450.471	500.06
450.91	503.05
451.349	504.41
451.787	503.49
452.226	513.62
452.664	514.25
453.103	516.77
453.541	517.55
453.98	520.12
454.418	525.99
454.856	519.74
455.295	519.99
455.733	525.62
456.171	529.11
456.609	532.23
457.047	531.86
457.485	540.79
457.923	543.32
458.361	536.34
458.798	538.03
459.236	536.02
459.674	539.7
460.111	543.1
460.549	537.29
460.987	534.73
461.424	531.83
461.862	530.11
462.299	522.2
462.736	522.44
463.173	524.05
463.611	519.84
464.048	519.87
464.485	524.88
464.922	520.02
465.359	516.83
465.796	514.34
466.233	512
466.67	508.64
467.106	508.97
467.543	504.22
467.98	498.33
468.416	485.28
468.853	481.48
469.29	466.96
469.726	461.81
470.162	450.55
470.599	441.98
471.035	437.52
471.471	426.97
471.907	423.41
472.344	420.78
472.78	422.54
473.216	427.73
473.652	423.78
474.088	423
474.523	423.31
474.959	426.76
475.395	423.25
475.831	421.24
476.266	423.81
476.702	423.07
477.138	418.51
477.573	417.53
478.008	416.2
478.444	418.65
478.879	423.38
479.314	425.13
479.75	426.36
480.185	429.38
480.62	434.14
481.055	437.2
481.49	441.25
481.925	448.37
482.36	456.88
482.795	470.7
483.229	483.27
483.664	493.76
484.099	496.01
484.534	504.04
484.968	509.79
485.403	512.05
485.837	511.51
486.271	512.24
486.706	513.97
487.14	508.65
487.574	501.66
488.009	498.36
488.443	495.23
488.877	502.18
489.311	505.49
489.745	513.37
490.179	520.48
490.613	533.33
491.046	539.77
491.48	545.65
491.914	549.21
492.348	556.17
492.781	562.9
493.215	567.91
493.648	571.78
494.082	579.4
494.515	583.44
494.948	593.68
495.382	600.87
495.815	608.88
496.248	618.06
496.681	633.22
497.114	647.55
497.547	660.74
497.98	677.23
498.413	688.03
498.846	701.62
499.279	714.45
499.711	723.28
500.144	731.43
500.577	746.11
501.009	762.18
501.442	778.2
501.874	785.53
502.306	793.91
502.739	808.07
503.171	828.93
503.603	839.3
504.036	855.03
504.468	866.83
504.9	884.54
505.332	898.12
505.764	909.02
506.196	922.45
506.627	943.57
507.059	964.07
507.491	978.9
507.923	983.04
508.354	1004.72
508.786	1022.16
509.217	1048.23
509.649	1070.25
510.08	1096.76
510.512	1120.09
510.943	1141.63
511.374	1159.1
511.805	1185.87
512.237	1212.75
512.668	1254.53
513.099	1289.35
513.53	1323.47
513.961	1350.37
514.391	1389.63
514.822	1429.64
515.253	1474.43
515.684	1507.1
516.114	1543.66
516.545	1570.53
516.975	1601.05
517.406	1622.74
517.836	1628.31
518.267	1637.28
518.697	1658.35
519.127	1664.27
519.558	1674.16
519.988	1678.86
520.418	1691.19
520.848	1712.46
521.278	1723.03
521.708	1740.06
522.138	1754.24
522.567	1789.66
522.997	1820.2
523.427	1837.42
523.857	1856.73
524.286	1868.81
524.716	1885.31
525.145	1906.76
525.575	1918.21
526.004	1934.32
526.433	1930.79
526.863	1930.68
527.292	1918.04
527.721	1922.01
528.15	1929.27
528.579	1929.18
529.008	1941.08
529.437	1966.92
529.866	1981.66
530.295	2000.96
530.724	2014.5
531.152	2044.7
531.581	2059.57
532.01	2079.18
532.438	2089.95
532.867	2106.17
533.295	2127.18
533.723	2133.13
534.152	2131.22
534.58	2131.53
535.008	2113.93
535.436	2116.67
535.865	2125.5
536.293	2143.19
536.721	2161.5
537.149	2189.88
537.576	2191.37
538.004	2205.06
538.432	2214.25
538.86	2211.98
539.287	2219.11
539.715	2234.55
540.143	2236.73
540.57	2232
540.998	2228.28
541.425	2202.55
541.852	2177.82
542.28	2176.17
542.707	2158.18
543.134	2141.45
543.561	2136.29
543.988	2127.49
544.415	2125.57
544.842	2118.85
545.269	2109.42
545.696	2110.4
546.123	2124.32
546.549	2113.1
546.976	2099.1
547.403	2098.49
547.829	2100.37
548.256	2101.71
548.682	2096.71
549.108	2089.18
549.535	2088.54
549.961	2091.56
550.387	2076.87
550.813	2070.18
551.24	2076.93
551.666	2077.36
552.092	2066.07
552.518	2057.76
552.943	2051.57
553.369	2061.51
553.795	2066.33
554.221	2067.66
554.646	2063.19
555.072	2074.32
555.498	2079.1
555.923	2089.91
556.349	2107.23
556.774	2116.77
557.199	2119.22
557.625	2125.97
558.05	2118.81
558.475	2132.08
558.9	2131.21
559.325	2122.72
559.75	2115.81
560.175	2109.65
560.6	2102.45
561.025	2100.79
561.449	2103.4
561.874	2111.25
562.299	2116.92
562.723	2126.16
563.148	2114.94
563.572	2120.6
563.997	2133.11
564.421	2141.14
564.846	2143.12
565.27	2147.9
565.694	2145.4
566.118	2159.5
566.542	2168.83
566.966	2162.51
567.39	2157.92
567.814	2147.11
568.238	2147.69
568.662	2155.72
569.086	2159.65
569.509	2169.24
569.933	2152.35
570.357	2146.6
570.78	2123.14
571.204	2108.84
571.627	2097.64
572.05	2097.24
572.474	2097.99
572.897	2084.28
573.32	2075.56
573.743	2064.74
574.166	2042.99
574.589	2045.04
575.012	2036.17
575.435	2035.78
575.858	2025.6
576.281	2012.82
576.704	1993.58
577.126	1979.47
577.549	1966.47
577.972	1954.68
578.394	1941.52
578.817	1933.87
579.239	1910.84
579.661	1894.49
580.084	1875.12
580.506	1859.23
580.928	1853.77
581.35	1840.88
581.772	1835.03
582.194	1819.37
582.616	1805.2
583.038	1788.39
583.46	1776.5
583.882	1773.08
584.303	1778.35
584.725	1774.45
585.147	1776.56
585.568	1789.66
585.99	1804.32
586.411	1812.57
586.833	1829.71
587.254	1831.6
587.675	1850.01
588.096	1865.49
588.518	1858.56
588.939	1839.85
589.36	1838.33
589.781	1827.37
590.202	1794.09
590.623	1783.34
591.043	1781.51
591.464	1767.07
591.885	1761.78
592.305	1755.78
592.726	1738.81
593.147	1741.46
593.567	1734.83
593.987	1725.19
594.408	1718.95
594.828	1716.65
595.248	1709.74
595.669	1687.15
596.089	1678.48
596.509	1671.79
596.929	1654.62
597.349	1656.07
597.769	1644.06
598.189	1637.11
598.608	1638.94
599.028	1640.7
599.448	1641.49
599.867	1626.45
600.287	1621.65
600.706	1617.49
601.126	1605.49
601.545	1604.5
601.965	1601.87
602.384	1595.31
602.803	1597.58
603.222	1591.69
603.641	1583.93
604.061	1577.83
604.48	1572.95
604.898	1581.68
605.317	1585.86
605.736	1588.12
606.155	1584.49
606.574	1572.99
606.992	1579.59
607.411	1573.75
607.829	1562.43
608.248	1557.6
608.666	1554.32
609.085	1553.01
609.503	1541.25
609.921	1533.27
610.339	1534.42
610.758	1531.63
611.176	1525.96
611.594	1513.61
612.012	1507.76
612.43	1510.18
612.847	1517.44
613.265	1518.04
613.683	1522.1
614.101	1523.69
614.518	1517.26
614.936	1503.64
615.353	1485.53
615.771	1480.75
616.188	1479.42
616.606	1474.79
617.023	1465.77
617.44	1447.51
617.857	1437.67
618.274	1426.01
618.691	1417.35
619.108	1407.04
619.525	1400.45
619.942	1408.11
620.359	1410.7
620.776	1404.16
621.192	1399.62
621.609	1397.05
622.026	1404.54
622.442	1411.65
622.859	1414.5
623.275	1406.9
623.691	1412.79
624.108	1424.51
624.524	1440.08
624.94	1440.01
625.356	1451.41
625.772	1466.26
626.188	1479.73
626.604	1480.02
627.02	1474.75
627.436	1474.04
627.852	1481.28
628.268	1494.95
628.683	1485.49
629.099	1475.41
629.514	1468.97
629.93	1472.28
630.345	1476.52
630.761	1471.16
631.176	1476.07
631.591	1469.43
632.007	1461.47
632.422	1458.41
632.837	1444.78
633.252	1441.5
633.667	1430.43
634.082	1420.46
634.497	1405.56
634.911	1382.29
635.326	1376.97
635.741	1357.02
636.155	1344.37
636.57	1345.13
636.984	1344.62
637.399	1344.71
637.813	1343.19
638.228	1340.32
638.642	1343.03
639.056	1330.48
639.47	1329.19
639.884	1318.82
640.298	1309.11
640.712	1306.73
641.126	1290.87
641.54	1278
641.954	1270.15
642.368	1253.77
642.781	1242.29
643.195	1220.36
643.609	1218.4
644.022	1208.65
644.436	1200.98
644.849	1185.08
645.262	1168.84
645.676	1167.09
646.089	1159.14
646.502	1141.04
646.915	1132.41
647.328	1111.15
647.741	1105.15
648.154	1088.37
648.567	1082.27
648.98	1064.65
649.393	1062.11
649.805	1054.13
650.218	1042.35
650.631	1022.85
651.043	1012.56
651.456	1002.59
651.868	999.78
652.28	1014.19
652.693	1024.25
653.105	1027.67
653.517	1034.47
653.929	1031.21
654.341	1034.1
654.753	1018.46
655.165	1019.61
655.577	1012.95
655.989	1004.45
656.401	991.81
656.813	951.81
657.224	926.47
657.636	893.01
658.047	870.56
658.459	845.35
658.87	831.15
659.282	814.64
659.693	789.96
660.104	770.05
660.515	750.95
660.926	743.32
661.338	733.76
661.749	721.8
662.159	707.02
662.57	695.94
662.981	686.67
663.392	673.74
663.803	669.87
664.213	660.9
664.624	651.7
665.035	647.6
665.445	629.89
665.855	618.73
666.266	606.74
666.676	599.83
667.086	587.36
667.497	582.26
667.907	572.27
668.317	560.89
668.727	555.66
669.137	551.22
669.547	546.26
669.956	543.91
670.366	542.34
670.776	541.75
671.186	542.39
671.595	542.97
672.005	542.11
672.414	540.04
672.824	537.58
673.233	537.54
673.642	537.98
674.052	538.3
674.461	540.58
674.87	542.95
675.279	540.41
675.688	539.71
676.097	539.83
676.506	536.9
676.915	547.29
677.323	549.64
677.732	549.68
678.141	550.1
678.549	545.36
678.958	545.01
679.366	545.32
679.775	550.19
680.183	561.5
680.592	568.89
681	577.08
681.408	575.31
681.816	585.28
682.224	597.34
682.632	611.8
683.04	640.08
683.448	666.44
683.856	698.25
684.264	735.45
684.671	772.16
685.079	817.38
685.487	867.88
685.894	935.43
686.302	994.29
686.709	1045.9
687.116	1106.52
687.524	1160.89
687.931	1210.95
688.338	1258.1
688.745	1298.91
689.152	1341.99
689.559	1397.89
689.966	1453.52
690.373	1486.85
690.78	1538.48
691.187	1612.3
691.593	1671.39
692	1722.4
692.407	1794.59
692.813	1880.46
693.22	1951.16
693.626	2023.63
694.032	2080.82
694.439	2163.47
694.845	2227.45
695.251	2308.28
695.657	2380.52
696.063	2486.12
696.469	2564.81
696.875	2637.34
697.281	2677.9
697.687	2726.99
698.093	2768.04
698.498	2845.5
