Data from N_2_HIR_WI_4N_Splice17_12-32-40-673.txt Node
Date: Sat Mar 14 12:32:40 EDT 2020
User: sa697716
Spectrometer: FLMS03696
Trigger mode: 0
Integration Time (sec): 3.180400E-1
Scans to average: 20
Electric dark correction enabled: true
Nonlinearity correction enabled: true
Boxcar width: 5
XAxis mode: Wavelengths
Number of Pixels in Spectrum: 2048
>>>>>Begin Spectral Data<<<<<
187.83	-298154.79
188.298	2216.52
188.766	1213.08
189.233	1042.03
189.701	1481.83
190.169	2037.55
190.636	769.06
191.104	632.68
191.571	72.56
192.039	-88.71
192.506	-184.41
192.974	236.54
193.441	-417.29
193.908	-33.16
194.375	-14.99
194.842	12.78
195.31	81.86
195.777	134.26
196.244	333.94
196.711	431.5
197.177	574.93
197.644	818.17
198.111	1437.72
198.578	2054.42
199.045	1656.37
199.511	2723.57
199.978	3200.41
200.445	2721.31
200.911	3030.94
201.378	3413.61
201.844	3080.86
202.31	5328.16
202.777	5566.84
203.243	3118.59
203.709	2980.3
204.176	3565.08
204.642	2938.37
205.108	2759.64
205.574	2273.36
206.04	2087.99
206.506	1949.05
206.972	1849.25
207.438	1772.23
207.903	2005.23
208.369	1759.91
208.835	1743.64
209.301	1838.64
209.766	1886.94
210.232	1867.87
210.697	2309.72
211.163	2855
211.628	4342.09
212.094	3656.48
212.559	4508.18
213.024	2812.32
213.49	3432.4
213.955	3371.73
214.42	3302.63
214.885	3071.31
215.35	2965.38
215.815	2874.33
216.28	3055.94
216.745	2500.45
217.21	2730.39
217.675	2533.67
218.14	2866.87
218.604	3225.87
219.069	3723.02
219.534	3931.64
219.998	4624.84
220.463	5641.27
220.927	6979.52
221.392	6616.22
221.856	6742.05
222.32	8542.72
222.785	10578.9
223.249	13364.95
223.713	14977.51
224.177	15002.27
224.642	19300.43
225.106	23800.37
225.57	26081.03
226.034	19436.98
226.497	29657.25
226.961	26816.21
227.425	31211.72
227.889	34675
228.353	34789.61
228.816	71939.19
229.28	68981.97
229.744	58236.84
230.207	35443.59
230.671	34902.49
231.134	57831.31
231.597	66684.89
232.061	66749.06
232.524	65234.66
232.987	45003.93
233.45	40507.21
233.914	36347.58
234.377	37272.12
234.84	34152.1
235.303	40301.87
235.766	44994.02
236.229	46495.63
236.691	29304.41
237.154	32954.96
237.617	24773.94
238.08	25391.77
238.542	29747.36
239.005	21288.11
239.468	21143.31
239.93	19921.44
240.393	18103.78
240.855	15901.35
241.317	16307.32
241.78	19862.63
242.242	20547.08
242.704	22188.4
243.166	19312.17
243.629	17527.51
244.091	20188.4
244.553	22100.7
245.015	23753.47
245.477	30712.79
245.939	45035.93
246.4	47723.02
246.862	46340.22
247.324	43665.33
247.786	48907.75
248.247	64113.79
248.709	66237.8
249.17	49570.69
249.632	46714.65
250.093	54193.92
250.555	46837.02
251.016	28542.2
251.477	27096.94
251.939	29270.22
252.4	30688.74
252.861	36503.67
253.322	33945.97
253.783	40379.23
254.244	52322.06
254.705	41268.47
255.166	36681.86
255.627	36090.01
256.088	50878.5
256.549	53957.53
257.009	46406.82
257.47	56306.52
257.931	45815.64
258.391	34290.29
258.852	35360.72
259.312	37023.62
259.773	45693.43
260.233	38585.82
260.694	32530.96
261.154	36874.62
261.614	29565.3
262.074	26426.53
262.534	27416.09
262.994	25821.83
263.455	34411.37
263.915	28944.09
264.374	27254.84
264.834	29713.93
265.294	32907.52
265.754	34066.32
266.214	32238.92
266.673	30204.11
267.133	38099.87
267.593	37791.24
268.052	46183.75
268.512	40125.97
268.971	48372.58
269.431	53047.97
269.89	47536.58
270.349	71258.74
270.809	79410.67
271.268	71388.4
271.727	160204.84
272.186	103728.87
272.645	77772.13
273.104	56103.19
273.563	81193.73
274.022	63833.25
274.481	54268.49
274.94	41786.03
275.399	31065.81
275.857	36163.86
276.316	48918.99
276.775	43519.81
277.233	42843.41
277.692	40102.56
278.15	45363.07
278.609	46707.02
279.067	43221.07
279.525	40145.41
279.984	51833.56
280.442	62230.61
280.9	61308.21
281.358	40281.37
281.816	37516.83
282.274	36744.87
282.732	37951.79
283.19	38133.85
283.648	32902.78
284.106	35067.61
284.564	35646.37
285.021	33068.8
285.479	24645.23
285.937	22428.06
286.394	19690.32
286.852	20254.91
287.309	21261.83
287.767	20526.1
288.224	19503.17
288.682	21396.17
289.139	23443.5
289.596	21431.28
290.053	22246.44
290.511	28088.39
290.968	34028.45
291.425	46132.35
291.882	38396.26
292.339	33413.61
292.796	33170.13
293.252	31256.35
293.709	24784.8
294.166	22213.7
294.623	24581.64
295.079	23597.84
295.536	23662.53
295.992	21497.04
296.449	21249.56
296.905	22076.85
297.362	21175.76
297.818	22264.78
298.274	23111.43
298.731	23569.34
299.187	23334.14
299.643	25038.79
300.099	30287.1
300.555	33230.42
301.011	27783.4
301.467	26793.43
301.923	31357.56
302.379	30621.04
302.835	30097.83
303.291	30116.52
303.746	34301.62
304.202	43339.73
304.658	43448.91
305.113	29210.61
305.569	28639.81
306.024	30514.11
306.479	29084.53
306.935	24527.87
307.39	26814.06
307.845	24777
308.301	24963.66
308.756	24309.66
309.211	23427.29
309.666	24055.84
310.121	29847.14
310.576	30292.86
311.031	30080.18
311.486	34425.39
311.94	34379.45
312.395	45938.22
312.85	86320.48
313.305	423982.88
313.759	2194622.67
314.214	158871.69
314.668	125852.63
315.123	105753.25
315.577	37878.16
316.032	33669.18
316.486	42134.34
316.94	33270.5
317.394	23162
317.849	17991.6
318.303	17031.04
318.757	16073.89
319.211	17773.12
319.665	15561.35
320.119	15766.91
320.572	22636.77
321.026	21137.66
321.48	17617.08
321.934	19207.34
322.387	19256.52
322.841	20785.41
323.295	18673.95
323.748	21495.82
324.202	21818.6
324.655	26231.19
325.108	36656.06
325.562	25894.27
326.015	30783.93
326.468	23273.38
326.921	26046.4
327.374	24306.8
327.827	25327.01
328.28	28704.54
328.733	19243.91
329.186	16949.78
329.639	16137.3
330.092	13597.35
330.545	12962.38
330.997	13084.56
331.45	14301.37
331.903	16764.99
332.355	28815.14
332.808	28019.72
333.26	23142.99
333.713	25128.71
334.165	25328.16
334.617	33837.38
335.069	27409.85
335.522	49573.38
335.974	54837.85
336.426	50081.65
336.878	34708.93
337.33	17625.97
337.782	17214.82
338.234	21528.19
338.686	25785.25
339.137	30475.42
339.589	28730.96
340.041	22499.37
340.493	19331.76
340.944	19798.02
341.396	21328.74
341.847	17925.97
342.299	21134.63
342.75	25792.92
343.201	22565.56
343.653	25942.46
344.104	31926.88
344.555	25113.57
345.006	39108.57
345.457	29966.76
345.908	23839.66
346.359	22421.18
346.81	18277.52
347.261	19288.17
347.712	18993.61
348.163	20336.23
348.613	20586.51
349.064	19213.08
349.515	16814.64
349.965	17222.8
350.416	20747.47
350.866	22787.82
351.317	25792.29
351.767	42754.13
352.217	54006.87
352.668	44871.35
353.118	41185.77
353.568	39762.76
354.018	31462.73
354.468	33228.21
354.918	23856.76
355.368	20878.68
355.818	29500.23
356.268	84978.13
356.718	355539.29
357.168	88480.37
357.617	44429.51
358.067	49410.19
358.517	46279.71
358.966	54339.8
359.416	60908.78
359.865	65943.19
360.315	78479.11
360.764	36644.46
361.213	20514.42
361.663	19433.93
362.112	24000.32
362.561	38724.65
363.01	29243.2
363.459	24621
363.908	26615.49
364.357	22603.78
364.806	38154.93
365.255	26275.24
365.703	24068.74
366.152	24133.11
366.601	19600.34
367.05	15930.73
367.498	14503.43
367.947	15165.89
368.395	15806.33
368.844	14023.2
369.292	16915.56
369.74	11700.15
370.189	17953.1
370.637	21077.26
371.085	18194.14
371.533	22134.22
371.981	21351.15
372.429	20369.94
372.877	21258.91
373.325	17816.34
373.773	18187.12
374.221	16237.74
374.669	20166.1
375.116	17451.62
375.564	17652.87
376.012	19802.74
376.459	16385.7
376.907	19612.65
377.354	23757.08
377.801	22177.77
378.249	25530.06
378.696	32688.63
379.143	39671.3
379.591	42436.76
380.038	71834.65
380.485	51951.25
380.932	56197.99
381.379	51535.91
381.826	38086.93
382.273	27164.92
382.72	23811.2
383.166	23265.43
383.613	15118.99
384.06	13667.14
384.506	15847.82
384.953	11699.81
385.4	11816.21
385.846	10373.93
386.292	10165.58
386.739	9988.27
387.185	9902.02
387.631	9941.87
388.078	9682.3
388.524	10401.33
388.97	9636.77
389.416	8076.71
389.862	8606.5
390.308	8192.84
390.754	8354.38
391.2	9084.39
391.645	9321.16
392.091	8939.22
392.537	8667.96
392.983	8715.78
393.428	8594.72
393.874	9248.4
394.319	9293.6
394.765	8855.12
395.21	9131.34
395.655	8586.89
396.101	8063.27
396.546	7294.36
396.991	7391.84
397.436	6875.16
397.881	6656.2
398.326	6327.33
398.771	5997.44
399.216	5265.67
399.661	4747.07
400.106	4740.23
400.551	4861.25
400.995	4362.77
401.44	4321.82
401.885	4066.01
402.329	4116.01
402.774	3954.46
403.218	3823.86
403.663	3686.34
404.107	3790.62
404.551	3822.51
404.995	3506.39
405.44	3386.44
405.884	3447.14
406.328	3344.68
406.772	3341.19
407.216	3047.26
407.66	2952.58
408.104	2815.25
408.547	2644.05
408.991	2559.91
409.435	2468.98
409.879	2439.12
410.322	2407.46
410.766	2326.07
411.209	2212.4
411.653	2122.89
412.096	2083.23
412.54	2085.41
412.983	2070.44
413.426	2072.95
413.869	2076.51
414.312	2035.36
414.756	1960.75
415.199	1872.72
415.642	1818.84
416.085	1820.01
416.527	1809.71
416.97	1837.35
417.413	1741.52
417.856	1723.72
418.298	1708.06
418.741	1692.26
419.184	1689.86
419.626	1761.45
420.069	1761.98
420.511	1770.81
420.953	1732.09
421.396	1716.48
421.838	1672.04
422.28	1710.14
422.722	1720.64
423.164	1745.4
423.606	1719.83
424.048	1718.62
424.49	1633.64
424.932	1627.08
425.374	1606.49
425.816	1636.3
426.258	1666.38
426.699	1687.3
427.141	1661.08
427.582	1686.02
428.024	1677.28
428.465	1667.86
428.907	1626.33
429.348	1608.23
429.789	1607.54
430.231	1573.86
430.672	1593.52
431.113	1557.58
431.554	1536.18
431.995	1501.42
432.436	1445.64
432.877	1412.08
433.318	1386.2
433.759	1380.71
434.2	1379.14
434.64	1365.35
435.081	1368.2
435.522	1298.27
435.962	1250.99
436.403	1222.61
436.843	1237.99
437.284	1210.67
437.724	1180.64
438.164	1185.65
438.604	1160.28
439.045	1115
439.485	1068.62
439.925	1045.99
440.365	1020.94
440.805	1008.91
441.245	996.45
441.685	961.23
442.125	957.68
442.564	966.81
443.004	945.58
443.444	945.27
443.883	948.52
444.323	943.58
444.762	948.09
445.202	961.76
445.641	978.42
446.081	976.01
446.52	985.23
446.959	975.52
447.398	952.54
447.837	943.85
448.276	927.71
448.716	938.17
449.154	948.19
449.593	928.21
450.032	928.07
450.471	914.72
450.91	915.71
451.349	915.09
451.787	915.06
452.226	929.64
452.664	932.05
453.103	935.76
453.541	936.8
453.98	935.5
454.418	941.66
454.856	926.55
455.295	925.67
455.733	934.36
456.171	939.95
456.609	942.07
457.047	942.39
457.485	954.5
457.923	956.46
458.361	943.79
458.798	947.08
459.236	944.92
459.674	952.89
460.111	956.81
460.549	946.61
460.987	944.04
461.424	940.46
461.862	935.69
462.299	922.4
462.736	920.35
463.173	922.71
463.611	912.42
464.048	910.58
464.485	918.72
464.922	911.49
465.359	907.16
465.796	893.56
466.233	886.22
466.67	876.78
467.106	873.69
467.543	866
467.98	856.2
468.416	835.59
468.853	828.32
469.29	802.57
469.726	793.05
470.162	772.29
470.599	762.53
471.035	755.99
471.471	738.55
471.907	734.59
472.344	729.53
472.78	730.72
473.216	739.03
473.652	731.33
474.088	729.32
474.523	726.79
474.959	734.16
475.395	728.67
475.831	724.64
476.266	728.65
476.702	726.68
477.138	719.02
477.573	717.5
478.008	714.17
478.444	718.36
478.879	725.69
479.314	729.09
479.75	728.93
480.185	732.48
480.62	739.4
481.055	743.32
481.49	749.14
481.925	760.27
482.36	773.16
482.795	796.05
483.229	817.16
483.664	834.08
484.099	837.57
484.534	851.6
484.968	860.43
485.403	863.38
485.837	864.54
486.271	863.97
486.706	865.58
487.14	857.23
487.574	844.44
488.009	838.06
488.443	831.88
488.877	841.07
489.311	843.17
489.745	853.59
490.179	861.78
490.613	877.3
491.046	885.01
491.48	891.72
491.914	893.7
492.348	900.05
492.781	905.58
493.215	907.08
493.648	909.13
494.082	916.6
494.515	917.71
494.948	928.18
495.382	935.46
495.815	942.98
496.248	950.85
496.681	968.12
497.114	984.16
497.547	997.56
497.98	1015.27
498.413	1024.25
498.846	1038.25
499.279	1049.9
499.711	1056.88
500.144	1059.53
500.577	1072.4
501.009	1087.31
501.442	1100.54
501.874	1103.22
502.306	1106.57
502.739	1117.77
503.171	1137.27
503.603	1142.62
504.036	1155.74
504.468	1163.97
504.9	1179.48
505.332	1188.39
505.764	1195.1
506.196	1204.52
506.627	1223.59
507.059	1241.53
507.491	1252.98
507.923	1251.06
508.354	1269.03
508.786	1282.51
509.217	1304.42
509.649	1323.39
510.08	1348.87
510.512	1369.28
510.943	1386.88
511.374	1400.2
511.805	1424.69
512.237	1448.59
512.668	1488.15
513.099	1521.3
513.53	1554.4
513.961	1578.68
514.391	1616.54
514.822	1654.14
515.253	1697.57
515.684	1727.28
516.114	1761.68
516.545	1784.96
516.975	1814.63
517.406	1834.18
517.836	1835.3
518.267	1840.3
518.697	1859.01
519.127	1860.8
519.558	1867.09
519.988	1866.35
520.418	1877.03
520.848	1895.98
521.278	1904
521.708	1915.12
522.138	1927.53
522.567	1962.85
522.997	1991.7
523.427	2008.94
523.857	2028.24
524.286	2038.24
524.716	2056.18
525.145	2075.86
525.575	2086.65
526.004	2102.2
526.433	2098.16
526.863	2097.12
527.292	2082.36
527.721	2086.7
528.15	2092.07
528.579	2090.77
529.008	2103.16
529.437	2129.4
529.866	2144.28
530.295	2163.68
530.724	2177.08
531.152	2208.31
531.581	2222.82
532.01	2243.15
532.438	2252.55
532.867	2270.01
533.295	2291.89
533.723	2297.42
534.152	2294.85
534.58	2294.52
535.008	2274.09
535.436	2275.9
535.865	2286.06
536.293	2305.43
536.721	2325.02
537.149	2357.01
537.576	2359.14
538.004	2374.68
538.432	2386.04
538.86	2381.35
539.287	2389.64
539.715	2406.36
540.143	2409.39
540.57	2403.72
540.998	2398.25
541.425	2367.78
541.852	2340.27
542.28	2337.08
542.707	2315.58
543.134	2296.13
543.561	2291.97
543.988	2282.33
544.415	2281.41
544.842	2274.61
545.269	2265.62
545.696	2265.79
546.123	2281.09
546.549	2266.09
546.976	2249.73
547.403	2248.91
547.829	2250.92
548.256	2252.12
548.682	2247.67
549.108	2238.04
549.535	2236.51
549.961	2238.24
550.387	2222.89
550.813	2215.64
551.24	2223.17
551.666	2223.99
552.092	2210.96
552.518	2203.12
552.943	2194.17
553.369	2202.3
553.795	2209.04
554.221	2210.29
554.646	2205.64
555.072	2218.23
555.498	2225.04
555.923	2237.94
556.349	2257.88
556.774	2268.88
557.199	2271
557.625	2280.51
558.05	2272.42
558.475	2286.19
558.9	2286.4
559.325	2277.24
559.75	2270.51
560.175	2265.07
560.6	2257.73
561.025	2254.78
561.449	2258.04
561.874	2265.58
562.299	2271.13
562.723	2282.35
563.148	2270.91
563.572	2275.17
563.997	2288.74
564.421	2296.79
564.846	2297.63
565.27	2303.29
565.694	2301.11
566.118	2317.77
566.542	2328.27
566.966	2322.05
567.39	2318.26
567.814	2304.96
568.238	2307.28
568.662	2316.81
569.086	2321.88
569.509	2333.18
569.933	2315.58
570.357	2308.68
570.78	2283.89
571.204	2269.81
571.627	2258.26
572.05	2257.29
572.474	2259.71
572.897	2246.62
573.32	2238.37
573.743	2227.79
574.166	2205.51
574.589	2207.07
575.012	2199.74
575.435	2199.46
575.858	2188.21
576.281	2176.72
576.704	2159.19
577.126	2143.71
577.549	2129.26
577.972	2116.46
578.394	2103.69
578.817	2095.99
579.239	2073.55
579.661	2056.2
580.084	2036.1
580.506	2020.73
580.928	2016.39
581.35	2001.95
581.772	1998.62
582.194	1982.42
582.616	1967.69
583.038	1950.93
583.46	1938.43
583.882	1934.63
584.303	1941.66
584.725	1937.61
585.147	1937.98
585.568	1951.35
585.99	1967.97
586.411	1976.42
586.833	1996.18
587.254	1998.62
587.675	2017.21
588.096	2035
588.518	2029.53
588.939	2008.73
589.36	2006.61
589.781	1996.95
590.202	1960.36
590.623	1949.16
591.043	1948.87
591.464	1933.97
591.885	1930.33
592.305	1922.97
592.726	1904.67
593.147	1907.44
593.567	1901.03
593.987	1892.06
594.408	1886.59
594.828	1885.88
595.248	1878.93
595.669	1852.95
596.089	1844.5
596.509	1837.03
596.929	1821.16
597.349	1821.49
597.769	1808.81
598.189	1801.11
598.608	1803.73
599.028	1805.91
599.448	1806.58
599.867	1791.39
600.287	1786.72
600.706	1781.34
601.126	1768.05
601.545	1765.9
601.965	1765.3
602.384	1758.38
602.803	1762.44
603.222	1755.51
603.641	1748.17
604.061	1743.35
604.48	1737.38
604.898	1748.5
605.317	1755.65
605.736	1759.49
606.155	1756.33
606.574	1745.08
606.992	1752.82
607.411	1748.22
607.829	1738.25
608.248	1733.75
608.666	1732.23
609.085	1732.31
609.503	1721.98
609.921	1714.03
610.339	1716.18
610.758	1716.35
611.176	1710.25
611.594	1699.07
612.012	1693.9
612.43	1698.98
612.847	1708.13
613.265	1708.56
613.683	1716.01
614.101	1718.48
614.518	1714.15
614.936	1702.05
615.353	1682.75
615.771	1680.59
616.188	1681.4
616.606	1677.93
617.023	1668.83
617.44	1651.09
617.857	1643.13
618.274	1631.81
618.691	1623.81
619.108	1612.54
619.525	1606.22
619.942	1616.27
620.359	1618.56
620.776	1611.42
621.192	1606.03
621.609	1602.52
622.026	1611.24
622.442	1618.65
622.859	1623.3
623.275	1614.74
623.691	1621.71
624.108	1635.78
624.524	1653.17
624.94	1653.53
625.356	1667.39
625.772	1685.23
626.188	1702.47
626.604	1705.33
627.02	1701
627.436	1698.44
627.852	1707.55
628.268	1723.15
628.683	1711.78
629.099	1701.04
629.514	1697.6
629.93	1702.69
630.345	1709.01
630.761	1704.04
631.176	1708.56
631.591	1700.23
632.007	1692.12
632.422	1689.44
632.837	1676.25
633.252	1674.11
633.667	1661.71
634.082	1648.66
634.497	1632.32
634.911	1607.49
635.326	1603.29
635.741	1580.41
636.155	1569.61
636.57	1572.63
636.984	1573.14
637.399	1574.93
637.813	1575.53
638.228	1576.15
638.642	1583.13
639.056	1571.67
639.47	1572.32
639.884	1562.5
640.298	1556.88
640.712	1555
641.126	1540.32
641.54	1530.68
641.954	1526.49
642.368	1512.01
642.781	1502.14
643.195	1479.55
643.609	1481.09
644.022	1475.39
644.436	1472.07
644.849	1458.29
645.262	1445.71
645.676	1449.86
646.089	1446.79
646.502	1427.64
646.915	1421.11
647.328	1399.33
647.741	1398.21
648.154	1381.63
648.567	1377.54
648.98	1360.39
649.393	1360.53
649.805	1355.71
650.218	1344.37
650.631	1321.38
651.043	1311.08
651.456	1302.2
651.868	1303.15
652.28	1325.14
652.693	1342.22
653.105	1350.94
653.517	1363.4
653.929	1360.86
654.341	1366.02
654.753	1348.96
655.165	1356.1
655.577	1352.38
655.989	1346.29
656.401	1334.73
656.813	1286.92
657.224	1258.55
657.636	1219.54
658.047	1193.83
658.459	1170.01
658.87	1157.71
659.282	1142.62
659.693	1113.69
660.104	1094.17
660.515	1075.35
660.926	1072.01
661.338	1067.26
661.749	1058.88
662.159	1045.31
662.57	1038.28
662.981	1030.37
663.392	1019.65
663.803	1023.18
664.213	1019.81
664.624	1014.88
665.035	1017.36
665.445	999.66
665.855	987.81
666.266	976.82
666.676	973.72
667.086	962.96
667.497	960.49
667.907	953.1
668.317	940.11
668.727	934.28
669.137	932.56
669.547	929.29
669.956	931.97
670.366	935.11
670.776	936.25
671.186	940.12
671.595	943.06
672.005	947.11
672.414	944.18
672.824	942.2
673.233	947.76
673.642	950.33
674.052	952.56
674.461	953.65
674.87	958.82
675.279	954.78
675.688	956.62
676.097	957.75
676.506	953.88
676.915	970.75
677.323	973.42
677.732	970.26
678.141	970.25
678.549	957.49
678.958	956.69
679.366	954.15
679.775	960.31
680.183	972.32
680.592	978.7
681	985.96
681.408	978.19
681.816	987.83
682.224	999.48
682.632	1012.01
683.04	1049.96
683.448	1080.65
683.856	1121.05
684.264	1166.54
684.671	1207.52
685.079	1257.72
685.487	1312.47
685.894	1391.27
686.302	1453.56
686.709	1504.76
687.116	1564.46
687.524	1612.98
687.931	1652.92
688.338	1686.18
688.745	1713.27
689.152	1746.15
689.559	1792.49
689.966	1836.79
690.373	1852.72
690.78	1892.28
691.187	1959.87
691.593	2007.9
692	2046.18
692.407	2109.9
692.813	2190.81
693.22	2252.51
693.626	2315.29
694.032	2362.34
694.439	2442.44
694.845	2502.79
