Data from N_2_DIV_PA_2N_Splice17_12-39-18-391.txt Node
Date: Sat Mar 14 12:39:18 EDT 2020
User: sa697716
Spectrometer: FLMS03696
Trigger mode: 0
Integration Time (sec): 3.180400E-1
Scans to average: 20
Electric dark correction enabled: true
Nonlinearity correction enabled: true
Boxcar width: 5
XAxis mode: Wavelengths
Number of Pixels in Spectrum: 2048
>>>>>Begin Spectral Data<<<<<
187.83	-344831.26
188.298	2501.48
188.766	1386.9
189.233	1192.78
189.701	1794.49
190.169	2466.25
190.636	947.33
191.104	759.54
191.571	125.56
192.039	-60.25
192.506	-86.97
192.974	471.09
193.441	-599.28
193.908	-34.65
194.375	1.42
194.842	77.24
195.31	138.7
195.777	202.19
196.244	428.36
196.711	516.35
197.177	646.64
197.644	918.72
198.111	1609.66
198.578	2235.16
199.045	1818.78
199.511	2942.37
199.978	3454.94
200.445	2940.88
200.911	3229.43
201.378	3599.95
201.844	3252.97
202.31	5608.14
202.777	5805.29
203.243	3196.64
203.709	3025.4
204.176	3566.52
204.642	2926.83
205.108	2756.43
205.574	2263.87
206.04	2065.99
206.506	1930.52
206.972	1821.48
207.438	1747.05
207.903	1996.13
208.369	1755.11
208.835	1755.22
209.301	1840.36
209.766	1874.14
210.232	1841.23
210.697	2256.03
211.163	2786.6
211.628	4222.59
212.094	3555.13
212.559	4355.54
213.024	2718.17
213.49	3327.12
213.955	3269.87
214.42	3188.48
214.885	2983.32
215.35	2859.54
215.815	2759.76
216.28	2931.02
216.745	2364.73
217.21	2542.23
217.675	2321.11
218.14	2581.14
218.604	2847.37
219.069	3199.18
219.534	3337.7
219.998	3831.87
220.463	4621.65
220.927	5621.81
221.392	5255.48
221.856	5312.05
222.32	6645.9
222.785	8176.85
223.249	10228.99
223.713	11380.82
224.177	11388.02
224.642	14561.98
225.106	17928.06
225.57	19546.88
226.034	14535.56
226.497	22126.34
226.961	19924.67
227.425	23222.08
227.889	25733.41
228.353	25707.5
228.816	53015.07
229.28	50554.32
229.744	42561.7
230.207	25883.28
230.671	25398.54
231.134	41948.28
231.597	48325.7
232.061	48282.7
232.524	46969.77
232.987	32312.52
233.45	29147.96
233.914	26133.51
234.377	26760.38
234.84	24477.88
235.303	28836.34
235.766	32183.57
236.229	33249.16
236.691	20913.19
237.154	23480.63
237.617	17681.56
238.08	18117.91
238.542	21157.71
239.005	15121.54
239.468	15016.58
239.93	14157.63
240.393	12852.66
240.855	11281.66
241.317	11548.73
241.78	14031.79
242.242	14523.12
242.704	15670.17
243.166	13641.96
243.629	12400.18
244.091	14275.77
244.553	15635.98
245.015	16808.24
245.477	21754.27
245.939	31865.22
246.4	33817.55
246.862	32855.53
247.324	30966.08
247.786	34657.93
248.247	45356.39
248.709	46730.35
249.17	34973.23
249.632	33007.85
250.093	38308.02
250.555	33090.84
251.016	20203.23
251.477	19156.8
251.939	20692.31
252.4	21717.3
252.861	25840.07
253.322	24085.84
253.783	28693.46
254.244	37223.72
254.705	29315.57
255.166	26041.11
255.627	25644.98
256.088	36195.63
256.549	38480.81
257.009	33117.15
257.47	40196.72
257.931	32694.06
258.391	24479.38
258.852	25243.7
259.312	26455.84
259.773	32659.85
260.233	27619.86
260.694	23290.36
261.154	26365.22
261.614	21202.53
262.074	18962.43
262.534	19705.56
262.994	18580.76
263.455	24742.31
263.915	20850.29
264.374	19636.07
264.834	21438.67
265.294	23725.97
265.754	24561.18
266.214	23265.67
266.673	21749.99
267.133	27466.81
267.593	27231.45
268.052	33324.76
268.512	28985.39
268.971	34969.86
269.431	38351.56
269.89	34336.41
270.349	51543.34
270.809	57532.73
271.268	51743.49
271.727	116067.6
272.186	75179.71
272.645	56391.06
273.104	40700.5
273.563	58916.04
274.022	46306.92
274.481	39443.31
274.94	30433.75
275.399	22628.3
275.857	26359.72
276.316	35626.84
276.775	31719.75
277.233	31266.38
277.692	29276.21
278.15	33118.19
278.609	34108.02
279.067	31564
279.525	29347.12
279.984	37908.17
280.442	45545.23
280.9	44932.86
281.358	29604.64
281.816	27620.57
282.274	27058.37
282.732	27992.2
283.19	28133.03
283.648	24292.39
284.106	25893.14
284.564	26303.7
285.021	24409.12
285.479	18204.23
285.937	16545.38
286.394	14543.22
286.852	14970.44
287.309	15752.11
287.767	15232.58
288.224	14510.59
288.682	15941.05
289.139	17515.69
289.596	16055.26
290.053	16673.59
290.511	21050.26
290.968	25545.23
291.425	34629.63
291.882	28846.68
292.339	25080.87
292.796	24880.43
293.252	23437.07
293.709	18625.51
294.166	16698.8
294.623	18445.6
295.079	17707.38
295.536	17784.76
295.992	16148.51
296.449	15993.85
296.905	16608.3
297.362	15935.01
297.818	16746.22
298.274	17386.9
298.731	17718.74
299.187	17530.65
299.643	18831.3
300.099	22814.3
300.555	25043.62
301.011	20944.52
301.467	20197.3
301.923	23637.6
302.379	23106.19
302.835	22717.13
303.291	22740.22
303.746	25894.16
304.202	32725.49
304.658	32846.58
305.113	22080.29
305.569	21634.04
306.024	23053.15
306.479	21921.32
306.935	18501.85
307.39	20210.07
307.845	18681.69
308.301	18807.11
308.756	18323.51
309.211	17663.37
309.666	18134.44
310.121	22561.6
310.576	22907.55
311.031	22764.88
311.486	26107.28
311.94	26108.1
312.395	34918.08
312.85	65621.06
313.305	322599.78
313.759	1674473.84
314.214	121616.49
314.668	96388.99
315.123	81003.27
315.577	29129.8
316.032	25955.44
316.486	32537.16
316.94	25712.25
317.394	17939.57
317.849	13950.07
318.303	13213.68
318.757	12458.97
319.211	13771.14
319.665	12063.55
320.119	12223.56
320.572	17507.02
321.026	16339.83
321.48	13625.61
321.934	14843.33
322.387	14848.56
322.841	16064.84
323.295	14477.62
323.748	16664.61
324.202	16917.97
324.655	20330.75
325.108	28435.43
325.562	20096.47
326.015	23907.54
326.468	18081.84
326.921	20246.68
327.374	18913.77
327.827	19700.66
328.28	22295.28
328.733	14960.41
329.186	13158.6
329.639	12539.37
330.092	10564.82
330.545	10066.34
330.997	10148.21
331.45	11087.69
331.903	13024.18
332.355	22422.92
332.808	21793.45
333.26	17977.04
333.713	19537.04
334.165	19706.8
334.617	26328.71
335.069	21257.39
335.522	38478.66
335.974	42661.96
336.426	39001.21
336.878	26960.38
337.33	13664.51
337.782	13330.62
338.234	16730.15
338.686	20040.99
339.137	23748.41
339.589	22349.08
340.041	17549.25
340.493	15074.02
340.944	15452.73
341.396	16638.91
341.847	14021.13
342.299	16570.75
342.75	20259.81
343.201	17663.5
343.653	20289.81
344.104	24950.19
344.555	19646.41
345.006	30495.45
345.457	23418.13
345.908	18610.58
346.359	17532.25
346.81	14278.4
347.261	15019.97
347.712	14788.83
348.163	15852.29
348.613	16069.19
349.064	15009.17
349.515	13172.79
349.965	13546.58
350.416	16308.64
350.866	17891.6
351.317	20220.38
351.767	33562.28
352.217	42480.74
352.668	35271.6
353.118	32339.95
353.568	31149.54
354.018	24619.11
354.468	25944.13
354.918	18608.2
355.368	16283.05
355.818	23046.16
356.268	66342.76
356.718	277829.26
357.168	69263.02
357.617	34832.44
358.067	38744.5
358.517	36322.01
358.966	42598.27
359.416	47876.1
359.865	51761.55
360.315	61640.67
360.764	28816.85
361.213	16167.37
361.663	15310.75
362.112	18907.2
362.561	30565.62
363.01	23096.3
363.459	19509.46
363.908	21155.48
364.357	17991.93
364.806	30413.42
365.255	20938
365.703	19140.4
366.152	19176.68
366.601	15537.89
367.05	12610.12
367.498	11460.7
367.947	12003.82
368.395	12483.34
368.844	11067.91
369.292	13324.55
369.74	9217.98
370.189	14105.39
370.637	16571.01
371.085	14295.28
371.533	17397.33
371.981	16787.12
372.429	16038.26
372.877	16745.55
373.325	14030.63
373.773	14328.39
374.221	12790.62
374.669	15920.07
375.116	13811.15
375.564	13946.42
376.012	15660.31
376.459	12960.55
376.907	15514.15
377.354	18787.49
377.801	17555.62
378.249	20228.71
378.696	25893.65
379.143	31425.22
379.591	33578.48
380.038	57021.07
380.485	41353.31
380.932	44764.49
381.379	41178.37
381.826	30509.07
382.273	21777.1
382.72	19067.64
383.166	18632.48
383.613	12139.65
384.06	10991.65
384.506	12768.8
384.953	9407.95
385.4	9515.44
385.846	8357.81
386.292	8174.77
386.739	8018.78
387.185	7972.44
387.631	8022.56
388.078	7834.64
388.524	8419.18
388.97	7813.48
389.416	6545.8
389.862	6999.74
390.308	6667.34
390.754	6811.16
391.2	7424.97
391.645	7632.86
392.091	7312.68
392.537	7085.29
392.983	7100.3
393.428	7009.68
393.874	7524.79
394.319	7584.47
394.765	7218.14
395.21	7431.08
395.655	6990.96
396.101	6557.07
396.546	5937.75
396.991	6016.96
397.436	5608.45
397.881	5461.89
398.326	5187.76
398.771	4929.71
399.216	4323.47
399.661	3901.34
400.106	3897.72
400.551	3997.49
400.995	3600.74
401.44	3567.71
401.885	3356.9
402.329	3398.59
402.774	3262.65
403.218	3170.18
403.663	3061.28
404.107	3157.57
404.551	3190.59
404.995	2935.13
405.44	2834.76
405.884	2886.51
406.328	2800.19
406.772	2800.18
407.216	2559.98
407.66	2481.33
408.104	2361.27
408.547	2218.11
408.991	2150.52
409.435	2074.03
409.879	2049.79
410.322	2030.95
410.766	1965.07
411.209	1875.57
411.653	1805.37
412.096	1772.72
412.54	1776.85
412.983	1767.33
413.426	1776
413.869	1775.18
414.312	1746.02
414.756	1685.51
415.199	1607.35
415.642	1562.13
416.085	1566.42
416.527	1559.56
416.97	1587.29
417.413	1507.43
417.856	1493.2
418.298	1478.39
418.741	1469.46
419.184	1466.67
419.626	1528.31
420.069	1534.01
420.511	1546.52
420.953	1516.5
421.396	1501.75
421.838	1461.72
422.28	1494.67
422.722	1505.23
423.164	1526.89
423.606	1502.5
424.048	1503.96
424.49	1432.02
424.932	1425.19
425.374	1403.72
425.816	1424.89
426.258	1452.69
426.699	1470.89
427.141	1451.83
427.582	1473.19
428.024	1468.58
428.465	1462.81
428.907	1426.65
429.348	1411.35
429.789	1412.11
430.231	1385.42
430.672	1405.78
431.113	1375.33
431.554	1356.7
431.995	1323.77
432.436	1277.71
432.877	1248.08
433.318	1227.34
433.759	1220.66
434.2	1222.91
434.64	1210.52
435.081	1212.27
435.522	1148.23
435.962	1106.34
436.403	1083.12
436.843	1095.31
437.284	1070.95
437.724	1043.21
438.164	1046.78
438.604	1025.29
439.045	983.81
439.485	941.71
439.925	921.53
440.365	898.24
440.805	885.89
441.245	874.56
441.685	843.58
442.125	837.02
442.564	841.67
443.004	819.78
443.444	816.64
443.883	817.65
444.323	812.83
444.762	812.85
445.202	824.99
445.641	839.38
446.081	832.49
446.52	838.93
446.959	830.72
447.398	809.53
447.837	800.43
448.276	784.75
448.716	790.01
449.154	794.35
449.593	775.59
450.032	772.36
450.471	756.39
450.91	755.37
451.349	751.3
451.787	745.94
452.226	756.76
452.664	755.11
453.103	755.87
453.541	753.68
453.98	750.82
454.418	753.88
454.856	738.85
455.295	734.89
455.733	739.46
456.171	742.47
456.609	743.8
457.047	742.07
457.485	752.67
457.923	752.14
458.361	741.41
458.798	743.2
459.236	739.7
459.674	744.39
460.111	748.43
460.549	741.39
460.987	739.33
461.424	736.02
461.862	731.29
462.299	719.29
462.736	719.31
463.173	722.6
463.611	716.48
464.048	717.17
464.485	724.07
464.922	717.69
465.359	714.57
465.796	707.21
466.233	701.62
466.67	696.44
467.106	695.96
467.543	689.37
467.98	680.16
468.416	662.41
468.853	655.92
469.29	635.06
469.726	627.91
470.162	611.39
470.599	601.54
471.035	595.69
471.471	580.97
471.907	577.44
472.344	572.26
472.78	572.78
473.216	577.83
473.652	571.53
474.088	570.37
474.523	567.98
474.959	571.46
475.395	565.62
475.831	562.13
476.266	564.12
476.702	560.81
477.138	554.55
477.573	551.76
478.008	549.17
478.444	550.69
478.879	554.81
479.314	557.1
479.75	556.76
480.185	557.97
480.62	561.86
481.055	563.98
481.49	567.06
481.925	574.95
482.36	585.23
482.795	601.12
483.229	616
483.664	627.86
484.099	628.35
484.534	637.52
484.968	642.45
485.403	643.61
485.837	641.56
486.271	640.01
486.706	639.98
487.14	630.12
487.574	618.14
488.009	611.41
488.443	604.23
488.877	609.41
489.311	609.02
489.745	614.16
490.179	617.12
490.613	627.06
491.046	629.38
491.48	630.39
491.914	628.06
492.348	630.32
492.781	630.94
493.215	629.7
493.648	627.08
494.082	628.05
494.515	625.86
494.948	629.69
495.382	629.3
495.815	629.41
496.248	630.74
496.681	638.24
497.114	642.97
497.547	647.32
497.98	654.04
498.413	654.72
498.846	658.42
499.279	659.74
499.711	657.57
500.144	654.09
500.577	657.55
501.009	659.52
501.442	661.73
501.874	656.73
502.306	650.98
502.739	651.61
503.171	656.24
503.603	651.45
504.036	651.86
504.468	649.91
504.9	651.13
505.332	647.88
505.764	644.84
506.196	642.88
506.627	646.85
507.059	649.73
507.491	646.68
507.923	638.91
508.354	642.4
508.786	642.55
509.217	646.76
509.649	649.49
510.08	655.4
510.512	659.9
510.943	662.54
511.374	663.01
511.805	669.07
512.237	674.62
512.668	687.42
513.099	697.24
513.53	707.64
513.961	715.5
514.391	729.45
514.822	744.97
515.253	760.81
515.684	771.54
516.114	784.04
516.545	792.83
516.975	803.79
517.406	810.27
517.836	809.14
518.267	810.14
518.697	817.68
519.127	817.52
519.558	817.99
519.988	817.33
520.418	820.83
520.848	828.66
521.278	832.06
521.708	865.07
522.138	871.86
522.567	888.53
522.997	902.59
523.427	909.74
523.857	919.13
524.286	925.38
524.716	935.14
525.145	946.84
525.575	954.95
526.004	964.11
526.433	938.84
526.863	939.35
527.292	935.05
527.721	939.66
528.15	944.39
528.579	946.3
529.008	954.36
529.437	967.88
529.866	976.71
530.295	986.81
530.724	996.04
531.152	1013.05
531.581	1023.85
532.01	1035.78
532.438	1041.34
532.867	1051.57
533.295	1064.06
533.723	1067.99
534.152	1068.66
534.58	1071.02
535.008	1063.34
535.436	1065.62
535.865	1070.13
536.293	1079.45
536.721	1089.18
537.149	1106.59
537.576	1109.55
538.004	1118.6
538.432	1124.28
538.86	1124.34
539.287	1128.64
539.715	1137.86
540.143	1139.31
540.57	1138.09
540.998	1135.19
541.425	1123.75
541.852	1111.03
542.28	1109.91
542.707	1099.56
543.134	1092.15
543.561	1089.96
543.988	1086.36
544.415	1086.25
544.842	1083.04
545.269	1080.04
545.696	1082.91
546.123	1090.64
546.549	1084.85
546.976	1079.36
547.403	1080
547.829	1082.13
548.256	1084.11
548.682	1081.35
549.108	1077.49
549.535	1078.36
549.961	1079.48
550.387	1071.49
550.813	1068.85
551.24	1073.68
551.666	1072.81
552.092	1067.44
552.518	1062.94
552.943	1059.31
553.369	1064.68
553.795	1067.68
554.221	1067.59
554.646	1065.13
555.072	1072.12
555.498	1073.77
555.923	1077.7
556.349	1086.84
556.774	1090.36
557.199	1090.63
557.625	1092.44
558.05	1087.33
558.475	1092.63
558.9	1091.29
559.325	1086.07
559.75	1080.69
560.175	1073.99
560.6	1068.18
561.025	1064.23
561.449	1064.2
561.874	1065.28
562.299	1067.56
562.723	1069.85
563.148	1061.98
563.572	1062.32
563.997	1065.79
564.421	1066.43
564.846	1066.13
565.27	1066.05
565.694	1063.25
566.118	1067.62
566.542	1070
566.966	1063.4
567.39	1059.06
567.814	1050.89
568.238	1048.5
568.662	1049.23
569.086	1049.8
569.509	1052.31
569.933	1042.88
570.357	1037.23
570.78	1024.85
571.204	1017.3
571.627	1009.88
572.05	1007.32
572.474	1006.84
572.897	999.16
573.32	994.68
573.743	987.26
574.166	976.45
574.589	974.93
575.012	970.24
575.435	967.99
575.858	962.03
576.281	954.93
576.704	945.54
577.126	937.68
577.549	930.45
577.972	923.22
578.394	917.1
578.817	913.79
579.239	903.91
579.661	896.72
580.084	888.72
580.506	881.59
580.928	879.92
581.35	873.61
581.772	871.35
582.194	864.78
582.616	858.03
583.038	849.64
583.46	842.92
583.882	841.32
584.303	842.33
584.725	839.17
585.147	843.16
585.568	850.03
585.99	858.33
586.411	862.44
586.833	871.32
587.254	873.35
587.675	882.25
588.096	889.01
588.518	886.61
588.939	877.98
589.36	878.16
589.781	869.08
590.202	855.3
590.623	849.51
591.043	848.16
591.464	840.87
591.885	839.13
592.305	835.82
592.726	828.89
593.147	830.07
593.567	827.75
593.987	823.29
594.408	820.65
594.828	816.41
595.248	814.34
595.669	803.97
596.089	800.34
596.509	795.93
596.929	789
597.349	789.48
597.769	783.06
598.189	780.36
598.608	781.15
599.028	781.97
599.448	781.58
599.867	773.84
600.287	771.73
600.706	769.98
601.126	764.84
601.545	764.71
601.965	764.36
602.384	761.87
602.803	762.98
603.222	760.62
603.641	756.79
604.061	756.13
604.48	753.89
604.898	759.12
605.317	761.39
605.736	763.18
606.155	762.16
606.574	756.65
606.992	759.55
607.411	757.53
607.829	752.29
608.248	751.5
608.666	750.87
609.085	750.86
609.503	745.62
609.921	744.05
610.339	745.71
610.758	745.28
611.176	743.31
611.594	739.89
612.012	737.57
612.43	740.98
612.847	744.31
613.265	745.99
613.683	750.26
614.101	752.79
614.518	750.69
614.936	744.96
615.353	738.08
615.771	737.53
616.188	739.07
616.606	738.79
617.023	736.35
617.44	729.35
617.857	724.76
618.274	720.57
618.691	718.38
619.108	714.16
619.525	712.48
619.942	717.69
620.359	720.61
620.776	717.21
621.192	716.75
621.609	716.34
622.026	722.18
622.442	726.96
622.859	729.1
623.275	725.17
623.691	728.68
624.108	736.24
624.524	743.96
624.94	744.74
625.356	752.19
625.772	759.07
626.188	765.72
626.604	766.4
627.02	764.66
627.436	763.96
627.852	768.64
628.268	776.12
628.683	771.87
629.099	767.13
629.514	764.09
629.93	766.3
630.345	769.5
630.761	767.84
631.176	770.57
631.591	769.65
632.007	768.76
632.422	767.34
632.837	761.17
633.252	760.48
633.667	756.17
634.082	752.18
634.497	746.41
634.911	738.58
635.326	737.98
635.741	730.14
636.155	724.93
636.57	727.84
636.984	731.29
637.399	736.56
637.813	738.88
638.228	740.95
638.642	746.49
639.056	743.81
639.47	746.33
639.884	744.93
640.298	744.87
640.712	749.3
641.126	745.84
641.54	744.58
641.954	743.48
642.368	741.42
642.781	743.66
643.195	737.54
643.609	743.57
644.022	744.2
644.436	747.37
644.849	743.55
645.262	738.82
645.676	744.18
646.089	746.12
646.502	742.03
646.915	741.82
647.328	733.57
647.741	736.71
648.154	731.05
648.567	734.14
648.98	727.26
649.393	731.03
649.805	731.23
650.218	728.06
650.631	717.51
651.043	715.22
651.456	713.28
651.868	714.64
652.28	729.39
652.693	740.11
653.105	746.62
653.517	755.69
653.929	758.62
654.341	766.42
654.753	760.2
655.165	768.97
655.577	769.59
655.989	769.58
656.401	766.97
656.813	743.97
657.224	732.14
657.636	712.96
658.047	704.66
658.459	693.65
658.87	690.63
659.282	685.67
659.693	674.6
660.104	668.71
660.515	662.95
660.926	667.44
661.338	668.23
661.749	669.23
662.159	668.84
662.57	669.8
662.981	672.3
663.392	671.27
663.803	679.92
664.213	682.19
664.624	683.54
665.035	690.55
665.445	682.67
665.855	682.31
666.266	680.09
666.676	680.46
667.086	675.88
667.497	678.4
667.907	676.33
668.317	670.39
668.727	673.21
669.137	676.43
669.547	676.88
669.956	681.08
670.366	684.55
670.776	687.52
671.186	692.44
671.595	697.53
672.005	700.8
672.414	701.64
672.824	702.05
673.233	704.45
673.642	706.98
674.052	709.49
674.461	712.88
674.87	717.03
675.279	715.59
675.688	716.52
676.097	717.54
676.506	715.02
676.915	727.7
677.323	729.88
677.732	728.12
678.141	726.21
678.549	715.6
678.958	712.02
679.366	709.67
679.775	712.07
680.183	721.57
680.592	724.09
681	725.7
681.408	715.74
681.816	718.7
682.224	721.53
682.632	726.19
683.04	747.01
683.448	761.48
683.856	781.21
684.264	801.72
684.671	816.33
685.079	837.18
685.487	860.26
685.894	895.94
686.302	919.51
686.709	934.04
687.116	951.32
687.524	961.55
687.931	966.91
688.338	964.63
688.745	958.53
689.152	955.83
689.559	960.16
689.966	966.47
690.373	956.77
690.78	960.24
691.187	976.83
691.593	985.81
692	989.64
692.407	1008.33
692.813	1038.15
693.22	1059.86
693.626	1083.65
694.032	1103.13
694.439	1134.58
694.845	1160.32
695.251	1197.95
695.657	1232.49
696.063	1284.15
696.469	1327.05
696.875	1368.25
697.281	1392.65
697.687	1425.96
698.093	1455.33
698.498	1506.94
698.904	1551.29
699.31	1615.46
699.715	1666.85
700.12	1735.45
700.526	1763.37
700.931	1822.64
701.337	1872.1
701.742	1911.17
702.147	1982.34
702.552	2023.75
