Data from N_2_DIV_IL_4N_Splice17_12-35-53-595.txt Node
Date: Sat Mar 14 12:35:53 EDT 2020
User: sa697716
Spectrometer: FLMS03696
Trigger mode: 0
Integration Time (sec): 3.180400E-1
Scans to average: 20
Electric dark correction enabled: true
Nonlinearity correction enabled: true
Boxcar width: 5
XAxis mode: Wavelengths
Number of Pixels in Spectrum: 2048
>>>>>Begin Spectral Data<<<<<
187.83	-387297.05
188.298	2875.38
188.766	1514.79
189.233	1411.08
189.701	1923.18
190.169	2643.38
190.636	973.92
191.104	753.86
191.571	95.77
192.039	-107.65
192.506	-79.11
192.974	483.3
193.441	-796.44
193.908	-295.24
194.375	-0.62
194.842	38.26
195.31	96.2
195.777	121.92
196.244	338.82
196.711	395.74
197.177	525.53
197.644	745.88
198.111	1313.29
198.578	1869.16
199.045	1516.76
199.511	2444.64
199.978	2872.74
200.445	2464.47
200.911	2788.04
201.378	3099.57
201.844	2824.66
202.31	4792.58
202.777	5023.42
203.243	2793.89
203.709	2669.51
204.176	3213.28
204.642	2661.86
205.108	2480.33
205.574	2039.06
206.04	1841.14
206.506	1724.37
206.972	1630.89
207.438	1581.41
207.903	1807.3
208.369	1597.38
208.835	1607.16
209.301	1668.63
209.766	1710.61
210.232	1695.11
210.697	2079.52
211.163	2569.72
211.628	3929.72
212.094	3307.02
212.559	4111.98
213.024	2579.06
213.49	3146.79
213.955	3059.21
214.42	3017.2
214.885	2830.74
215.35	2756.48
215.815	2691.21
216.28	2874.61
216.745	2369.78
217.21	2610.68
217.675	2420.18
218.14	2767.55
218.604	3134.52
219.069	3662.85
219.534	3907.95
219.998	4618.68
220.463	5650.61
220.927	7072.27
221.392	6739.05
221.856	6890.12
222.32	8767.58
222.785	10945.37
223.249	13881.12
223.713	15614.44
224.177	15704.51
224.642	20265.01
225.106	25089.63
225.57	27629.36
226.034	20615.65
226.497	31547.14
226.961	28556.67
227.425	33340.4
227.889	37090.35
228.353	37190.94
228.816	77073.57
229.28	73841.26
229.744	62446.32
230.207	37983.88
230.671	37399.53
231.134	62016.42
231.597	71610.43
232.061	71733.88
232.524	70204.63
232.987	48402.59
233.45	43590.4
233.914	39140.34
234.377	40241.79
234.84	36869.15
235.303	43556.16
235.766	48692.23
236.229	50348.51
236.691	31746.33
237.154	35721.44
237.617	26881.18
238.08	27577.87
238.542	32372.11
239.005	23180.02
239.468	23019.22
239.93	21731.5
240.393	19781.42
240.855	17380.9
241.317	17835.43
241.78	21735.41
242.242	22504.31
242.704	24294.19
243.166	21158.45
243.629	19213.31
244.091	22134.71
244.553	24264.5
245.015	26081.25
245.477	33743.97
245.939	49541.43
246.4	52619.95
246.862	51131.27
247.324	48230.13
247.786	54064.01
248.247	71012.72
248.709	73367.44
249.17	54914.48
249.632	51769.88
250.093	60043.98
250.555	51849.51
251.016	31549.79
251.477	29909.52
251.939	32303.51
252.4	33906.38
252.861	40311.94
253.322	37489.59
253.783	44610.73
254.244	57900.7
254.705	45685.75
255.166	40638.31
255.627	40069.53
256.088	56623.76
256.549	60146.14
257.009	51794.19
257.47	62800.92
257.931	51172.1
258.391	38363.5
258.852	39585.59
259.312	41487.24
259.773	51214.03
260.233	43245.81
260.694	36423.49
261.154	41293.97
261.614	33122.01
262.074	29617.8
262.534	30749.51
262.994	28955.21
263.455	38534.97
263.915	32406.43
264.374	30523.09
264.834	33316.4
265.294	36924.59
265.754	38268.49
266.214	36209.74
266.673	33948.61
267.133	42859.68
267.593	42549.4
268.052	52081.8
268.512	45287.41
268.971	54640.04
269.431	59889.38
269.89	53631.98
270.349	80412.19
270.809	89627.24
271.268	80617.51
271.727	180808.61
272.186	116999.44
272.645	87658.73
273.104	63246.96
273.563	91532
274.022	71962.6
274.481	61225.62
274.94	47152.46
275.399	35058.29
275.857	40813.64
276.316	55157.96
276.775	49056.3
277.233	48340.09
277.692	45277.9
278.15	51160.38
278.609	52608.21
279.067	48706.85
279.525	45237.11
279.984	58410.3
280.442	70128.42
280.9	69086.06
281.358	45456.29
281.816	42354.22
282.274	41477.22
282.732	42871.54
283.19	43097.37
283.648	37215.96
284.106	39624.72
284.564	40273.86
285.021	37323.92
285.479	27806.44
285.937	25293.82
286.394	22188.95
286.852	22859.98
287.309	24022
287.767	23182.56
288.224	22052.65
288.682	24201.16
289.139	26569.45
289.596	24332.32
290.053	25334.13
290.511	32015.24
290.968	38861.42
291.425	52802.96
291.882	43964.87
292.339	38270.02
292.796	38027.25
293.252	35858.28
293.709	28490.56
294.166	25560.85
294.623	28274.95
295.079	27142.24
295.536	27277.61
295.992	24789.86
296.449	24545.28
296.905	25516.84
297.362	24484.83
297.818	25793.6
298.274	26789.58
298.731	27346.3
299.187	27088.35
299.643	29115.24
300.099	35222.64
300.555	38653.58
301.011	32327.08
301.467	31131.79
301.923	36455.05
302.379	35612.8
302.835	34994.74
303.291	35050.23
303.746	39877.61
304.202	50399.24
304.658	50606.8
305.113	34083.98
305.569	33419.44
306.024	35636.98
306.479	33979.98
306.935	28660.8
307.39	31320.46
307.845	28922.66
308.301	29098.88
308.756	28376.69
309.211	27339.51
309.666	28033.97
310.121	34770.14
310.576	35315.55
311.031	35064.54
311.486	40193.92
311.94	40159.62
312.395	53735.15
312.85	101027.96
313.305	496727.9
313.759	2573952.61
314.214	186589.44
314.668	147835.38
315.123	124240.52
315.577	44509.72
316.032	39556.06
316.486	49531.67
316.94	39106.29
317.394	27222.07
317.849	21138.02
318.303	19995.56
318.757	18847.19
319.211	20850.8
319.665	18247.36
320.119	18494.63
320.572	26553.64
321.026	24836.9
321.48	20677.68
321.934	22585.65
322.387	22657.81
322.841	24483.09
323.295	22023.37
323.748	25398.83
324.202	25762.39
324.655	30958.9
325.108	43252.64
325.562	30547.01
326.015	36317.03
326.468	27457.85
326.921	30646.39
327.374	28575.46
327.827	29776.58
328.28	33730.57
328.733	22574.79
329.186	19853.36
329.639	18930.2
330.092	15979.54
330.545	15234.83
330.997	15362.61
331.45	16792.92
331.903	19707.5
332.355	33924.9
332.808	32992.9
333.26	27231.73
333.713	29587.84
334.165	29818.43
334.617	39821.21
335.069	32191.53
335.522	58210.08
335.974	64533.77
336.426	58957.84
336.878	40898.22
337.33	20732.3
337.782	20233.98
338.234	25329.37
338.686	30340.33
339.137	35978.84
339.589	33867
340.041	26536.48
340.493	22806.21
340.944	23310.07
341.396	25130.03
341.847	21111.61
342.299	24897.13
342.75	30390.84
343.201	26600.57
343.653	30621.6
344.104	37666.33
344.555	29681.64
345.006	46191.26
345.457	35377.69
345.908	28170.53
346.359	26490.14
346.81	21593.43
347.261	22773.63
347.712	22465.53
348.163	24120.52
348.613	24358.15
349.064	22711.96
349.515	19883.81
349.965	20387.04
350.416	24536.99
350.866	26905.3
351.317	30449.19
351.767	50405.35
352.217	63694.61
352.668	52822.4
353.118	48310.63
353.568	46711.94
354.018	36927.59
354.468	38937.7
354.918	27953.03
355.368	24505.92
355.818	34666.04
356.268	99722.41
356.718	417723.3
357.168	103944.23
357.617	52157.94
358.067	58034.37
358.517	54341.83
358.966	63759.2
359.416	71476.15
359.865	77269.25
360.315	91911.15
360.764	42937.42
361.213	24100.57
361.663	22829.37
362.112	28237.49
362.561	45612.87
363.01	34410.78
363.459	28984.84
363.908	31405.13
364.357	26670.46
364.806	45052.85
365.255	30997.52
365.703	28361.93
366.152	28360.57
366.601	22971.23
367.05	18641.33
367.498	16952.13
367.947	17717.52
368.395	18429.63
368.844	16313.28
369.292	19699.89
369.74	13603.16
370.189	20843.72
370.637	24402.97
371.085	21035.8
371.533	25614.91
371.981	24695.55
372.429	23527.99
372.877	24502.73
373.325	20487.1
373.773	20883.39
374.221	18567.79
374.669	23020.67
375.116	19910.54
375.564	20076.89
376.012	22493.23
376.459	18585.67
376.907	22202.97
377.354	26852.81
377.801	25042.63
378.249	28789.88
378.696	36767.22
379.143	44530.73
379.591	47539.09
380.038	80300.54
380.485	58065.7
380.932	62615.22
381.379	57108.99
381.826	41969.58
382.273	29810.95
382.72	26032.32
383.166	25340.52
383.613	16442.71
384.06	14825.12
384.506	17143.72
384.953	12592.28
385.4	12683.23
385.846	11111.48
386.292	10847.97
386.739	10625.95
387.185	10521.3
387.631	10539.12
388.078	10222.87
388.524	10924.49
388.97	10070.67
389.416	8388.13
389.862	8913.51
390.308	8443.14
390.754	8571.66
391.2	9297.66
391.645	9507.44
392.091	9080.18
392.537	8760.44
392.983	8778.31
393.428	8625.86
393.874	9250.25
394.319	9269.01
394.765	8777.21
395.21	9010.63
395.655	8434.15
396.101	7884.08
396.546	7116.92
396.991	7173.6
397.436	6649.75
397.881	6409.5
398.326	6062.39
398.771	5721.5
399.216	4999.16
399.661	4497.42
400.106	4473.82
400.551	4573.99
400.995	4101.9
401.44	4044.12
401.885	3792.65
402.329	3830.73
402.774	3669.55
403.218	3548.63
403.663	3420.46
404.107	3515.27
404.551	3535.65
404.995	3236.75
405.44	3115.2
405.884	3158.92
406.328	3052.55
406.772	3034.8
407.216	2762.74
407.66	2668.91
408.104	2533
408.547	2365.58
408.991	2286.23
409.435	2200.93
409.879	2170.47
410.322	2139.85
410.766	2063.6
411.209	1961.29
411.653	1882
412.096	1841.22
412.54	1839.49
412.983	1822.71
413.426	1826.32
413.869	1822
414.312	1783.03
414.756	1713.92
415.199	1631.42
415.642	1579.19
416.085	1580.69
416.527	1570.65
416.97	1591.73
417.413	1511.15
417.856	1496.22
418.298	1479.44
418.741	1470.45
419.184	1469.09
419.626	1530.63
420.069	1532.21
420.511	1541.42
420.953	1506.32
421.396	1492.21
421.838	1452.55
422.28	1483.05
422.722	1489.06
423.164	1510.07
423.606	1482.92
424.048	1477.37
424.49	1401.25
424.932	1393
425.374	1373.13
425.816	1395.31
426.258	1421.29
426.699	1439.69
427.141	1422.41
427.582	1443.43
428.024	1437.45
428.465	1428.76
428.907	1394.11
429.348	1382.16
429.789	1380.85
430.231	1354.94
430.672	1375.53
431.113	1342.5
431.554	1320.39
431.995	1285.15
432.436	1240.4
432.877	1212.74
433.318	1192.5
433.759	1189.21
434.2	1187.2
434.64	1176.13
435.081	1177.34
435.522	1116.24
435.962	1076.14
436.403	1056.09
436.843	1070.46
437.284	1047.95
437.724	1019.13
438.164	1019.72
438.604	994.57
439.045	956.5
439.485	916.6
439.925	896.94
440.365	875.24
440.805	863.86
441.245	851.82
441.685	820.43
442.125	814.14
442.564	820.73
443.004	802.83
443.444	801.35
443.883	802.17
444.323	796.57
444.762	797.02
445.202	805.4
445.641	819.23
446.081	814.56
446.52	821.39
446.959	813.16
447.398	791.45
447.837	784.13
448.276	770.05
448.716	777.12
449.154	784.35
449.593	768.41
450.032	767.38
450.471	753.65
450.91	753.47
451.349	752.37
451.787	750.71
452.226	762.84
452.664	760.81
453.103	762.5
453.541	761.22
453.98	760.22
454.418	763.62
454.856	752.56
455.295	750.38
455.733	757.21
456.171	760.55
456.609	761.65
457.047	761.99
457.485	773.76
457.923	776.59
458.361	766.02
458.798	768.53
459.236	767.36
459.674	772.37
460.111	775.88
460.549	769.07
460.987	766.45
461.424	763.49
461.862	758.95
462.299	747.44
462.736	744.87
463.173	749.18
463.611	741.6
464.048	739.45
464.485	744.87
464.922	738.6
465.359	733.99
465.796	725.28
466.233	719.84
466.67	713.5
467.106	710.39
467.543	704.15
467.98	693.92
468.416	674.75
468.853	669.18
469.29	648.37
469.726	642.02
470.162	623.88
470.599	614.82
471.035	608.57
471.471	593.24
471.907	590.64
472.344	586.74
472.78	589.1
473.216	595.69
473.652	588.62
474.088	588.52
474.523	585.99
474.959	592.92
475.395	587.83
475.831	584
476.266	587.31
476.702	585.28
477.138	578.86
477.573	574.99
478.008	573.83
478.444	576.16
478.879	580.19
479.314	582.04
479.75	580.44
480.185	582.24
480.62	586.43
481.055	589.17
481.49	592.96
481.925	601.06
482.36	611.96
482.795	628.81
483.229	644.67
483.664	658.04
484.099	661.26
484.534	672.37
484.968	679.61
485.403	682.5
485.837	682.39
486.271	682.08
486.706	683.48
487.14	675.79
487.574	665.57
488.009	660.82
488.443	655.71
488.877	661.91
489.311	663.48
489.745	670.66
490.179	677.42
490.613	689.52
491.046	694.38
491.48	698.28
491.914	698.69
492.348	703.33
492.781	707.29
493.215	708.63
493.648	709.58
494.082	713.76
494.515	713.52
494.948	720.69
495.382	724.3
495.815	727.74
496.248	733.17
496.681	746.05
497.114	756.39
497.547	765.11
497.98	777.51
498.413	783.04
498.846	792.64
499.279	800.75
499.711	802.82
500.144	804.5
500.577	814.24
501.009	824.52
501.442	832.96
501.874	832.97
502.306	834.13
502.739	840.72
503.171	854.46
503.603	857.17
504.036	865.34
504.468	871.66
504.9	882.66
505.332	889.72
505.764	892.44
506.196	899.45
506.627	913.79
507.059	926.39
507.491	933.37
507.923	931.32
508.354	945.29
508.786	955.61
509.217	971.56
509.649	985.12
510.08	1002.56
510.512	1018.46
510.943	1031.53
511.374	1042.04
511.805	1060.84
512.237	1079.35
512.668	1110.33
513.099	1135.67
513.53	1161.2
513.961	1180.69
514.391	1211.06
514.822	1242.83
515.253	1278.15
515.684	1302.31
516.114	1330.81
516.545	1350.31
516.975	1374.49
517.406	1390.53
517.836	1393.22
518.267	1399.79
518.697	1415.89
519.127	1419.37
519.558	1424.65
519.988	1426.3
520.418	1434.93
520.848	1451.13
521.278	1458.77
521.708	1468.55
522.138	1479.97
522.567	1508.8
522.997	1531.76
523.427	1546.39
523.857	1562.31
524.286	1572.41
524.716	1586.5
525.145	1604.64
525.575	1614.18
526.004	1627.72
526.433	1627.09
526.863	1626.64
527.292	1617.14
527.721	1621.57
528.15	1626.82
528.579	1626.23
529.008	1636.88
529.437	1658.57
529.866	1671.43
530.295	1687.59
530.724	1699.85
531.152	1724.64
531.581	1739.49
532.01	1756.26
532.438	1764.51
532.867	1779.59
533.295	1798.39
533.723	1803.55
534.152	1801.23
534.58	1801.24
535.008	1784.74
535.436	1786.8
535.865	1796.02
536.293	1808.47
536.721	1822.86
537.149	1848.11
537.576	1849.56
538.004	1861.92
538.432	1869.31
538.86	1867.05
539.287	1872.67
539.715	1887.2
540.143	1888.69
540.57	1884.1
540.998	1879.97
541.425	1857.75
541.852	1835.66
542.28	1834.19
542.707	1816.42
543.134	1801.97
543.561	1798.96
543.988	1792.23
544.415	1790.44
544.842	1785.89
545.269	1779.06
545.696	1780.65
546.123	1792.38
546.549	1782.55
546.976	1769.14
547.403	1769.35
547.829	1771.51
548.256	1772.28
548.682	1768.56
549.108	1761.35
549.535	1761.08
549.961	1763.31
550.387	1751.18
550.813	1746.49
551.24	1753.25
551.666	1754.55
552.092	1745.06
552.518	1737.82
552.943	1732.42
553.369	1739.79
553.795	1745.57
554.221	1745.31
554.646	1742.81
555.072	1753.19
555.498	1757.5
555.923	1766.4
556.349	1781.08
556.774	1789.72
557.199	1791.76
557.625	1797.55
558.05	1791.12
558.475	1800.22
558.9	1800.97
559.325	1792.79
559.75	1786.37
560.175	1779.9
560.6	1773.84
561.025	1771.35
561.449	1773.05
561.874	1779.01
562.299	1782.96
562.723	1791.4
563.148	1782.46
563.572	1785.46
563.997	1793.89
564.421	1798.97
564.846	1799.8
565.27	1802.38
565.694	1799.04
566.118	1809.07
566.542	1816.38
566.966	1810.16
567.39	1804.83
567.814	1794.02
568.238	1793.34
568.662	1797.6
569.086	1799.92
569.509	1805.79
569.933	1790.91
570.357	1784.32
570.78	1764.08
571.204	1751.57
571.627	1742.13
572.05	1740.5
572.474	1739.91
572.897	1728.11
573.32	1721.92
573.743	1712.25
574.166	1695.06
574.589	1694.86
575.012	1687.87
575.435	1686.45
575.858	1676.62
576.281	1664.46
576.704	1647.62
577.126	1635.69
577.549	1623.73
577.972	1613.56
578.394	1603.92
578.817	1598.06
579.239	1580.45
579.661	1568.04
580.084	1553.53
580.506	1541.11
580.928	1537.13
581.35	1528.06
581.772	1523.95
582.194	1511.2
582.616	1499.22
583.038	1485.6
583.46	1475.08
583.882	1472.1
584.303	1475.89
584.725	1471.23
585.147	1473.05
585.568	1483.92
585.99	1495.72
586.411	1502.28
586.833	1517.01
587.254	1518.35
587.675	1532.94
588.096	1545.8
588.518	1540.73
588.939	1523.45
589.36	1521.06
589.781	1510.75
590.202	1483.91
590.623	1474.79
591.043	1473.35
591.464	1461.11
591.885	1458.21
592.305	1451.4
592.726	1437.26
593.147	1438.71
593.567	1434.6
593.987	1427.61
594.408	1422.93
594.828	1420.13
595.248	1415.27
595.669	1396.07
596.089	1389.04
596.509	1382.22
596.929	1369.22
597.349	1370.97
597.769	1360.83
598.189	1355.57
598.608	1357.05
599.028	1358.5
599.448	1358.62
599.867	1345.63
600.287	1342.93
600.706	1339.2
601.126	1330.19
601.545	1329.35
601.965	1326.95
602.384	1322.59
602.803	1325.52
603.222	1321.32
603.641	1315.11
604.061	1310.75
604.48	1307.16
604.898	1314.07
605.317	1319.23
605.736	1321.39
606.155	1318.12
606.574	1309.76
606.992	1313.84
607.411	1307.63
607.829	1299.51
608.248	1296.26
608.666	1295.36
609.085	1294.7
609.503	1285.96
609.921	1279.84
610.339	1281.39
610.758	1280.53
611.176	1276.31
611.594	1267.41
612.012	1263.92
612.43	1268.01
612.847	1273.79
613.265	1273.71
613.683	1277.79
614.101	1279.67
614.518	1275.29
614.936	1265.02
615.353	1250.88
615.771	1246.86
616.188	1247.29
616.606	1243.52
617.023	1235.49
617.44	1221.35
617.857	1213.99
618.274	1205.3
618.691	1199.44
619.108	1190.1
619.525	1184.15
619.942	1190.88
620.359	1192.82
620.776	1187.12
621.192	1184.52
621.609	1181.65
622.026	1187.5
622.442	1193.66
622.859	1196.39
623.275	1188.8
623.691	1194.32
624.108	1204.39
624.524	1216.76
624.94	1215.61
625.356	1225.76
625.772	1236.58
626.188	1247.34
626.604	1249.34
627.02	1245.83
627.436	1244.68
627.852	1252.16
628.268	1262.67
628.683	1254.27
629.099	1245.75
629.514	1242.78
629.93	1246.3
630.345	1250.25
630.761	1247.05
631.176	1250.12
631.591	1244.63
632.007	1238.68
632.422	1235.4
632.837	1225.45
633.252	1224.61
633.667	1215.92
634.082	1207.95
634.497	1195.23
634.911	1178.97
635.326	1175.67
635.741	1161.62
636.155	1152.31
636.57	1153.96
636.984	1154.85
637.399	1157.4
637.813	1156.64
638.228	1156.46
638.642	1160.49
639.056	1152.57
639.47	1153.54
639.884	1147.2
640.298	1141.01
640.712	1141.36
641.126	1131.3
641.54	1124.33
641.954	1121.16
642.368	1112.08
642.781	1106.84
643.195	1092.01
643.609	1093.92
644.022	1089.85
644.436	1087.04
644.849	1076.45
645.262	1066.43
645.676	1069.23
646.089	1066.4
646.502	1053.31
646.915	1048.21
647.328	1031.32
647.741	1030.13
648.154	1018.39
648.567	1015.41
648.98	1003.27
649.393	1005.03
649.805	1001.02
650.218	993.46
650.631	977.64
651.043	970.92
651.456	965.5
651.868	966.97
652.28	982.94
652.693	995.16
653.105	1001.25
653.517	1009.93
653.929	1010.3
654.341	1017.08
654.753	1005.23
655.165	1010.95
655.577	1007.74
655.989	1002.39
656.401	994.83
656.813	960.06
657.224	940.57
657.636	912.55
658.047	895.58
658.459	875.39
658.87	865.28
659.282	853.55
659.693	834.65
660.104	820.82
660.515	808.41
660.926	807.64
661.338	805.63
661.749	800.44
662.159	792.28
662.57	788.37
662.981	785.1
663.392	778.56
663.803	783.88
664.213	782.69
664.624	779.39
665.035	783.82
665.445	770.41
665.855	764.22
666.266	757.33
666.676	756.27
667.086	748.6
667.497	748.52
667.907	743.46
668.317	735.15
668.727	731.89
669.137	733.29
669.547	731.04
669.956	733.26
670.366	735.21
670.776	736.73
671.186	740.09
671.595	742.72
672.005	746.05
672.414	745.47
672.824	743.02
673.233	745.19
673.642	746.3
674.052	749
674.461	750.51
674.87	753.17
675.279	749.89
675.688	750.85
676.097	751.33
676.506	747.12
676.915	760.53
677.323	762.84
677.732	760.54
678.141	759.71
678.549	748.38
678.958	747.02
679.366	746.15
679.775	750.39
680.183	759.24
680.592	763.31
681	767.49
681.408	759.36
681.816	764.96
682.224	772.59
682.632	780.57
683.04	806.63
683.448	828.48
683.856	855.25
684.264	886.28
684.671	914.55
685.079	949.82
685.487	988.23
685.894	1042.92
686.302	1086.26
686.709	1122.69
687.116	1162.88
687.524	1196.68
687.931	1224.26
688.338	1247.81
688.745	1266.03
689.152	1287.27
689.559	1318.49
689.966	1350.64
690.373	1363.23
690.78	1394.03
691.187	1444.17
691.593	1481.59
692	1513.44
692.407	1563.73
692.813	1627.17
693.22	1676.68
693.626	1728.18
694.032	1771.64
694.439	1836.85
694.845	1886.73
695.251	1952.73
695.657	2009.92
696.063	2099.33
