Data from N_2_DEC_OH_4N_Splice17_12-04-09-028.txt Node
Date: Sat Mar 14 12:04:09 EDT 2020
User: sa697716
Spectrometer: FLMS03696
Trigger mode: 0
Integration Time (sec): 3.180400E-1
Scans to average: 20
Electric dark correction enabled: true
Nonlinearity correction enabled: true
Boxcar width: 5
XAxis mode: Wavelengths
Number of Pixels in Spectrum: 2048
>>>>>Begin Spectral Data<<<<<
187.83	-292031.43
188.298	2114.6
188.766	1143.53
189.233	1047.43
189.701	1526.28
190.169	2175.46
190.636	873.76
191.104	722.92
191.571	186.59
192.039	6.09
192.506	-51.54
192.974	455.94
193.441	-925.63
193.908	-300.8
194.375	-12.7
194.842	90.21
195.31	149.21
195.777	179.23
196.244	422.13
196.711	569
197.177	717.09
197.644	1014.65
198.111	1772.35
198.578	2519.96
199.045	2014.87
199.511	3249.49
199.978	3805.13
200.445	3283.35
200.911	3633.34
201.378	4036.52
201.844	3635.32
202.31	6208.38
202.777	6489.88
203.243	3603.53
203.709	3441.41
204.176	4109.72
204.642	3412.15
205.108	3190.75
205.574	2602.17
206.04	2407.01
206.506	2277.4
206.972	2173.64
207.438	2108.91
207.903	2408.02
208.369	2127.76
208.835	2131.59
209.301	2242.67
209.766	2309.94
210.232	2294.03
210.697	2861.32
211.163	3534.88
211.628	5354.75
212.094	4513.71
212.559	5554.99
213.024	3459.92
213.49	4240.95
213.955	4141.66
214.42	4066.75
214.885	3791.19
215.35	3656.53
215.815	3467.09
216.28	3705.53
216.745	3058.43
217.21	3339.02
217.675	3131.36
218.14	3590.84
218.604	4102.31
219.069	4796.14
219.534	5112.9
219.998	6079.9
220.463	7483.74
220.927	9460.14
221.392	9035.97
221.856	9256.7
222.32	11836.69
222.785	14744.15
223.249	18711.9
223.713	21011.64
224.177	21089.75
224.642	27248.42
225.106	33697.18
225.57	37031.08
226.034	27513.33
226.497	41953.74
226.961	37892.87
227.425	44105.67
227.889	49030.27
228.353	49111.12
228.816	101410.98
229.28	97027.37
229.744	81885.66
230.207	49688.95
230.671	48893.4
231.134	81113.73
231.597	93417.56
232.061	93442.11
232.524	91224.14
232.987	62824.07
233.45	56525.3
233.914	50731.56
234.377	52049.08
234.84	47658.84
235.303	56266.57
235.766	62786.84
236.229	64932.07
236.691	40950.95
237.154	46051.14
237.617	34646.14
238.08	35505.23
238.542	41593.52
239.005	29734.01
239.468	29493.12
239.93	27766.71
240.393	25227.27
240.855	22136.57
241.317	22656.23
241.78	27575.45
242.242	28463.88
242.704	30665.94
243.166	26662.06
243.629	24147.99
244.091	27807.2
244.553	30478.89
245.015	32763.17
245.477	42356.13
245.939	62091.25
246.4	65869.76
246.862	63936.65
247.324	60315.04
247.786	67563.2
248.247	88564.36
248.709	91595.28
249.17	68481.05
249.632	64408.33
250.093	74571
250.555	64366.14
251.016	39178.15
251.477	37139.04
251.939	40091.22
252.4	42037.32
252.861	49997.33
253.322	46497.3
253.783	55318.13
254.244	71735.09
254.705	56626.75
255.166	50402.52
255.627	49675.23
256.088	70065.43
256.549	74369.87
257.009	64053.61
257.47	77790.14
257.931	63329.59
258.391	47426.95
258.852	48877.65
259.312	51278.75
259.773	63328.24
260.233	53426.1
260.694	45001.55
261.154	51089.32
261.614	40958.08
262.074	36650.25
262.534	38029.44
262.994	35802.65
263.455	47757.44
263.915	40221.62
264.374	37895.28
264.834	41374.87
265.294	45926.48
265.754	47565.94
266.214	45045.41
266.673	42240.74
267.133	53272.34
267.593	52897.82
268.052	64756.46
268.512	56300.06
268.971	67838.44
269.431	74340.72
269.89	66571.73
270.349	99771.52
270.809	111261.74
271.268	99993.42
271.727	224356.62
272.186	145404.84
272.645	109018.14
273.104	78732.77
273.563	114008.19
274.022	89820.47
274.481	76367.76
274.94	58846.47
275.399	43766.6
275.857	51005.79
276.316	69035.12
276.775	61434.6
277.233	60487.66
277.692	56572.69
278.15	63935.99
278.609	65761.52
279.067	60834.77
279.525	56513.1
279.984	72988.18
280.442	87600.86
280.9	86244.43
281.358	56720.15
281.816	52831.03
282.274	51744.98
282.732	53549.94
283.19	53865.64
283.648	46499.93
284.106	49548.53
284.564	50426.32
285.021	46745.21
285.479	34853.38
285.937	31762.65
286.394	27836.86
286.852	28695.47
287.309	30121.79
287.767	29048.76
288.224	27597.05
288.682	30274.69
289.139	33190.56
289.596	30345.75
290.053	31551.32
290.511	39838.91
290.968	48280.08
291.425	65545.48
291.882	54492.04
292.339	47443.26
292.796	47137.57
293.252	44437.66
293.709	35278.35
294.166	31624.11
294.623	34983.19
295.079	33564.31
295.536	33702.82
295.992	30585.15
296.449	30264.2
296.905	31411.56
297.362	30088.61
297.818	31622.5
298.274	32797.1
298.731	33427.87
299.187	33075.53
299.643	35505.06
300.099	42966.66
300.555	47101.02
301.011	39336.5
301.467	37872.2
301.923	44402.93
302.379	43398.68
302.835	42649.53
303.291	42678.1
303.746	48568.26
304.202	61368.81
304.658	61595.03
305.113	41397.21
305.569	40586.58
306.024	43305.67
306.479	41259.72
306.935	34767.38
307.39	37959.76
307.845	35038.98
308.301	35251.67
308.756	34344.46
309.211	33084.18
309.666	33862.02
310.121	41938.31
310.576	42592
311.031	42264.58
311.486	48425.55
311.94	48373.57
312.395	64718.07
312.85	121721.57
313.305	598002.4
313.759	3088613.45
314.214	223678.78
314.668	177251.19
315.123	149059.58
315.577	53333.78
316.032	47376.78
316.486	59255.8
316.94	46683.59
317.394	32439.77
317.849	25186.27
318.303	23844.62
318.757	22480.03
319.211	24829.02
319.665	21736.47
320.119	21990.44
320.572	31561.11
321.026	29444.71
321.48	24526.97
321.934	26761.68
322.387	26841.45
322.841	28929.56
323.295	25946.36
323.748	29930.42
324.202	30340.47
324.655	36384.32
325.108	50745.81
325.562	35773.27
326.015	42537.12
326.468	32102.36
326.921	35884.53
327.374	33411.57
327.827	34758.06
328.28	39351.66
328.733	26341.51
329.186	23157.34
329.639	22053.13
330.092	18603.99
330.545	17718.58
330.997	17846.94
331.45	19471.67
331.903	22762.32
332.355	39177.21
332.808	38103.59
333.26	31441.65
333.713	34126.44
334.165	34402.24
334.617	45969
335.069	37188.2
335.522	67339.28
335.974	74580.25
336.426	68170.14
336.878	47301.4
337.33	23974.55
337.782	23400.69
338.234	29264.35
338.686	35036.31
339.137	41463.75
339.589	39068.2
340.041	30581.93
340.493	26241.08
340.944	26829.65
341.396	28900.25
341.847	24295.85
342.299	28594.01
342.75	34905.31
343.201	30542.6
343.653	35088.68
344.104	43091.48
344.555	33867.4
345.006	52780.1
345.457	40360.28
345.908	32116.7
346.359	30178.98
346.81	24575.65
347.261	25926.08
347.712	25525.94
348.163	27368.87
348.613	27653.09
349.064	25801.16
349.515	22588.6
349.965	23134.44
350.416	27851.47
350.866	30581.61
351.317	34593.91
351.767	57247.53
352.217	72364.69
352.668	60027.53
353.118	54946.3
353.568	53070.96
354.018	41994.72
354.468	44234.55
354.918	31753.64
355.368	27800.16
355.818	39228.31
356.268	112971.3
356.718	472144.32
357.168	117402.7
357.617	58933.32
358.067	65625.12
358.517	61431.2
358.966	71974.68
359.416	80719.36
359.865	87185.11
360.315	103853.82
360.764	48485.63
361.213	27137.37
361.663	25755.54
362.112	31777.39
362.561	51303.33
363.01	38638.81
363.459	32535.18
363.908	35220.66
364.357	29892.52
364.806	50455.08
365.255	34643.35
365.703	31663.51
366.152	31693.4
366.601	25637.45
367.05	20815.86
367.498	18888.09
367.947	19758.48
368.395	20542.59
368.844	18185.93
369.292	21950.7
369.74	15154.3
370.189	23223
370.637	27247.81
371.085	23526.31
371.533	28682.26
371.981	27635.57
372.429	26332.03
372.877	27401.65
373.325	22945.91
373.773	23384.96
374.221	20829.93
374.669	25843.58
375.116	22360.34
375.564	22567.37
376.012	25249.2
376.459	20823.9
376.907	24903.34
377.354	30155.82
377.801	28086.75
378.249	32262.38
378.696	41228.36
379.143	49881.91
379.591	53249.26
380.038	90058.72
380.485	64979.37
380.932	70031.74
381.379	63988.88
381.826	47015.32
382.273	33414.79
382.72	29223.03
383.166	28460.69
383.613	18415.61
384.06	16605.56
384.506	19186.96
384.953	14079.07
385.4	14175.54
385.846	12420.13
386.292	12107.72
386.739	11862.45
387.185	11714.93
387.631	11699.91
388.078	11351.07
388.524	12144.52
388.97	11188.74
389.416	9308.37
389.862	9872.79
390.308	9338.44
390.754	9455.3
391.2	10246.88
391.645	10473.08
392.091	9979.59
392.537	9625.12
392.983	9620.44
393.428	9419.3
393.874	10093.78
394.319	10099.61
394.765	9543.42
395.21	9780.62
395.655	9151.15
396.101	8536.79
396.546	7677.08
396.991	7740.34
397.436	7186.39
397.881	6923.33
398.326	6548.23
398.771	6156.37
399.216	5372.1
399.661	4833.72
400.106	4801.54
400.551	4904.26
400.995	4381.15
401.44	4319.39
401.885	4046.04
402.329	4070.31
402.774	3885.79
403.218	3748.13
403.663	3602.38
404.107	3693.76
404.551	3707.13
404.995	3391.09
405.44	3256.87
405.884	3307.35
406.328	3195.69
406.772	3178.17
407.216	2883.31
407.66	2784.25
408.104	2644.18
408.547	2474.44
408.991	2391.28
409.435	2300.01
409.879	2262.96
410.322	2230.2
410.766	2148.33
411.209	2039.82
411.653	1955.19
412.096	1914.19
412.54	1912.48
412.983	1892.55
413.426	1893.67
413.869	1887.77
414.312	1847.38
414.756	1779.42
415.199	1694.79
415.642	1642.52
416.085	1639.92
416.527	1627.58
416.97	1652.02
417.413	1564.28
417.856	1549.18
418.298	1531.81
418.741	1520.69
419.184	1515.36
419.626	1573.91
420.069	1574.44
420.511	1580.9
420.953	1544.88
421.396	1528.05
421.838	1487.79
422.28	1519.86
422.722	1525
423.164	1545.44
423.606	1518.55
424.048	1515.66
424.49	1440.05
424.932	1432.24
425.374	1410.71
425.816	1437.85
426.258	1465.9
426.699	1481.75
427.141	1462.09
427.582	1484.5
428.024	1477.23
428.465	1466.95
428.907	1432.28
429.348	1415.98
429.789	1416.78
430.231	1386.95
430.672	1404.96
431.113	1372.01
431.554	1354.03
431.995	1317.26
432.436	1271.32
432.877	1242.26
433.318	1223.9
433.759	1218.04
434.2	1219.54
434.64	1204.02
435.081	1208.39
435.522	1143.9
435.962	1102.01
436.403	1075.67
436.843	1093.41
437.284	1069.29
437.724	1042.19
438.164	1044.71
438.604	1021.23
439.045	981.21
439.485	939.92
439.925	920.16
440.365	897.13
440.805	884.44
441.245	874.01
441.685	841.75
442.125	835.1
442.564	839.12
443.004	818
443.444	814.95
443.883	815.51
444.323	809.29
444.762	809.71
445.202	818.79
445.641	833.36
446.081	826.06
446.52	829.74
446.959	819.61
447.398	799.3
447.837	787.78
448.276	773.48
448.716	780.18
449.154	786.76
449.593	767.53
450.032	763.4
450.471	746.75
450.91	746.18
451.349	744.43
451.787	741.09
452.226	750.64
452.664	750.16
453.103	748.97
453.541	744.88
453.98	740.81
454.418	745.13
454.856	732.65
455.295	731.36
455.733	735.81
456.171	738.02
456.609	738.73
457.047	737.78
457.485	746.76
457.923	747.93
458.361	737.85
458.798	740.08
459.236	738.21
459.674	743.91
460.111	747.96
460.549	741.23
460.987	739.62
461.424	736.34
461.862	732.47
462.299	722.1
462.736	721.82
463.173	725.07
463.611	717.5
464.048	715.45
464.485	721.45
464.922	714.27
465.359	709.99
465.796	700.3
466.233	695.31
466.67	689.7
467.106	689.79
467.543	683.57
467.98	675.66
468.416	657.93
468.853	652.88
469.29	633.31
469.726	626.28
470.162	609.42
470.599	601.67
471.035	595.55
471.471	579.95
471.907	575.08
472.344	570.79
472.78	571.05
473.216	578.61
473.652	571.43
474.088	568.78
474.523	565.24
474.959	569.85
475.395	563.56
475.831	559.64
476.266	561.64
476.702	559.63
477.138	551.69
477.573	548.07
478.008	545.3
478.444	546.68
478.879	551.03
479.314	552.76
479.75	551.54
480.185	553.13
480.62	557.43
481.055	558.87
481.49	561.38
481.925	569.28
482.36	578.85
482.795	592.81
483.229	607.69
483.664	619.86
484.099	621.77
484.534	630.69
484.968	635.89
485.403	636.25
485.837	635.57
486.271	634.05
486.706	633.9
487.14	626.21
487.574	615.63
488.009	607.88
488.443	600.42
488.877	605.27
489.311	606.09
489.745	612
490.179	615.93
490.613	625.37
491.046	628.52
491.48	630.95
491.914	629.65
492.348	632.52
492.781	634.78
493.215	634.76
493.648	633.66
494.082	636.19
494.515	633.39
494.948	638.77
495.382	640.87
495.815	641.95
496.248	643.98
496.681	652.43
497.114	659.14
497.547	665.08
497.98	673.79
498.413	675.58
498.846	680.44
499.279	685.06
499.711	685.39
500.144	683.5
500.577	690.52
501.009	696.66
501.442	701.71
501.874	699.72
502.306	698.04
502.739	701.53
503.171	710.56
503.603	711.28
504.036	715.95
504.468	717.12
504.9	724.57
505.332	726.81
505.764	728.4
506.196	731.59
506.627	740.82
507.059	749.95
507.491	754.34
507.923	751.65
508.354	762.21
508.786	770.16
509.217	784.06
509.649	794.73
510.08	808.82
510.512	821.42
510.943	833.35
511.374	843.69
511.805	860.74
512.237	877.42
512.668	904.8
513.099	927.72
513.53	950.11
513.961	968.21
514.391	995.66
514.822	1024.4
515.253	1055.57
515.684	1078.24
516.114	1103.97
516.545	1123.38
516.975	1145.55
517.406	1163.17
517.836	1168.58
518.267	1178.34
518.697	1197.49
519.127	1205.85
519.558	1216.06
519.988	1223.05
520.418	1236.38
520.848	1255.66
521.278	1267.69
521.708	1292.51
522.138	1307.66
522.567	1338.33
522.997	1364.03
523.427	1382.02
523.857	1400.61
524.286	1414.26
524.716	1432.96
525.145	1453.95
525.575	1468.43
526.004	1486.39
526.433	1482.65
526.863	1485.79
527.292	1480.14
527.721	1488.82
528.15	1497.2
528.579	1499.62
529.008	1512.48
529.437	1534.7
529.866	1549.58
530.295	1566.99
530.724	1580
531.152	1606.52
531.581	1623.03
532.01	1642.41
532.438	1652.34
532.867	1667.34
533.295	1686.85
533.723	1694.37
534.152	1695.83
534.58	1697.8
535.008	1685.35
535.436	1688.26
535.865	1697.05
536.293	1711.12
536.721	1726.46
537.149	1751.61
537.576	1754.74
538.004	1769.1
538.432	1777.19
538.86	1775.18
539.287	1782.74
539.715	1797.1
540.143	1801.4
540.57	1798.68
540.998	1796.19
541.425	1776.03
541.852	1756.18
542.28	1755.33
542.707	1739.03
543.134	1726.23
543.561	1722.8
543.988	1715.51
544.415	1713.13
544.842	1707.61
545.269	1700.83
545.696	1702.31
546.123	1713.66
546.549	1704.01
546.976	1692.62
547.403	1692.93
547.829	1694.71
548.256	1696.63
548.682	1692.99
549.108	1687.27
549.535	1687.03
549.961	1688.45
550.387	1675.5
550.813	1669.79
551.24	1676.08
551.666	1676.53
552.092	1666.02
552.518	1659.79
552.943	1653.39
553.369	1659.35
553.795	1663.15
554.221	1661.88
554.646	1657.51
555.072	1666.38
555.498	1669.18
555.923	1675.71
556.349	1686.41
556.774	1693.41
557.199	1692.51
557.625	1695.77
558.05	1687.65
558.475	1694.74
558.9	1691.51
559.325	1680.58
559.75	1672.4
560.175	1663.01
560.6	1653.91
561.025	1649.37
561.449	1646.68
561.874	1647.51
562.299	1647.06
562.723	1650.74
563.148	1637.03
563.572	1637.49
563.997	1642.92
564.421	1642.42
564.846	1638.95
565.27	1637.5
565.694	1630.79
566.118	1636.93
566.542	1639.37
566.966	1630.4
567.39	1621.27
567.814	1608.17
568.238	1602.52
568.662	1603.12
569.086	1602.13
569.509	1604.98
569.933	1588.32
570.357	1578.41
570.78	1555.9
571.204	1540.58
571.627	1528.17
572.05	1522.35
572.474	1518.4
572.897	1504.1
573.32	1493.34
573.743	1481.36
574.166	1462.37
574.589	1457.77
575.012	1447.49
575.435	1443.54
575.858	1432.39
576.281	1418.52
576.704	1403.04
577.126	1389.57
577.549	1378.11
577.972	1367.69
578.394	1355.81
578.817	1347.2
579.239	1330.17
579.661	1317.49
580.084	1301.64
580.506	1288.47
580.928	1283.53
581.35	1271.59
581.772	1266.41
582.194	1253.27
582.616	1240.39
583.038	1226.8
583.46	1215.04
583.882	1210.24
584.303	1211.33
584.725	1206.59
585.147	1207.93
585.568	1214.68
585.99	1224.47
586.411	1227.16
586.833	1237.42
587.254	1237.74
587.675	1247.14
588.096	1255.8
588.518	1249.82
588.939	1234.59
589.36	1231.15
589.781	1220.08
590.202	1196.56
590.623	1187.34
591.043	1184.5
591.464	1172.52
591.885	1168.26
592.305	1163.04
592.726	1151.87
593.147	1150.89
593.567	1146.89
593.987	1140.52
594.408	1135.15
594.828	1131.5
595.248	1125.45
595.669	1110.42
596.089	1104.62
596.509	1098.81
596.929	1087.17
597.349	1088.35
597.769	1081.16
598.189	1075.94
598.608	1075.96
599.028	1077.52
599.448	1077.64
599.867	1068.07
600.287	1064.16
600.706	1060.02
601.126	1051.71
601.545	1051.59
601.965	1048.3
602.384	1043.17
602.803	1044.47
603.222	1039.7
603.641	1033.68
604.061	1030.13
604.48	1025.53
604.898	1030.22
605.317	1033.23
605.736	1033.53
606.155	1029.81
606.574	1022.38
606.992	1026.25
607.411	1021.33
607.829	1014.6
608.248	1010.81
608.666	1008.47
609.085	1007.84
609.503	1001.63
609.921	996.63
610.339	998.1
610.758	995.96
611.176	992.68
611.594	984.52
612.012	981.99
612.43	984.73
612.847	989.62
613.265	989.41
613.683	992.66
614.101	993.71
614.518	990.23
614.936	981.74
615.353	971.93
615.771	968.43
616.188	969.09
616.606	964.97
617.023	958.92
617.44	947.97
617.857	942.01
618.274	934.99
618.691	930.14
619.108	922.79
619.525	918.33
619.942	922.71
620.359	924.82
620.776	920.81
621.192	918.9
621.609	917.46
622.026	922.89
622.442	927.21
622.859	929.49
623.275	923.76
623.691	927.53
624.108	936.08
624.524	946.89
624.94	947.53
625.356	954.37
625.772	963.54
626.188	971.62
626.604	971.94
627.02	969.4
627.436	967.99
627.852	973.3
628.268	983.01
628.683	976.2
629.099	970.03
629.514	965.94
629.93	967.98
630.345	970.59
630.761	967.57
631.176	970.54
631.591	966.14
632.007	962.52
632.422	960.73
632.837	952.45
633.252	950.47
633.667	941.97
634.082	934.35
634.497	925.14
634.911	911.78
635.326	908.36
635.741	895.04
636.155	886.43
636.57	885.75
636.984	884.57
637.399	884.64
637.813	884.05
638.228	882.33
638.642	884.84
639.056	876.73
639.47	876.18
639.884	870.1
640.298	865.26
640.712	865.24
641.126	856.08
641.54	849.1
641.954	845.35
642.368	837.64
642.781	833.89
643.195	822.15
643.609	824.29
644.022	821.14
644.436	819.45
644.849	811.51
645.262	804.85
645.676	807.74
646.089	806.97
646.502	798.7
646.915	795.67
647.328	783.76
647.741	784.95
648.154	777.5
648.567	776.83
648.98	768.19
649.393	771.2
649.805	770.47
650.218	766.88
650.631	756.67
651.043	753.37
651.456	749.98
651.868	752.14
652.28	766.79
652.693	777.83
653.105	783.65
653.517	793.18
653.929	795.42
654.341	801.32
654.753	793.55
655.165	800.7
655.577	801.81
655.989	801.78
656.401	799.41
656.813	773.28
657.224	760.09
657.636	741.19
658.047	731.07
658.459	718.95
658.87	714.67
659.282	708.99
659.693	697.62
660.104	689.29
660.515	682.06
660.926	683.41
661.338	685.85
661.749	685.59
662.159	682.31
662.57	682.69
662.981	682.98
663.392	681.92
663.803	690.32
664.213	691.98
664.624	693
665.035	700.49
665.445	693.81
665.855	691.97
666.266	689.73
666.676	692.25
667.086	687.76
667.497	691.63
667.907	689.81
668.317	685.94
668.727	686.46
669.137	690.31
669.547	691.39
669.956	696.2
670.366	700.66
670.776	705.09
671.186	711.3
671.595	718.19
672.005	723.37
672.414	725.71
672.824	726.31
673.233	731.9
673.642	735.96
674.052	740.16
674.461	744.74
674.87	751.62
675.279	750.48
675.688	752.49
676.097	754.01
676.506	752.47
676.915	767.4
677.323	770.55
677.732	769.52
678.141	769.84
678.549	760.28
678.958	759.46
679.366	758.31
679.775	762.62
680.183	772.49
680.592	779.03
681	783.93
681.408	775.25
681.816	779.68
682.224	785.82
682.632	790.56
683.04	814.19
683.448	831.11
683.856	853.04
684.264	878.71
684.671	900.35
685.079	925.82
685.487	954.77
685.894	998.73
686.302	1031.58
686.709	1053.58
687.116	1082.7
687.524	1102.05
687.931	1117.59
688.338	1128.14
688.745	1134.19
689.152	1145.42
689.559	1166.3
689.966	1187.15
690.373	1191.79
690.78	1213.94
691.187	1255.69
691.593	1287.17
692	1314.71
692.407	1358.76
692.813	1417.46
693.22	1464.28
693.626	1515.46
694.032	1557.43
694.439	1622.88
694.845	1678.76
695.251	1747.6
695.657	1811.67
696.063	1904.51
696.469	1980.01
696.875	2053.09
697.281	2102.01
697.687	2162.2
698.093	2214.82
698.498	2301.73
698.904	2374.09
