Data from N_2_HIR_IL_4N_Splice17_12-10-37-021.txt Node
Date: Sat Mar 14 12:10:37 EDT 2020
User: sa697716
Spectrometer: FLMS03696
Trigger mode: 0
Integration Time (sec): 3.180400E-1
Scans to average: 20
Electric dark correction enabled: true
Nonlinearity correction enabled: true
Boxcar width: 5
XAxis mode: Wavelengths
Number of Pixels in Spectrum: 2048
>>>>>Begin Spectral Data<<<<<
187.83	-315107.27
188.298	2119.55
188.766	1152.96
189.233	1076.99
189.701	1489.81
190.169	2040.1
190.636	769.88
191.104	611.42
191.571	106.38
192.039	-77.35
192.506	-102.16
192.974	391.61
193.441	-817.28
193.908	-293.42
194.375	-53.97
194.842	-12.41
195.31	27.02
195.777	121.24
196.244	345.92
196.711	460.67
197.177	579.79
197.644	816.26
198.111	1435.93
198.578	2011.82
199.045	1630.13
199.511	2682
199.978	3104.62
200.445	2616.92
200.911	2921.25
201.378	3271.46
201.844	2976.26
202.31	5077.86
202.777	5323.79
203.243	2957.69
203.709	2817.08
204.176	3333.27
204.642	2730.41
205.108	2576.3
205.574	2114
206.04	1926.97
206.506	1794.49
206.972	1684.13
207.438	1634
207.903	1867.82
208.369	1635.68
208.835	1636.65
209.301	1732.47
209.766	1773.9
210.232	1742.28
210.697	2160.6
211.163	2654.42
211.628	3981.67
212.094	3341.93
212.559	4056
213.024	2511.63
213.49	3054.46
213.955	2971.88
214.42	2873.86
214.885	2674.77
215.35	2558.24
215.815	2450.88
216.28	2581.83
216.745	2103.56
217.21	2248.6
217.675	2051.04
218.14	2274.54
218.604	2503.21
219.069	2833.21
219.534	2944.3
219.998	3402.35
220.463	4105.77
220.927	5012.21
221.392	4704.55
221.856	4731.13
222.32	5943.87
222.785	7321.1
223.249	9197.14
223.713	10239.18
224.177	10208.16
224.642	13095.28
225.106	16040.28
225.57	17483.33
226.034	12995.61
226.497	19749.19
226.961	17826.59
227.425	20751.36
227.889	22968.78
228.353	22933.75
228.816	47360.23
229.28	45232.84
229.744	38034.2
230.207	23142.7
230.671	22747.79
231.134	37531.5
231.597	43251.3
232.061	43212.8
232.524	42047.01
232.987	28979.87
233.45	26086.55
233.914	23363.58
234.377	23911.18
234.84	21907.18
235.303	25794.35
235.766	28779.49
236.229	29760.81
236.691	18728.67
237.154	21032.01
237.617	15839.73
238.08	16198.19
238.542	18957.51
239.005	13549.13
239.468	13448.83
239.93	12664.1
240.393	11515.74
240.855	10105.59
241.317	10331.62
241.78	12557.5
242.242	12987.53
242.704	14020.05
243.166	12188.8
243.629	11058.94
244.091	12741.8
244.553	13959.05
245.015	14999.28
245.477	19379.53
245.939	28347.68
246.4	30100.97
246.862	29257.7
247.324	27546.29
247.786	30805.15
248.247	40433.85
248.709	41696.81
249.17	31163.49
249.632	29390.63
250.093	34097.64
250.555	29435.57
251.016	17972.47
251.477	17036.18
251.939	18383.32
252.4	19284.75
252.861	22912.98
253.322	21296.34
253.783	25326.31
254.244	32860.78
254.705	25892.28
255.166	22969.5
255.627	22618.84
256.088	31943.08
256.549	33938.73
257.009	29211.28
257.47	35420.88
257.931	28864.98
258.391	21640.52
258.852	22328.71
259.312	23410.49
259.773	28896.27
260.233	24442.21
260.694	20608.49
261.154	23360.69
261.614	18760.85
262.074	16783.86
262.534	17441.8
262.994	16434.57
263.455	21873.97
263.915	18411.45
264.374	17346.59
264.834	18948.05
265.294	20988.38
265.754	21752.47
266.214	20574.63
266.673	19270.84
267.133	24309.85
267.593	24119.69
268.052	29525.99
268.512	25664.96
268.971	30984.16
269.431	33958.11
269.89	30421.44
270.349	45634.22
270.809	50904.97
271.268	45787.17
271.727	102731.93
272.186	66565.6
272.645	49974.86
273.104	36008.16
273.563	52188.34
274.022	41058.73
274.481	34955.23
274.94	26959.32
275.399	20043.4
275.857	23345.97
276.316	31571.52
276.775	28077.68
277.233	27672.91
277.692	25920.25
278.15	29362.83
278.609	30259.21
279.067	28021.84
279.525	26073.11
279.984	33658.48
280.442	40431.38
280.9	39871.96
281.358	26249.39
281.816	24475.74
282.274	23964.09
282.732	24761.57
283.19	24895.4
283.648	21506.06
284.106	22913.43
284.564	23288.61
285.021	21599.82
285.479	16129.08
285.937	14675.13
286.394	12894.01
286.852	13302.25
287.309	13990.08
287.767	13530.85
288.224	12864.27
288.682	14102.7
289.139	15486.45
289.596	14184.63
290.053	14745.16
290.511	18566.08
290.968	22488.39
291.425	30500.72
291.882	25362.34
292.339	22080.81
292.796	21895.27
293.252	20654
293.709	16433.49
294.166	14710.15
294.623	16236.46
295.079	15567.15
295.536	15677.85
295.992	14229.25
296.449	14072.89
296.905	14635.73
297.362	14025.27
297.818	14740.83
298.274	15279.84
298.731	15546.54
299.187	15387.95
299.643	16513.5
300.099	19985.18
300.555	21898.3
301.011	18309.43
301.467	17658.49
301.923	20631.06
302.379	20185.82
302.835	19817.23
303.291	19843.63
303.746	22589.34
304.202	28564.58
304.658	28689.2
305.113	19292.76
305.569	18912.98
306.024	20174.82
306.479	19209.78
306.935	16213.73
307.39	17685.53
307.845	16335.41
308.301	16458.73
308.756	16044.04
309.211	15461.26
309.666	15853.74
310.121	19694.35
310.576	19999.71
311.031	19861.31
311.486	22737.2
311.94	22751.04
312.395	30407.85
312.85	57200.01
313.305	280614.48
313.759	1454060.78
314.214	105421.41
314.668	83683.08
315.123	70327.4
315.577	25234.8
316.032	22431.47
316.486	28109.41
316.94	22200.71
317.394	15474
317.849	12044.75
318.303	11393.69
318.757	10738.61
319.211	11856.12
319.665	10344.88
320.119	10480.7
320.572	15025.69
321.026	14055.02
321.48	11697.57
321.934	12737.66
322.387	12748.1
322.841	13769.54
323.295	12398.37
323.748	14270.96
324.202	14471.69
324.655	17432.99
325.108	24372.31
325.562	17219.3
326.015	20449.96
326.468	15453.91
326.921	17262.32
327.374	16143.59
327.827	16800.01
328.28	19041.33
328.733	12774.34
329.186	11238.35
329.639	10692.98
330.092	9018.03
330.545	8598.73
330.997	8678.79
331.45	9498.58
331.903	11147.72
332.355	19138.78
332.808	18579.41
333.26	15311.6
333.713	16629.2
334.165	16770.97
334.617	22419.91
335.069	18063.23
335.522	32642.64
335.974	36204.94
336.426	33066.41
336.878	22888.94
337.33	11612.78
337.782	11359.68
338.234	14231.32
338.686	17022.22
339.137	20161.93
339.589	18967.81
340.041	14898.32
340.493	12804.41
340.944	13082.79
341.396	14096.37
341.847	11855.38
342.299	14005.34
342.75	17087.72
343.201	14920.07
343.653	17146.22
344.104	21068.34
344.555	16574.94
345.006	25766.23
345.457	19724.73
345.908	15656.33
346.359	14731.95
346.81	12000.72
347.261	12621.24
347.712	12410.52
348.163	13313.76
348.613	13465.97
349.064	12589.69
349.515	11030.47
349.965	11297.14
350.416	13574.15
350.866	14922.96
351.317	16837.33
351.767	27877.53
352.217	35263
352.668	29290.18
353.118	26813.56
353.568	25836.22
354.018	20417.25
354.468	21569.48
354.918	15505.98
355.368	13586.84
355.818	19138.66
356.268	55091.72
356.718	230487.02
357.168	57437.86
357.617	28815.44
358.067	32025.92
358.517	30097.13
358.966	35291.26
359.416	39683.34
359.865	42839.58
360.315	51068.02
360.764	23882.84
361.213	13390.06
361.663	12660.31
362.112	15586.44
362.561	25169.27
363.01	19008.15
363.459	15953.22
363.908	17255.53
364.357	14593.07
364.806	24637.22
365.255	16933.54
365.703	15508.09
366.152	15523.8
366.601	12612.03
367.05	10270.84
367.498	9341.87
367.947	9770.3
368.395	10160.9
368.844	8995.19
369.292	10861.75
369.74	7523.82
370.189	11500.58
370.637	13496.28
371.085	11663.38
371.533	14207.74
371.981	13682
372.429	13080.1
372.877	13599.62
373.325	11414.6
373.773	11643.21
374.221	10348.46
374.669	12850.92
375.116	11126.6
375.564	11207.16
376.012	12527.28
376.459	10336.1
376.907	12322.83
377.354	14889.28
377.801	13910.04
378.249	16017.19
378.696	20531.07
379.143	24892.66
379.591	26537.3
380.038	44989.89
380.485	32635.03
380.932	35360.48
381.379	32544.16
381.826	24066.5
382.273	17123.19
382.72	15012.1
383.166	14695.51
383.613	9560.03
384.06	8644.97
384.506	10033.6
384.953	7416.15
385.4	7486.94
385.846	6573.7
386.292	6410.97
386.739	6310.81
387.185	6277.75
387.631	6307.55
388.078	6140.43
388.524	6597.57
388.97	6124.44
389.416	5135.41
389.862	5469.18
390.308	5210.74
390.754	5308.75
391.2	5795.2
391.645	5940.92
392.091	5720.08
392.537	5550.46
392.983	5574.36
393.428	5510.8
393.874	5934.59
394.319	5988.69
394.765	5721.54
395.21	5908.04
395.655	5577.88
396.101	5250.32
396.546	4767.15
396.991	4818.05
397.436	4502.49
397.881	4377.58
398.326	4159.6
398.771	3954.07
399.216	3476.13
399.661	3143.42
400.106	3149.92
400.551	3244.54
400.995	2918.75
401.44	2900.95
401.885	2740.82
402.329	2780.69
402.774	2675.47
403.218	2603.16
403.663	2518.22
404.107	2594.19
404.551	2622.99
404.995	2415.66
405.44	2332.92
405.884	2382.58
406.328	2311.41
406.772	2315.11
407.216	2115.33
407.66	2054.71
408.104	1959.97
408.547	1841.53
408.991	1790.31
409.435	1727.31
409.879	1705.28
410.322	1688.91
410.766	1634.09
411.209	1561.31
411.653	1502.91
412.096	1477.38
412.54	1478.25
412.983	1470.05
413.426	1477.74
413.869	1479.13
414.312	1455.91
414.756	1409.34
415.199	1345.4
415.642	1307.31
416.085	1311.1
416.527	1301.82
416.97	1322.36
417.413	1259.24
417.856	1248.21
418.298	1236.99
418.741	1229.17
419.184	1225.39
419.626	1276.88
420.069	1278.75
420.511	1289.77
420.953	1263.27
421.396	1255.4
421.838	1227.17
422.28	1255.75
422.722	1263.43
423.164	1282.64
423.606	1263.33
424.048	1262.25
424.49	1200.6
424.932	1194.11
425.374	1176.55
425.816	1198.21
426.258	1218.85
426.699	1231.3
427.141	1214.59
427.582	1234.69
428.024	1229.51
428.465	1222.08
428.907	1196.61
429.348	1180.32
429.789	1181.2
430.231	1158.7
430.672	1174.89
431.113	1148.01
431.554	1131.03
431.995	1103.78
432.436	1064.14
432.877	1037.76
433.318	1020.67
433.759	1014.09
434.2	1015.7
434.64	1005.62
435.081	1008.22
435.522	955.35
435.962	924.3
436.403	904.99
436.843	917.09
437.284	895.56
437.724	873.24
438.164	874.99
438.604	856.32
439.045	824.3
439.485	791.1
439.925	773.51
440.365	753.13
440.805	740.01
441.245	731.94
441.685	704.7
442.125	700.54
442.564	704.46
443.004	689.94
443.444	686.8
443.883	686.69
444.323	680.52
444.762	680.67
445.202	689.7
445.641	701.34
446.081	693.56
446.52	698.32
446.959	690.54
447.398	674.07
447.837	661.23
448.276	649.86
448.716	656.48
449.154	662.75
449.593	647.59
450.032	644.58
450.471	632.32
450.91	633.93
451.349	631.77
451.787	629.49
452.226	638.77
452.664	641.64
453.103	642.09
453.541	639.04
453.98	636.99
454.418	640.14
454.856	629.86
455.295	628.78
455.733	633.09
456.171	636.44
456.609	636.77
457.047	635.81
457.485	643.58
457.923	644.11
458.361	635.05
458.798	636.55
459.236	634.94
459.674	639.54
460.111	642.4
460.549	636.51
460.987	632.58
461.424	629.74
461.862	626.34
462.299	617.46
462.736	616.81
463.173	619.34
463.611	613.66
464.048	612.31
464.485	616.67
464.922	610.67
465.359	607.08
465.796	600.7
466.233	596.98
466.67	591.74
467.106	589.18
467.543	582.74
467.98	575.56
468.416	559.34
468.853	553.53
469.29	536.32
469.726	530.89
470.162	516.44
470.599	508.58
471.035	503.48
471.471	490.18
471.907	486.72
472.344	484.01
472.78	484.73
473.216	490.29
473.652	484.33
474.088	482.19
474.523	480.52
474.959	485.44
475.395	480.34
475.831	476.92
476.266	479.08
476.702	477.63
477.138	471.35
477.573	468.99
478.008	467.05
478.444	470.22
478.879	474.24
479.314	474.57
479.75	473
480.185	474.36
480.62	477.33
481.055	479.54
481.49	482.72
481.925	489.12
482.36	496.95
482.795	509.36
483.229	521.29
483.664	532.11
484.099	534.59
484.534	542.56
484.968	548.14
485.403	549.52
485.837	548.07
486.271	546.86
486.706	547.13
487.14	541
487.574	532.11
488.009	526.75
488.443	520.66
488.877	525.16
489.311	526.05
489.745	531.19
490.179	535.56
490.613	545.54
491.046	548.15
491.48	551.27
491.914	550.86
492.348	554.33
492.781	557.02
493.215	558.73
493.648	558.78
494.082	561.91
494.515	561.98
494.948	567.02
495.382	569.36
495.815	573.15
496.248	577.92
496.681	587.9
497.114	596.01
497.547	602.92
497.98	612.05
498.413	616.08
498.846	623
499.279	628.65
499.711	631.86
500.144	633.13
500.577	640.97
501.009	647.45
501.442	654.14
501.874	655.31
502.306	656.48
502.739	663.63
503.171	675.14
503.603	678.11
504.036	685.8
504.468	689.94
504.9	699.37
505.332	705.01
505.764	709.39
506.196	715.02
506.627	727.01
507.059	738.13
507.491	744.32
507.923	743.32
508.354	755.59
508.786	764.35
509.217	778.68
509.649	790.61
510.08	805.92
510.512	820.45
510.943	833.36
511.374	843.79
511.805	860.87
512.237	877.77
512.668	904.69
513.099	927.95
513.53	951.44
513.961	971.22
514.391	999.23
514.822	1028.34
515.253	1059.59
515.684	1082.75
516.114	1109.04
516.545	1129.89
516.975	1154.03
517.406	1171.51
517.836	1176.12
518.267	1185.3
518.697	1202.8
519.127	1209.8
519.558	1218.57
519.988	1223.37
520.418	1234.98
520.848	1252.18
521.278	1262.35
521.708	1284.46
522.138	1298.46
522.567	1327.99
522.997	1352.21
523.427	1367.79
523.857	1384.27
524.286	1396.36
524.716	1413.7
525.145	1432.15
525.575	1443.95
526.004	1457.82
526.433	1450.47
526.863	1452.8
527.292	1446.82
527.721	1452.61
528.15	1460.09
528.579	1462.54
529.008	1473.77
529.437	1494.97
529.866	1510.11
530.295	1527.27
530.724	1540.83
531.152	1566.27
531.581	1580.49
532.01	1596.94
532.438	1607.45
532.867	1621.33
533.295	1640.48
533.723	1647.99
534.152	1647.88
534.58	1648.22
535.008	1635.46
535.436	1639.01
535.865	1647.2
536.293	1661.93
536.721	1678.07
537.149	1702.15
537.576	1706.46
538.004	1718.45
538.432	1726.6
538.86	1725.18
539.287	1733.22
539.715	1747.03
540.143	1750.58
540.57	1748.93
540.998	1745.97
541.425	1725.67
541.852	1706.42
542.28	1705.06
542.707	1690.37
543.134	1677.33
543.561	1674.78
543.988	1667.78
544.415	1667.76
544.842	1662.54
545.269	1655.84
545.696	1657.08
546.123	1668.73
546.549	1660.03
546.976	1648.76
547.403	1649.34
547.829	1650.69
548.256	1652.42
548.682	1649.95
549.108	1643.52
549.535	1643.09
549.961	1645.13
550.387	1633.07
550.813	1628.16
551.24	1632.69
551.666	1632.74
552.092	1622.72
552.518	1616.42
552.943	1609.84
553.369	1615.05
553.795	1619.54
554.221	1620.04
554.646	1615.73
555.072	1625.49
555.498	1629.73
555.923	1638.06
556.349	1651.69
556.774	1660.09
557.199	1661.01
557.625	1665.37
558.05	1658.93
558.475	1666.56
558.9	1664.07
559.325	1656.08
559.75	1649.39
560.175	1641.04
560.6	1633.2
561.025	1629.52
561.449	1627.87
561.874	1630.78
562.299	1632.92
562.723	1637.74
563.148	1625.89
563.572	1627.21
563.997	1634.03
564.421	1635.45
564.846	1634.03
565.27	1634.25
565.694	1629.61
566.118	1637.99
566.542	1642.16
566.966	1634.72
567.39	1628.87
567.814	1617.38
568.238	1615.58
568.662	1617.35
569.086	1618.04
569.509	1622.59
569.933	1607.47
570.357	1598.78
570.78	1577.94
571.204	1565.47
571.627	1553.71
572.05	1549.57
572.474	1548.29
572.897	1535.02
573.32	1527.15
573.743	1516.4
574.166	1498.52
574.589	1497.65
575.012	1488.91
575.435	1484.83
575.858	1474.12
576.281	1462.47
576.704	1447.21
577.126	1433.74
577.549	1422.1
577.972	1411.37
578.394	1400.8
578.817	1392.66
579.239	1374.19
579.661	1361.31
580.084	1346.94
580.506	1334.24
580.928	1329.63
581.35	1318.95
581.772	1314.07
582.194	1301.38
582.616	1288.83
583.038	1276.14
583.46	1266.49
583.882	1263.01
584.303	1265.5
584.725	1261.6
585.147	1262.43
585.568	1269.6
585.99	1278.47
586.411	1282.97
586.833	1295.27
587.254	1296.33
587.675	1306.62
588.096	1315.61
588.518	1310.29
588.939	1295.4
589.36	1291.36
589.781	1280.74
590.202	1256.88
590.623	1247.62
591.043	1244.04
591.464	1232.24
591.885	1227.41
592.305	1220.45
592.726	1207.6
593.147	1207.17
593.567	1202.52
593.987	1195.8
594.408	1191.49
594.828	1188.72
595.248	1184.44
595.669	1168.55
596.089	1162.23
596.509	1156.29
596.929	1145.02
597.349	1145.24
597.769	1137.04
598.189	1130.98
598.608	1131.37
599.028	1132.46
599.448	1132.76
599.867	1121.26
600.287	1117.13
600.706	1112.53
601.126	1104.78
601.545	1103.98
601.965	1102.57
602.384	1098.19
602.803	1099.88
603.222	1095.71
603.641	1089.61
604.061	1085.45
604.48	1081.35
604.898	1088.36
605.317	1091.87
605.736	1093.21
606.155	1090.02
606.574	1081.56
606.992	1084.57
607.411	1080.26
607.829	1073.65
608.248	1070.72
608.666	1068.5
609.085	1068.48
609.503	1060.21
609.921	1054.76
610.339	1055.5
610.758	1054.32
611.176	1050.57
611.594	1043.24
612.012	1039.76
612.43	1041.42
612.847	1045.36
613.265	1045.84
613.683	1048.18
614.101	1048.74
614.518	1044.09
614.936	1035.24
615.353	1023.62
615.771	1020.76
616.188	1019.7
616.606	1016.45
617.023	1009.85
617.44	997.47
617.857	990.65
618.274	984.79
618.691	979.48
619.108	972.71
619.525	967.75
619.942	972.71
620.359	974.07
620.776	969.64
621.192	966.03
621.609	964.16
622.026	970.58
622.442	975.34
622.859	975.9
623.275	970.68
623.691	974.24
624.108	983.15
624.524	993.66
624.94	993.68
625.356	1001.68
625.772	1012.35
626.188	1021.97
626.604	1023.44
627.02	1020.23
627.436	1019.23
627.852	1024.55
628.268	1034.46
628.683	1026.12
629.099	1019.24
629.514	1015
629.93	1017.64
630.345	1021.11
630.761	1017.2
631.176	1019.19
631.591	1015.1
632.007	1009.69
632.422	1006.52
632.837	996.41
633.252	994.97
633.667	986.79
634.082	979.03
634.497	968.47
634.911	952.13
635.326	948.54
635.741	934.21
636.155	924.14
636.57	923.73
636.984	922.52
637.399	923.24
637.813	920.16
638.228	917.58
638.642	919.68
639.056	910.05
639.47	908.41
639.884	899.81
640.298	892.59
640.712	889.96
641.126	878.78
641.54	870.72
641.954	863.72
642.368	853.59
642.781	846.12
643.195	830.97
643.609	829
644.022	822.31
644.436	817.94
644.849	807.7
645.262	797.79
645.676	798.48
646.089	794.13
646.502	783.08
646.915	777.51
647.328	764.02
647.741	762.9
648.154	753.14
648.567	752.39
648.98	742.11
649.393	742.36
649.805	740.44
650.218	733.46
650.631	720.96
651.043	716.76
651.456	713.38
651.868	713.89
652.28	724.7
652.693	734.91
653.105	738.16
653.517	745.69
653.929	747.13
654.341	751.58
654.753	744.89
655.165	751.3
655.577	750.79
655.989	748.38
656.401	743.49
656.813	719.88
657.224	705.89
657.636	686.59
658.047	675.36
658.459	662.22
658.87	656.75
659.282	648.74
659.693	635.7
660.104	627.06
660.515	618.84
660.926	618.73
661.338	617.89
661.749	615.01
662.159	609.33
662.57	607.41
662.981	604.81
663.392	602.08
663.803	606.38
664.213	606.08
664.624	603.28
665.035	607.64
665.445	600.11
665.855	596.7
666.266	592.42
666.676	592.6
667.086	587.07
667.497	589.05
667.907	585.02
668.317	580.65
668.727	580.88
669.137	583.44
669.547	583.06
669.956	585.78
670.366	588.9
670.776	592.75
671.186	598.4
671.595	602.84
672.005	606.71
672.414	607.81
672.824	608.48
673.233	611.42
673.642	615.24
674.052	619.09
674.461	623.08
674.87	627.85
675.279	626.77
675.688	628.5
676.097	632.13
676.506	630.56
676.915	644.16
677.323	647.36
677.732	647.09
678.141	646.29
678.549	638.54
678.958	637.71
679.366	637.92
679.775	642.31
680.183	651.26
680.592	655.09
681	660.32
681.408	652.83
681.816	658.44
682.224	665.23
682.632	673.07
683.04	696.06
683.448	714.76
683.856	737.71
684.264	765.35
684.671	788.94
685.079	818.19
685.487	850.1
685.894	897.42
686.302	933.94
686.709	963.6
687.116	998.1
687.524	1025.17
687.931	1048.94
688.338	1068.15
688.745	1083.5
689.152	1105.04
689.559	1136.43
689.966	1168.05
690.373	1181.6
690.78	1211.88
691.187	1260.27
691.593	1299.24
692	1333.08
692.407	1384.62
692.813	1448.31
693.22	1500.56
693.626	1553.29
694.032	1598.63
694.439	1665.54
694.845	1721.8
695.251	1791.88
695.657	1856.4
696.063	1948.95
696.469	2022.83
696.875	2092.23
697.281	2136.93
697.687	2188.81
698.093	2237.93
698.498	2318.72
698.904	2381.97
699.31	2473.01
