Data from N_2_DEC_ON_6N_Splice17_12-14-46-188.txt Node
Date: Sat Mar 14 12:14:46 EDT 2020
User: sa697716
Spectrometer: FLMS03696
Trigger mode: 0
Integration Time (sec): 3.180400E-1
Scans to average: 20
Electric dark correction enabled: true
Nonlinearity correction enabled: true
Boxcar width: 5
XAxis mode: Wavelengths
Number of Pixels in Spectrum: 2048
>>>>>Begin Spectral Data<<<<<
187.83	-298943.52
188.298	2176.31
188.766	1158.11
189.233	1098.34
189.701	1555.77
190.169	2160.48
190.636	827.96
191.104	671.45
191.571	112.52
192.039	-50.68
192.506	-48.24
192.974	449.65
193.441	-716.26
193.908	-328.5
194.375	-46.19
194.842	14.87
195.31	117.01
195.777	200.55
196.244	388.51
196.711	362.13
197.177	446.2
197.644	623.43
198.111	1032.31
198.578	1432.93
199.045	1170.35
199.511	1886.78
199.978	2202.48
200.445	1869.44
200.911	2038.91
201.378	2268.27
201.844	2104.62
202.31	3568.81
202.777	3713.3
203.243	2090
203.709	1998.31
204.176	2375.72
204.642	1947.97
205.108	1818.11
205.574	1476.66
206.04	1329.56
206.506	1242.08
206.972	1155.64
207.438	1101.84
207.903	1256.85
208.369	1098.66
208.835	1091.83
209.301	1124.83
209.766	1139.25
210.232	1122.79
210.697	1384
211.163	1687.08
211.628	2509.51
212.094	2148.99
212.559	2691.28
213.024	1665.81
213.49	2010.55
213.955	1935.59
214.42	1878.78
214.885	1764.18
215.35	1677.68
215.815	1626.31
216.28	1723.77
216.745	1373.97
217.21	1469.43
217.675	1297.39
218.14	1416.26
218.604	1525.19
219.069	1718.91
219.534	1786.86
219.998	2010.46
220.463	2384.43
220.927	2819.7
221.392	2610.91
221.856	2630.94
222.32	3218.29
222.785	3934.37
223.249	4905.7
223.713	5478.53
224.177	5440.64
224.642	6871.6
225.106	8407.49
225.57	9093.27
226.034	6793.86
226.497	10316.59
226.961	9297.14
227.425	10865.15
227.889	12035.75
228.353	11958.57
228.816	24567.94
229.28	23496.48
229.744	19784.6
230.207	12071.13
230.671	11934.28
231.134	19600.69
231.597	22554.64
232.061	22508.28
232.524	21855.08
232.987	15044.33
233.45	13584.21
233.914	12171.25
234.377	12409.47
234.84	11373.18
235.303	13382
235.766	14894.23
236.229	15424.95
236.691	9703.46
237.154	10882.36
237.617	8213.92
238.08	8402.03
238.542	9839.57
239.005	7051.97
239.468	7026.55
239.93	6641.33
240.393	6049.01
240.855	5317.14
241.317	5440.83
241.78	6628.74
242.242	6882.06
242.704	7453.18
243.166	6505.74
243.629	5934.63
244.091	6830.46
244.553	7499.07
245.015	8071.79
245.477	10442.69
245.939	15321.05
246.4	16280.62
246.862	15828.29
247.324	14908.02
247.786	16666.04
248.247	21862.32
248.709	22458.97
249.17	16826.35
249.632	15939.65
250.093	18519.5
250.555	15989.62
251.016	9780.04
251.477	9289.07
251.939	10042.34
252.4	10528.87
252.861	12488.52
253.322	11621.5
253.783	13839.04
254.244	17953
254.705	14094.5
255.166	12487.09
255.627	12307.31
256.088	17313.52
256.549	18387.04
257.009	15814.04
257.47	19202.79
257.931	15631.85
258.391	11722.49
258.852	12075.16
259.312	12631.67
259.773	15576.43
260.233	13193.58
260.694	11104.07
261.154	12606.3
261.614	10125.16
262.074	9042.56
262.534	9386.31
262.994	8856.11
263.455	11756.24
263.915	9904.5
264.374	9321.31
264.834	10157.82
265.294	11231.46
265.754	11635.21
266.214	10962.58
266.673	10250.94
267.133	12903.24
267.593	12783.86
268.052	15641.15
268.512	13584.38
268.971	16410.25
269.431	17984.93
269.89	16064.13
270.349	24062.32
270.809	26805.59
271.268	24165.69
271.727	53996.78
272.186	35001.78
272.645	26267.37
273.104	18893.94
273.563	27326.34
274.022	21411.81
274.481	18241.16
274.94	14087.02
275.399	10462.37
275.857	12158.8
276.316	16415.34
276.775	14620.96
277.233	14399.48
277.692	13477.41
278.15	15284.1
278.609	15771.3
279.067	14604.28
279.525	13591.73
279.984	17511.72
280.442	21058.06
280.9	20848.97
281.358	13716.17
281.816	12801.92
282.274	12539.24
282.732	12939.74
283.19	12986.33
283.648	11213.28
284.106	11945.19
284.564	12142.28
285.021	11294.99
285.479	8419.43
285.937	7652.96
286.394	6738.92
286.852	6957.23
287.309	7325.32
287.767	7112.37
288.224	6790.19
288.682	7445.88
289.139	8195.75
289.596	7521.67
290.053	7817.33
290.511	9874.3
290.968	11988.52
291.425	16262.34
291.882	13587.21
292.339	11849.37
292.796	11757.13
293.252	11090.65
293.709	8855.77
294.166	7942.74
294.623	8774.72
295.079	8424.89
295.536	8492.76
295.992	7713.43
296.449	7630.04
296.905	7942.18
297.362	7634.23
297.818	8031.03
298.274	8336.51
298.731	8467.84
299.187	8400.71
299.643	9014.81
300.099	10931.95
300.555	11963.16
301.011	10035.06
301.467	9739.2
301.923	11357.46
302.379	11105.3
302.835	10939.54
303.291	10973.56
303.746	12529.15
304.202	15825.03
304.658	15925.28
305.113	10728.25
305.569	10549.03
306.024	11232.56
306.479	10644.86
306.935	9007.47
307.39	9826.76
307.845	9082.27
308.301	9168.4
308.756	8931.86
309.211	8626.61
309.666	8842.91
310.121	11034
310.576	11220.3
311.031	11166.94
311.486	12813
311.94	12829.32
312.395	17218.63
312.85	32360.18
313.305	158589.2
313.759	826431.81
314.214	59888.57
314.668	47581.56
315.123	40143.29
315.577	14433.9
316.032	12841.28
316.486	16166.24
316.94	12801.97
317.394	8934
317.849	6974.81
318.303	6597.03
318.757	6247.6
319.211	6925.96
319.665	6082.36
320.119	6135.23
320.572	8780.87
321.026	8221.83
321.48	6834.82
321.934	7426.11
322.387	7442.23
322.841	8039.28
323.295	7285.42
323.748	8354.67
324.202	8476.93
324.655	10166.82
325.108	14258.72
325.562	10119.31
326.015	12034.11
326.468	9106.8
326.921	10210.42
327.374	9545.35
327.827	9959.79
328.28	11263.48
328.733	7570.94
329.186	6669.49
329.639	6385.5
330.092	5379.51
330.545	5126.86
330.997	5175.09
331.45	5680.06
331.903	6685.79
332.355	11492.16
332.808	11164.07
333.26	9206.07
333.713	9998.04
334.165	10101.11
334.617	13448.95
335.069	10854.9
335.522	19543.69
335.974	21709.89
336.426	19817.18
336.878	13689.96
337.33	6955.14
337.782	6805.47
338.234	8566.63
338.686	10258.11
339.137	12175.25
339.589	11482.6
340.041	9037.31
340.493	7802.9
340.944	7981.38
341.396	8625.09
341.847	7282.7
342.299	8627.95
342.75	10552.28
343.201	9184.35
343.653	10559.46
344.104	12969.17
344.555	10198.31
345.006	15810.24
345.457	12158.65
345.908	9652.76
346.359	9063.88
346.81	7398.19
347.261	7766.2
347.712	7625.36
348.163	8189.6
348.613	8342.23
349.064	7810.63
349.515	6864.28
349.965	7070.14
350.416	8481.49
350.866	9329.54
351.317	10551.38
351.767	17392.39
352.217	22061.35
352.668	18383.89
353.118	16882.67
353.568	16216.23
354.018	12847.07
354.468	13564.63
354.918	9761.96
355.368	8599.31
355.818	12171.65
356.268	35001.92
356.718	147435.54
357.168	36737.84
357.617	18472.21
358.067	20488.17
358.517	19252.03
358.966	22652.28
359.416	25555.35
359.865	27609.51
360.315	32760.93
360.764	15303.96
361.213	8631.09
361.663	8172.04
362.112	10106.11
362.561	16293.3
363.01	12362.77
363.459	10415.91
363.908	11261.02
364.357	9563.89
364.806	16200.86
365.255	11210.01
365.703	10330.16
366.152	10344.05
366.601	8394.22
367.05	6826.85
367.498	6232.3
367.947	6497.56
368.395	6760.22
368.844	5996.59
369.292	7198.74
369.74	4973.49
370.189	7597.21
370.637	8894.86
371.085	7702.01
371.533	9421.02
371.981	9073.4
372.429	8682.01
372.877	9072.08
373.325	7602.22
373.773	7751.14
374.221	6944.39
374.669	8605.99
375.116	7460.88
375.564	7516.84
376.012	8408.83
376.459	6948.69
376.907	8309.77
377.354	10032.23
377.801	9414.97
378.249	10897.26
378.696	13975.22
379.143	16925.22
379.591	18089.37
380.038	30751.79
380.485	22392.17
380.932	24295.58
381.379	22316.32
381.826	16538.56
382.273	11803.35
382.72	10350.26
383.166	10098.96
383.613	6558.91
384.06	5934.62
384.506	6888.43
384.953	5064.59
385.4	5091.33
385.846	4462.89
386.292	4337.88
386.739	4258.09
387.185	4221.46
387.631	4225.99
388.078	4130.97
388.524	4439.09
388.97	4118.57
389.416	3453.97
389.862	3690.66
390.308	3525.26
390.754	3597.02
391.2	3935.86
391.645	4036.05
392.091	3897.8
392.537	3791.69
392.983	3802.83
393.428	3772.6
393.874	4053.19
394.319	4103.59
394.765	3916.19
395.21	4022
395.655	3786.66
396.101	3553.1
396.546	3218.27
396.991	3247.75
397.436	3021.05
397.881	2932.56
398.326	2775.23
398.771	2632.96
399.216	2297.39
399.661	2068.1
400.106	2074.97
400.551	2132.44
400.995	1919.17
401.44	1904.36
401.885	1790.36
402.329	1814.91
402.774	1739.37
403.218	1692.24
403.663	1636.9
404.107	1690.56
404.551	1713.54
404.995	1570
405.44	1512.71
405.884	1536.89
406.328	1490.62
406.772	1491.71
407.216	1360.73
407.66	1317.56
408.104	1252.24
408.547	1174.41
408.991	1137.89
409.435	1095.21
409.879	1087.28
410.322	1075.36
410.766	1042.55
411.209	992.78
411.653	951.63
412.096	933.4
412.54	934.39
412.983	926.5
413.426	930.22
413.869	929.96
414.312	914.39
414.756	879.35
415.199	839.46
415.642	816.75
416.085	818.79
416.527	815.18
416.97	827.77
417.413	785.28
417.856	777.73
418.298	770.34
418.741	762.74
419.184	759.03
419.626	790.43
420.069	792.8
420.511	796.15
420.953	781.99
421.396	777.9
421.838	757.96
422.28	778.67
422.722	786.41
423.164	798.77
423.606	787.66
424.048	783.61
424.49	745.69
424.932	740.65
425.374	730.08
425.816	739.28
426.258	748.88
426.699	756.72
427.141	745.31
427.582	754.54
428.024	748.13
428.465	743.39
428.907	727.38
429.348	717.45
429.789	718.27
430.231	703.46
430.672	712.75
431.113	695.36
431.554	686.65
431.995	668.47
432.436	644.18
432.877	630.16
433.318	619.21
433.759	614.99
434.2	614
434.64	604.05
435.081	605.03
435.522	574.75
435.962	555.76
436.403	546.3
436.843	552.48
437.284	540.78
437.724	526.55
438.164	527.71
438.604	516.67
439.045	497.97
439.485	481.85
439.925	471.78
440.365	458.91
440.805	451.58
441.245	444.93
441.685	428.83
442.125	424.94
442.564	426.71
443.004	418.01
443.444	416.95
443.883	418.12
444.323	411.76
444.762	411.29
445.202	416.24
445.641	426.29
446.081	423.44
446.52	428.01
446.959	426.08
447.398	417.15
447.837	411.54
448.276	404.85
448.716	411.58
449.154	415.87
449.593	408.52
450.032	409.01
450.471	399.64
450.91	399.62
451.349	398.73
451.787	396.96
452.226	402.56
452.664	404.32
453.103	405.56
453.541	401.9
453.98	403.36
454.418	405.28
454.856	399.88
455.295	401.31
455.733	403.82
456.171	406.62
456.609	407.75
457.047	408.8
457.485	414.72
457.923	416.28
458.361	410.99
458.798	411.36
459.236	410.47
459.674	411.72
460.111	412.95
460.549	409.35
460.987	407.16
461.424	404.69
461.862	402.54
462.299	397.47
462.736	397.04
463.173	398.94
463.611	396.67
464.048	397.38
464.485	401.59
464.922	397.4
465.359	395.3
465.796	395.31
466.233	394.14
466.67	391.61
467.106	390.24
467.543	385.43
467.98	381.01
468.416	370.62
468.853	366.97
469.29	356.07
469.726	353.38
470.162	344.28
470.599	336.23
471.035	332.29
471.471	324.14
471.907	321.57
472.344	320.88
472.78	322.57
473.216	325.99
473.652	321.5
474.088	320.55
474.523	320.31
474.959	324.55
475.395	321.65
475.831	320.72
476.266	322.01
476.702	321.22
477.138	317.72
477.573	315.83
478.008	313.94
478.444	315.97
478.879	320.39
479.314	321.58
479.75	320.49
480.185	322.07
480.62	324.25
481.055	326.1
481.49	329.38
481.925	334.49
482.36	341.18
482.795	351.15
483.229	360.53
483.664	367.13
484.099	368.45
484.534	374.46
484.968	378.27
485.403	379.23
485.837	378.77
486.271	378.13
486.706	378.25
487.14	373.37
487.574	367.85
488.009	364.71
488.443	362.02
488.877	366.55
489.311	368.67
489.745	373.97
490.179	378
490.613	386.57
491.046	389.68
491.48	393.03
491.914	395.26
492.348	399.51
492.781	403.63
493.215	405.87
493.648	406.83
494.082	410.75
494.515	412.36
494.948	419.31
495.382	422.84
495.815	427.78
496.248	433.18
496.681	442.06
497.114	450.18
497.547	458.54
497.98	468.33
498.413	475.1
498.846	484.15
499.279	491.28
499.711	495.16
500.144	498.88
500.577	508.2
501.009	516.99
501.442	525.95
501.874	530.07
502.306	532.94
502.739	541.78
503.171	553.05
503.603	557.02
504.036	565.07
504.468	571.48
504.9	581.52
505.332	587.65
505.764	593.3
506.196	600.49
506.627	612.12
507.059	623.6
507.491	629.97
507.923	631.29
508.354	643.41
508.786	653.42
509.217	668.09
509.649	680.5
510.08	695.31
510.512	709.07
510.943	721.99
511.374	732.26
511.805	748.08
512.237	764.07
512.668	789.12
513.099	810.26
513.53	832.31
513.961	848.63
514.391	873.02
514.822	898.86
515.253	925.68
515.684	944.5
516.114	966.97
516.545	983.17
516.975	1003.42
517.406	1017.17
517.836	1019.31
518.267	1023.74
518.697	1038.26
519.127	1041.11
519.558	1047.39
519.988	1050.43
520.418	1059.24
520.848	1073.49
521.278	1079.54
521.708	1103.1
522.138	1113.75
522.567	1137.21
522.997	1157.08
523.427	1169.06
523.857	1182.9
524.286	1190.57
524.716	1203.21
525.145	1217.18
525.575	1225.42
526.004	1237.75
526.433	1224.05
526.863	1223.39
527.292	1217.11
527.721	1221.39
528.15	1225.2
528.579	1226.16
529.008	1235.71
529.437	1252.15
529.866	1261.62
530.295	1273.9
530.724	1283.42
531.152	1302.41
531.581	1313.43
532.01	1326.9
532.438	1332.86
532.867	1343.4
533.295	1357.12
533.723	1361.03
534.152	1359.33
534.58	1359.53
535.008	1347.68
535.436	1349.8
535.865	1356.39
536.293	1367.28
536.721	1379.01
537.149	1398.26
537.576	1400.97
538.004	1410.04
538.432	1415.15
538.86	1413.95
539.287	1420
539.715	1430.8
540.143	1431.51
540.57	1428.58
540.998	1425.26
541.425	1409.46
541.852	1394.36
542.28	1392.94
542.707	1381.41
543.134	1371.51
543.561	1368.97
543.988	1363.16
544.415	1362.31
544.842	1359.12
545.269	1353.43
545.696	1353.98
546.123	1361.87
546.549	1353.96
546.976	1343.89
547.403	1343.52
547.829	1344.73
548.256	1346.45
548.682	1344.53
549.108	1338.7
549.535	1337.53
549.961	1338.74
550.387	1329.69
550.813	1325.91
551.24	1329.33
551.666	1330.94
552.092	1323.2
552.518	1317.78
552.943	1312.25
553.369	1316
553.795	1319.21
554.221	1320.18
554.646	1317.51
555.072	1325.87
555.498	1328.35
555.923	1335.34
556.349	1345.68
556.774	1351.76
557.199	1352.39
557.625	1356.97
558.05	1352.91
558.475	1361.48
558.9	1360.32
559.325	1354.15
559.75	1349.49
560.175	1345.15
560.6	1338.75
561.025	1337.64
561.449	1338.37
561.874	1342.66
562.299	1346.08
562.723	1350.81
563.148	1343.26
563.572	1346.76
563.997	1353.61
564.421	1357.35
564.846	1357.28
565.27	1360.76
565.694	1357.24
566.118	1365.67
566.542	1371.43
566.966	1366.25
567.39	1363.18
567.814	1353.7
568.238	1352.42
568.662	1356.28
569.086	1357.17
569.509	1361.77
569.933	1351.24
570.357	1346.07
570.78	1330.61
571.204	1319.9
571.627	1311.96
572.05	1310.2
572.474	1311.27
572.897	1301.82
573.32	1296.73
573.743	1290
574.166	1276.74
574.589	1275.94
575.012	1269.95
575.435	1268.47
575.858	1262.51
576.281	1253.07
576.704	1240.12
577.126	1229.27
577.549	1221.04
577.972	1212.86
578.394	1203.98
578.817	1198.74
579.239	1183.71
579.661	1173.78
580.084	1161.5
580.506	1150.83
580.928	1146.66
581.35	1139.78
581.772	1137.39
582.194	1127.11
582.616	1117.04
583.038	1105.83
583.46	1096.68
583.882	1094.43
584.303	1096.27
584.725	1092.46
585.147	1094.92
585.568	1103.38
585.99	1110.94
586.411	1115.23
586.833	1125.34
587.254	1126.4
587.675	1136.32
588.096	1146.33
588.518	1143.02
588.939	1131.48
589.36	1129.39
589.781	1119.77
590.202	1099.33
590.623	1092.8
591.043	1089.9
591.464	1080.66
591.885	1077.45
592.305	1072.39
592.726	1062.26
593.147	1062.9
593.567	1058.45
593.987	1053.27
594.408	1048.86
594.828	1047.54
595.248	1043.28
595.669	1031.2
596.089	1026.38
596.509	1021.05
596.929	1011.63
597.349	1011.28
597.769	1002.74
598.189	998.86
598.608	999.72
599.028	1001.46
599.448	1000.48
599.867	991.5
600.287	986.96
600.706	983.33
601.126	976.58
601.545	976.51
601.965	976.22
602.384	972.91
602.803	974.58
603.222	970.9
603.641	965.61
604.061	963.36
604.48	959.52
604.898	965.6
605.317	968.54
605.736	969.84
606.155	966.94
606.574	959.19
606.992	962.93
607.411	959.21
607.829	953.76
608.248	951.3
608.666	949.02
609.085	948.92
609.503	942.1
609.921	937.94
610.339	939.19
610.758	938.88
611.176	935.16
611.594	928.38
612.012	925.01
612.43	926.26
612.847	929.93
613.265	930.65
613.683	933.27
614.101	933.56
614.518	929.68
614.936	921.75
615.353	910.82
615.771	908.48
616.188	908.46
616.606	905.65
617.023	900.66
617.44	890.72
617.857	884.97
618.274	878.49
618.691	874.55
619.108	868.24
619.525	863.36
619.942	867.16
620.359	868.64
620.776	864.49
621.192	862.79
621.609	860.56
622.026	865.57
622.442	869.32
622.859	870.28
623.275	865.4
623.691	868.86
624.108	877.98
624.524	887.6
624.94	887.4
625.356	893.74
625.772	901.5
626.188	909.95
626.604	910.47
627.02	908.18
627.436	907.83
627.852	912.59
628.268	921.42
628.683	913.26
629.099	907.28
629.514	904.48
629.93	906.29
630.345	909.44
630.761	906.74
631.176	908.73
631.591	905.5
632.007	900.74
632.422	898.12
632.837	889.59
633.252	888.61
633.667	881.17
634.082	873.37
634.497	865.09
634.911	851.71
635.326	848.62
635.741	836.45
636.155	828.15
636.57	828.46
636.984	828.16
637.399	828.82
637.813	827.29
638.228	825.45
638.642	827.72
639.056	820.57
639.47	819.53
639.884	812.99
640.298	807.39
640.712	805.2
641.126	796.17
641.54	789.35
641.954	783.52
642.368	774.75
642.781	770.01
643.195	756.68
643.609	754.9
644.022	749.8
644.436	745.66
644.849	736.35
645.262	726.81
645.676	726.61
646.089	722.04
646.502	713.21
646.915	708.9
647.328	696.64
647.741	695.59
648.154	686.33
648.567	684
648.98	674.34
649.393	674.41
649.805	670.41
650.218	664.31
650.631	652.74
651.043	647.45
651.456	642.72
651.868	640.2
652.28	649.93
652.693	657.61
653.105	659.86
653.517	664.47
653.929	662.92
654.341	666.85
654.753	658.91
655.165	662.51
655.577	659.56
655.989	655.59
656.401	650.29
656.813	626.71
657.224	611.86
657.636	591.75
658.047	580.06
658.459	566.83
658.87	558.98
659.282	550.17
659.693	536.13
660.104	524.9
660.515	513.35
660.926	509.5
661.338	505.17
661.749	499.8
662.159	493.52
662.57	488
662.981	483.13
663.392	477.21
663.803	476.08
664.213	472
664.624	467.73
665.035	468.34
665.445	460.13
665.855	454.94
666.266	450.5
666.676	447.64
667.086	441.22
667.497	440.68
667.907	436.31
668.317	430.38
668.727	428.48
669.137	426.9
669.547	424.59
669.956	424.72
670.366	424.45
670.776	423.24
671.186	424.78
671.595	427.05
672.005	426.95
672.414	425.6
672.824	425.28
673.233	425.48
673.642	427.02
674.052	429.49
674.461	430.75
674.87	433.39
675.279	433.02
675.688	432.23
676.097	432.73
676.506	432.4
676.915	440
677.323	441.26
677.732	442.31
678.141	442.31
678.549	436.1
678.958	435.86
679.366	435.73
679.775	438.31
680.183	446.79
680.592	450.97
681	455.05
681.408	454.5
681.816	460.79
682.224	466.65
682.632	475.35
683.04	495.11
683.448	512.2
683.856	533.37
684.264	558.53
684.671	579.84
685.079	606.49
685.487	636.59
685.894	676.97
686.302	710.22
686.709	740.49
687.116	774.57
687.524	804.59
687.931	829.73
688.338	852.55
688.745	870.26
689.152	893.04
689.559	922.68
689.966	950.75
690.373	965.23
690.78	994.91
691.187	1036.29
691.593	1069.21
692	1096.37
692.407	1139.36
692.813	1191.96
693.22	1233.37
693.626	1275.79
694.032	1309.67
694.439	1362.74
694.845	1404.13
695.251	1455.56
695.657	1502.88
696.063	1569.99
696.469	1621.86
696.875	1667.93
697.281	1695.01
697.687	1729.79
698.093	1757.34
698.498	1812.18
698.904	1852.22
699.31	1916.02
699.715	1961.56
700.12	2024.65
700.526	2040.77
700.931	2091.24
701.337	2131.92
701.742	2158.46
702.147	2219.02
702.552	2246.08
702.957	2290.11
703.362	2310.2
703.767	2332.28
704.172	2362.15
704.577	2331.78
704.981	2367.43
705.386	2381.9
705.791	2378.44
706.195	2431.41
