Data from N_2_DEC_NC_4N_Splice17_12-25-06-530.txt Node
Date: Sat Mar 14 12:25:06 EDT 2020
User: sa697716
Spectrometer: FLMS03696
Trigger mode: 0
Integration Time (sec): 3.180400E-1
Scans to average: 20
Electric dark correction enabled: true
Nonlinearity correction enabled: true
Boxcar width: 5
XAxis mode: Wavelengths
Number of Pixels in Spectrum: 2048
>>>>>Begin Spectral Data<<<<<
187.83	-293294.56
188.298	2262.91
188.766	1213.43
189.233	1094.33
189.701	1546.71
190.169	2104.99
190.636	795.26
191.104	630.29
191.571	94.47
192.039	-53.18
192.506	-44.9
192.974	444.14
193.441	-446.44
193.908	-44.54
194.375	11.12
194.842	82.7
195.31	180.76
195.777	183.43
196.244	374.7
196.711	440.04
197.177	544.7
197.644	766.66
198.111	1339.63
198.578	1858.69
199.045	1508.97
199.511	2450.21
199.978	2821.63
200.445	2377.03
200.911	2623.21
201.378	2935.88
201.844	2662.59
202.31	4540.22
202.777	4720.52
203.243	2602.65
203.709	2489.87
204.176	2952.96
204.642	2461.36
205.108	2322.9
205.574	1889.86
206.04	1744.17
206.506	1638.05
206.972	1531.55
207.438	1488.23
207.903	1702.83
208.369	1499.01
208.835	1487.96
209.301	1553.24
209.766	1570.75
210.232	1540.11
210.697	1932.61
211.163	2362.92
211.628	3581.41
212.094	3028.07
212.559	3713.16
213.024	2302.63
213.49	2817.81
213.955	2738.19
214.42	2658.5
214.885	2474.36
215.35	2402.34
215.815	2308.03
216.28	2447.79
216.745	1979.67
217.21	2144.81
217.675	1965.83
218.14	2215.69
218.604	2455.66
219.069	2791.97
219.534	2943.97
219.998	3413.71
220.463	4097.5
220.927	5018.79
221.392	4716.69
221.856	4748.01
222.32	5955.41
222.785	7325.74
223.249	9184.99
223.713	10223.29
224.177	10204.07
224.642	13072.65
225.106	16028.37
225.57	17521.76
226.034	13021.86
226.497	19815.72
226.961	17888.88
227.425	20803.83
227.889	23084.8
228.353	23081.72
228.816	47603.61
229.28	45556.68
229.744	38333.23
230.207	23296.47
230.671	22896.27
231.134	37771.69
231.597	43466.15
232.061	43446.74
232.524	42373.89
232.987	29138.11
233.45	26195.78
233.914	23443.69
234.377	23998.43
234.84	21921.47
235.303	25824.24
235.766	28798.84
236.229	29744.69
236.691	18727.08
237.154	21024.94
237.617	15779.37
238.08	16133.19
238.542	18860.11
239.005	13481.05
239.468	13364.36
239.93	12598.46
240.393	11441.58
240.855	10029.8
241.317	10268.81
241.78	12454.54
242.242	12852.28
242.704	13890.38
243.166	12090.81
243.629	10959.03
244.091	12620.59
244.553	13802.96
245.015	14801.3
245.477	19113.02
245.939	27951.73
246.4	29555.54
246.862	28710.32
247.324	27042.48
247.786	30179.74
248.247	39479.11
248.709	40724.1
249.17	30395.57
249.632	28607.61
250.093	33165.48
250.555	28616.08
251.016	17461.21
251.477	16558.8
251.939	17847.04
252.4	18686.01
252.861	22196.48
253.322	20655.39
253.783	24545.01
254.244	31811.88
254.705	25093.79
255.166	22264.73
255.627	21890.32
256.088	30841.39
256.549	32764.72
257.009	28211.52
257.47	34208.77
257.931	27820.8
258.391	20831.66
258.852	21459.25
259.312	22494.91
259.773	27731.16
260.233	23467.71
260.694	19793.15
261.154	22399.11
261.614	17982.36
262.074	16059.67
262.534	16686.92
262.994	15714.1
263.455	20906.74
263.915	17604.49
264.374	16558.57
264.834	18051.65
265.294	19975.03
265.754	20704.63
266.214	19604.13
266.673	18336.01
267.133	23105.22
267.593	22884.71
268.052	27964.4
268.512	24310.48
268.971	29300.92
269.431	32098.15
269.89	28767.1
270.349	43070.6
270.809	47965.42
271.268	43117.87
271.727	96624.97
272.186	62569.27
272.645	46933.87
273.104	33859.56
273.563	48907.33
274.022	38412.47
274.481	32698.26
274.94	25154.62
275.399	18670.9
275.857	21733.8
276.316	29336.15
276.775	26069.72
277.233	25673.45
277.692	24010.93
278.15	27135.8
278.609	27950.61
279.067	25852.92
279.525	23993.48
279.984	30966
280.442	37214.18
280.9	36665.03
281.358	24119.77
281.816	22494.43
282.274	22030.41
282.732	22753
283.19	22880.31
283.648	19743.26
284.106	21034.53
284.564	21384.67
285.021	19845.2
285.479	14797.64
285.937	13440.35
286.394	11790.25
286.852	12120.9
287.309	12720.5
287.767	12307.61
288.224	11709.92
288.682	12840.84
289.139	14097.16
289.596	12896.1
290.053	13373.63
290.511	16829.64
290.968	20388.08
291.425	27580.31
291.882	22944.08
292.339	19936.82
292.796	19744.09
293.252	18565.27
293.709	14748.06
294.166	13196.27
294.623	14568.26
295.079	13970.31
295.536	14040.61
295.992	12736.38
296.449	12620.95
296.905	13118.95
297.362	12596.13
297.818	13243.19
298.274	13745.29
298.731	13977.79
299.187	13817.65
299.643	14835.75
300.099	17947.37
300.555	19684.86
301.011	16440.45
301.467	15867.26
301.923	18539.11
302.379	18110.48
302.835	17757.61
303.291	17763.94
303.746	20205.98
304.202	25525.18
304.658	25604.35
305.113	17198.09
305.569	16824.87
306.024	17956.36
306.479	17058.13
306.935	14405.69
307.39	15692.64
307.845	14502.46
308.301	14603.46
308.756	14234.43
309.211	13707.7
309.666	14035.37
310.121	17436.47
310.576	17700.41
311.031	17522.16
311.486	20064.72
311.94	20019.27
312.395	26777.19
312.85	50311.7
313.305	246369.98
313.759	1275981.72
314.214	92596.46
314.668	73478.85
315.123	61852.11
315.577	22208.71
316.032	19796.96
316.486	24766.34
316.94	19531.29
317.394	13582.54
317.849	10554.13
318.303	9994.09
318.757	9421.6
319.211	10403.94
319.665	9077.45
320.119	9180.44
320.572	13135.12
321.026	12246.58
321.48	10178.19
321.934	11085.11
322.387	11094.61
322.841	11967.39
323.295	10768.7
323.748	12386.92
324.202	12541.69
324.655	15081.53
325.108	21100.06
325.562	14893.38
326.015	17684.1
326.468	13379.84
326.921	14971.07
327.374	13968.45
327.827	14542.31
328.28	16466.31
328.733	11016.48
329.186	9701
329.639	9230.73
330.092	7757
330.545	7390.71
330.997	7450.06
331.45	8148.67
331.903	9555.41
332.355	16432.02
332.808	15959.6
333.26	13145.48
333.713	14308.53
334.165	14390.31
334.617	19237.79
335.069	15527.8
335.522	28068.36
335.974	31056.1
336.426	28311.32
336.878	19508.46
337.33	9904.24
337.782	9652.88
338.234	12088.14
338.686	14442.7
339.137	17123.05
339.589	16099.01
340.041	12600.29
340.493	10856.34
340.944	11127.07
341.396	11994.47
341.847	10107.39
342.299	11931.42
342.75	14585.22
343.201	12721.82
343.653	14632.81
344.104	17966.75
344.555	14151.62
345.006	22042.23
345.457	16841.71
345.908	13341.8
346.359	12544.24
346.81	10239.46
347.261	10773.09
347.712	10595.77
348.163	11370.2
348.613	11505.97
349.064	10750.37
349.515	9409.16
349.965	9658.54
350.416	11624.49
350.866	12815.11
351.317	14500.71
351.767	23942.75
352.217	30198.85
352.668	25101.91
353.118	22980.58
353.568	22116.81
354.018	17518.5
354.468	18507.26
354.918	13266.67
355.368	11609.66
355.818	16364.25
356.268	46995.29
356.718	196884.59
357.168	49097.93
357.617	24640.16
358.067	27423.52
358.517	25766.11
358.966	30171.91
359.416	33836.61
359.865	36614.97
360.315	43636.63
360.764	20367.15
361.213	11409.01
361.663	10795.39
362.112	13295.99
362.561	21442.05
363.01	16177.05
363.459	13570.97
363.908	14676.13
364.357	12456.41
364.806	20993.02
365.255	14402.44
365.703	13203.38
366.152	13235.33
366.601	10720.83
367.05	8715.63
367.498	7930.71
367.947	8277
368.395	8609
368.844	7621.29
369.292	9159.72
369.74	6342.21
370.189	9713.79
370.637	11378.11
371.085	9825.68
371.533	12000.55
371.981	11554.51
372.429	11036.51
372.877	11486.32
373.325	9631.15
373.773	9804.53
374.221	8724.68
374.669	10798.07
375.116	9327.21
375.564	9375.73
376.012	10443.58
376.459	8619.2
376.907	10296.47
377.354	12416.4
377.801	11614.28
378.249	13339.52
378.696	17025.13
379.143	20652.92
379.591	21936.18
380.038	37233.12
380.485	26957.25
380.932	29173.66
381.379	26683.79
381.826	19682.05
382.273	13955.41
382.72	12134.33
383.166	11849.71
383.613	7689.77
384.06	6929.72
384.506	8033.94
384.953	5881.99
385.4	5936.2
385.846	5203.56
386.292	5058.22
386.739	4954.61
387.185	4904.66
387.631	4923.59
388.078	4779.67
388.524	5121.94
388.97	4722.67
389.416	3954.92
389.862	4216.88
390.308	3994.38
390.754	4053.94
391.2	4405.73
391.645	4513.75
392.091	4355.26
392.537	4220.16
392.983	4240.43
393.428	4205.39
393.874	4526.24
394.319	4565.16
394.765	4355.7
395.21	4474.26
395.655	4220.4
396.101	3971.78
396.546	3596.48
396.991	3620.91
397.436	3382.49
397.881	3272.08
398.326	3092.8
398.771	2945.21
399.216	2577.42
399.661	2323.61
400.106	2338.77
400.551	2403.78
400.995	2166.48
401.44	2151.61
401.885	2029.65
402.329	2052.04
402.774	1970.94
403.218	1925.11
403.663	1856.86
404.107	1919.38
404.551	1939.7
404.995	1782.58
405.44	1721.32
405.884	1746.71
406.328	1690.68
406.772	1689.62
407.216	1548.97
407.66	1503.41
408.104	1424.65
408.547	1335.72
408.991	1291.63
409.435	1244.02
409.879	1229.76
410.322	1217.21
410.766	1182.18
411.209	1129.76
411.653	1089.1
412.096	1067.36
412.54	1068.63
412.983	1062.96
413.426	1070.74
413.869	1071.89
414.312	1056.87
414.756	1019.33
415.199	974.6
415.642	946.99
416.085	948.38
416.527	939.23
416.97	951.59
417.413	904.95
417.856	894.9
418.298	883.9
418.741	879.06
419.184	876.39
419.626	911.66
420.069	913.59
420.511	919.86
420.953	902.54
421.396	895.91
421.838	874.84
422.28	897.75
422.722	906.05
423.164	921.2
423.606	906.22
424.048	903.02
424.49	859.59
424.932	850.41
425.374	836.69
425.816	850.06
426.258	866.06
426.699	874.95
427.141	861.95
427.582	871.15
428.024	866.11
428.465	858.22
428.907	838.33
429.348	826.22
429.789	830.52
430.231	814.95
430.672	827.33
431.113	808.22
431.554	796.3
431.995	777.85
432.436	753.42
432.877	737.42
433.318	728.09
433.759	725.36
434.2	727.35
434.64	718.08
435.081	720.92
435.522	682.91
435.962	658.87
436.403	645.83
436.843	652.74
437.284	638.06
437.724	620.66
438.164	621.79
438.604	608.41
439.045	585.71
439.485	563.41
439.925	551.43
440.365	538.32
440.805	532.08
441.245	530.11
441.685	513
442.125	510.49
442.564	516.26
443.004	505.81
443.444	506.17
443.883	509.99
444.323	506.9
444.762	509.17
445.202	516.31
445.641	529.29
446.081	524.69
446.52	530.45
446.959	528.81
447.398	518.94
447.837	517.21
448.276	510.36
448.716	517.5
449.154	524.54
449.593	514.38
450.032	514.43
450.471	504.9
450.91	508.18
451.349	508.49
451.787	506.95
452.226	514.59
452.664	514.4
453.103	517.64
453.541	516.41
453.98	518.17
454.418	524.11
454.856	518.48
455.295	519.5
455.733	524.46
456.171	528.44
456.609	531.59
457.047	531.92
457.485	541.75
457.923	543.4
458.361	537.81
458.798	539.03
459.236	537.22
459.674	540.22
460.111	543.42
460.549	538.73
460.987	536.95
461.424	534.21
461.862	532.12
462.299	523.05
462.736	522.42
463.173	523.64
463.611	519.74
464.048	518.6
464.485	523.85
464.922	518.65
465.359	515.63
465.796	513.17
466.233	510.16
466.67	507.29
467.106	508.05
467.543	502.49
467.98	496.74
468.416	484.23
468.853	481.11
469.29	467
469.726	463.27
470.162	451.05
470.599	441.94
471.035	437.43
471.471	426.42
471.907	423.51
472.344	421.92
472.78	424.19
473.216	428.84
473.652	424.9
474.088	425.18
474.523	424.42
474.959	429.39
475.395	426.34
475.831	425.4
476.266	427.79
476.702	426.8
477.138	423.45
477.573	421.47
478.008	420.62
478.444	422.36
478.879	426.85
479.314	429.32
479.75	429.74
480.185	432.24
480.62	436.46
481.055	440.08
481.49	443.6
481.925	449.72
482.36	459.56
482.795	472.17
483.229	485.18
483.664	496.11
484.099	498.87
484.534	506.95
484.968	512.3
485.403	513.83
485.837	513.5
486.271	514.15
486.706	516.15
487.14	510.09
487.574	503.69
488.009	500.99
488.443	497.05
488.877	503.29
489.311	506.43
489.745	514.27
490.179	521.42
490.613	533.95
491.046	539.58
491.48	545.83
491.914	549.39
492.348	556.09
492.781	562.2
493.215	567
493.648	569.84
494.082	577.63
494.515	581.5
494.948	591.32
495.382	598.06
495.815	606.18
496.248	614.41
496.681	630.34
497.114	644.47
497.547	657.06
497.98	673.11
498.413	684.48
498.846	697.85
499.279	711.11
499.711	720.05
500.144	727.6
500.577	743.17
501.009	759.6
501.442	774.29
501.874	782.35
502.306	790.48
502.739	804.9
503.171	824.99
503.603	834.63
504.036	849.65
504.468	861.54
504.9	879.08
505.332	891.48
505.764	902.03
506.196	914.59
506.627	934.27
507.059	955.18
507.491	969.67
507.923	974.51
508.354	995.77
508.786	1011.91
509.217	1035.8
509.649	1057.18
510.08	1082.29
510.512	1105.81
510.943	1127.16
511.374	1146.13
511.805	1172.22
512.237	1198.13
512.668	1237.02
513.099	1271.34
513.53	1306.61
513.961	1334.01
514.391	1373.53
514.822	1414.84
515.253	1457.01
515.684	1488.97
516.114	1524.07
516.545	1548.85
516.975	1580.27
517.406	1602.27
517.836	1607.42
518.267	1616.01
518.697	1639.1
519.127	1645.23
519.558	1654.5
519.988	1659.75
520.418	1671.2
520.848	1691.58
521.278	1703.74
521.708	1719.81
522.138	1733.94
522.567	1769.15
522.997	1797.93
523.427	1814.33
523.857	1833.42
524.286	1845.82
524.716	1862.51
525.145	1884.79
525.575	1897
526.004	1912.56
526.433	1909.07
526.863	1910.17
527.292	1897.59
527.721	1903.86
528.15	1910.2
528.579	1909.6
529.008	1919.49
529.437	1945.17
529.866	1959.33
530.295	1977.16
530.724	1991.22
531.152	2020.76
531.581	2035.86
532.01	2055.81
532.438	2064.38
532.867	2080.76
533.295	2101.21
533.723	2109.16
534.152	2106.24
534.58	2107.17
535.008	2089.89
535.436	2091.45
535.865	2100.31
536.293	2117.09
536.721	2135.53
537.149	2164.05
537.576	2167.11
538.004	2182.18
538.432	2190.41
538.86	2188.71
539.287	2196.36
539.715	2212.75
540.143	2216.15
540.57	2211.99
540.998	2206.75
541.425	2180.41
541.852	2157.57
542.28	2154.99
542.707	2135.52
543.134	2120.14
543.561	2115.39
543.988	2106.02
544.415	2104.56
544.842	2097.54
545.269	2088.24
545.696	2090.66
546.123	2104.58
546.549	2090.88
546.976	2076.42
547.403	2075.55
547.829	2077.45
548.256	2079.02
548.682	2074.46
549.108	2065.1
549.535	2064.7
549.961	2067.79
550.387	2052.43
550.813	2045.68
551.24	2052.94
551.666	2054.08
552.092	2043.23
552.518	2034.75
552.943	2027.89
553.369	2036.59
553.795	2042.38
554.221	2042.89
554.646	2038.62
555.072	2050.73
555.498	2057
555.923	2068.82
556.349	2084.88
556.774	2094.83
557.199	2097.44
557.625	2104.55
558.05	2097.92
558.475	2111.72
558.9	2111.15
559.325	2102.37
559.75	2096.1
560.175	2089.07
560.6	2081.85
561.025	2080.93
561.449	2083.06
561.874	2090.57
562.299	2096.6
562.723	2105.26
563.148	2093.71
563.572	2099.64
563.997	2112.48
564.421	2119.72
564.846	2121.27
565.27	2126.33
565.694	2124.39
566.118	2139.79
566.542	2148.64
566.966	2142.44
567.39	2138.99
567.814	2127.36
568.238	2127.67
568.662	2135.01
569.086	2139.81
569.509	2150.46
569.933	2133.05
570.357	2126.5
570.78	2102.54
571.204	2089.21
571.627	2078.9
572.05	2077.67
572.474	2079.19
572.897	2065.97
573.32	2057.09
573.743	2046.19
574.166	2025.06
574.589	2026.5
575.012	2018.28
575.435	2018.41
575.858	2007.87
576.281	1994.81
576.704	1976.38
577.126	1961.4
577.549	1948.46
577.972	1937.68
578.394	1925.1
578.817	1917.23
579.239	1895.63
579.661	1878.58
580.084	1859.97
580.506	1844.28
580.928	1839.11
581.35	1827.2
581.772	1822.56
582.194	1807.62
582.616	1791.92
583.038	1776.39
583.46	1763.51
583.882	1760.18
584.303	1766.87
584.725	1760.72
585.147	1762.36
585.568	1775.15
585.99	1787.77
586.411	1795.47
586.833	1811.9
587.254	1814.5
587.675	1829.95
588.096	1844.7
588.518	1839.04
588.939	1818.27
589.36	1817.67
589.781	1806.88
590.202	1773.66
590.623	1764.91
591.043	1762.93
591.464	1748.76
591.885	1744.33
592.305	1738.12
592.726	1722.11
593.147	1723.4
593.567	1717.26
593.987	1708.03
594.408	1702.56
594.828	1700.82
595.248	1693.72
595.669	1672.41
596.089	1664.36
596.509	1657.2
596.929	1641.45
597.349	1642.83
597.769	1630.85
598.189	1624.22
598.608	1625.58
599.028	1627.81
599.448	1628.15
599.867	1613.79
600.287	1608.14
600.706	1602.84
601.126	1591.93
601.545	1590.64
601.965	1588.78
602.384	1582.34
602.803	1584.26
603.222	1578.3
603.641	1569.47
604.061	1564.01
604.48	1559.17
604.898	1568.36
605.317	1573.27
605.736	1574.16
606.155	1570.25
606.574	1559.66
606.992	1565.48
607.411	1560.6
607.829	1550.49
608.248	1545.86
608.666	1541.83
609.085	1540.23
609.503	1528.69
609.921	1520.96
610.339	1522.94
610.758	1520.72
611.176	1513.9
611.594	1501.48
612.012	1496.88
612.43	1499.2
612.847	1506.28
613.265	1506.04
613.683	1508.6
614.101	1509.85
614.518	1504.97
614.936	1492.03
615.353	1473.94
615.771	1468.95
616.188	1469.63
616.606	1464.57
617.023	1455.42
617.44	1437.89
617.857	1430.58
618.274	1420.89
618.691	1412.2
619.108	1399.79
619.525	1391.5
619.942	1398.94
620.359	1401.83
620.776	1395.21
621.192	1390.39
621.609	1387.43
622.026	1393.72
622.442	1399.32
622.859	1402.89
623.275	1395.9
623.691	1401.78
624.108	1415.07
624.524	1430.84
624.94	1429.09
625.356	1439.57
625.772	1453.65
626.188	1467.88
626.604	1470.46
627.02	1465.07
627.436	1461.87
627.852	1468.46
628.268	1483.11
628.683	1473.46
629.099	1463.2
629.514	1458.5
629.93	1462.34
630.345	1465.85
630.761	1460.02
631.176	1463.46
631.591	1457.8
632.007	1451.36
632.422	1448.09
632.837	1434.01
633.252	1430.52
633.667	1418.87
634.082	1408.68
634.497	1393.29
634.911	1371.07
635.326	1366.37
635.741	1345.92
636.155	1332.57
636.57	1332.71
636.984	1332.01
637.399	1332.98
637.813	1331.5
638.228	1328.97
638.642	1331.82
639.056	1320.68
639.47	1319.72
639.884	1307.85
640.298	1299.94
640.712	1297.56
641.126	1282.32
641.54	1271.67
641.954	1263.97
642.368	1247.65
642.781	1236.38
643.195	1214.72
643.609	1211.46
644.022	1202.21
644.436	1196.19
644.849	1180.26
645.262	1163.84
645.676	1161.87
646.089	1152.24
646.502	1132.6
646.915	1124.12
647.328	1103.67
647.741	1099.33
648.154	1082.08
648.567	1075.42
648.98	1058.72
649.393	1054.96
649.805	1049.14
650.218	1037.81
650.631	1018.84
651.043	1009.68
651.456	1000.63
651.868	997.47
652.28	1011.18
652.693	1021.82
653.105	1024.5
653.517	1031.51
653.929	1028.48
654.341	1029.53
654.753	1013.49
655.165	1016.13
655.577	1009.21
655.989	1000.94
656.401	988.97
656.813	948.01
657.224	924.11
657.636	891.43
658.047	867.3
658.459	843.53
658.87	829.28
659.282	812.73
659.693	787.48
660.104	768.06
660.515	748.88
660.926	741.02
661.338	732.47
661.749	719.73
662.159	705.82
662.57	695.03
662.981	684.35
663.392	671
663.803	667.47
664.213	657.82
664.624	647.09
665.035	642.52
665.445	624.75
665.855	613.05
666.266	601.13
666.676	593.64
667.086	581.71
667.497	577.04
667.907	568.26
668.317	557.06
668.727	552.13
669.137	549.42
669.547	544.3
669.956	542.14
670.366	540.61
670.776	539.4
671.186	539.84
671.595	540.56
672.005	540.05
672.414	537.86
672.824	535.81
673.233	535.93
673.642	536.9
674.052	538.93
674.461	540.97
674.87	543.61
675.279	540.9
675.688	541.42
676.097	541.69
676.506	538.98
676.915	548.71
677.323	550.36
677.732	549.52
678.141	549.64
678.549	542.45
678.958	543.05
679.366	543.67
679.775	548.97
680.183	559.8
680.592	566.7
681	575.24
681.408	574.89
681.816	585.57
682.224	598.45
682.632	612.6
683.04	643.02
683.448	669.44
683.856	703
684.264	741.88
684.671	778.2
685.079	823.41
685.487	873.08
685.894	938.78
686.302	997.93
686.709	1051.25
687.116	1112.09
687.524	1166.06
687.931	1217.02
688.338	1261.27
688.745	1301.62
689.152	1344.94
689.559	1401.58
689.966	1456.68
690.373	1490.68
690.78	1542.9
691.187	1616.24
691.593	1674.05
692	1724.93
692.407	1795.9
692.813	1881.6
693.22	1949.96
693.626	2021.47
694.032	2076.47
694.439	2159.36
694.845	2224.68
695.251	2305.19
695.657	2376.53
696.063	2481.91
696.469	2559.16
696.875	2630.39
697.281	2669.55
697.687	2719.05
698.093	2756.68
698.498	2834.87
698.904	2892.94
699.31	2982.35
