Data from N_2_DEC_NC_4N_Splice17_12-25-18-407.txt Node
Date: Sat Mar 14 12:25:18 EDT 2020
User: sa697716
Spectrometer: FLMS03696
Trigger mode: 0
Integration Time (sec): 3.180400E-1
Scans to average: 20
Electric dark correction enabled: true
Nonlinearity correction enabled: true
Boxcar width: 5
XAxis mode: Wavelengths
Number of Pixels in Spectrum: 2048
>>>>>Begin Spectral Data<<<<<
187.83	-412733.97
188.298	2914.31
188.766	1451.58
189.233	1288.03
189.701	1925.76
190.169	2594.35
190.636	1008.95
191.104	746.22
191.571	145.75
192.039	-49.05
192.506	-97.11
192.974	326.09
193.441	-537.29
193.908	-235.42
194.375	-128.85
194.842	41.01
195.31	120.14
195.777	153.11
196.244	347.53
196.711	452.23
197.177	545.25
197.644	760.04
198.111	1315.01
198.578	1890.61
199.045	1552.49
199.511	2545.43
199.978	2911.56
200.445	2469.09
200.911	2734.75
201.378	3028.36
201.844	2723.53
202.31	4669.82
202.777	4900
203.243	2752.88
203.709	2598.84
204.176	3054.76
204.642	2505.88
205.108	2348.42
205.574	1900.73
206.04	1748.64
206.506	1628.63
206.972	1542.54
207.438	1490.91
207.903	1691.5
208.369	1458.12
208.835	1456.11
209.301	1520.87
209.766	1560.66
210.232	1543.95
210.697	1915.73
211.163	2357.05
211.628	3587.64
212.094	3015.07
212.559	3737.84
213.024	2336.28
213.49	2861.3
213.955	2785.19
214.42	2705.84
214.885	2520.9
215.35	2436.1
215.815	2361.54
216.28	2488.46
216.745	2017.04
217.21	2166.47
217.675	1960.52
218.14	2193.86
218.604	2439.48
219.069	2785.15
219.534	2934.05
219.998	3406.3
220.463	4090
220.927	5001.11
221.392	4732.28
221.856	4792.8
222.32	6023.07
222.785	7449.81
223.249	9352.2
223.713	10436.28
224.177	10418.19
224.642	13321.28
225.106	16367.14
225.57	17926.06
226.034	13334.12
226.497	20209.64
226.961	18222.26
227.425	21225.54
227.889	23499.18
228.353	23495.26
228.816	48471.02
229.28	46284.26
229.744	39080.48
230.207	23726.4
230.671	23296.84
231.134	38478.08
231.597	44343.17
232.061	44286.88
232.524	43099.33
232.987	29608.8
233.45	26622.06
233.914	23826.02
234.377	24368
234.84	22225.57
235.303	26152.94
235.766	29171.02
236.229	30063.81
236.691	18861.73
237.154	21140.75
237.617	15901.36
238.08	16273.72
238.542	18985.9
239.005	13575.11
239.468	13468.94
239.93	12700.43
240.393	11545
240.855	10117.29
241.317	10354.55
241.78	12604.58
242.242	13016.33
242.704	14048.05
243.166	12229.06
243.629	11115.17
244.091	12775.69
244.553	13973.19
245.015	15002.41
245.477	19390.06
245.939	28371.86
246.4	30071.78
246.862	29174.14
247.324	27480.53
247.786	30659.41
248.247	40141.43
248.709	41369.94
249.17	30875.52
249.632	29099.39
250.093	33651.12
250.555	29016.16
251.016	17689.87
251.477	16757.67
251.939	18063.94
252.4	18935
252.861	22483.78
253.322	20867.52
253.783	24794.87
254.244	32141.1
254.705	25311.49
255.166	22498.25
255.627	22101.18
256.088	31151.64
256.549	33064.48
257.009	28433.86
257.47	34443.15
257.931	28021.82
258.391	21008.5
258.852	21634.42
259.312	22658.57
259.773	27944.3
260.233	23610.23
260.694	19937.73
261.154	22606.14
261.614	18150.06
262.074	16230.63
262.534	16841.5
262.994	15866.57
263.455	21112.07
263.915	17762.67
264.374	16710.3
264.834	18222.2
265.294	20173.44
265.754	20866.62
266.214	19715.18
266.673	18445.17
267.133	23244.5
267.593	23051.25
268.052	28168.38
268.512	24458.56
268.971	29522.37
269.431	32383.16
269.89	28964.07
270.349	43376.78
270.809	48251.64
271.268	43368.71
271.727	97128.13
272.186	62864.95
272.645	47113.58
273.104	33964.11
273.563	49190.44
274.022	38593.68
274.481	32804.93
274.94	25272.78
275.399	18760.71
275.857	21837.96
276.316	29494.13
276.775	26230.32
277.233	25808.48
277.692	24156.13
278.15	27338.57
278.609	28094.09
279.067	26000.95
279.525	24153.45
279.984	31174.03
280.442	37434.03
280.9	36919.62
281.358	24279.23
281.816	22644.36
282.274	22192.23
282.732	22926.03
283.19	23017.44
283.648	19871.79
284.106	21157.02
284.564	21495.63
285.021	19961.6
285.479	14882.36
285.937	13542.51
286.394	11875.62
286.852	12204.95
287.309	12817.76
287.767	12371.25
288.224	11759.99
288.682	12903.06
289.139	14156.91
289.596	12943.4
290.053	13411.56
290.511	16909.53
290.968	20456.02
291.425	27717.89
291.882	23084.67
292.339	20067.86
292.796	19876.87
293.252	18686.04
293.709	14817.69
294.166	13281.33
294.623	14664.17
295.079	14047.08
295.536	14104.92
295.992	12791.87
296.449	12655.32
296.905	13143.9
297.362	12615.47
297.818	13254.19
298.274	13766.89
298.731	14012.7
299.187	13825.19
299.643	14830.99
300.099	17950.35
300.555	19673.83
301.011	16435.12
301.467	15836.54
301.923	18472.6
302.379	18005.34
302.835	17692.97
303.291	17683.54
303.746	20129.76
304.202	25449.02
304.658	25550.23
305.113	17176.66
305.569	16816.23
306.024	17930.07
306.479	17034.66
306.935	14382.78
307.39	15695.64
307.845	14484.09
308.301	14599.38
308.756	14206.05
309.211	13698.68
309.666	14034.63
310.121	17429.56
310.576	17677.41
311.031	17524.97
311.486	20062.96
311.94	20029.76
312.395	26760.98
312.85	50355.69
313.305	246718.28
313.759	1278545.61
314.214	92538.94
314.668	73322.86
315.123	61553.58
315.577	22076.98
316.032	19644.26
316.486	24601.72
316.94	19395.67
317.394	13524.95
317.849	10477.62
318.303	9916.85
318.757	9355.8
319.211	10328.03
319.665	9042.96
320.119	9149.31
320.572	13103.85
321.026	12230.12
321.48	10173.7
321.934	11078.1
322.387	11077.56
322.841	11992.43
323.295	10809.33
323.748	12406.15
324.202	12573.32
324.655	15088.71
325.108	21114.22
325.562	14916.54
326.015	17723.93
326.468	13418.01
326.921	15003.97
327.374	13991.36
327.827	14580.02
328.28	16486.93
328.733	11070.11
329.186	9751.29
329.639	9290.91
330.092	7824.72
330.545	7455.46
330.997	7525.47
331.45	8220.13
331.903	9651.6
332.355	16588.42
332.808	16090.14
333.26	13250.81
333.713	14369.79
334.165	14487.95
334.617	19300.59
335.069	15540.85
335.522	28054.04
335.974	30976.91
336.426	28251.2
336.878	19499.7
337.33	9890.38
337.782	9653.97
338.234	12119.94
338.686	14471.23
339.137	17082.48
339.589	16086.42
340.041	12613.39
340.493	10836.17
340.944	11087.94
341.396	11960.68
341.847	10095.58
342.299	11932.53
342.75	14619.07
343.201	12715.75
343.653	14609.33
344.104	17954.2
344.555	14113.99
345.006	21976.76
345.457	16886.45
345.908	13424.29
346.359	12646.73
346.81	10274.57
347.261	10807.86
347.712	10580.05
348.163	11367.9
348.613	11558.25
349.064	10783.48
349.515	9442.41
349.965	9678.89
350.416	11652.61
350.866	12783.6
351.317	14402.25
351.767	23847.77
352.217	30120.06
352.668	25050.55
353.118	22919.85
353.568	22046.73
354.018	17433.33
354.468	18405.41
354.918	13221.24
355.368	11535.05
355.818	16280.31
356.268	46813.66
356.718	196022.93
357.168	48773.59
357.617	24506.59
358.067	27201.39
358.517	25528.12
358.966	29984.2
359.416	33694.6
359.865	36372.32
360.315	43180.43
360.764	20195.2
361.213	11301.05
361.663	10679.92
362.112	13185.25
362.561	21247.99
363.01	16037.93
363.459	13465.39
363.908	14554.07
364.357	12366.38
364.806	20844.97
365.255	14369.68
365.703	13212.39
366.152	13260.78
366.601	10796.25
367.05	8767.04
367.498	7984.77
367.947	8345.58
368.395	8678.8
368.844	7693.89
369.292	9234.05
369.74	6415.98
370.189	9836.19
370.637	11469.35
371.085	9889.88
371.533	12026.77
371.981	11575.31
372.429	11037.96
372.877	11488.82
373.325	9625.46
373.773	9800.27
374.221	8740.38
374.669	10755.65
375.116	9255.8
375.564	9345.02
376.012	10446.02
376.459	8605.91
376.907	10282.68
377.354	12394.55
377.801	11608.17
378.249	13357.45
378.696	17028.85
379.143	20565.79
379.591	22039.94
380.038	37391.7
380.485	27037.22
380.932	29209.28
381.379	26736.27
381.826	19751.38
382.273	14035.07
382.72	12195.55
383.166	11875.22
383.613	7695.21
384.06	6933.61
384.506	8006.42
384.953	5866.71
385.4	5895.39
385.846	5154.99
386.292	5012.67
386.739	4881.44
387.185	4814.7
387.631	4827.68
388.078	4696.78
388.524	5035.64
388.97	4662.13
389.416	3901.3
389.862	4154
390.308	3943.44
390.754	4011.73
391.2	4365.43
391.645	4483.79
392.091	4331.49
392.537	4203.4
392.983	4205.15
393.428	4165.48
393.874	4482.07
394.319	4515.8
394.765	4309.62
395.21	4439.98
395.655	4186.45
396.101	3932.38
396.546	3570.79
396.991	3594.37
397.436	3347.04
397.881	3254.42
398.326	3089.74
398.771	2936.78
399.216	2572.65
399.661	2327.99
400.106	2333.01
400.551	2401.02
400.995	2162.76
401.44	2141.1
401.885	2017.73
402.329	2048.14
402.774	1972.27
403.218	1919.86
403.663	1853.27
404.107	1910.61
404.551	1928.08
404.995	1770.17
405.44	1707.58
405.884	1730.92
406.328	1676.76
406.772	1677.92
407.216	1531.64
407.66	1479.15
408.104	1404.57
408.547	1319.38
408.991	1276.86
409.435	1229.95
409.879	1219.58
410.322	1207.03
410.766	1173.76
411.209	1125.63
411.653	1081.62
412.096	1059.67
412.54	1061.6
412.983	1054.66
413.426	1060.69
413.869	1062.65
414.312	1045.52
414.756	1007.06
415.199	960.54
415.642	934.67
416.085	933.71
416.527	928.24
416.97	944.32
417.413	899.1
417.856	890.14
418.298	879.97
418.741	872.96
419.184	870.95
419.626	905.02
420.069	904.17
420.511	908.89
420.953	891.27
421.396	882.39
421.838	859.62
422.28	877.79
422.722	884.52
423.164	895.39
423.606	882.14
424.048	879.15
424.49	835.43
424.932	833.18
425.374	821.83
425.816	833.38
426.258	850.28
426.699	859.24
427.141	848.58
427.582	858.17
428.024	855.01
428.465	847.77
428.907	827.86
429.348	819.32
429.789	820.16
430.231	804.49
430.672	814.85
431.113	797.04
431.554	787.78
431.995	766.92
432.436	743.51
432.877	728.16
433.318	720.05
433.759	717.24
434.2	717.04
434.64	707.45
435.081	708.3
435.522	672.89
435.962	648.63
436.403	635.04
436.843	644.97
437.284	631.54
437.724	613.97
438.164	613
438.604	598.69
439.045	579.32
439.485	559.19
439.925	549.39
440.365	536.18
440.805	532.4
441.245	528.2
441.685	510.09
442.125	506.13
442.564	510.61
443.004	501.85
443.444	504.43
443.883	506.33
444.323	502.94
444.762	503.13
445.202	512.08
445.641	523.87
446.081	521.59
446.52	526.96
446.959	525.05
447.398	516.55
447.837	512.81
448.276	505.15
448.716	511.46
449.154	518.23
449.593	509.87
450.032	510.76
450.471	499.84
450.91	502.69
451.349	505.2
451.787	504.38
452.226	512.51
452.664	513.36
453.103	515.09
453.541	515.83
453.98	517.63
454.418	522.98
454.856	516.07
455.295	517.53
455.733	521.84
456.171	525.17
456.609	527.55
457.047	527.11
457.485	536.88
457.923	540.7
458.361	533.52
458.798	534.88
459.236	534.08
459.674	538.01
460.111	541.24
460.549	537.24
460.987	534.32
461.424	532.26
461.862	531.92
462.299	523.14
462.736	521.66
463.173	523.8
463.611	519.91
464.048	519.15
464.485	524
464.922	518.66
465.359	515.41
465.796	512.73
466.233	510.33
466.67	506.89
467.106	507.95
467.543	503.48
467.98	497.21
468.416	485.15
468.853	481.22
469.29	466.41
469.726	463.32
470.162	452.03
470.599	443.66
471.035	438.74
471.471	427.25
471.907	423.35
472.344	420.69
472.78	423.23
473.216	427.27
473.652	422.83
474.088	422.22
474.523	421.07
474.959	424.65
475.395	422.61
475.831	421.69
476.266	424.72
476.702	424.37
477.138	420.72
477.573	419.43
478.008	418.27
478.444	421.66
478.879	427.68
479.314	429.29
479.75	429.55
480.185	431.02
480.62	434.61
481.055	437.08
481.49	441.19
481.925	448.2
482.36	457.56
482.795	470.26
483.229	482.22
483.664	492.64
484.099	495.64
484.534	504.42
484.968	511.46
485.403	513.73
485.837	513.93
486.271	513.85
486.706	515.09
487.14	508.9
487.574	503.22
488.009	499.86
488.443	495.98
488.877	503.27
489.311	506.79
489.745	513.6
490.179	520.7
490.613	533.23
491.046	539.68
491.48	546.04
491.914	550.06
492.348	556.53
492.781	562.72
493.215	567.06
493.648	570.36
494.082	578.29
494.515	582.73
494.948	592.93
495.382	600
495.815	608.45
496.248	617.22
496.681	632.1
497.114	646.18
497.547	659.69
497.98	676.54
498.413	687.87
498.846	701.37
499.279	713.78
499.711	722.39
500.144	730.86
500.577	746.03
501.009	762.06
501.442	778.27
501.874	785.5
502.306	793.35
502.739	807.38
503.171	827.67
503.603	837.12
504.036	854.13
504.468	867.24
504.9	885.23
505.332	897.74
505.764	909.49
506.196	922.55
506.627	944.03
507.059	964.37
507.491	979.49
507.923	984.61
508.354	1007.02
508.786	1023.27
509.217	1047.27
509.649	1068.45
510.08	1095.08
510.512	1117.42
510.943	1139.15
511.374	1157.43
511.805	1185.42
512.237	1211.32
512.668	1249.72
513.099	1284.45
513.53	1319.18
513.961	1345.43
514.391	1384.66
514.822	1424.51
515.253	1468.95
515.684	1499.93
516.114	1535.42
516.545	1561.23
516.975	1592.27
517.406	1616.08
517.836	1621
518.267	1630.58
518.697	1654.21
519.127	1660.47
519.558	1670.25
519.988	1675.48
520.418	1688.76
520.848	1709.53
521.278	1720.26
521.708	1737.55
522.138	1751.72
522.567	1787.83
522.997	1816.36
523.427	1833.39
523.857	1852.91
524.286	1865.43
524.716	1882.35
525.145	1904.07
525.575	1916.76
526.004	1933.54
526.433	1929.5
526.863	1929.53
527.292	1916.29
527.721	1922.84
528.15	1929.82
528.579	1929.32
529.008	1940.17
529.437	1966.07
529.866	1980.98
530.295	1999.91
530.724	2012.91
531.152	2043.33
531.581	2059.35
532.01	2079.37
532.438	2088.01
532.867	2103.84
533.295	2125.96
533.723	2132.07
534.152	2129.35
534.58	2129.17
535.008	2109.95
535.436	2111.49
535.865	2120.46
536.293	2137.12
536.721	2154.61
537.149	2183.36
537.576	2185.89
538.004	2199.21
538.432	2210.94
538.86	2209.09
539.287	2215.96
539.715	2232.57
540.143	2236.19
540.57	2230.79
540.998	2226.14
541.425	2199.76
541.852	2176.05
542.28	2172.94
542.707	2154.17
543.134	2135.44
543.561	2129.8
543.988	2121.02
544.415	2119.89
544.842	2113.42
545.269	2106.32
545.696	2108.57
546.123	2123.3
546.549	2110.65
546.976	2096.71
547.403	2094.83
547.829	2097.28
548.256	2099.92
548.682	2095.95
549.108	2086.94
549.535	2085.23
549.961	2086.27
550.387	2070.51
550.813	2063.9
551.24	2071.03
551.666	2071.05
552.092	2059.55
552.518	2052.88
552.943	2044.67
553.369	2052.78
553.795	2059.06
554.221	2060.26
554.646	2057.86
555.072	2070.21
555.498	2075.88
555.923	2085.92
556.349	2104.72
556.774	2116.86
557.199	2117.33
557.625	2124.6
558.05	2117.44
558.475	2130.41
558.9	2131.36
559.325	2121.39
559.75	2113.47
560.175	2106.7
560.6	2100.91
561.025	2098.59
561.449	2100.18
561.874	2107.62
562.299	2113.68
562.723	2123.82
563.148	2112.36
563.572	2116.77
563.997	2129.46
564.421	2137.16
564.846	2138.1
565.27	2143.62
565.694	2141.44
566.118	2156.02
566.542	2167.08
566.966	2161.42
567.39	2157.42
567.814	2146.28
568.238	2147.99
568.662	2155.5
569.086	2160.22
569.509	2171.22
569.933	2153.02
570.357	2146.61
570.78	2122.65
571.204	2106.84
571.627	2094.43
572.05	2093.35
572.474	2093.93
572.897	2078.16
573.32	2070.02
573.743	2058.9
574.166	2038.32
574.589	2040.48
575.012	2031.77
575.435	2032.43
575.858	2022.67
576.281	2010.53
576.704	1991.81
577.126	1977.73
577.549	1965.95
577.972	1954.17
578.394	1941.14
578.817	1932.03
579.239	1909.26
579.661	1893.19
580.084	1872.7
580.506	1857.23
580.928	1851.52
581.35	1838.05
581.772	1832.84
582.194	1817.83
582.616	1803.3
583.038	1788.64
583.46	1775.57
583.882	1770.71
584.303	1776.3
584.725	1771.38
585.147	1773.29
585.568	1786.38
585.99	1801.12
586.411	1808.62
586.833	1825.13
587.254	1826.81
587.675	1843.23
588.096	1858.76
588.518	1853.86
588.939	1834.16
589.36	1832.59
589.781	1821.62
590.202	1789.05
590.623	1779.89
591.043	1778.13
591.464	1764.05
591.885	1760.12
592.305	1753.08
592.726	1737.94
593.147	1740.42
593.567	1733.81
593.987	1725.42
594.408	1718.28
594.828	1716.12
595.248	1708.99
595.669	1686.4
596.089	1677.94
596.509	1669.38
596.929	1654.06
597.349	1654.56
597.769	1641.95
598.189	1634.49
598.608	1635.08
599.028	1638.37
599.448	1638.98
599.867	1623.36
600.287	1618.51
600.706	1613.38
601.126	1602.41
601.545	1601.08
601.965	1598.35
602.384	1591.72
602.803	1595.33
603.222	1589.82
603.641	1580.69
604.061	1575.01
604.48	1570.01
604.898	1579.65
605.317	1585.1
605.736	1586.06
606.155	1581.48
606.574	1570.76
606.992	1576.51
607.411	1570.2
607.829	1560.76
608.248	1557
608.666	1554.04
609.085	1553.26
609.503	1541.19
609.921	1532.99
610.339	1535.97
610.758	1534.15
611.176	1527.51
611.594	1516.66
612.012	1511.17
612.43	1513.46
612.847	1519.75
613.265	1519.79
613.683	1522.82
614.101	1524.38
614.518	1518.46
614.936	1505.46
615.353	1487.19
615.771	1482.85
616.188	1481.26
616.606	1476.61
617.023	1467.61
617.44	1449.7
617.857	1440.59
618.274	1429.79
618.691	1421.53
619.108	1410.15
619.525	1401.42
619.942	1408.73
620.359	1411.82
620.776	1405.17
621.192	1400.2
621.609	1396.75
622.026	1403.58
622.442	1409.59
622.859	1413.34
623.275	1405.18
623.691	1411.16
624.108	1424.43
624.524	1440.18
624.94	1439.58
625.356	1450.5
625.772	1464.21
626.188	1476.79
626.604	1479.47
627.02	1474.55
627.436	1471.92
627.852	1478.77
628.268	1491.84
628.683	1481.05
629.099	1471.19
629.514	1465.17
629.93	1469.99
630.345	1474.96
630.761	1469.79
631.176	1471.78
631.591	1465.02
632.007	1458.87
632.422	1456.52
632.837	1444.23
633.252	1440.18
633.667	1428.75
634.082	1418.25
634.497	1402.6
634.911	1380.51
635.326	1376.41
635.741	1358.1
636.155	1346.64
636.57	1346.32
636.984	1344.87
637.399	1346.06
637.813	1345.95
638.228	1342.27
638.642	1344.89
639.056	1331.62
639.47	1330.4
639.884	1319.23
640.298	1310.16
640.712	1306.7
641.126	1291.77
641.54	1279.4
641.954	1270.55
642.368	1253.91
642.781	1243.58
643.195	1222.69
643.609	1221.63
644.022	1211.88
644.436	1203.8
644.849	1186.36
645.262	1169.24
645.676	1167.05
646.089	1158.77
646.502	1139.34
646.915	1130.71
647.328	1110.39
647.741	1104.15
648.154	1086.26
648.567	1079.61
648.98	1062.42
649.393	1060.2
649.805	1052.23
650.218	1040.93
650.631	1021.95
651.043	1012.25
651.456	1003.26
651.868	999.15
652.28	1014.28
652.693	1024.58
653.105	1027.21
653.517	1035.52
653.929	1031.89
654.341	1035.36
654.753	1019.03
655.165	1020.58
655.577	1012.97
655.989	1002.93
656.401	991.55
656.813	951.25
657.224	927.06
657.636	893.91
658.047	869.89
658.459	845.75
658.87	831.17
659.282	813.68
659.693	788.38
660.104	768.85
660.515	750.59
660.926	741.68
661.338	731.9
661.749	718.98
662.159	705.23
662.57	693.51
662.981	683.55
663.392	671.04
663.803	667.91
664.213	659.57
664.624	650.52
665.035	646.52
665.445	628.56
665.855	617.29
666.266	607.11
666.676	599.73
667.086	588.71
667.497	582.88
667.907	572.31
668.317	561.5
668.727	556.36
669.137	552.09
669.547	546.18
669.956	544.93
670.366	542.68
670.776	539.75
671.186	539.52
671.595	538.93
672.005	538.33
672.414	537.06
672.824	534.35
673.233	533.64
673.642	533.96
674.052	535.74
674.461	536.48
674.87	539.42
675.279	537.03
675.688	537.41
676.097	539.26
676.506	538.09
676.915	547.39
677.323	549.53
677.732	550.23
678.141	550.94
678.549	544.14
678.958	544.61
679.366	544.74
679.775	549.89
680.183	561.64
680.592	568.23
681	576.51
681.408	576.63
681.816	587.21
682.224	598.88
682.632	613.62
683.04	642.73
683.448	669.73
683.856	702.78
684.264	740.84
684.671	776.18
685.079	821.11
685.487	870.23
685.894	936.13
686.302	994.05
686.709	1045.73
687.116	1106.97
687.524	1162.72
687.931	1211.65
688.338	1257.3
688.745	1297.97
689.152	1342.57
689.559	1397.81
689.966	1452.92
690.373	1487.34
690.78	1541.06
691.187	1616.25
691.593	1673.68
692	1725.34
692.407	1797.54
692.813	1884.04
693.22	1953.4
693.626	2023.47
694.032	2080.92
694.439	2163.08
694.845	2229.11
695.251	2311.56
695.657	2383.54
696.063	2490.59
696.469	2568.73
696.875	2640.71
697.281	2678.82
697.687	2729.45
698.093	2770.67
