Data from N_2_DEC_VA_2N_Splice17_12-07-12-082.txt Node
Date: Sat Mar 14 12:07:12 EDT 2020
User: sa697716
Spectrometer: FLMS03696
Trigger mode: 0
Integration Time (sec): 3.180400E-1
Scans to average: 20
Electric dark correction enabled: true
Nonlinearity correction enabled: true
Boxcar width: 5
XAxis mode: Wavelengths
Number of Pixels in Spectrum: 2048
>>>>>Begin Spectral Data<<<<<
187.83	-337282.78
188.298	2393.63
188.766	1284.25
189.233	1135.43
189.701	1562.76
190.169	2084.15
190.636	789.06
191.104	618.34
191.571	93.53
192.039	-45.56
192.506	-55.13
192.974	429.24
193.441	-548.67
193.908	-9.32
194.375	-26.36
194.842	-0.06
195.31	22.71
195.777	91.17
196.244	320.81
196.711	536.68
197.177	725.72
197.644	1107.92
198.111	1953.93
198.578	2769.88
199.045	2208.39
199.511	3681.19
199.978	4328.07
200.445	3668.72
200.911	4119.45
201.378	4652.71
201.844	4205.27
202.31	7206.45
202.777	7500.48
203.243	4178.16
203.709	3940.55
204.176	4746.36
204.642	3897
205.108	3652.33
205.574	3001.87
206.04	2775.04
206.506	2586.27
206.972	2446.07
207.438	2370.69
207.903	2689.1
208.369	2351.58
208.835	2348.79
209.301	2446.27
209.766	2506.55
210.232	2490.02
210.697	3088.1
211.163	3793.11
211.628	5777.56
212.094	4844.2
212.559	5906.91
213.024	3679.53
213.49	4463.03
213.955	4372.05
214.42	4330.4
214.885	4037.12
215.35	3844.71
215.815	3656.09
216.28	3871.68
216.745	3163.39
217.21	3413.84
217.675	3166.29
218.14	3571.14
218.604	4029.16
219.069	4622.98
219.534	4825.58
219.998	5657.12
220.463	6911.04
220.927	8587.22
221.392	8104.32
221.856	8223.03
222.32	10400.78
222.785	12848.98
223.249	16216.88
223.713	18078.49
224.177	18069.41
224.642	23255.81
225.106	28546.43
225.57	31204.05
226.034	23130.56
226.497	35205.9
226.961	31726.21
227.425	36939.98
227.889	40954.97
228.353	40859.08
228.816	84375.97
229.28	80651.74
229.744	67938.17
230.207	41274.9
230.671	40508.31
231.134	67123.85
231.597	77326.34
232.061	77257.55
232.524	75346.88
232.987	51816.11
233.45	46591.81
233.914	41714.92
234.377	42706.32
234.84	39043.32
235.303	46034.37
235.766	51333.78
236.229	52939.71
236.691	33309.13
237.154	37383.23
237.617	28070.89
238.08	28746.45
238.542	33637.77
239.005	24040.97
239.468	23846.4
239.93	22450.33
240.393	20378.26
240.855	17880.64
241.317	18315.26
241.78	22281.16
242.242	23005.41
242.704	24805.98
243.166	21562.04
243.629	19520.98
244.091	22459.66
244.553	24568.19
245.015	26347.37
245.477	34049.48
245.939	49856.21
246.4	52794.38
246.862	51252.16
247.324	48273.34
247.786	53940.48
248.247	70683.94
248.709	72982.03
249.17	54494.66
249.632	51275.29
250.093	59349.53
250.555	51140.36
251.016	31121.38
251.477	29492.99
251.939	31771.91
252.4	33299.9
252.861	39586.11
253.322	36739.92
253.783	43700.89
254.244	56628.87
254.705	44589.36
255.166	39643.7
255.627	39016.06
256.088	55018.52
256.549	58372.41
257.009	50244.29
257.47	61002.66
257.931	49655.69
258.391	37236.22
258.852	38384.42
259.312	40283.76
259.773	49789.75
260.233	42045.11
260.694	35454.69
261.154	40205
261.614	32236.3
262.074	28822.46
262.534	29946.22
262.994	28211.75
263.455	37570.01
263.915	31618.12
264.374	29748.09
264.834	32463.94
265.294	36003.25
265.754	37288.13
266.214	35279.61
266.673	33055.11
267.133	41720.09
267.593	41316.92
268.052	50458.17
268.512	43829.84
268.971	52810
269.431	57927.35
269.89	51845.75
270.349	77643.59
270.809	86490.75
271.268	77695.51
271.727	174184.94
272.186	112708.64
272.645	84513.66
273.104	61057.21
273.563	88414.27
274.022	69548.77
274.481	59050.37
274.94	45475.79
275.399	33811.48
275.857	39363.23
276.316	53250.71
276.775	47402.09
277.233	46660.98
277.692	43638.52
278.15	49291.24
278.609	50659.01
279.067	46874.46
279.525	43553.05
279.984	56219.46
280.442	67484.64
280.9	66491.27
281.358	43743.6
281.816	40729.84
282.274	39891.58
282.732	41275.54
283.19	41507.64
283.648	35853.11
284.106	38213.07
284.564	38887.74
285.021	36080.54
285.479	26912.4
285.937	24510.88
286.394	21493.07
286.852	22146.37
287.309	23278.58
287.767	22459.34
288.224	21356.68
288.682	23433.69
289.139	25667.6
289.596	23475.58
290.053	24369.18
290.511	30746.09
290.968	37214.2
291.425	50482.96
291.882	41940.92
292.339	36417.11
292.796	36111.13
293.252	33981.61
293.709	26960.99
294.166	24160.08
294.623	26692.12
295.079	25619.17
295.536	25685.67
295.992	23317.67
296.449	23042.57
296.905	23942.8
297.362	22970.93
297.818	24169.65
298.274	25055.1
298.731	25530.1
299.187	25264.96
299.643	27111.51
300.099	32758.82
300.555	35929.02
301.011	30010.49
301.467	28898.43
301.923	33820.07
302.379	33013.16
302.835	32405.18
303.291	32458.46
303.746	36932.35
304.202	46636.47
304.658	46818.8
305.113	31507.16
305.569	30888.85
306.024	32957.27
306.479	31417.34
306.935	26487.44
307.39	28938.73
307.845	26715.69
308.301	26863.89
308.756	26163.59
309.211	25230.29
309.666	25840.22
310.121	32084.73
310.576	32571.38
311.031	32308.7
311.486	37029.35
311.94	37032.36
312.395	49586.84
312.85	93296.59
313.305	458846.34
313.759	2377587.41
314.214	172118.43
314.668	136497.31
315.123	114775.08
315.577	41155.39
316.032	36614.06
316.486	45845.14
316.94	36123.3
317.394	25093.75
317.849	19477.97
318.303	18441.01
318.757	17369.28
319.211	19228.37
319.665	16832.26
320.119	17017.82
320.572	24401.31
321.026	22779.83
321.48	18949.55
321.934	20673.16
322.387	20752.16
322.841	22409.1
323.295	20105.34
323.748	23183.74
324.202	23475.03
324.655	28161.35
325.108	39343.5
325.562	27772.6
326.015	32998.43
326.468	24964.09
326.921	27909.74
327.374	26013.3
327.827	27060.86
328.28	30646.72
328.733	20542.88
329.186	18088.85
329.639	17239.69
330.092	14538.12
330.545	13855.63
330.997	13967.43
331.45	15219.5
331.903	17829.24
332.355	30637.98
332.808	29804.63
333.26	24620.84
333.713	26723.44
334.165	26911.28
334.617	35921.59
335.069	29036.48
335.522	52565.64
335.974	58278.64
336.426	53343.55
336.878	37029.01
337.33	18780.45
337.782	18366.14
338.234	23018.95
338.686	27585.44
339.137	32694.56
339.589	30803.27
340.041	24124.74
340.493	20731
340.944	21209.74
341.396	22855.73
341.847	19167.03
342.299	22608.6
342.75	27560.11
343.201	24112.5
343.653	27669.23
344.104	33978.38
344.555	26704.66
345.006	41632.16
345.457	31843.51
345.908	25291.6
346.359	23749.03
346.81	19353.67
347.261	20381.55
347.712	20077.76
348.163	21473.52
348.613	21708.27
349.064	20277.62
349.515	17747.74
349.965	18162.8
350.416	21885.01
350.866	24083.26
351.317	27243.43
351.767	45132.33
352.217	57056.18
352.668	47304.16
353.118	43309.43
353.568	41835.4
354.018	33044.14
354.468	34871.2
354.918	25024.32
355.368	21883.65
355.818	30857.51
356.268	88803.04
356.718	371204.27
357.168	92395.47
357.617	46431.14
358.067	51756.85
358.517	48504.47
358.966	56870.2
359.416	63815.28
359.865	69042.61
360.315	82150.55
360.764	38364.58
361.213	21507.68
361.663	20412.32
362.112	25207.46
362.561	40747.61
363.01	30722.91
363.459	25865.68
363.908	28013.34
364.357	23799.16
364.806	40141.95
365.255	27618.75
365.703	25320.53
366.152	25388.89
366.601	20579.84
367.05	16703.55
367.498	15172.17
367.947	15854.44
368.395	16486.29
368.844	14612.53
369.292	17634
369.74	12207.92
370.189	18716.27
370.637	21928.43
371.085	18944.65
371.533	23100.59
371.981	22310.13
372.429	21276.5
372.877	22220.16
373.325	18638.02
373.773	19052.51
374.221	17028.41
374.669	21175.08
375.116	18367.74
375.564	18587.73
376.012	20800.01
376.459	17171.87
376.907	20582.44
377.354	25000.41
377.801	23366.06
378.249	26933.97
378.696	34564.89
379.143	41967.2
379.591	44999.33
380.038	76462.6
380.485	55489.58
380.932	60326.23
381.379	55537.49
381.826	41101.65
382.273	29393.14
382.72	25870.43
383.166	25411.84
383.613	16562.5
384.06	15034.74
384.506	17501.85
384.953	12944.93
385.4	13112.47
385.846	11570.47
386.292	11371.78
386.739	11234.58
387.185	11199.44
387.631	11285.94
388.078	11013.91
388.524	11879.84
388.97	11057.51
389.416	9281.46
389.862	9930.99
390.308	9483.66
390.754	9702.15
391.2	10612.7
391.645	10930.56
392.091	10502.58
392.537	10228.76
392.983	10333.14
393.428	10223.62
393.874	11044.9
394.319	11159.39
394.765	10636.34
395.21	11021.94
395.655	10397.87
396.101	9787.64
396.546	8871.61
396.991	9005.54
397.436	8397.88
397.881	8138.01
398.326	7743.28
398.771	7333.8
399.216	6428.96
399.661	5817.66
400.106	5800.42
400.551	5948.84
400.995	5341.86
401.44	5289.04
401.885	4972.14
402.329	5019.39
402.774	4816.99
403.218	4648.39
403.663	4481.87
404.107	4603.49
404.551	4626.21
404.995	4239.62
405.44	4080.55
405.884	4142.51
406.328	4013.9
406.772	4000.91
407.216	3641.26
407.66	3519.88
408.104	3347.12
408.547	3127.29
408.991	3024.39
409.435	2908.49
409.879	2863.59
410.322	2822.99
410.766	2719.23
411.209	2575.88
411.653	2467.1
412.096	2412.31
412.54	2406.9
412.983	2387.51
413.426	2387.63
413.869	2383.22
414.312	2336.24
414.756	2250.29
415.199	2145.66
415.642	2079.91
416.085	2080.58
416.527	2064.98
416.97	2094.32
417.413	1984.18
417.856	1963.62
418.298	1944.5
418.741	1929.97
419.184	1924.61
419.626	2005.82
420.069	2003.14
420.511	2010.63
420.953	1964.41
421.396	1944.06
421.838	1894.2
422.28	1933.91
422.722	1936.18
423.164	1956.5
423.606	1918.03
424.048	1911.03
424.49	1807.74
424.932	1794.77
425.374	1771.09
425.816	1799.94
426.258	1828.37
426.699	1843.37
427.141	1811.92
427.582	1836.52
428.024	1827.17
428.465	1816
428.907	1769.18
429.348	1747.53
429.789	1740.55
430.231	1696.34
430.672	1714.09
431.113	1674.35
431.554	1648.65
431.995	1608.46
432.436	1549.23
432.877	1513.01
433.318	1483.3
433.759	1476.36
434.2	1476.15
434.64	1462.79
435.081	1468.84
435.522	1395.07
435.962	1344.55
436.403	1317.06
436.843	1337.1
437.284	1311.87
437.724	1280.53
438.164	1291.11
438.604	1266.18
439.045	1220.03
439.485	1173.27
439.925	1152.64
440.365	1127.87
440.805	1118.52
441.245	1107.49
441.685	1072.1
442.125	1071.41
442.564	1085.34
443.004	1067.59
443.444	1071.42
443.883	1080.91
444.323	1081.67
444.762	1092.69
445.202	1118.17
445.641	1145.01
446.081	1149.98
446.52	1168.64
446.959	1163.91
447.398	1141.27
447.837	1133.85
448.276	1122.45
448.716	1140.44
449.154	1158.47
449.593	1137.78
450.032	1137.88
450.471	1126.28
450.91	1135.89
451.349	1138.71
451.787	1139.94
452.226	1163.4
452.664	1169.95
453.103	1177.29
453.541	1181.43
453.98	1181.01
454.418	1193.03
454.856	1177.73
455.295	1178.39
455.733	1188.49
456.171	1199.37
456.609	1204.84
457.047	1207.73
457.485	1224.7
457.923	1226.76
458.361	1212.47
458.798	1219.7
459.236	1218.47
459.674	1230.9
460.111	1238.59
460.549	1228.37
460.987	1226.46
461.424	1223.84
461.862	1219.68
462.299	1202.18
462.736	1202.51
463.173	1207.21
463.611	1192.8
464.048	1189.04
464.485	1197.55
464.922	1186.55
465.359	1181.18
465.796	1155.79
466.233	1146.41
466.67	1134.18
467.106	1131.11
467.543	1119.59
467.98	1106.12
468.416	1078.88
468.853	1072.63
469.29	1042.17
469.726	1031.08
470.162	1005.73
470.599	1000.51
471.035	991.83
471.471	968.49
471.907	966.62
472.344	962.94
472.78	965.08
473.216	979.06
473.652	968.57
474.088	966.89
474.523	964.74
474.959	973.79
475.395	966.5
475.831	961.71
476.266	968.55
476.702	966.67
477.138	957.41
477.573	956.55
478.008	954.26
478.444	958.03
478.879	966.33
479.314	971.15
479.75	971.97
480.185	978.05
480.62	989.03
481.055	995.9
481.49	1004.58
481.925	1020.16
482.36	1036.35
482.795	1067.74
483.229	1100.25
483.664	1126.49
484.099	1133.73
484.534	1152.73
484.968	1165.53
485.403	1172.72
485.837	1174.95
486.271	1175.82
486.706	1181.26
487.14	1174.56
487.574	1159.8
488.009	1153.16
488.443	1148.66
488.877	1164.78
489.311	1174.57
489.745	1193.47
490.179	1209.81
490.613	1236.36
491.046	1254.05
491.48	1269.21
491.914	1277.3
492.348	1293.81
492.781	1308.39
493.215	1319.08
493.648	1330.15
494.082	1348.58
494.515	1357.6
494.948	1380.16
495.382	1399.65
495.815	1417.19
496.248	1437.4
496.681	1472.62
497.114	1504.39
497.547	1533.47
497.98	1566.62
498.413	1586.98
498.846	1615.73
499.279	1644.08
499.711	1663.49
500.144	1678.7
500.577	1707.34
501.009	1740.41
501.442	1768.26
501.874	1780.48
502.306	1795.73
502.739	1817.94
503.171	1858.85
503.603	1874.86
504.036	1904.63
504.468	1924.7
504.9	1957.29
505.332	1980.82
505.764	1996.09
506.196	2019.3
506.627	2057.09
507.059	2091.74
507.491	2121.33
507.923	2121.04
508.354	2157.08
508.786	2182.44
509.217	2225.14
509.649	2259.12
510.08	2303.6
510.512	2339.29
510.943	2371.58
511.374	2395.59
511.805	2438.98
512.237	2479.77
512.668	2550.98
513.099	2607.76
513.53	2663.57
513.961	2702.8
514.391	2766.73
514.822	2829.22
515.253	2901.93
515.684	2949.87
516.114	3005.69
516.545	3041.18
516.975	3088.91
517.406	3115.83
517.836	3111.51
518.267	3113.17
518.697	3138.62
519.127	3135.73
519.558	3141.87
519.988	3137.02
520.418	3149.29
520.848	3174.89
521.278	3180.68
521.708	3155.76
522.138	3168.98
522.567	3221.8
522.997	3263.22
523.427	3284.55
523.857	3307.75
524.286	3316.3
524.716	3335.61
525.145	3359.95
525.575	3368.98
526.004	3388.37
526.433	3407.82
526.863	3399.62
527.292	3368.01
527.721	3368.68
528.15	3371.36
528.579	3362.57
529.008	3375.31
529.437	3413.51
529.866	3433.21
530.295	3461.68
530.724	3479.78
531.152	3527.01
531.581	3547.01
532.01	3575.5
532.438	3587.61
532.867	3611.92
533.295	3644.32
533.723	3652.65
534.152	3644.24
534.58	3639.95
535.008	3604.8
535.436	3603.45
535.865	3615.52
536.293	3643.59
536.721	3673.93
537.149	3720.26
537.576	3721.72
538.004	3744.31
538.432	3759.35
538.86	3754.17
539.287	3769.43
539.715	3796.29
540.143	3802.72
540.57	3794.83
540.998	3786.41
541.425	3738.06
541.852	3695.66
542.28	3691.74
542.707	3659.82
543.134	3630.08
543.561	3621.02
543.988	3603.17
544.415	3601.31
544.842	3589.13
545.269	3572.72
545.696	3574.09
546.123	3599.01
546.549	3577.71
546.976	3550.85
547.403	3548.54
547.829	3550.73
548.256	3553.06
548.682	3545.04
549.108	3526.03
549.535	3523.18
549.961	3525.59
550.387	3497.66
550.813	3484.46
551.24	3497.21
551.666	3500.05
552.092	3481.38
552.518	3469.15
552.943	3457.48
553.369	3470.8
553.795	3483.53
554.221	3486.25
554.646	3481.72
555.072	3502.18
555.498	3514.67
555.923	3534.08
556.349	3563.59
556.774	3583.18
557.199	3586.07
557.625	3600.59
558.05	3591.29
558.475	3614.08
558.9	3614.69
559.325	3601.51
559.75	3593.92
560.175	3586.47
560.6	3576.4
561.025	3578.55
561.449	3584.71
561.874	3602.92
562.299	3616.18
562.723	3637.64
563.148	3625.27
563.572	3640.49
563.997	3666.99
564.421	3686.37
564.846	3693
565.27	3710.12
565.694	3712.42
566.118	3742.83
566.542	3765.37
566.966	3760.55
567.39	3759.73
567.814	3746.8
568.238	3754.86
568.662	3776.57
569.086	3792.74
569.509	3819.73
569.933	3794.78
570.357	3789.95
570.78	3758.34
571.204	3740.55
571.627	3728.95
572.05	3735.69
572.474	3743.17
572.897	3724.67
573.32	3716.16
573.743	3704.65
574.166	3672.77
574.589	3685.76
575.012	3677.64
575.435	3681.98
575.858	3670.03
576.281	3655.03
576.704	3628.58
577.126	3609.44
577.549	3595.05
577.972	3582.36
578.394	3563.24
578.817	3551.13
579.239	3514.2
579.661	3489.89
580.084	3459.58
580.506	3434.93
580.928	3431.48
581.35	3412.27
581.772	3407.51
582.194	3383.8
582.616	3360.02
583.038	3335.25
583.46	3319.49
583.882	3316.51
584.303	3332.7
584.725	3329.58
585.147	3333.37
585.568	3361.43
585.99	3391.78
586.411	3410.04
586.833	3444.98
587.254	3452.08
587.675	3488.79
588.096	3520.83
588.518	3512.61
588.939	3475.78
589.36	3474.3
589.781	3463.07
590.202	3396.43
590.623	3378.44
591.043	3377.11
591.464	3351.25
591.885	3343.78
592.305	3330.45
592.726	3301.03
593.147	3306.53
593.567	3296.3
593.987	3281.1
594.408	3270.9
594.828	3274.02
595.248	3262.69
595.669	3220.93
596.089	3207.06
596.509	3194.35
596.929	3166.74
597.349	3170.18
597.769	3148.36
598.189	3135.31
598.608	3139.09
599.028	3145.04
599.448	3146.21
599.867	3120.21
600.287	3114.73
600.706	3105.23
601.126	3085.14
601.545	3082.64
601.965	3081.36
602.384	3071.89
602.803	3082.16
603.222	3073.4
603.641	3061.42
604.061	3053.49
604.48	3047.86
604.898	3067.93
605.317	3082.83
605.736	3091.34
606.155	3087.9
606.574	3070.31
606.992	3086.57
607.411	3078.85
607.829	3064.62
608.248	3059.32
608.666	3059.34
609.085	3061.27
609.503	3046.26
609.921	3035.96
610.339	3044.25
610.758	3049.24
611.176	3043.89
611.594	3025.64
612.012	3023.08
612.43	3034.22
612.847	3055.3
613.265	3060.76
613.683	3075.55
614.101	3082.92
614.518	3079.58
614.936	3060.92
615.353	3030.05
615.771	3026.62
616.188	3031.95
616.606	3028.92
617.023	3016.27
617.44	2986.97
617.857	2977.15
618.274	2961.94
618.691	2950.67
619.108	2931.84
619.525	2921.66
619.942	2940.48
620.359	2950.77
620.776	2942.81
621.192	2933.29
621.609	2931.72
622.026	2949.02
622.442	2963.81
622.859	2973.32
623.275	2959.8
623.691	2975.88
624.108	3002.89
624.524	3038.74
624.94	3038.22
625.356	3064.06
625.772	3098.81
626.188	3129.1
626.604	3135.22
627.02	3126.98
627.436	3123.27
627.852	3138.72
628.268	3167.82
628.683	3151.12
629.099	3131.33
629.514	3123.41
629.93	3131.58
630.345	3141.81
630.761	3133.75
631.176	3142.14
631.591	3126.9
632.007	3110.4
632.422	3108.58
632.837	3083
633.252	3074.55
633.667	3052.39
634.082	3030.72
634.497	2999.74
634.911	2951.53
635.326	2942.05
635.741	2899.47
636.155	2877.85
636.57	2881.67
636.984	2878.7
637.399	2878.92
637.813	2879.63
638.228	2876.99
638.642	2886.56
639.056	2861.64
639.47	2862.62
639.884	2842.35
640.298	2829.64
640.712	2825.06
641.126	2793.46
641.54	2773.68
641.954	2764.42
642.368	2731.65
642.781	2702.66
643.195	2659.77
643.609	2657.74
644.022	2642
644.436	2628.71
644.849	2596.67
645.262	2566.59
645.676	2569.25
646.089	2553.54
646.502	2511.45
646.915	2497
647.328	2458.78
647.741	2448.95
648.154	2416.16
648.567	2400.16
648.98	2365.29
649.393	2362.91
649.805	2350.15
650.218	2329.18
650.631	2288.97
651.043	2273.84
651.456	2257.27
651.868	2257.36
652.28	2296.54
652.693	2327.13
653.105	2344.83
653.517	2365.82
653.929	2364.45
654.341	2377.8
654.753	2348.18
655.165	2362.94
655.577	2354.95
655.989	2344.4
656.401	2326.63
656.813	2237.88
657.224	2189.66
657.636	2122.81
658.047	2076.43
658.459	2030.1
658.87	2005.82
659.282	1976.01
659.693	1923.23
660.104	1884.12
660.515	1847.48
660.926	1835.77
661.338	1822.75
661.749	1802.13
662.159	1772.74
662.57	1757.43
662.981	1736.44
663.392	1711.05
663.803	1708.31
664.213	1693.54
664.624	1675.27
665.035	1670.89
665.445	1633.18
665.855	1607.57
666.266	1579.62
666.676	1566.19
667.086	1538.3
667.497	1525.74
667.907	1503.24
668.317	1475.96
668.727	1456.5
669.137	1450.01
669.547	1436.41
669.956	1434.88
670.366	1431.17
670.776	1426.63
671.186	1425.6
671.595	1424.88
672.005	1427.99
672.414	1420.99
672.824	1413.29
673.233	1420.34
673.642	1420.13
674.052	1421.45
674.461	1420.01
674.87	1427.36
675.279	1420.04
675.688	1423.48
676.097	1424.61
676.506	1419.15
676.915	1446.43
677.323	1452.58
677.732	1452.15
678.141	1454.91
678.549	1442.03
678.958	1446.22
679.366	1451.25
679.775	1470.78
680.183	1498.31
680.592	1521.32
681	1543.76
681.408	1545.23
681.816	1576.8
682.224	1612.83
682.632	1649.94
683.04	1731.53
683.448	1805.13
683.856	1893.47
684.264	1993.47
684.671	2093.48
685.079	2211.08
685.487	2340.84
685.894	2512.2
686.302	2662.61
686.709	2787.32
687.116	2930.43
687.524	3047.06
687.931	3147.8
688.338	3237.5
688.745	3309.91
689.152	3388.68
689.559	3489
689.966	3581.23
690.373	3617.75
690.78	3695.61
