Data from N_2_DEC_ON_6N_Splice17_12-14-52-125.txt Node
Date: Sat Mar 14 12:14:52 EDT 2020
User: sa697716
Spectrometer: FLMS03696
Trigger mode: 0
Integration Time (sec): 3.180400E-1
Scans to average: 20
Electric dark correction enabled: true
Nonlinearity correction enabled: true
Boxcar width: 5
XAxis mode: Wavelengths
Number of Pixels in Spectrum: 2048
>>>>>Begin Spectral Data<<<<<
187.83	-282520.44
188.298	2113.56
188.766	1211.52
189.233	1001.97
189.701	1425.94
190.169	1834.03
190.636	635.85
191.104	479.6
191.571	63.1
192.039	-80.83
192.506	-111.22
192.974	342.77
193.441	-477.97
193.908	35.83
194.375	-26.72
194.842	39.36
195.31	67.59
195.777	136.1
196.244	317.8
196.711	420.86
197.177	517.55
197.644	706.43
198.111	1241.42
198.578	1722.96
199.045	1384.84
199.511	2238.6
199.978	2598.76
200.445	2195.78
200.911	2420.18
201.378	2721.35
201.844	2466.87
202.31	4236.01
202.777	4440.73
203.243	2468.75
203.709	2367.34
204.176	2825.19
204.642	2350.97
205.108	2217.88
205.574	1821.72
206.04	1663.14
206.506	1555.27
206.972	1454.57
207.438	1417.95
207.903	1629.03
208.369	1445.44
208.835	1453.28
209.301	1538.24
209.766	1584.55
210.232	1570.11
210.697	1951.49
211.163	2425.85
211.628	3689.57
212.094	3145.48
212.559	3859.85
213.024	2427.91
213.49	2966.75
213.955	2924.2
214.42	2883.56
214.885	2714.63
215.35	2654.29
215.815	2598.4
216.28	2804.7
216.745	2350.17
217.21	2620.21
217.675	2500.31
218.14	2916.49
218.604	3411.32
219.069	4057.86
219.534	4388.45
219.998	5267.87
220.463	6562.99
220.927	8335.26
221.392	8033.3
221.856	8276.06
222.32	10637.85
222.785	13299.85
223.249	16956.32
223.713	19072.5
224.177	19185.8
224.642	24837.41
225.106	30783.88
225.57	33850.14
226.034	25242.65
226.497	38543.22
226.961	34857.52
227.425	40621.56
227.889	45225.31
228.353	45294.05
228.816	93864.86
229.28	89981.82
229.744	76127.47
230.207	46281.12
230.671	45584.45
231.134	75607.18
231.597	87329.43
232.061	87587.01
232.524	85649.06
232.987	59140.31
233.45	53344.57
233.914	47927.93
234.377	49300.72
234.84	45152.28
235.303	53422.78
235.766	59695.78
236.229	61840.91
236.691	39036.67
237.154	43994.22
237.617	33138.06
238.08	33987.51
238.542	39887.86
239.005	28553.32
239.468	28375.43
239.93	26799.93
240.393	24365.52
240.855	21429.36
241.317	21994.94
241.78	26839.08
242.242	27762.55
242.704	29992.89
243.166	26145.69
243.629	23727.39
244.091	27390.35
244.553	30051.04
245.015	32346.34
245.477	41953.79
245.939	61636.03
246.4	65522.44
246.862	63715.21
247.324	60108.05
247.786	67442.12
248.247	88645.72
248.709	91842.62
249.17	68767.64
249.632	64790.05
250.093	75135.55
250.555	64947.21
251.016	39611.59
251.477	37595.87
251.939	40631.82
252.4	42727.71
252.861	50830.17
253.322	47265.86
253.783	56245.68
254.244	72955.34
254.705	57578.52
255.166	51254.23
255.627	50482.84
256.088	71152.81
256.549	75530.87
257.009	65028.6
257.47	78841.74
257.931	64247.58
258.391	48125.18
258.852	49646.72
259.312	52120.82
259.773	64422.82
260.233	54417.48
260.694	45893.52
261.154	52126.6
261.614	41830.3
262.074	37431.54
262.534	38880.55
262.994	36646.15
263.455	48839.98
263.915	41123.21
264.374	38758
264.834	42347.22
265.294	47000.62
265.754	48719.37
266.214	46136.7
266.673	43263.27
267.133	54621.36
267.593	54257.72
268.052	66378.73
268.512	57773.73
268.971	69643.71
269.431	76348.29
269.89	68325.89
270.349	102375.63
270.809	114055.63
271.268	102548.22
271.727	229972.57
272.186	148901.76
272.645	111659.62
273.104	80669.11
273.563	116881.65
274.022	92082.15
274.481	78300.17
274.94	60340.4
275.399	44871.74
275.857	52317.37
276.316	70762.97
276.775	62996.19
277.233	62077.38
277.692	58086.27
278.15	65705.81
278.609	67497.8
279.067	62417.32
279.525	57956.8
279.984	74852.54
280.442	89961.16
280.9	88549.95
281.358	58311.24
281.816	54341.23
282.274	53214.67
282.732	55053.37
283.19	55287.55
283.648	47785.31
284.106	50934.62
284.564	51840.54
285.021	48096.72
285.479	35852.72
285.937	32668.47
286.394	28632.77
286.852	29524.58
287.309	31050.37
287.767	29969.01
288.224	28550.28
288.682	31352.22
289.139	34442.26
289.596	31556.27
290.053	32877.87
290.511	41602.61
290.968	50545.01
291.425	68862.31
291.882	57334.33
292.339	49994.49
292.796	49778.08
293.252	46994.41
293.709	37352.02
294.166	33555
294.623	37168.58
295.079	35737.67
295.536	35909.13
295.992	32639.06
296.449	32307.46
296.905	33619.39
297.362	32246.81
297.818	33976.98
298.274	35277.67
298.731	36050.03
299.187	35727.62
299.643	38412.09
300.099	46496.19
300.555	51106.92
301.011	42811.12
301.467	41254.17
301.923	48424.79
302.379	47398.07
302.835	46621.86
303.291	46737.59
303.746	53275.63
304.202	67413.13
304.658	67781.55
305.113	45660.21
305.569	44761.63
306.024	47733.99
306.479	45576.05
306.935	38413.81
307.39	42012.79
307.845	38794.93
308.301	39048.95
308.756	38097.21
309.211	36720.88
309.666	37629.53
310.121	46692.94
310.576	47506.75
311.031	47227.82
311.486	54132.42
311.94	54212.8
312.395	72582.73
312.85	136745.06
313.305	673868.36
313.759	3484493.72
314.214	252639.26
314.668	200543.06
315.123	168733.7
315.577	60494.62
316.032	53852.78
316.486	67598.03
316.94	53335.11
317.394	37162.25
317.849	28911.44
318.303	27413.34
318.757	25906.73
319.211	28674.32
319.665	25162.04
320.119	25527.69
320.572	36711.72
321.026	34294.49
321.48	28586.31
321.934	31272.59
322.387	31374.79
322.841	33882.97
323.295	30403.82
323.748	35123.24
324.202	35657.14
324.655	42832.74
325.108	59820.66
325.562	42228.77
326.015	50260.3
326.468	37997.82
326.921	42457.25
327.374	39595.15
327.827	41237.71
328.28	46781.63
328.733	31322.07
329.186	27568.43
329.639	26250.45
330.092	22168.43
330.545	21102.3
330.997	21297.71
331.45	23221.89
331.903	27191.74
332.355	46844.91
332.808	45551.51
333.26	37585.64
333.713	40789.04
334.165	41079.38
334.617	54916.9
335.069	44367.53
335.522	80348.1
335.974	88867.14
336.426	81365.07
336.878	56485.78
337.33	28605.95
337.782	27943.93
338.234	34933.57
338.686	41863.73
339.137	49647.79
339.589	46751.57
340.041	36647.33
340.493	31541.62
340.944	32344.31
341.396	34880.66
341.847	29290.37
342.299	34552.61
342.75	42195.23
343.201	36995.62
343.653	42547.17
344.104	52375.36
344.555	41299.97
345.006	64492.12
345.457	49340.49
345.908	39335.43
346.359	37002.31
346.81	30225.96
347.261	31957.96
347.712	31551.86
348.163	33876.35
348.613	34308.06
349.064	32086.53
349.515	28118.71
349.965	28829.14
350.416	34777.54
350.866	38117.91
351.317	43227.88
351.767	71610.06
352.217	90595.74
352.668	75220.73
353.118	68991.62
353.568	66707.91
354.018	52734.05
354.468	55663.39
354.918	39936.42
355.368	34945.36
355.818	49480.2
356.268	142528.59
356.718	596990.13
357.168	148639.91
357.617	74773.34
358.067	83335.36
358.517	78194.11
358.966	91752.13
359.416	102864.94
359.865	111421.1
360.315	133254.2
360.764	62278.49
361.213	34884.32
361.663	33112.75
362.112	40927.58
362.561	66167.68
363.01	49966.25
363.459	42115.13
363.908	45628.13
364.357	38764.32
364.806	65637.85
365.255	45145.82
365.703	41364.11
366.152	41512.28
366.601	33688.98
367.05	27360.72
367.498	24849.61
367.947	25984.62
368.395	27059.03
368.844	23968.3
369.292	29006.97
369.74	20020.82
370.189	30677.83
370.637	35982.05
371.085	31103.78
371.533	37909.88
371.981	36663.62
372.429	34926.52
372.877	36455.87
373.325	30531.16
373.773	31217.49
374.221	27833.39
374.669	34594.59
375.116	29965.64
375.564	30297.74
376.012	33942.64
376.459	28051.76
376.907	33537.39
377.354	40725.49
377.801	37985.34
378.249	43652.44
378.696	55850.88
379.143	67653.74
379.591	72307.75
380.038	122344.39
380.485	88333.23
380.932	95274.44
381.379	87018.95
381.826	64025.86
382.273	45514.08
382.72	39860.53
383.166	38878.72
383.613	25224.06
384.06	22780.23
384.506	26361.86
384.953	19398.6
385.4	19567.83
385.846	17172.01
386.292	16784.43
386.739	16444.43
387.185	16276.51
387.631	16267.81
388.078	15754.48
388.524	16844.3
388.97	15547.73
389.416	12941.46
389.862	13757.22
390.308	13030.09
390.754	13227.8
391.2	14358
391.645	14712.31
392.091	14016.31
392.537	13531.1
392.983	13588.13
393.428	13339.56
393.874	14293.96
394.319	14355.85
394.765	13567.05
395.21	13947.07
395.655	13070.88
396.101	12227.21
396.546	11021.94
396.991	11147.68
397.436	10370.51
397.881	10012.7
398.326	9500.84
398.771	8970.38
399.216	7830.81
399.661	7059.07
400.106	7021.68
400.551	7169.73
400.995	6421.24
401.44	6343.93
401.885	5956.17
402.329	6007.78
402.774	5758.8
403.218	5550.23
403.663	5344.8
404.107	5487.77
404.551	5515.05
404.995	5052.21
405.44	4872.83
405.884	4949.79
406.328	4794.82
406.772	4779.7
407.216	4346.45
407.66	4198.19
408.104	3996.39
408.547	3741.93
408.991	3618.92
409.435	3485.25
409.879	3433.68
410.322	3385.61
410.766	3259.03
411.209	3092.09
411.653	2965.13
412.096	2897.66
412.54	2898.92
412.983	2875.88
413.426	2876.53
413.869	2873.6
414.312	2813.2
414.756	2708.3
415.199	2580.18
415.642	2505.05
416.085	2502.78
416.527	2484.02
416.97	2524.78
417.413	2389.98
417.856	2365.89
418.298	2344.3
418.741	2332.09
419.184	2331
419.626	2435.92
420.069	2437.25
420.511	2448.6
420.953	2395.73
421.396	2370.9
421.838	2309.81
422.28	2362.98
422.722	2369.29
423.164	2401.26
423.606	2355.47
424.048	2349.6
424.49	2225.41
424.932	2214.33
425.374	2184.8
425.816	2222.16
426.258	2263.49
426.699	2291.01
427.141	2254.64
427.582	2293.55
428.024	2282.26
428.465	2273.05
428.907	2215.71
429.348	2187.05
429.789	2180
430.231	2127.83
430.672	2152.54
431.113	2097.58
431.554	2059.26
431.995	2004.59
432.436	1921.7
432.877	1871.86
433.318	1829.35
433.759	1818.32
434.2	1816.35
434.64	1794.2
435.081	1796.15
435.522	1697.77
435.962	1634.74
436.403	1595.91
436.843	1615.92
437.284	1581.58
437.724	1537.74
438.164	1546.26
438.604	1509.14
439.045	1448.8
439.485	1386.58
439.925	1356.7
440.365	1322.24
440.805	1302.77
441.245	1284.56
441.685	1236.9
442.125	1227.74
442.564	1236.4
443.004	1203.96
443.444	1198.6
443.883	1196.89
444.323	1189.13
444.762	1191.35
445.202	1206.15
445.641	1223.3
446.081	1215.81
446.52	1221.19
446.959	1206.49
447.398	1171.31
447.837	1155.26
448.276	1133.95
448.716	1144.82
449.154	1154.12
449.593	1124.99
450.032	1120.66
450.471	1100.53
450.91	1100.94
451.349	1097.33
451.787	1092.96
452.226	1112.3
452.664	1112.98
453.103	1114.89
453.541	1113.4
453.98	1108.53
454.418	1117.52
454.856	1099.01
455.295	1098.45
455.733	1106.54
456.171	1113.64
456.609	1115.14
457.047	1114.26
457.485	1128.14
457.923	1129.89
458.361	1115.06
458.798	1119.44
459.236	1115.59
459.674	1124.65
460.111	1128.09
460.549	1116.02
460.987	1112.38
461.424	1109.46
461.862	1102.95
462.299	1086.93
462.736	1085.99
463.173	1089.4
463.611	1076.18
464.048	1072.69
464.485	1079.77
464.922	1071.46
465.359	1067.67
465.796	1047.84
466.233	1038.73
466.67	1028.15
467.106	1025.01
467.543	1015.84
467.98	1003.81
468.416	977.84
468.853	970.79
469.29	942.92
469.726	932.76
470.162	907.49
470.599	901.34
471.035	894.49
471.471	874.19
471.907	869.54
472.344	863.1
472.78	862.88
473.216	875.47
473.652	864.75
474.088	862.77
474.523	859.58
474.959	869.05
475.395	861.26
475.831	856.1
476.266	860.23
476.702	858.14
477.138	848.76
477.573	846.88
478.008	842.82
478.444	846.84
478.879	853.89
479.314	857.51
479.75	856.86
480.185	860.64
480.62	867.59
481.055	872.69
481.49	879.42
481.925	892.68
482.36	907.11
482.795	933.27
483.229	958.79
483.664	980.57
484.099	984.83
484.534	1000.74
484.968	1010.27
485.403	1014.43
485.837	1014.34
486.271	1012.43
486.706	1013.39
487.14	1002.98
487.574	987.1
488.009	978.65
488.443	969.56
488.877	978.44
489.311	980.25
489.745	991.67
490.179	999.25
490.613	1014.88
491.046	1022.53
491.48	1029.16
491.914	1029.3
492.348	1034.86
492.781	1038.28
493.215	1038.51
493.648	1039.23
494.082	1044.54
494.515	1042.6
494.948	1051.46
495.382	1056.81
495.815	1060.17
496.248	1065.93
496.681	1082.1
497.114	1097.26
497.547	1109.03
497.98	1123.49
498.413	1128.02
498.846	1139.2
499.279	1148.39
499.711	1151.87
500.144	1152.02
500.577	1163.21
501.009	1174.51
501.442	1183.25
501.874	1178.01
502.306	1176.14
502.739	1180.79
503.171	1195.7
503.603	1194.49
504.036	1201.21
504.468	1202.28
504.9	1212.37
505.332	1215.26
505.764	1213.42
506.196	1215.68
506.627	1229.33
507.059	1240.81
507.491	1246.98
507.923	1237.93
508.354	1249.44
508.786	1255.86
509.217	1271.28
509.649	1281.46
510.08	1298.11
510.512	1311.24
510.943	1323.68
511.374	1329.16
511.805	1344.49
512.237	1359.84
512.668	1390.76
513.099	1415.08
513.53	1438.7
513.961	1454.31
514.391	1483.02
514.822	1511.16
515.253	1543.57
515.684	1562.97
516.114	1588.35
516.545	1603.45
516.975	1623.2
517.406	1632.83
517.836	1626.37
518.267	1624.08
518.697	1634.54
519.127	1629.23
519.558	1628.22
519.988	1623.27
520.418	1625.98
520.848	1637
521.278	1638.02
521.708	1643.69
522.138	1650.5
522.567	1676
522.997	1696
523.427	1705.39
523.857	1717.16
524.286	1722.51
524.716	1731.83
525.145	1745.67
525.575	1750.92
526.004	1760.51
526.433	1751.41
526.863	1746.91
527.292	1731.81
527.721	1732.84
528.15	1733.73
528.579	1729.62
529.008	1736.03
529.437	1756.13
529.866	1766.17
530.295	1779.82
530.724	1788.99
531.152	1813.29
531.581	1823.84
532.01	1838.72
532.438	1844.97
532.867	1857.78
533.295	1874.59
533.723	1878.33
534.152	1873.67
534.58	1871.43
535.008	1852.93
535.436	1853.36
535.865	1858.99
536.293	1872.63
536.721	1887.18
537.149	1911.84
537.576	1913.56
538.004	1924.69
538.432	1932.05
538.86	1929.44
539.287	1935.22
539.715	1949.17
540.143	1951.54
540.57	1947.78
540.998	1943.62
541.425	1920.04
541.852	1897.43
542.28	1894.58
542.707	1878.34
543.134	1863.27
543.561	1859.09
543.988	1850.92
544.415	1849.21
544.842	1842.66
545.269	1834.38
545.696	1835.11
546.123	1845.78
546.549	1834.39
546.976	1820.86
547.403	1819.23
547.829	1820.7
548.256	1821.54
548.682	1817.91
549.108	1809.11
549.535	1807.91
549.961	1809.45
550.387	1794.63
550.813	1788.04
551.24	1793.97
551.666	1794.19
552.092	1784.14
552.518	1777.4
552.943	1771.65
553.369	1777.79
553.795	1784.24
554.221	1786.26
554.646	1783.43
555.072	1796.28
555.498	1804.02
555.923	1813.49
556.349	1829.48
556.774	1839.45
557.199	1841.99
557.625	1847.84
558.05	1843.93
558.475	1855.84
558.9	1855.05
559.325	1848.02
559.75	1841.28
560.175	1835.85
560.6	1830.54
561.025	1830.82
561.449	1833.69
561.874	1841.77
562.299	1848.88
562.723	1859.1
563.148	1851.46
563.572	1859.36
563.997	1872.13
564.421	1882.08
564.846	1886.18
565.27	1893.84
565.694	1894.57
566.118	1910.36
566.542	1921.19
566.966	1919.64
567.39	1917.7
567.814	1910.56
568.238	1914.15
568.662	1925.13
569.086	1932.96
569.509	1944.39
569.933	1932.44
570.357	1928.71
570.78	1910.53
571.204	1901.12
571.627	1892.36
572.05	1894.71
572.474	1897.24
572.897	1887.85
573.32	1882.45
573.743	1874.73
574.166	1858.71
574.589	1863.43
575.012	1859.71
575.435	1861.45
575.858	1854.91
576.281	1847.18
576.704	1833.29
577.126	1824.23
577.549	1815.15
577.972	1806.84
578.394	1798.5
578.817	1793.3
579.239	1775.05
579.661	1761.33
580.084	1745.72
580.506	1733.88
580.928	1731.41
581.35	1721.89
581.772	1718.46
582.194	1705.21
582.616	1693.46
583.038	1678.94
583.46	1669.26
583.882	1667.61
584.303	1675.93
584.725	1674.08
585.147	1676.88
585.568	1690.41
585.99	1706.52
586.411	1715.69
586.833	1734.85
587.254	1739.5
587.675	1758.01
588.096	1774.36
588.518	1770.69
588.939	1752.32
589.36	1751.37
589.781	1742.31
590.202	1711.02
590.623	1701.19
591.043	1700.53
591.464	1687.44
591.885	1684.81
592.305	1680.06
592.726	1666.55
593.147	1669.62
593.567	1665.7
593.987	1660.16
594.408	1654.95
594.828	1655.93
595.248	1651.05
595.669	1632.39
596.089	1626.23
596.509	1620.53
596.929	1605.34
597.349	1606.82
597.769	1595.93
598.189	1590.26
598.608	1591.64
599.028	1596.13
599.448	1597.06
599.867	1584.32
600.287	1579.63
600.706	1575.32
601.126	1564.57
601.545	1564.97
601.965	1565.27
602.384	1560.76
602.803	1565.73
603.222	1561.53
603.641	1555.81
604.061	1553.23
604.48	1549.91
604.898	1561.71
605.317	1569.29
605.736	1573.85
606.155	1573.15
606.574	1564.46
606.992	1571.99
607.411	1567.89
607.829	1560.72
608.248	1559.09
608.666	1559.3
609.085	1561.28
609.503	1553.47
609.921	1548.13
610.339	1552.76
610.758	1554.62
611.176	1552.11
611.594	1543.89
612.012	1542.25
612.43	1549.32
612.847	1558.97
613.265	1562.66
613.683	1571.5
614.101	1576.98
614.518	1576.21
614.936	1568.02
615.353	1552.99
615.771	1553.04
616.188	1556.62
616.606	1554.84
617.023	1548.66
617.44	1534.39
617.857	1527.81
618.274	1519.4
618.691	1512.84
619.108	1503.66
619.525	1497.39
619.942	1507.11
620.359	1510.88
620.776	1506.51
621.192	1505.27
621.609	1504.14
622.026	1512.49
622.442	1521.11
622.859	1526.31
623.275	1518.99
623.691	1526.69
624.108	1541.78
624.524	1560.04
624.94	1561.23
625.356	1575.69
625.772	1590.98
626.188	1607.9
626.604	1611.92
627.02	1607.79
627.436	1605.09
627.852	1614.01
628.268	1628.4
628.683	1618.25
629.099	1608.5
629.514	1603.12
629.93	1607.63
630.345	1613.15
630.761	1607.62
631.176	1612.04
631.591	1603.67
632.007	1596.79
632.422	1594.72
632.837	1582.58
633.252	1580.19
633.667	1569.8
634.082	1560.18
634.497	1545.24
634.911	1523.37
635.326	1521.79
635.741	1503.11
636.155	1494.59
636.57	1500.14
636.984	1503.47
637.399	1508.57
637.813	1511.39
638.228	1513.08
638.642	1522.53
639.056	1513.88
639.47	1520.3
639.884	1514.65
640.298	1511.5
640.712	1515.64
641.126	1504.53
641.54	1498.84
641.954	1498.19
642.368	1489.16
642.781	1484.26
643.195	1467.89
643.609	1474.57
644.022	1471.64
644.436	1469.76
644.849	1459.76
645.262	1451.27
645.676	1459.15
646.089	1458.07
646.502	1442.64
646.915	1440.89
647.328	1421.89
647.741	1422.16
648.154	1408.19
648.567	1406.75
648.98	1392.41
649.393	1395.86
649.805	1392.78
650.218	1384.21
650.631	1364.46
651.043	1358.53
651.456	1351.44
651.868	1355.72
652.28	1383.37
652.693	1404.58
653.105	1415.63
653.517	1432.41
653.929	1435.53
654.341	1444.32
654.753	1430.06
655.165	1442.13
655.577	1440
655.989	1436.68
656.401	1429.16
656.813	1379.08
657.224	1354.4
657.636	1318.54
658.047	1295.33
658.459	1270.87
658.87	1263.29
659.282	1250.15
659.693	1223.11
660.104	1206.89
660.515	1191.14
660.926	1190.77
661.338	1190.31
661.749	1184.43
662.159	1174.83
662.57	1173.46
662.981	1170.07
663.392	1162.21
663.803	1171.76
664.213	1171.4
664.624	1168.19
665.035	1176.1
665.445	1159.53
665.855	1151.17
666.266	1141.74
666.676	1139.85
667.086	1126.94
667.497	1126.52
667.907	1118.64
668.317	1105.22
668.727	1100.24
669.137	1103.49
669.547	1098.88
669.956	1103.28
670.366	1105.4
670.776	1107.8
671.186	1113.74
671.595	1119.29
672.005	1125.07
672.414	1123.56
672.824	1120.74
673.233	1127.56
673.642	1127.74
674.052	1131.1
674.461	1131.16
674.87	1137.13
675.279	1130
675.688	1130.1
676.097	1129.13
676.506	1122.82
676.915	1141.18
677.323	1142.65
677.732	1138.47
678.141	1136.75
678.549	1120.24
678.958	1118.26
679.366	1116.21
679.775	1122.5
680.183	1133.41
680.592	1139.67
681	1145.31
681.408	1133.13
681.816	1142.67
682.224	1152.45
682.632	1163.54
683.04	1201.7
683.448	1231.53
683.856	1268.72
684.264	1312.47
684.671	1352.28
685.079	1400.16
685.487	1451.58
685.894	1526.96
686.302	1582.71
686.709	1624.88
687.116	1673.95
687.524	1709.9
687.931	1737.65
688.338	1757.05
688.745	1768.83
689.152	1782.02
689.559	1810.92
689.966	1836.29
690.373	1832.89
