Data from N_2_DIV_PA_2N_Splice17_12-39-20-726.txt Node
Date: Sat Mar 14 12:39:20 EDT 2020
User: sa697716
Spectrometer: FLMS03696
Trigger mode: 0
Integration Time (sec): 3.180400E-1
Scans to average: 20
Electric dark correction enabled: true
Nonlinearity correction enabled: true
Boxcar width: 5
XAxis mode: Wavelengths
Number of Pixels in Spectrum: 2048
>>>>>Begin Spectral Data<<<<<
187.83	-261853.35
188.298	1999.11
188.766	1104.88
189.233	969.23
189.701	1296.23
190.169	1915.23
190.636	668.21
191.104	467.36
191.571	-24.31
192.039	-148.26
192.506	-178.86
192.974	499.43
193.441	-746.04
193.908	-329.27
194.375	-125.42
194.842	-114.23
195.31	-19.24
195.777	119.13
196.244	342.71
196.711	447.51
197.177	586.09
197.644	863.78
198.111	1529.38
198.578	2179.54
199.045	1775.83
199.511	2920.67
199.978	3397.98
200.445	2908.09
200.911	3243.96
201.378	3631.33
201.844	3296.52
202.31	5607.8
202.777	5860.78
203.243	3252.16
203.709	3078.6
204.176	3669.69
204.642	3045.79
205.108	2836.7
205.574	2295
206.04	2083.86
206.506	1947.67
206.972	1838.39
207.438	1799.39
207.903	2030.94
208.369	1780.81
208.835	1765.41
209.301	1838.74
209.766	1857.94
210.232	1856.06
210.697	2309.96
211.163	2836.93
211.628	4277.74
212.094	3558.05
212.559	4370.9
213.024	2722.43
213.49	3311.44
213.955	3225.86
214.42	3147.12
214.885	2929.73
215.35	2789.78
215.815	2670.59
216.28	2823.78
216.745	2283.65
217.21	2476.47
217.675	2250.72
218.14	2512.11
218.604	2765.48
219.069	3138.42
219.534	3291.67
219.998	3801.94
220.463	4569.66
220.927	5570.59
221.392	5227.33
221.856	5279.36
222.32	6597.19
222.785	8117.25
223.249	10175.69
223.713	11352.12
224.177	11352.18
224.642	14475.44
225.106	17756.64
225.57	19402.34
226.034	14429.31
226.497	21914.08
226.961	19811.28
227.425	23086.49
227.889	25548.63
228.353	25530.55
228.816	52625.48
229.28	50380.12
229.744	42449.91
230.207	25837.97
230.671	25368.82
231.134	41894.59
231.597	48273.33
232.061	48174.69
232.524	46923.5
232.987	32338.17
233.45	29083.16
233.914	26085.95
234.377	26648.12
234.84	24390.24
235.303	28705.54
235.766	32028.27
236.229	33113.44
236.691	20864.84
237.154	23407.86
237.617	17599.45
238.08	18018
238.542	21103.52
239.005	15102.16
239.468	14991.69
239.93	14116.27
240.393	12827.96
240.855	11262.39
241.317	11514.03
241.78	13981.64
242.242	14452.23
242.704	15633.46
243.166	13606.83
243.629	12353.72
244.091	14229.05
244.553	15588.61
245.015	16749.99
245.477	21682.31
245.939	31770.11
246.4	33734.25
246.862	32794.9
247.324	30920.47
247.786	34550.5
248.247	45255.85
248.709	46712.26
249.17	34898.16
249.632	32908.87
250.093	38184.22
250.555	32942.48
251.016	20112.64
251.477	19085.79
251.939	20586.06
252.4	21580.25
252.861	25669.6
253.322	23907.29
253.783	28424.45
254.244	36836.58
254.705	29006.96
255.166	25800.21
255.627	25385.57
256.088	35772.56
256.549	37959.58
257.009	32669.64
257.47	39604.46
257.931	32202.3
258.391	24113.35
258.852	24862.37
259.312	26057.19
259.773	32196.65
260.233	27215.58
260.694	22965.79
261.154	26022.38
261.614	20900.83
262.074	18704.55
262.534	19450.84
262.994	18335.27
263.455	24418.55
263.915	20568.98
264.374	19380.3
264.834	21149.16
265.294	23407.49
265.754	24266.26
266.214	22966.86
266.673	21519.3
267.133	27166.96
267.593	26957.36
268.052	33019.97
268.512	28724.17
268.971	34624.38
269.431	37948.96
269.89	34003.57
270.349	50982.81
270.809	56853.37
271.268	51167.1
271.727	114725.37
272.186	74304.23
272.645	55732.47
273.104	40166.37
273.563	58125.25
274.022	45703.56
274.481	38942.05
274.94	30001.12
275.399	22322.83
275.857	25973.08
276.316	35138.74
276.775	31277.81
277.233	30820.94
277.692	28879.61
278.15	32705.81
278.609	33696.99
279.067	31213.9
279.525	28993.99
279.984	37468.24
280.442	45045.01
280.9	44506.99
281.358	29291
281.816	27346.82
282.274	26770.53
282.732	27660.54
283.19	27804.35
283.648	24006.17
284.106	25609.12
284.564	26039.95
285.021	24174.49
285.479	18019.19
285.937	16368.54
286.394	14402.65
286.852	14820.24
287.309	15595.33
287.767	15101.5
288.224	14377.35
288.682	15777.37
289.139	17324.16
289.596	15899.97
290.053	16523.48
290.511	20852.58
290.968	25301.48
291.425	34258.38
291.882	28551.87
292.339	24851.45
292.796	24627.15
293.252	23182.15
293.709	18432.08
294.166	16503.61
294.623	18230.58
295.079	17498.1
295.536	17585.88
295.992	15972.93
296.449	15798.59
296.905	16381.22
297.362	15717.23
297.818	16533.14
298.274	17188.43
298.731	17500.32
299.187	17330.81
299.643	18591.82
300.099	22494.59
300.555	24684.57
301.011	20635.7
301.467	19924.13
301.923	23347.34
302.379	22813.91
302.835	22421.49
303.291	22448.91
303.746	25574.12
304.202	32325.43
304.658	32446.04
305.113	21806.58
305.569	21374.05
306.024	22786.46
306.479	21692.01
306.935	18288.38
307.39	19978.83
307.845	18459.96
308.301	18606.95
308.756	18148.77
309.211	17510.44
309.666	17954.13
310.121	22344.34
310.576	22699.5
311.031	22537.67
311.486	25791.55
311.94	25839.71
312.395	34600.37
312.85	65065.93
313.305	319185.52
313.759	1655214.84
314.214	119928.42
314.668	95194.23
315.123	80112.68
315.577	28755.65
316.032	25600.49
316.486	32153.09
316.94	25387.76
317.394	17637.13
317.849	13695.01
318.303	12959.82
318.757	12229.46
319.211	13538.06
319.665	11868
320.119	12001.88
320.572	17204.52
321.026	16083.09
321.48	13373.22
321.934	14572.39
322.387	14633.73
322.841	15847.26
323.295	14269.58
323.748	16413.05
324.202	16642.63
324.655	19998.28
325.108	27999.19
325.562	19796.28
326.015	23521.81
326.468	17789.79
326.921	19891.32
327.374	18567.43
327.827	19341.02
328.28	21914.91
328.733	14701.02
329.186	12940.03
329.639	12318.7
330.092	10377.2
330.545	9888.52
330.997	9985.53
331.45	10928.46
331.903	12831.33
332.355	22059.35
332.808	21437.02
333.26	17704.1
333.713	19259.72
334.165	19416.81
334.617	25959.49
335.069	20949.74
335.522	37906.57
335.974	41932.74
336.426	38234.17
336.878	26432.97
337.33	13421.36
337.782	13113.67
338.234	16446.2
338.686	19660.15
339.137	23286.5
339.589	21935.7
340.041	17218.79
340.493	14808.53
340.944	15190.42
341.396	16406.42
341.847	13828.25
342.299	16328.91
342.75	19943.44
343.201	17408.37
343.653	20007.08
344.104	24595.51
344.555	19375.48
345.006	30141.57
345.457	23124.87
345.908	18381.16
346.359	17315.21
346.81	14094.48
347.261	14851.89
347.712	14636.33
348.163	15673.72
348.613	15908.85
349.064	14862.09
349.515	13009.64
349.965	13365.06
350.416	16071.33
350.866	17624.96
351.317	19881.59
351.767	32920
352.217	41664.9
352.668	34577.45
353.118	31755.81
353.568	30595.8
354.018	24231
354.468	25585.31
354.918	18386.36
355.368	16083.97
355.818	22764.76
356.268	65633.59
356.718	275136.48
357.168	68456.91
357.617	34409.32
358.067	38218.4
358.517	35873.04
358.966	42108.02
359.416	47312.23
359.865	51135.13
360.315	60953.02
360.764	28467.72
361.213	15968.05
361.663	15146.64
362.112	18689.87
362.561	30124.22
363.01	22764.61
363.459	19157.73
363.908	20734.43
364.357	17609.97
364.806	29719.28
365.255	20474.92
365.703	18809.33
366.152	18884.27
366.601	15340.18
367.05	12493.72
367.498	11378.59
367.947	11889.44
368.395	12366.04
368.844	10971.35
369.292	13213.26
369.74	9158.22
370.189	14009.7
370.637	16406.64
371.085	14150.21
371.533	17214.68
371.981	16600.49
372.429	15826.29
372.877	16493.77
373.325	13830.05
373.773	14104.28
374.221	12575.94
374.669	15613.18
375.116	13547.07
375.564	13706.55
376.012	15349.53
376.459	12699.15
376.907	15200.52
377.354	18472.33
377.801	17296.37
378.249	19906.73
378.696	25495.75
379.143	30969.5
379.591	33112.66
380.038	56192.76
380.485	40728.57
380.932	44127.94
381.379	40557.09
381.826	29971.77
382.273	21402.67
382.72	18792.93
383.166	18432.06
383.613	11993.44
384.06	10859.57
384.506	12619.44
384.953	9312.19
385.4	9412.11
385.846	8297.53
386.292	8106.07
386.739	7967.75
387.185	7895.69
387.631	7921.67
388.078	7715.86
388.524	8306.57
388.97	7713.26
389.416	6463.36
389.862	6902.67
390.308	6572.71
390.754	6693.92
391.2	7302.58
391.645	7515.22
392.091	7233.57
392.537	7040.38
392.983	7076.14
393.428	6989.22
393.874	7520.56
394.319	7571.14
394.765	7202.82
395.21	7418.97
395.655	6973.62
396.101	6557.08
396.546	5944.33
396.991	6008.8
397.436	5583.29
397.881	5418.49
398.326	5148.1
398.771	4883.17
399.216	4284.92
399.661	3870.38
400.106	3872.47
400.551	3977.48
400.995	3574.85
401.44	3537.07
401.885	3329.42
402.329	3378.24
402.774	3250.63
403.218	3156.8
403.663	3050.61
404.107	3145.71
404.551	3179.53
404.995	2923.53
405.44	2824.48
405.884	2871.03
406.328	2785.29
406.772	2788.1
407.216	2543.83
407.66	2461
408.104	2343.9
408.547	2197.97
408.991	2130.19
409.435	2052.25
409.879	2029.13
410.322	2007.92
410.766	1945.61
411.209	1850.08
411.653	1777.82
412.096	1745.66
412.54	1750.52
412.983	1743.22
413.426	1752.7
413.869	1756.54
414.312	1728.22
414.756	1669.37
415.199	1595.18
415.642	1553.48
416.085	1562.77
416.527	1555.49
416.97	1583.2
417.413	1503.74
417.856	1487.03
418.298	1473.79
418.741	1464.78
419.184	1463.49
419.626	1523.94
420.069	1527.03
420.511	1538.14
420.953	1506.73
421.396	1494.06
421.838	1456.13
422.28	1492.21
422.722	1499.18
423.164	1518.83
423.606	1496.03
424.048	1495.74
424.49	1422.23
424.932	1415.9
425.374	1394.27
425.816	1418.94
426.258	1445.72
426.699	1461.74
427.141	1438.66
427.582	1461.24
428.024	1458.43
428.465	1450.99
428.907	1413.6
429.348	1399.03
429.789	1400.58
430.231	1371.54
430.672	1389.51
431.113	1357.77
431.554	1340.18
431.995	1308.37
432.436	1263.71
432.877	1235.99
433.318	1211.99
433.759	1207.69
434.2	1207.78
434.64	1193.16
435.081	1198.86
435.522	1136.64
435.962	1095.36
436.403	1071.27
436.843	1087.08
437.284	1061.79
437.724	1030.99
438.164	1035.93
438.604	1011.7
439.045	971.78
439.485	932.64
439.925	912.03
440.365	889.24
440.805	876.47
441.245	866.01
441.685	833.72
442.125	829.92
442.564	834.36
443.004	812.51
443.444	811.21
443.883	812.23
444.323	805.62
444.762	806.59
445.202	816.71
445.641	832.04
446.081	826.25
446.52	831.41
446.959	821.87
447.398	802.05
447.837	793.41
448.276	778.31
448.716	783.77
449.154	789.51
449.593	769.88
450.032	764.9
450.471	749.03
450.91	745.59
451.349	743.18
451.787	736.9
452.226	746.91
452.664	745.11
453.103	745.53
453.541	743.78
453.98	741.69
454.418	743.87
454.856	732.34
455.295	729.5
455.733	736.05
456.171	738.1
456.609	740.63
457.047	740.52
457.485	751.1
457.923	753.59
458.361	743.23
458.798	744.6
459.236	744.17
459.674	748.96
460.111	753.07
460.549	745.92
460.987	744.38
461.424	739.46
461.862	735.23
462.299	723.22
462.736	720.45
463.173	724.03
463.611	717.27
464.048	715.11
464.485	721.51
464.922	714.1
465.359	709.77
465.796	700.91
466.233	697.63
466.67	691.59
467.106	690.72
467.543	683.56
467.98	673.47
468.416	654.49
468.853	648.12
469.29	628.15
469.726	621.48
470.162	605.47
470.599	597.06
471.035	590.89
471.471	575.86
471.907	571.95
472.344	568.34
472.78	569.73
473.216	575.95
473.652	570.2
474.088	568.51
474.523	566.69
474.959	570.37
475.395	563.57
475.831	559.24
476.266	561.62
476.702	559.84
477.138	553.94
477.573	551.25
478.008	549.42
478.444	551.04
478.879	555.34
479.314	557
479.75	556.69
480.185	559.22
480.62	563.05
481.055	565.02
481.49	568.75
481.925	575.25
482.36	585.39
482.795	600.4
483.229	615.35
483.664	627.15
484.099	628.39
484.534	637.92
484.968	642.67
485.403	643.81
485.837	642.02
486.271	639.17
486.706	638.76
487.14	629.6
487.574	618.09
488.009	610.47
488.443	602.81
488.877	607.5
489.311	606.74
489.745	612.18
490.179	615.53
490.613	625.76
491.046	628.15
491.48	630.57
491.914	628.87
492.348	631.6
492.781	632.82
493.215	632.44
493.648	630.21
494.082	631.81
494.515	629.04
494.948	632.95
495.382	632.22
495.815	632.98
496.248	633.68
496.681	640.22
497.114	645.26
497.547	649.14
497.98	655.18
498.413	656.1
498.846	659.18
499.279	660.36
499.711	657.42
500.144	653.19
500.577	655.9
501.009	658.7
501.442	660.14
501.874	654.95
502.306	650.18
502.739	651.05
503.171	655.92
503.603	651.12
504.036	651.03
504.468	649.45
504.9	651.74
505.332	649.09
505.764	645.23
506.196	643.48
506.627	646.69
507.059	649.23
507.491	646.09
507.923	636.85
508.354	640.54
508.786	641.48
509.217	646.58
509.649	649.32
510.08	654.8
510.512	659.12
510.943	662.37
511.374	663.31
511.805	669.52
512.237	675.53
512.668	688.78
513.099	698.62
513.53	708.59
513.961	715.05
514.391	728.95
514.822	745.24
515.253	761.66
515.684	771.67
516.114	783.32
516.545	792.03
516.975	802.08
517.406	809.01
517.836	807.14
518.267	808
518.697	816.12
519.127	815.78
519.558	816.06
519.988	816.38
520.418	820.01
520.848	828.36
521.278	832.25
521.708	866.08
522.138	873.13
522.567	890.29
522.997	904.26
523.427	911.99
523.857	921.78
524.286	927.67
524.716	936.83
525.145	949.21
525.575	955.85
526.004	963.92
526.433	938.37
526.863	939.23
527.292	935.74
527.721	940.78
528.15	945.78
528.579	947.16
529.008	955.25
529.437	968.25
529.866	976.19
530.295	987.75
530.724	997.25
531.152	1013.46
531.581	1024.5
532.01	1035.89
532.438	1041.55
532.867	1052.16
533.295	1065.44
533.723	1070.28
534.152	1071.29
534.58	1073.5
535.008	1065.46
535.436	1068.13
535.865	1073.28
536.293	1081.73
536.721	1091.38
537.149	1107.65
537.576	1109.21
538.004	1117.61
538.432	1122.45
538.86	1122.14
539.287	1126.46
539.715	1136.63
540.143	1138.02
540.57	1136.38
540.998	1134.23
541.425	1123.37
541.852	1111.23
542.28	1111.36
542.707	1101.06
543.134	1093.78
543.561	1091.45
543.988	1087.79
544.415	1087.55
544.842	1084.49
545.269	1081.58
545.696	1083.91
546.123	1091.51
546.549	1086.48
546.976	1079.5
547.403	1080.59
547.829	1081.67
548.256	1083.7
548.682	1081.79
549.108	1077.76
549.535	1077.92
549.961	1078.85
550.387	1071.51
550.813	1069.17
551.24	1072.88
551.666	1072.58
552.092	1066.74
552.518	1063.05
552.943	1059.16
553.369	1064.07
553.795	1067.13
554.221	1068.36
554.646	1065.85
555.072	1072.21
555.498	1072.95
555.923	1077.91
556.349	1086.37
556.774	1090.44
557.199	1090.37
557.625	1092.45
558.05	1088.03
558.475	1093.34
558.9	1091.31
559.325	1087.71
559.75	1082.62
560.175	1077.45
560.6	1071.84
561.025	1069.85
561.449	1069.34
561.874	1070.89
562.299	1072.92
562.723	1074.94
563.148	1066.27
563.572	1066.97
563.997	1068.97
564.421	1068.74
564.846	1066.32
565.27	1067.06
565.694	1062.35
566.118	1065.57
566.542	1068.43
566.966	1063.08
567.39	1057.86
567.814	1051.2
568.238	1048.21
568.662	1048.91
569.086	1049.32
569.509	1051.71
569.933	1042.15
570.357	1037.38
570.78	1024.56
571.204	1016.67
571.627	1007.91
572.05	1006.34
572.474	1005.28
572.897	997.85
573.32	993.51
573.743	986.98
574.166	976.66
574.589	974.77
575.012	969.66
575.435	968.49
575.858	961.96
576.281	956
576.704	945.91
577.126	937.72
577.549	930.84
577.972	924.17
578.394	918.71
578.817	917.47
579.239	907.2
579.661	900.57
580.084	893.07
580.506	885.54
580.928	883.1
581.35	877.56
581.772	875.16
582.194	868.03
582.616	860.8
583.038	852.11
583.46	843.85
583.882	842.21
584.303	843.48
584.725	840.79
585.147	846.75
585.568	853.91
585.99	861.83
586.411	866.46
586.833	875.48
587.254	877.13
587.675	885.49
588.096	892.73
588.518	891.15
588.939	882.47
589.36	881.42
589.781	870.8
590.202	856.32
590.623	850.83
591.043	848.01
591.464	840.04
591.885	839.4
592.305	836.19
592.726	829.26
593.147	829.4
593.567	826.45
593.987	822.58
594.408	819.18
594.828	815.9
595.248	813.6
595.669	805.74
596.089	803.09
596.509	798.35
596.929	790.55
597.349	790.89
597.769	784.9
598.189	781.77
598.608	781.69
599.028	783.64
599.448	783.47
599.867	775.49
600.287	771.67
600.706	769.24
601.126	764.37
601.545	764.78
601.965	764.13
602.384	761.06
602.803	762.47
603.222	760.59
603.641	756.48
604.061	755.26
604.48	754.26
604.898	758.91
605.317	761.2
605.736	762.42
606.155	761.14
606.574	756.07
606.992	759.16
607.411	756.91
607.829	752.69
608.248	751.28
608.666	750.44
609.085	750.12
609.503	745.85
609.921	743.93
610.339	746.48
610.758	746.01
611.176	743.95
611.594	740.08
612.012	739.64
612.43	742.54
612.847	747.22
613.265	749.54
613.683	752.72
614.101	755.66
614.518	754.18
614.936	749.07
615.353	742.54
615.771	742.53
616.188	743.47
616.606	741.74
617.023	738.87
617.44	731.4
617.857	726.95
618.274	723.22
618.691	721.78
619.108	718.09
619.525	715.09
619.942	720.69
620.359	722.54
620.776	720.69
621.192	720.65
621.609	720.57
622.026	725.97
622.442	731.19
622.859	733.09
623.275	727.13
623.691	730.84
624.108	738.92
624.524	746.82
624.94	748.28
625.356	755.34
625.772	761.65
626.188	768.34
626.604	769.96
627.02	767.63
627.436	767.39
627.852	773.24
628.268	779.34
628.683	773.88
629.099	769.6
629.514	765.86
629.93	767.17
630.345	771.16
630.761	769.41
631.176	771.11
631.591	769.69
632.007	767.22
632.422	766.22
632.837	761.19
633.252	761.66
633.667	755.62
634.082	752.43
634.497	747.53
634.911	739.37
635.326	738.27
635.741	730.75
636.155	725.18
636.57	729.43
636.984	731.4
637.399	736.16
637.813	737.25
638.228	740.24
638.642	745.57
639.056	742.69
639.47	745.03
639.884	744.15
640.298	744.14
640.712	748.84
641.126	744.67
641.54	743.74
641.954	743.5
642.368	740.65
642.781	742.56
643.195	737.4
643.609	743.52
644.022	744.42
644.436	746.5
644.849	743.63
645.262	740.13
645.676	745.03
646.089	746.97
646.502	742.83
646.915	744.18
647.328	735.27
647.741	736.02
648.154	729.73
648.567	733.03
648.98	727.72
649.393	730.61
649.805	730.51
650.218	728.22
650.631	719.61
651.043	716.26
651.456	714.37
651.868	718.06
652.28	733.08
652.693	745.27
653.105	749.28
653.517	757.92
653.929	760.78
654.341	767.92
654.753	762.48
655.165	769.57
655.577	770.75
655.989	769.8
656.401	765.78
656.813	742.76
657.224	731.38
657.636	713.77
658.047	705.87
658.459	695.82
658.87	692.51
659.282	687.38
659.693	677.06
660.104	671.31
660.515	665.94
660.926	670.45
661.338	672.92
661.749	672.29
662.159	671.76
662.57	671.37
662.981	672.83
663.392	672.45
663.803	681.86
664.213	684.34
664.624	685.2
665.035	692.4
665.445	685.03
665.855	684.78
666.266	683.58
666.676	684.73
667.086	681.2
667.497	683.32
667.907	681.35
668.317	675.55
668.727	675.59
669.137	678.54
669.547	679.44
669.956	683.13
670.366	687.12
670.776	690.26
671.186	696
671.595	701.35
672.005	705.34
672.414	705.66
672.824	705.58
673.233	710.43
673.642	713.19
674.052	717.22
674.461	718.86
674.87	721.97
675.279	720.07
675.688	719.65
676.097	719.8
676.506	716.65
676.915	729.06
677.323	730.53
677.732	727.39
678.141	725.72
678.549	714.22
678.958	712.91
679.366	709.98
679.775	710.72
680.183	719.44
680.592	722.6
681	724.85
681.408	715.2
681.816	717.32
682.224	720.33
682.632	724.72
683.04	743.49
683.448	757.34
683.856	775.93
684.264	798.56
684.671	814.12
685.079	834.64
685.487	857.43
685.894	892.65
686.302	915.95
686.709	930.83
687.116	948.82
687.524	959.31
687.931	963.01
688.338	962.21
688.745	956
689.152	953.69
689.559	959.81
689.966	965.54
690.373	955.99
690.78	961.08
691.187	979.24
691.593	988.32
692	994.49
692.407	1014.93
692.813	1046.21
693.22	1066.72
693.626	1089.87
694.032	1107.15
694.439	1139.69
694.845	1164.51
695.251	1200.47
695.657	1234.11
696.063	1286.78
696.469	1327.72
696.875	1368.33
697.281	1391.89
697.687	1424.21
698.093	1453.83
698.498	1504.45
698.904	1548.34
699.31	1611.49
699.715	1664.28
700.12	1733.48
700.526	1760.99
700.931	1821.06
701.337	1871.73
701.742	1910.82
702.147	1984.1
702.552	2025.38
