Data from N_2_DIV_WI_4N_Splice17_12-17-41-310.txt Node
Date: Sat Mar 14 12:17:41 EDT 2020
User: sa697716
Spectrometer: FLMS03696
Trigger mode: 0
Integration Time (sec): 3.180400E-1
Scans to average: 20
Electric dark correction enabled: true
Nonlinearity correction enabled: true
Boxcar width: 5
XAxis mode: Wavelengths
Number of Pixels in Spectrum: 2048
>>>>>Begin Spectral Data<<<<<
187.83	-207143.41
188.298	1493.76
188.766	855.27
189.233	787.53
189.701	1144.37
190.169	1671.24
190.636	629.48
191.104	575.16
191.571	121.18
192.039	-47.36
192.506	-46.1
192.974	490.72
193.441	-786.55
193.908	-222.58
194.375	-59.18
194.842	38.54
195.31	173.05
195.777	174.94
196.244	407.1
196.711	471.82
197.177	573.24
197.644	802.51
198.111	1404.11
198.578	1951.25
199.045	1573.87
199.511	2578.08
199.978	2986.21
200.445	2530.26
200.911	2804.1
201.378	3127.12
201.844	2845.4
202.31	4840.77
202.777	5064.84
203.243	2819.12
203.709	2709.25
204.176	3234.46
204.642	2658.12
205.108	2492.81
205.574	2048.31
206.04	1869.25
206.506	1767.4
206.972	1676.76
207.438	1623.74
207.903	1846.44
208.369	1616.57
208.835	1607.05
209.301	1685.2
209.766	1748.97
210.232	1740.82
210.697	2154.33
211.163	2692.81
211.628	4077.06
212.094	3428.95
212.559	4236.55
213.024	2658.76
213.49	3257.48
213.955	3172.67
214.42	3120.85
214.885	2918.51
215.35	2804.7
215.815	2723.05
216.28	2912.26
216.745	2394.27
217.21	2631.64
217.675	2464.77
218.14	2815.12
218.604	3213.81
219.069	3772.93
219.534	4010.61
219.998	4741.37
220.463	5857.54
220.927	7320.99
221.392	6979.31
221.856	7123.23
222.32	9086.69
222.785	11314.91
223.249	14349.77
223.713	16105.69
224.177	16140.05
224.642	20802.31
225.106	25651.14
225.57	28083.67
226.034	20900
226.497	31881.39
226.961	28797.99
227.425	33488.2
227.889	37108.05
228.353	37135.84
228.816	76661.37
229.28	73233.04
229.744	61804.35
230.207	37525.22
230.671	36849.1
231.134	61007.2
231.597	70187.96
232.061	70301.32
232.524	68569.29
232.987	47228.48
233.45	42441.06
233.914	38013.82
234.377	38979.96
234.84	35642.06
235.303	42017.71
235.766	46908.67
236.229	48382.05
236.691	30482.79
237.154	34164.85
237.617	25655.3
238.08	26248.45
238.542	30703.41
239.005	21924.16
239.468	21730.8
239.93	20445.42
240.393	18563.48
240.855	16257.7
241.317	16655.31
241.78	20246.61
242.242	20904.06
242.704	22543.44
243.166	19604.98
243.629	17762.05
244.091	20440.45
244.553	22359.59
245.015	24018.6
245.477	31014.48
245.939	45439.2
246.4	48142.56
246.862	46708.11
247.324	43980.14
247.786	49169.86
248.247	64362.72
248.709	66474.53
249.17	49687.67
249.632	46756.98
250.093	54091.33
250.555	46695.42
251.016	28423.28
251.477	26927
251.939	29021.5
252.4	30446.69
252.861	36187.04
253.322	33615.79
253.783	39932
254.244	51731.17
254.705	40785.37
255.166	36248.73
255.627	35624.91
256.088	50249.85
256.549	53323.26
257.009	45864.6
257.47	55569.85
257.931	45204.24
258.391	33860.85
258.852	34861.19
259.312	36522.98
259.773	45027.22
260.233	38019.12
260.694	32029.36
261.154	36280.45
261.614	29069.02
262.074	25959.19
262.534	26920.24
262.994	25340.23
263.455	33676.9
263.915	28347.35
264.374	26656.27
264.834	29091.35
265.294	32228.12
265.754	33388.08
266.214	31591.55
266.673	29567.77
267.133	37296.46
267.593	36986.97
268.052	45213.03
268.512	39320.77
268.971	47359.23
269.431	51929.3
269.89	46447.47
270.349	69507.61
270.809	77363.65
271.268	69486.55
271.727	155832.44
272.186	100928.43
272.645	75683.94
273.104	54563.5
273.563	79023.23
274.022	62134.23
274.481	52797.47
274.94	40689.02
275.399	30242.12
275.857	35232.67
276.316	47629.23
276.775	42341.56
277.233	41619.21
277.692	38930.59
278.15	44024.42
278.609	45238.47
279.067	41872.89
279.525	38831.8
279.984	50095.83
280.442	60168.54
280.9	59212.5
281.358	38893.8
281.816	36245.63
282.274	35481
282.732	36603.01
283.19	36778.96
283.648	31698.58
284.106	33671.51
284.564	34223.81
285.021	31697.65
285.479	23595.12
285.937	21451.07
286.394	18804
286.852	19325.04
287.309	20293.66
287.767	19593.25
288.224	18599.74
288.682	20392.05
289.139	22364.64
289.596	20458.98
290.053	21221.66
290.511	26727.9
290.968	32359.32
291.425	43905.41
291.882	36482.59
292.339	31718.82
292.796	31483.33
293.252	29622.25
293.709	23504.7
294.166	21070.97
294.623	23264.78
295.079	22305.96
295.536	22379.89
295.992	20310.73
296.449	20060.11
296.905	20825.16
297.362	19960.5
297.818	20956.98
298.274	21719.06
298.731	22108.95
299.187	21850.2
299.643	23462.39
300.099	28362.31
300.555	31110.12
301.011	25952.88
301.467	24980.68
301.923	29212.19
302.379	28479.05
302.835	27932.97
303.291	27946.8
303.746	31762.6
304.202	40103.6
304.658	40180.27
305.113	26961.62
305.569	26375.16
306.024	28085.71
306.479	26714.51
306.935	22491.22
307.39	24523.2
307.845	22631.04
308.301	22761.4
308.756	22174.34
309.211	21341.82
309.666	21830.58
310.121	27109.39
310.576	27493.02
311.031	27322.22
311.486	31248.43
311.94	31190.72
312.395	41676.46
312.85	78234.83
313.305	383428.48
313.759	1982025.41
314.214	143391.57
314.668	113632.36
315.123	95419.01
315.577	34188.37
316.032	30352.73
316.486	38013.12
316.94	29976.76
317.394	20847.26
317.849	16178.24
318.303	15296.63
318.757	14413.55
319.211	15908.95
319.665	13895.75
320.119	14035.31
320.572	20119.19
321.026	18745.23
321.48	15572.84
321.934	16965.3
322.387	17001.19
322.841	18340.83
323.295	16485.58
323.748	18984.01
324.202	19251.95
324.655	23102.27
325.108	32292.25
325.562	22766.52
326.015	27025.75
326.468	20424
326.921	22837.12
327.374	21283.8
327.827	22158.09
328.28	25065.75
328.733	16790.51
329.186	14742.86
329.639	14060.41
330.092	11831.71
330.545	11260.86
330.997	11368.16
331.45	12419.83
331.903	14537.58
332.355	24978.82
332.808	24244.04
333.26	19997.51
333.713	21676.41
334.165	21822.6
334.617	29118.94
335.069	23517.34
335.522	42493.92
335.974	47049.66
336.426	42977.24
336.878	29848.4
337.33	15144.69
337.782	14786.93
338.234	18491.73
338.686	22135.78
339.137	26251.42
339.589	24722.81
340.041	19417.36
340.493	16696.74
340.944	17063.06
341.396	18360.98
341.847	15394.65
342.299	18171.43
342.75	22130.33
343.201	19331.98
343.653	22222.73
344.104	27331.85
344.555	21510.49
345.006	33421.65
345.457	25592.58
345.908	20360.66
346.359	19143.87
346.81	15591.22
347.261	16412.83
347.712	16196.88
348.163	17363.99
348.613	17561.19
349.064	16359.36
349.515	14315.5
349.965	14684.56
350.416	17668.19
350.866	19356.35
351.317	21874.87
351.767	36207.37
352.217	45718.18
352.668	37948.21
353.118	34747.04
353.568	33511.94
354.018	26496.76
354.468	27942.51
354.918	20002.88
355.368	17503.25
355.818	24749.12
356.268	71186.05
356.718	297783.86
357.168	74064.15
357.617	37101.13
358.067	41300.19
358.517	38666.21
358.966	45348.95
359.416	50714.7
359.865	54910.79
360.315	65354.86
360.764	30442.44
361.213	17061.33
361.663	16141.07
362.112	19948.27
362.561	32240.38
363.01	24265.39
363.459	20411.49
363.908	22101.94
364.357	18784.89
364.806	31682.92
365.255	21776.11
365.703	19966.47
366.152	19994.61
366.601	16208.35
367.05	13124.25
367.498	11938.15
367.947	12478.16
368.395	12943.73
368.844	11454.29
369.292	13799.45
369.74	9531.25
370.189	14558.87
370.637	17040.74
371.085	14696.29
371.533	17886.65
371.981	17229.64
372.429	16383.22
372.877	17045.86
373.325	14277.23
373.773	14508.16
374.221	12924.78
374.669	16007.57
375.116	13854.47
375.564	13955.1
376.012	15565.81
376.459	12832.45
376.907	15350.67
377.354	18519.03
377.801	17265.67
378.249	19839.42
378.696	25304.98
379.143	30584.47
379.591	32558.42
380.038	55028.04
380.485	39806.09
380.932	42987.35
381.379	39280.17
381.826	28875.24
382.273	20529.11
382.72	17940.72
383.166	17458.91
383.613	11329.03
384.06	10194.15
384.506	11799.41
384.953	8647.05
385.4	8684.98
385.846	7592.55
386.292	7388.49
386.739	7211.88
387.185	7126.26
387.631	7116.58
388.078	6902.32
388.524	7365.82
388.97	6793.41
389.416	5654.36
389.862	6006.92
390.308	5664.14
390.754	5746.62
391.2	6228.74
391.645	6362.99
392.091	6076.96
392.537	5863.65
392.983	5861.46
393.428	5759.35
393.874	6164.72
394.319	6177.96
394.765	5850.21
395.21	6026.19
395.655	5639.16
396.101	5263.7
396.546	4744.93
396.991	4769.96
397.436	4425.88
397.881	4275.35
398.326	4049.97
398.771	3829.85
399.216	3343.8
399.661	3002.69
400.106	2987.11
400.551	3048.54
400.995	2736.32
401.44	2704.69
401.885	2542.25
402.329	2562.66
402.774	2452.3
403.218	2368.23
403.663	2273.32
404.107	2339.62
404.551	2358.71
404.995	2158.05
405.44	2081.03
405.884	2108.39
406.328	2038.02
406.772	2027.11
407.216	1843.03
407.66	1778.61
408.104	1687.11
408.547	1580.07
408.991	1523.73
409.435	1461.19
409.879	1440.07
410.322	1420.08
410.766	1369.77
411.209	1299.96
411.653	1248.6
412.096	1223.44
412.54	1223.9
412.983	1214.41
413.426	1215.89
413.869	1212.76
414.312	1190.61
414.756	1148.11
415.199	1094.2
415.642	1061.44
416.085	1063.98
416.527	1052.35
416.97	1068.03
417.413	1012.89
417.856	1000.79
418.298	988.17
418.741	979.85
419.184	976.1
419.626	1010.54
420.069	1009.04
420.511	1013.76
420.953	990.2
421.396	984.83
421.838	956.89
422.28	976.72
422.722	980.07
423.164	993.56
423.606	978.14
424.048	974.44
424.49	928.94
424.932	923.38
425.374	910.64
425.816	924.42
426.258	939.35
426.699	947.69
427.141	929.11
427.582	944.56
428.024	939.08
428.465	931.61
428.907	910.04
429.348	900.33
429.789	902.25
430.231	882.33
430.672	894.65
431.113	871.53
431.554	861.27
431.995	843.02
432.436	813.09
432.877	796.62
433.318	785.33
433.759	782.9
434.2	781.02
434.64	770.62
435.081	774.41
435.522	735.61
435.962	710.4
436.403	697.39
436.843	707.43
437.284	693.24
437.724	673.37
438.164	672.05
438.604	657.26
439.045	634.63
439.485	610
439.925	595.93
440.365	579.96
440.805	570.61
441.245	561.2
441.685	541.45
442.125	536.48
442.564	541.33
443.004	530.96
443.444	529.51
443.883	528.07
444.323	521.62
444.762	521.55
445.202	526.96
445.641	538.63
446.081	535.49
446.52	538.65
446.959	533.17
447.398	519.76
447.837	512.75
448.276	503.17
448.716	506.89
449.154	512.01
449.593	500.43
450.032	499.7
450.471	488.64
450.91	488.24
451.349	488.18
451.787	484.46
452.226	490.18
452.664	489.54
453.103	489.61
453.541	489.47
453.98	488.69
454.418	491.5
454.856	484.39
455.295	484.04
455.733	488.14
456.171	489.27
456.609	492.54
457.047	493.36
457.485	500.92
457.923	502.33
458.361	495.5
458.798	498.05
459.236	497.29
459.674	499.85
460.111	501.76
460.549	496.99
460.987	494.62
461.424	491.27
461.862	488.13
462.299	480.58
462.736	479.47
463.173	480.84
463.611	476.74
464.048	476.36
464.485	480.5
464.922	476.33
465.359	474
465.796	470.83
466.233	468
466.67	463.8
467.106	463.55
467.543	460.42
467.98	454.46
468.416	441.48
468.853	437.13
469.29	423.51
469.726	418.78
470.162	407.54
470.599	399.5
471.035	395.21
471.471	385.67
471.907	381.77
472.344	377.8
472.78	379.64
473.216	383.56
473.652	377.48
474.088	375.59
474.523	374.06
474.959	377.96
475.395	374.47
475.831	372.53
476.266	374.58
476.702	373.13
477.138	368.84
477.573	366.36
478.008	364.61
478.444	366.75
478.879	370.48
479.314	371.49
479.75	369.96
480.185	371.21
480.62	373.12
481.055	374.36
481.49	377.05
481.925	382.4
482.36	390.03
482.795	400.38
483.229	410.93
483.664	419.78
484.099	420.64
484.534	427
484.968	431.69
485.403	433.18
485.837	432.24
486.271	432.1
486.706	432.21
487.14	426.08
487.574	419.43
488.009	415.67
488.443	411.42
488.877	416.33
489.311	417.46
489.745	422.61
490.179	426.63
490.613	435.48
491.046	438.22
491.48	442.07
491.914	443.15
492.348	447.07
492.781	450.57
493.215	452.11
493.648	453.43
494.082	457.56
494.515	458.34
494.948	465.05
495.382	468.81
495.815	473.66
496.248	478.86
496.681	488.8
497.114	496.94
497.547	504.75
497.98	515.64
498.413	522.22
498.846	530.84
499.279	538.79
499.711	543.28
500.144	546.47
500.577	556.13
501.009	565.26
501.442	574.15
501.874	578.12
502.306	581.47
502.739	591.11
503.171	603.26
503.603	608.7
504.036	616.99
504.468	624.1
504.9	635.64
505.332	643.02
505.764	650.15
506.196	658.63
506.627	673.38
507.059	687.75
507.491	696.37
507.923	699.61
508.354	714.66
508.786	727.12
509.217	744.97
509.649	760.83
510.08	779.93
510.512	797.38
510.943	813.56
511.374	826.1
511.805	846.61
512.237	865.93
512.668	896.42
513.099	922.44
513.53	949.37
513.961	970.37
514.391	1000.27
514.822	1032.04
515.253	1065.87
515.684	1091.69
516.114	1121.75
516.545	1144.34
516.975	1171.39
517.406	1191.12
517.836	1198.63
518.267	1208.95
518.697	1228.73
519.127	1237.34
519.558	1247.17
519.988	1254.14
520.418	1267.27
520.848	1285.68
521.278	1296.35
521.708	1320.46
522.138	1334.91
522.567	1365.57
522.997	1391.74
523.427	1408.3
523.857	1427.14
524.286	1439.68
524.716	1455.79
525.145	1475.18
525.575	1488.76
526.004	1505.05
526.433	1497.84
526.863	1500.41
527.292	1492.64
527.721	1499.24
528.15	1507.02
528.579	1508.58
529.008	1520.96
529.437	1543.11
529.866	1556.82
530.295	1572.19
530.724	1584.37
531.152	1609.94
531.581	1623.98
532.01	1641.91
532.438	1650.51
532.867	1664.38
533.295	1682.23
533.723	1688.5
534.152	1687.56
534.58	1687.86
535.008	1674.81
535.436	1677.18
535.865	1684.14
536.293	1697.2
536.721	1712.09
537.149	1735.94
537.576	1739.53
538.004	1750.99
538.432	1758.33
538.86	1756.63
539.287	1765.12
539.715	1778.23
540.143	1781.37
540.57	1778.01
540.998	1775.01
541.425	1753.87
541.852	1734.13
542.28	1732.3
542.707	1717.56
543.134	1703.33
543.561	1699.66
543.988	1691.17
544.415	1690.96
544.842	1685.08
545.269	1679.19
545.696	1680.82
546.123	1693.13
546.549	1683.12
546.976	1670.22
547.403	1669.38
547.829	1672.11
548.256	1674.3
548.682	1671.13
549.108	1662.33
549.535	1661.77
549.961	1662.55
550.387	1649.62
550.813	1643.79
551.24	1649.8
551.666	1650.46
552.092	1640.96
552.518	1634.23
552.943	1627.91
553.369	1634.55
553.795	1639.89
554.221	1640.34
554.646	1637.58
555.072	1646.81
555.498	1650.21
555.923	1657.73
556.349	1671.3
556.774	1678.86
557.199	1679.3
557.625	1683.71
558.05	1677.29
558.475	1685.77
558.9	1683.8
559.325	1674.86
559.75	1667.71
560.175	1660.15
560.6	1651.67
561.025	1646.83
561.449	1647.11
561.874	1650.26
562.299	1652.28
562.723	1656.58
563.148	1645.11
563.572	1645.97
563.997	1653.35
564.421	1656.31
564.846	1654.76
565.27	1657.57
565.694	1654.58
566.118	1661.5
566.542	1666.17
566.966	1658.98
567.39	1651.78
567.814	1639.91
568.238	1638.45
568.662	1639.53
569.086	1639.29
569.509	1644.67
569.933	1627.46
570.357	1618.01
570.78	1597.94
571.204	1584.2
571.627	1571.48
572.05	1568
572.474	1565.93
572.897	1552.47
573.32	1543.99
573.743	1533.34
574.166	1514.53
574.589	1513.05
575.012	1505.17
575.435	1501.58
575.858	1490.52
576.281	1477.98
576.704	1461.59
577.126	1448.9
577.549	1436.66
577.972	1425.02
578.394	1413.48
578.817	1404.66
579.239	1386.23
579.661	1372.04
580.084	1355.96
580.506	1342.73
580.928	1338.32
581.35	1327.12
581.772	1320.34
582.194	1307.19
582.616	1294.98
583.038	1281.21
583.46	1270.44
583.882	1266.02
584.303	1267.46
584.725	1261.83
585.147	1263.89
585.568	1271.06
585.99	1280.04
586.411	1284.47
586.833	1294.53
587.254	1295.02
587.675	1305.49
588.096	1315.15
588.518	1309.43
588.939	1293.95
589.36	1292.6
589.781	1280.48
590.202	1255.79
590.623	1246.84
591.043	1243.86
591.464	1232
591.885	1227.47
592.305	1221.55
592.726	1209.08
593.147	1209.44
593.567	1204.79
593.987	1197.15
594.408	1192.74
594.828	1190.53
595.248	1186.58
595.669	1171.17
596.089	1166.59
596.509	1161.26
596.929	1149.76
597.349	1149
597.769	1139.9
598.189	1134.39
598.608	1135.92
599.028	1137.03
599.448	1136.65
599.867	1124.39
600.287	1119.86
600.706	1115.27
601.126	1107
601.545	1105.77
601.965	1104.31
602.384	1100.11
602.803	1101.41
603.222	1095.23
603.641	1089.35
604.061	1085.37
604.48	1081.55
604.898	1087.21
605.317	1089.53
605.736	1089.62
606.155	1086.23
606.574	1078.28
606.992	1080.13
607.411	1074.44
607.829	1066.63
608.248	1061.77
608.666	1057.8
609.085	1055.61
609.503	1047.66
609.921	1041.45
610.339	1040.87
610.758	1038.46
611.176	1033.43
611.594	1024.6
612.012	1020.47
612.43	1021.44
612.847	1024.73
613.265	1024.7
613.683	1026.52
614.101	1025.74
614.518	1020.82
614.936	1011.8
615.353	998.91
615.771	994.52
616.188	992.81
616.606	988.39
617.023	982.32
617.44	969.65
617.857	962.14
618.274	953.9
618.691	947.81
619.108	939.82
619.525	933.41
619.942	937.19
620.359	937.26
620.776	932.65
621.192	929
621.609	926.11
622.026	930.63
622.442	934.62
622.859	936.21
623.275	929.63
623.691	932.54
624.108	940.68
624.524	949.92
624.94	950.56
625.356	957.74
625.772	966.96
626.188	974.73
626.604	974.65
627.02	970.52
627.436	968.6
627.852	974.17
628.268	983.3
628.683	976.11
629.099	969.68
629.514	964.39
629.93	966.69
630.345	969.39
630.761	965.47
631.176	967.75
631.591	962.99
632.007	958.26
632.422	955.06
632.837	945.19
633.252	943.08
633.667	934.23
634.082	926.69
634.497	916.54
634.911	901.59
635.326	897.43
635.741	883.59
636.155	873.88
636.57	873.43
636.984	871.25
637.399	870.17
637.813	866.79
638.228	863.57
638.642	862.72
639.056	852.2
639.47	849.3
639.884	839.83
640.298	832.75
640.712	830.01
641.126	817.64
641.54	807.9
641.954	801.03
642.368	789.88
642.781	782.57
643.195	768.88
643.609	766.76
644.022	759.52
644.436	755.99
644.849	744.43
645.262	733.08
645.676	731.34
646.089	726.17
646.502	714.88
646.915	709.31
647.328	696.28
647.741	693.31
648.154	682.31
648.567	679.69
648.98	668.49
649.393	667.96
649.805	665.26
650.218	658.88
650.631	648.95
651.043	643.1
651.456	638.72
651.868	637.79
652.28	647.25
652.693	655.16
653.105	657.95
653.517	662.78
653.929	662.88
654.341	665.17
654.753	657.67
655.165	659.66
655.577	658.08
655.989	654.26
656.401	647.3
656.813	624.62
657.224	609.41
657.636	589.73
658.047	578.49
658.459	563.75
658.87	555.97
659.282	545.92
659.693	532.48
660.104	521.72
660.515	511
660.926	508.7
661.338	504.9
661.749	500.98
662.159	493.98
662.57	489.45
662.981	485.99
663.392	481.63
663.803	483.4
664.213	480.68
664.624	477.76
665.035	479.84
665.445	470.83
665.855	466.83
666.266	462.68
666.676	461.65
667.086	455.31
667.497	454.71
667.907	450.94
668.317	446.16
668.727	445.86
669.137	445.47
669.547	443.68
669.956	445.03
670.366	446.33
670.776	447.19
671.186	449.81
671.595	453.05
672.005	455.42
672.414	455.81
672.824	455.48
673.233	457.05
673.642	458.99
674.052	462.45
674.461	465.24
674.87	468.22
675.279	467.68
675.688	468.47
676.097	470.7
676.506	470.11
676.915	478.66
677.323	481.71
677.732	481.68
678.141	482.99
678.549	476.34
678.958	476.67
679.366	476.92
679.775	479.94
680.183	488.02
680.592	491.65
681	495.27
681.408	492.82
681.816	498.36
682.224	504.53
682.632	512.95
683.04	532.4
683.448	548.57
683.856	570.07
684.264	593.96
684.671	615.87
685.079	642.42
685.487	673.07
685.894	715.27
686.302	749.28
686.709	779.72
687.116	815.25
687.524	846.07
687.931	875.43
688.338	900.18
688.745	923.21
689.152	950.4
689.559	986.7
689.966	1022.84
690.373	1045.24
690.78	1083.37
691.187	1135.51
691.593	1178.22
692	1218.42
692.407	1275.28
692.813	1342.51
693.22	1399.25
693.626	1457.29
694.032	1504.89
694.439	1573.97
694.845	1629.55
695.251	1698.93
695.657	1763.76
696.063	1855.43
696.469	1927.69
696.875	1993.56
697.281	2037.53
697.687	2089.05
698.093	2135.03
698.498	2211.72
698.904	2274.56
699.31	2362.13
699.715	2429.27
700.12	2521.18
700.526	2549.98
