Data from N_2_HIR_IL_4N_Splice17_12-11-08-823.txt Node
Date: Sat Mar 14 12:11:08 EDT 2020
User: sa697716
Spectrometer: FLMS03696
Trigger mode: 0
Integration Time (sec): 3.180400E-1
Scans to average: 20
Electric dark correction enabled: true
Nonlinearity correction enabled: true
Boxcar width: 5
XAxis mode: Wavelengths
Number of Pixels in Spectrum: 2048
>>>>>Begin Spectral Data<<<<<
187.83	-306642.35
188.298	2104
188.766	1172.65
189.233	1041.25
189.701	1448.93
190.169	2066.68
190.636	851.47
191.104	733.12
191.571	157.39
192.039	-33.1
192.506	-71.71
192.974	295.59
193.441	-602.66
193.908	-22.24
194.375	-49.55
194.842	16.95
195.31	132.47
195.777	191.29
196.244	402.37
196.711	490.42
197.177	609.73
197.644	858.34
198.111	1474.98
198.578	2053.68
199.045	1635.08
199.511	2685.09
199.978	3123.51
200.445	2672.32
200.911	2964.53
201.378	3305.62
201.844	2988.18
202.31	5096.15
202.777	5301.07
203.243	2935.45
203.709	2807.34
204.176	3375.02
204.642	2789.04
205.108	2612.65
205.574	2121.49
206.04	1958.12
206.506	1837.21
206.972	1742.91
207.438	1689.05
207.903	1906.42
208.369	1680.83
208.835	1678.23
209.301	1745.98
209.766	1794.47
210.232	1786.9
210.697	2200.16
211.163	2692.22
211.628	4058.2
212.094	3369.25
212.559	4109.75
213.024	2563.97
213.49	3122.63
213.955	3027.72
214.42	2971.24
214.885	2761.12
215.35	2649.99
215.815	2540.48
216.28	2677.2
216.745	2164.19
217.21	2316.32
217.675	2099.52
218.14	2334.38
218.604	2558.21
219.069	2886.09
219.534	2987.51
219.998	3437.89
220.463	4104.37
220.927	5012.74
221.392	4685.2
221.856	4726.44
222.32	5935.37
222.785	7319.49
223.249	9186.48
223.713	10256.69
224.177	10255.01
224.642	13123.56
225.106	16072.56
225.57	17550.72
226.034	13010.4
226.497	19766.17
226.961	17803.04
227.425	20700.99
227.889	22967.77
228.353	22930.69
228.816	47199.8
229.28	45012.17
229.744	37824.73
230.207	22996.53
230.671	22646.33
231.134	37433.08
231.597	43171.45
232.061	43156.78
232.524	42073.23
232.987	28923.78
233.45	26025.29
233.914	23306.18
234.377	23880.78
234.84	21870.31
235.303	25785.26
235.766	28669.72
236.229	29620.69
236.691	18618.7
237.154	20919.35
237.617	15722.62
238.08	16080.85
238.542	18822.36
239.005	13451.1
239.468	13332.23
239.93	12560.6
240.393	11407.52
240.855	10020.11
241.317	10242.49
241.78	12464.52
242.242	12845.53
242.704	13871.29
243.166	12054.45
243.629	10936.13
244.091	12591.23
244.553	13779.69
245.015	14793.33
245.477	19122.12
245.939	28004.27
246.4	29733.25
246.862	28843.19
247.324	27230.17
247.786	30436.11
248.247	39930.07
248.709	41162.55
249.17	30841.7
249.632	29078.41
250.093	33743.64
250.555	29112.43
251.016	17753.81
251.477	16840.11
251.939	18173.66
252.4	19057.86
252.861	22648.15
253.322	21064.35
253.783	25079.93
254.244	32490.55
254.705	25617.54
255.166	22771.95
255.627	22424.33
256.088	31654.4
256.549	33634.53
257.009	28946.65
257.47	35125.46
257.931	28613.01
258.391	21433.14
258.852	22076.26
259.312	23120.15
259.773	28555.21
260.233	24137.33
260.694	20361.86
261.154	23052.1
261.614	18472.48
262.074	16540.73
262.534	17183.19
262.994	16191.42
263.455	21564.23
263.915	18170.04
264.374	17114.23
264.834	18683.09
265.294	20683.66
265.754	21426.23
266.214	20308.11
266.673	19055.46
267.133	24031.47
267.593	23852.84
268.052	29157.04
268.512	25376.39
268.971	30639.89
269.431	33635.5
269.89	30122.26
270.349	45171.95
270.809	50338.25
271.268	45224.42
271.727	101363.25
272.186	65727.12
272.645	49316.39
273.104	35626.01
273.563	51575.98
274.022	40531.1
274.481	34493.45
274.94	26622.5
275.399	19800.1
275.857	23108.69
276.316	31276.94
276.775	27857.44
277.233	27433.38
277.692	25686.63
278.15	29056.56
278.609	29937.67
279.067	27724.51
279.525	25781.07
279.984	33274.92
280.442	39980.89
280.9	39390.22
281.358	25924.31
281.816	24177.91
282.274	23686.12
282.732	24482.99
283.19	24621.6
283.648	21265.33
284.106	22664.39
284.564	23066.65
285.021	21416.05
285.479	16000.7
285.937	14556.33
286.394	12780.45
286.852	13160.87
287.309	13853.36
287.767	13389.89
288.224	12759.43
288.682	13998.66
289.139	15381.18
289.596	14066.46
290.053	14594.09
290.511	18390.45
290.968	22334.19
291.425	30290.07
291.882	25200.85
292.339	21905.07
292.796	21712.49
293.252	20451.65
293.709	16254.59
294.166	14539.63
294.623	16060.86
295.079	15398.18
295.536	15467.79
295.992	14024.96
296.449	13877
296.905	14417.58
297.362	13825.78
297.818	14555.18
298.274	15095.77
298.731	15359.48
299.187	15215.93
299.643	16333.56
300.099	19793.9
300.555	21683.6
301.011	18125.73
301.467	17476.9
301.923	20446.66
302.379	19991.37
302.835	19633.7
303.291	19654.14
303.746	22379.06
304.202	28259.37
304.658	28366.33
305.113	19081.96
305.569	18718.84
306.024	19957.19
306.479	18987.55
306.935	16001.68
307.39	17460.38
307.845	16130.35
308.301	16233.98
308.756	15812.06
309.211	15253.1
309.666	15629.06
310.121	19401.86
310.576	19692.34
311.031	19540.69
311.486	22383.47
311.94	22384.17
312.395	29940.17
312.85	56232.99
313.305	276064.6
313.759	1431937.18
314.214	103701.42
314.668	82288.38
315.123	69275.7
315.577	24883.42
316.032	22143.43
316.486	27798.11
316.94	21970.55
317.394	15290.78
317.849	11904.67
318.303	11277.01
318.757	10628.77
319.211	11748.09
319.665	10293.23
320.119	10405.28
320.572	14907.36
321.026	13924.71
321.48	11570.75
321.934	12600.3
322.387	12619.16
322.841	13609.02
323.295	12244.6
323.748	14097.97
324.202	14312.39
324.655	17134.81
325.108	23944.58
325.562	16928.33
326.015	20104.74
326.468	15192.92
326.921	16989.07
327.374	15881.49
327.827	16547.37
328.28	18744.62
328.733	12564.61
329.186	11051.46
329.639	10550.63
330.092	8894.76
330.545	8471.01
330.997	8565.92
331.45	9377.3
331.903	11001.45
332.355	18924.8
332.808	18411.3
333.26	15174.82
333.713	16495.55
334.165	16598.28
334.617	22195.07
335.069	17943.78
335.522	32458.61
335.974	35907.63
336.426	32787.34
336.878	22724.1
337.33	11517.7
337.782	11252.65
338.234	14097.1
338.686	16838.5
339.137	19978.35
339.589	18775.33
340.041	14732.85
340.493	12655.6
340.944	12951.65
341.396	13933.97
341.847	11694.67
342.299	13782.91
342.75	16809.58
343.201	14662.48
343.653	16827.49
344.104	20631.3
344.555	16225.62
345.006	25192.67
345.457	19296.5
345.908	15321.35
346.359	14453.16
346.81	11797.67
347.261	12437.72
347.712	12244.2
348.163	13153.09
348.613	13376.44
349.064	12494.32
349.515	10962.13
349.965	11244.89
350.416	13523.68
350.866	14831.6
351.317	16725.66
351.767	27652.34
352.217	34932.84
352.668	28959.91
353.118	26503.57
353.568	25502.22
354.018	20205.87
354.468	21291.57
354.918	15285
355.368	13381.65
355.818	18899.55
356.268	54450.55
356.718	228179.63
357.168	56851.78
357.617	28526.14
358.067	31678.47
358.517	29709.2
358.966	34814.39
359.416	39030.63
359.865	42206.94
360.315	50326.15
360.764	23522.78
361.213	13157.44
361.663	12462.14
362.112	15355.41
362.561	24835.04
363.01	18770.14
363.459	15792.61
363.908	17084.97
364.357	14527.56
364.806	24434.44
365.255	16758.04
365.703	15344.86
366.152	15358.71
366.601	12436.63
367.05	10091.48
367.498	9147.42
367.947	9552.92
368.395	9925.12
368.844	8799.25
369.292	10598.97
369.74	7349.66
370.189	11273.2
370.637	13180.48
371.085	11386.39
371.533	13880.97
371.981	13403.65
372.429	12816.01
372.877	13345.97
373.325	11198.48
373.773	11415.62
374.221	10158.27
374.669	12576.65
375.116	10897.36
375.564	11022.57
376.012	12342.03
376.459	10175.9
376.907	12173.16
377.354	14757.54
377.801	13780.07
378.249	15844.97
378.696	20248.99
379.143	24589.35
379.591	26279.25
380.038	44495.25
380.485	32231.23
380.932	34868.37
381.379	32013.79
381.826	23620.93
382.273	16823.48
382.72	14756.21
383.166	14425.83
383.613	9403.27
384.06	8495.08
384.506	9873.52
384.953	7276.93
385.4	7346.87
385.846	6460.8
386.292	6313.63
386.739	6190.05
387.185	6129.3
387.631	6156.02
388.078	5991.06
388.524	6418.88
388.97	5968.57
389.416	5005.3
389.862	5340.21
390.308	5080.76
390.754	5178.64
391.2	5648.74
391.645	5818.41
392.091	5603.7
392.537	5436.05
392.983	5473.23
393.428	5415.87
393.874	5817.72
394.319	5858.46
394.765	5590.72
395.21	5780.22
395.655	5454.03
396.101	5132.01
396.546	4647.02
396.991	4704.01
397.436	4391.81
397.881	4269.76
398.326	4063.69
398.771	3864.01
399.216	3393.76
399.661	3071.6
400.106	3072.69
400.551	3164.79
400.995	2853
401.44	2841.65
401.885	2683.35
402.329	2727.31
402.774	2621.51
403.218	2553.78
403.663	2472.39
404.107	2558.24
404.551	2588.08
404.995	2389.49
405.44	2310.08
405.884	2358.1
406.328	2288.34
406.772	2288.98
407.216	2092.97
407.66	2031.47
408.104	1933.22
408.547	1815.88
408.991	1762.38
409.435	1699.61
409.879	1681.27
410.322	1665.12
410.766	1610.03
411.209	1534.65
411.653	1478.28
412.096	1453.36
412.54	1457.25
412.983	1450.85
413.426	1459.18
413.869	1459.04
414.312	1435.33
414.756	1386.02
415.199	1323.56
415.642	1289.82
416.085	1296.65
416.527	1288.94
416.97	1309.98
417.413	1245.88
417.856	1237.35
418.298	1225.67
418.741	1221.1
419.184	1220.89
419.626	1272.14
420.069	1271.5
420.511	1278.71
420.953	1251.91
421.396	1241.66
421.838	1211.47
422.28	1240.49
422.722	1246.48
423.164	1267.69
423.606	1248.04
424.048	1248.77
424.49	1187.99
424.932	1185.98
425.374	1171.42
425.816	1190
426.258	1215.75
426.699	1229.99
427.141	1211.66
427.582	1231.45
428.024	1223.83
428.465	1215.55
428.907	1183.97
429.348	1169.93
429.789	1168.64
430.231	1144.54
430.672	1163.69
431.113	1136.09
431.554	1119.82
431.995	1093.78
432.436	1054.15
432.877	1030.89
433.318	1012.65
433.759	1007.73
434.2	1009.9
434.64	999.57
435.081	1000.59
435.522	946.67
435.962	913.27
436.403	895.62
436.843	908.61
437.284	889.51
437.724	865.94
438.164	870.93
438.604	852.44
439.045	817.78
439.485	785.94
439.925	769.1
440.365	749.89
440.805	738.19
441.245	727.6
441.685	699.45
442.125	693.79
442.564	697.04
443.004	679.79
443.444	677.99
443.883	677.72
444.323	670.71
444.762	673.44
445.202	682.72
445.641	693.8
446.081	686.82
446.52	693.44
446.959	686.99
447.398	670.93
447.837	661.1
448.276	648.81
448.716	656.17
449.154	661.34
449.593	644.22
450.032	640.72
450.471	629.04
450.91	629.92
451.349	627.24
451.787	622.55
452.226	629.69
452.664	629.07
453.103	629.16
453.541	626.08
453.98	624.53
454.418	626.97
454.856	617.13
455.295	616.03
455.733	620.01
456.171	621.81
456.609	623.99
457.047	624.36
457.485	633.46
457.923	634.63
458.361	626.06
458.798	627.51
459.236	625.27
459.674	628.81
460.111	632.77
460.549	626.6
460.987	625.58
461.424	621.89
461.862	618.25
462.299	609.23
462.736	609.32
463.173	611.42
463.611	606.08
464.048	605.8
464.485	611.67
464.922	604.01
465.359	601.13
465.796	594.27
466.233	590.76
466.67	585.94
467.106	584.59
467.543	578.19
467.98	570.89
468.416	554.84
468.853	550.48
469.29	532.95
469.726	527.41
470.162	513.97
470.599	505.74
471.035	500.23
471.471	488.21
471.907	484.12
472.344	480.46
472.78	480.66
473.216	486.92
473.652	480.73
474.088	479.7
474.523	477.94
474.959	480.3
475.395	474.6
475.831	472.01
476.266	474.47
476.702	473.04
477.138	467.29
477.573	465.07
478.008	462.27
478.444	463.82
478.879	467.51
479.314	469.17
479.75	469.16
480.185	471.32
480.62	474.52
481.055	476.14
481.49	478.84
481.925	484.27
482.36	492.79
482.795	505.46
483.229	518.31
483.664	528.78
484.099	529.36
484.534	536.59
484.968	541.44
485.403	542.44
485.837	541
486.271	540.26
486.706	541.05
487.14	534.6
487.574	525.96
488.009	520.66
488.443	514.6
488.877	519.82
489.311	520.18
489.745	525.32
490.179	529.31
490.613	538.52
491.046	541.75
491.48	545.44
491.914	545.38
492.348	548.93
492.781	551.76
493.215	552.68
493.648	551.84
494.082	555.62
494.515	555.18
494.948	560.44
495.382	562.94
495.815	565.93
496.248	569.41
496.681	578.41
497.114	586.25
497.547	593.32
497.98	603.44
498.413	608.69
498.846	616.61
499.279	622.86
499.711	625.55
500.144	627.1
500.577	634.43
501.009	642.24
501.442	649.16
501.874	649.96
502.306	651.26
502.739	657.01
503.171	668.66
503.603	670.57
504.036	678.05
504.468	682.09
504.9	690.39
505.332	695.59
505.764	698.79
506.196	704.56
506.627	716.52
507.059	726.74
507.491	733.32
507.923	732.09
508.354	744.47
508.786	753.28
509.217	769.25
509.649	782.26
510.08	798.42
510.512	812.22
510.943	825.56
511.374	835.59
511.805	853.79
512.237	870.75
512.668	897.61
513.099	920.8
513.53	943.75
513.961	961.81
514.391	988.91
514.822	1017.77
515.253	1049.75
515.684	1073.35
516.114	1099.32
516.545	1119.45
516.975	1143.38
517.406	1160.86
517.836	1166.84
518.267	1175.95
518.697	1193.75
519.127	1201.28
519.558	1210.11
519.988	1215.45
520.418	1226.84
520.848	1244.93
521.278	1254.61
521.708	1276.67
522.138	1291.16
522.567	1319.34
522.997	1343.62
523.427	1358.59
523.857	1375.57
524.286	1387.75
524.716	1404.81
525.145	1423.2
525.575	1434.72
526.004	1449.34
526.433	1442.78
526.863	1445.39
527.292	1439.03
527.721	1446.15
528.15	1453.8
528.579	1455.87
529.008	1467.35
529.437	1488.85
529.866	1502.52
530.295	1518.7
530.724	1531.69
531.152	1556.77
531.581	1570.45
532.01	1588.41
532.438	1596.49
532.867	1611.47
533.295	1630.02
533.723	1635.79
534.152	1634.8
534.58	1636.06
535.008	1623.82
535.436	1626.96
535.865	1634.69
536.293	1648.66
536.721	1663.09
537.149	1687.08
537.576	1690.32
538.004	1701.81
538.432	1711.01
538.86	1710.79
539.287	1717.64
539.715	1731.6
540.143	1734.47
540.57	1732.6
540.998	1729.29
541.425	1709.67
541.852	1691.53
542.28	1690.49
542.707	1676.3
543.134	1662.93
543.561	1658.7
543.988	1652.26
544.415	1650.98
544.842	1647.1
545.269	1639.67
545.696	1641.71
546.123	1653.09
546.549	1643.82
546.976	1632.22
547.403	1632.16
547.829	1634.45
548.256	1636.67
548.682	1633.44
549.108	1627.43
549.535	1626
549.961	1628.68
550.387	1617.05
550.813	1611.78
551.24	1617.58
551.666	1617.89
552.092	1609.11
552.518	1602.7
552.943	1596.8
553.369	1603.55
553.795	1607.31
554.221	1607.87
554.646	1603.74
555.072	1611.74
555.498	1615.6
555.923	1622.63
556.349	1635.42
556.774	1642.61
557.199	1643.07
557.625	1647.62
558.05	1640.55
558.475	1649.08
558.9	1647.31
559.325	1639.26
559.75	1633.26
560.175	1626.09
560.6	1618.43
561.025	1615.65
561.449	1613.94
561.874	1617.12
562.299	1618.74
562.723	1622.83
563.148	1611.51
563.572	1612.27
563.997	1618.32
564.421	1619.82
564.846	1616.76
565.27	1617.85
565.694	1612.55
566.118	1621.77
566.542	1625.17
566.966	1617.56
567.39	1611.54
567.814	1599.37
568.238	1596.86
568.662	1599.75
569.086	1599.95
569.509	1603.96
569.933	1588.07
570.357	1579.35
570.78	1558.17
571.204	1545.62
571.627	1533.92
572.05	1529.86
572.474	1528.63
572.897	1516.17
573.32	1507.81
573.743	1497.54
574.166	1481.66
574.589	1479.89
575.012	1471.82
575.435	1468.15
575.858	1457.76
576.281	1445.91
576.704	1430.94
577.126	1418.44
577.549	1407.37
577.972	1396.03
578.394	1384.86
578.817	1377.19
579.239	1359.51
579.661	1346.36
580.084	1332.13
580.506	1319.19
580.928	1314.97
581.35	1304.44
581.772	1299.35
582.194	1286.58
582.616	1274.66
583.038	1261.72
583.46	1251.17
583.882	1247.63
584.303	1250.04
584.725	1245.63
585.147	1247.47
585.568	1255.65
585.99	1265.8
586.411	1271.12
586.833	1282.29
587.254	1282.65
587.675	1294.08
588.096	1303.1
588.518	1298.22
588.939	1282.45
589.36	1278.61
589.781	1268.08
590.202	1243.43
590.623	1234.04
591.043	1229.79
591.464	1217.3
591.885	1214.65
592.305	1208.07
592.726	1196.22
593.147	1195.43
593.567	1191.52
593.987	1185.7
594.408	1181.06
594.828	1178.13
595.248	1172.93
595.669	1158.36
596.089	1152.5
596.509	1145.07
596.929	1134.1
597.349	1133.78
597.769	1125.71
598.189	1119.21
598.608	1119.07
599.028	1119.43
599.448	1119.94
599.867	1108.59
600.287	1103.39
600.706	1099.83
601.126	1092.64
601.545	1091.43
601.965	1090.1
602.384	1086.35
602.803	1088.51
603.222	1083.86
603.641	1078.05
604.061	1074.05
604.48	1071.13
604.898	1077.51
605.317	1081.21
605.736	1081.32
606.155	1078.61
606.574	1070.36
606.992	1073.01
607.411	1068.51
607.829	1061.44
608.248	1058.57
608.666	1056.01
609.085	1054.81
609.503	1047.12
609.921	1041.59
610.339	1042.7
610.758	1040.93
611.176	1036.57
611.594	1029.05
612.012	1025.77
612.43	1028.53
612.847	1032.39
613.265	1032.84
613.683	1035.94
614.101	1036.76
614.518	1032.48
614.936	1024.53
615.353	1012.84
615.771	1010.25
616.188	1010.06
616.606	1007.12
617.023	1000.58
617.44	988.87
617.857	981.32
618.274	973.3
618.691	968.03
619.108	960.45
619.525	954.84
619.942	959.58
620.359	962.31
620.776	957.59
621.192	954.36
621.609	953.45
622.026	959.44
622.442	965.21
622.859	968.31
623.275	962.95
623.691	967.72
624.108	976.94
624.524	987.46
624.94	986.65
625.356	995.28
625.772	1004.97
626.188	1013.13
626.604	1012.85
627.02	1008.94
627.436	1006.04
627.852	1011.1
628.268	1019.76
628.683	1012.27
629.099	1006.13
629.514	1001.78
629.93	1002.85
630.345	1006.13
630.761	1002.74
631.176	1005.82
631.591	1001.88
632.007	997.87
632.422	995.74
632.837	985.88
633.252	983.52
633.667	973.26
634.082	964.9
634.497	954.19
634.911	938.69
635.326	934.73
635.741	920.42
636.155	910.44
636.57	909.42
636.984	907.81
637.399	907.9
637.813	905.7
638.228	904.5
638.642	905.8
639.056	896.93
639.47	895.24
639.884	886.69
640.298	880.27
640.712	878.09
641.126	867.48
641.54	858.02
641.954	851.86
642.368	841.51
642.781	834.47
643.195	819.58
643.609	818.49
644.022	812.17
644.436	807.57
644.849	797.32
645.262	787.27
645.676	786.23
646.089	781.32
646.502	769.96
646.915	765.01
647.328	752.27
647.741	750.94
648.154	740.57
648.567	739.13
648.98	729.78
649.393	730.1
649.805	728.09
650.218	723.51
650.631	713.61
651.043	709.91
651.456	706.44
651.868	706.95
652.28	718.46
652.693	728.46
653.105	732.91
653.517	740.12
653.929	740.48
654.341	745.72
654.753	737.42
655.165	742.55
655.577	740.67
655.989	737.41
656.401	731.93
656.813	708.78
657.224	695.93
657.636	676.04
658.047	665.7
658.459	653.34
658.87	647.62
659.282	640.55
659.693	628.01
660.104	618.85
660.515	610.89
660.926	610.46
661.338	609.35
661.749	606.12
662.159	601.58
662.57	598.38
662.981	597.32
663.392	593.03
663.803	599.01
664.213	598.4
664.624	597.69
665.035	601.93
665.445	593.91
665.855	590.52
666.266	586.72
666.676	587.05
667.086	583.15
667.497	584.65
667.907	581.73
668.317	575.62
668.727	575.49
669.137	576.99
669.547	576.7
669.956	580.83
670.366	584.21
670.776	588.2
671.186	592.81
671.595	596.54
672.005	599.21
672.414	600.67
672.824	601.13
673.233	605.59
673.642	609.38
674.052	612.42
674.461	615.87
674.87	620.54
675.279	618.5
675.688	620.92
676.097	624.18
676.506	624.39
676.915	636.95
677.323	640.31
677.732	640.25
678.141	640.01
678.549	633.72
678.958	633.86
679.366	633.33
679.775	638.5
680.183	647.63
680.592	651.49
681	656.04
681.408	650.81
681.816	655.87
682.224	661.15
682.632	669.49
683.04	692.16
683.448	710.68
683.856	734.42
684.264	760.25
684.671	780.62
685.079	809.76
685.487	839.66
685.894	884.7
686.302	920.62
686.709	950.25
687.116	984.5
687.524	1012.29
687.931	1034.05
688.338	1052.01
688.745	1066.71
689.152	1088.23
689.559	1118.79
689.966	1150.02
690.373	1162.91
690.78	1192.86
691.187	1241.8
691.593	1278.87
692	1312.26
692.407	1364.37
692.813	1430.2
693.22	1483.2
693.626	1537.83
694.032	1583.31
694.439	1650.38
694.845	1707.07
695.251	1776.17
695.657	1839.31
696.063	1930.31
696.469	2003.17
696.875	2071.71
697.281	2114.94
697.687	2167.41
698.093	2215.09
698.498	2292.78
698.904	2357.79
