Data from N_2_DEC_OH_4N_Splice17_12-03-59-169.txt Node
Date: Sat Mar 14 12:03:59 EDT 2020
User: sa697716
Spectrometer: FLMS03696
Trigger mode: 0
Integration Time (sec): 3.180400E-1
Scans to average: 20
Electric dark correction enabled: true
Nonlinearity correction enabled: true
Boxcar width: 5
XAxis mode: Wavelengths
Number of Pixels in Spectrum: 2048
>>>>>Begin Spectral Data<<<<<
187.83	-345366.52
188.298	2436.43
188.766	1332.03
189.233	1142.83
189.701	1512.88
190.169	2152.58
190.636	757.08
191.104	517.15
191.571	13.13
192.039	-135.91
192.506	-204.86
192.974	306.29
193.441	-581.64
193.908	-105.97
194.375	-70.77
194.842	-88.51
195.31	35.12
195.777	103.89
196.244	313.48
196.711	445.65
197.177	595.2
197.644	897.69
198.111	1590.38
198.578	2232.51
199.045	1802.4
199.511	2960.42
199.978	3473.38
200.445	2928.86
200.911	3268.43
201.378	3686.58
201.844	3323.78
202.31	5705.47
202.777	5963.83
203.243	3324.12
203.709	3183.56
204.176	3803.98
204.642	3126.41
205.108	2940.46
205.574	2392.77
206.04	2205.01
206.506	2048.43
206.972	1965.24
207.438	1896.51
207.903	2149.21
208.369	1876.12
208.835	1872.72
209.301	1970.66
209.766	2038.58
210.232	2018.51
210.697	2526.24
211.163	3100.09
211.628	4731.91
212.094	3953.54
212.559	4845.53
213.024	3023.31
213.49	3723.76
213.955	3635.08
214.42	3593.79
214.885	3345.21
215.35	3232.91
215.815	3091.51
216.28	3317.02
216.745	2702.27
217.21	2944.34
217.675	2750.63
218.14	3138.33
218.604	3549.41
219.069	4105.23
219.534	4316.83
219.998	5081.54
220.463	6210.36
220.927	7772.38
221.392	7354.27
221.856	7510.18
222.32	9542.95
222.785	11806.33
223.249	14917.73
223.713	16691.66
224.177	16747.62
224.642	21596.55
225.106	26627.69
225.57	29190.76
226.034	21726.4
226.497	33133.96
226.961	29892.27
227.425	34826.24
227.889	38758.44
228.353	38787.54
228.816	80189.77
229.28	76676.41
229.744	64650.2
230.207	39292.7
230.671	38643.28
231.134	64030.59
231.597	73936
232.061	74039.4
232.524	72174.98
232.987	49649.02
233.45	44614.04
233.914	40017.98
234.377	41077.59
234.84	37581.27
235.303	44360.97
235.766	49497.72
236.229	51087.43
236.691	32130.04
237.154	36124.53
237.617	27169.95
238.08	27839.2
238.542	32674.84
239.005	23339.34
239.468	23147.61
239.93	21826.77
240.393	19824.19
240.855	17390.33
241.317	17807.69
241.78	21667.77
242.242	22358.81
242.704	24113.54
243.166	20978.58
243.629	19003.51
244.091	21881.8
244.553	23960.57
245.015	25732.49
245.477	33247.9
245.939	48770.55
246.4	51760.01
246.862	50313.93
247.324	47443.13
247.786	53094.35
248.247	69632.94
248.709	71972.53
249.17	53844.78
249.632	50688.75
250.093	58703.56
250.555	50731.01
251.016	30917.8
251.477	29340.49
251.939	31648.24
252.4	33237.56
252.861	39555.56
253.322	36748.53
253.783	43718.39
254.244	56740.45
254.705	44795.19
255.166	39897.57
255.627	39302.84
256.088	55420
256.549	58852.4
257.009	50723.31
257.47	61554.12
257.931	50154.82
258.391	37621.72
258.852	38791.01
259.312	40673.98
259.773	50220.63
260.233	42377.61
260.694	35723.48
261.154	40561.53
261.614	32518.37
262.074	29075.43
262.534	30191.3
262.994	28442.99
263.455	37926.14
263.915	31942.43
264.374	30089.65
264.834	32891.54
265.294	36494.35
265.754	37807.27
266.214	35770.39
266.673	33557
267.133	42376.02
267.593	42062.43
268.052	51488.59
268.512	44803.77
268.971	54036.36
269.431	59314.69
269.89	53100.83
270.349	79632.39
270.809	88830.95
271.268	79896.6
271.727	179236.09
272.186	116128.03
272.645	87133.84
273.104	62904.13
273.563	91083.61
274.022	71665.06
274.481	60905.79
274.94	46897.15
275.399	34888.63
275.857	40648.25
276.316	55014.91
276.775	48971.16
277.233	48224.16
277.692	45117.86
278.15	51022.43
278.609	52457.45
279.067	48556.15
279.525	45131.79
279.984	58330.79
280.442	70056.44
280.9	69016.96
281.358	45347.31
281.816	42261.41
282.274	41363.83
282.732	42767.93
283.19	42986.06
283.648	37127.91
284.106	39582.49
284.564	40225.14
285.021	37295.45
285.479	27810.08
285.937	25319.99
286.394	22229.93
286.852	22872.77
287.309	24049.06
287.767	23224.46
288.224	22069.46
288.682	24219.82
289.139	26545.75
289.596	24279.99
290.053	25252.65
290.511	31881.43
290.968	38619.69
291.425	52477.3
291.882	43652.5
292.339	37993.04
292.796	37710.56
293.252	35592.54
293.709	28258.44
294.166	25338.87
294.623	28015.23
295.079	26862.12
295.536	26959.01
295.992	24485.34
296.449	24200.98
296.905	25143.73
297.362	24090.35
297.818	25341.92
298.274	26264.35
298.731	26775.13
299.187	26485.57
299.643	28438.5
300.099	34391.15
300.555	37670.08
301.011	31481.88
301.467	30311.73
301.923	35513.74
302.379	34690.78
302.835	34050.82
303.291	34079.98
303.746	38754.85
304.202	48962.67
304.658	49180.37
305.113	33098.25
305.569	32474.37
306.024	34634.73
306.479	32979.21
306.935	27785.75
307.39	30365.46
307.845	28062.7
308.301	28226.85
308.756	27482.06
309.211	26481.17
309.666	27110.99
310.121	33641.48
310.576	34145.42
311.031	33869.85
311.486	38810.72
311.94	38784.23
312.395	51841.66
312.85	97214.05
313.305	477569.61
313.759	2470944.68
314.214	178829.35
314.668	141735.86
315.123	118921.18
315.577	42591.16
316.032	37845.47
316.486	47389.5
316.94	37326.25
317.394	25959.78
317.849	20212.33
318.303	19137.9
318.757	18051.52
319.211	19953.31
319.665	17467.13
320.119	17695.85
320.572	25394.01
321.026	23687.58
321.48	19687.32
321.934	21469.41
322.387	21518.64
322.841	23200.22
323.295	20818.5
323.748	23995.32
324.202	24347.58
324.655	29173.56
325.108	40706.62
325.562	28746.81
326.015	34176.04
326.468	25859.75
326.921	28905.58
327.374	26928.55
327.827	28011.19
328.28	31721.09
328.733	21231.88
329.186	18657.38
329.639	17787.98
330.092	14979.92
330.545	14233.53
330.997	14350.88
331.45	15660.52
331.903	18329.16
332.355	31532
332.808	30649.59
333.26	25256.62
333.713	27408.61
334.165	27588.53
334.617	36849
335.069	29800.66
335.522	53913.86
335.974	59701.59
336.426	54532.36
336.878	37843.23
337.33	19175.61
337.782	18706.5
338.234	23425.14
338.686	28014.51
339.137	33190.89
339.589	31249.3
340.041	24511.22
340.493	21061.77
340.944	21565.98
341.396	23231.13
341.847	19529.67
342.299	23021.35
342.75	28134.81
343.201	24639.81
343.653	28340.7
344.104	34849.87
344.555	27412.58
345.006	42681.8
345.457	32662.71
345.908	25931.01
346.359	24401.22
346.81	19894.53
347.261	20982.14
347.712	20655.78
348.163	22128.47
348.613	22418.69
349.064	20924.57
349.515	18309.62
349.965	18762.16
350.416	22616.3
350.866	24825.41
351.317	28053.08
351.767	46374.19
352.217	58612.34
352.668	48661.44
353.118	44549.9
353.568	42939.03
354.018	33895.8
354.468	35726.64
354.918	25590.99
355.368	22366.26
355.818	31604.11
356.268	90872.08
356.718	379955.7
357.168	94452.18
357.617	47400.93
358.067	52803.76
358.517	49434.37
358.966	58001.32
359.416	65009.48
359.865	70350.69
360.315	83944.45
360.764	39233.52
361.213	22001.44
361.663	20868.51
362.112	25786.81
362.561	41635.13
363.01	31355.81
363.459	26367.72
363.908	28567.32
364.357	24292.4
364.806	40995.04
365.255	28145.55
365.703	25736.1
366.152	25762.33
366.601	20861.03
367.05	16916.24
367.498	15366.2
367.947	16047.16
368.395	16696.62
368.844	14767.69
369.292	17794.81
369.74	12300.93
370.189	18862.34
370.637	22070.24
371.085	19041.46
371.533	23211.1
371.981	22390.17
372.429	21307.91
372.877	22228.89
373.325	18609.4
373.773	18970.88
374.221	16895.44
374.669	20924.14
375.116	18083.48
375.564	18252.39
376.012	20417.47
376.459	16821.23
376.907	20101.41
377.354	24334.48
377.801	22686.66
378.249	26074.73
378.696	33366.32
379.143	40430.98
379.591	43187.86
380.038	72953.14
380.485	52760.11
380.932	57026.38
381.379	52139.8
381.826	38386.97
382.273	27297.12
382.72	23839.2
383.166	23224.53
383.613	15034.44
384.06	13551.58
384.506	15681.33
384.953	11516.95
385.4	11596.09
385.846	10146.74
386.292	9901.17
386.739	9693.96
387.185	9586.13
387.631	9591.42
388.078	9299.46
388.524	9953.25
388.97	9176.99
389.416	7635.92
389.862	8097.19
390.308	7661.73
390.754	7766.47
391.2	8412.61
391.645	8599.38
392.091	8200.11
392.537	7911.64
392.983	7917.81
393.428	7762.5
393.874	8312.06
394.319	8317.44
394.765	7886.28
395.21	8089.02
395.655	7568.66
396.101	7067.97
396.546	6357.79
396.991	6401.41
397.436	5923.97
397.881	5708.05
398.326	5398.63
398.771	5091.08
399.216	4448.63
399.661	3993.41
400.106	3964.93
400.551	4047.28
400.995	3624.24
401.44	3570.27
401.885	3349.32
402.329	3376.27
402.774	3234.44
403.218	3125.08
403.663	3004.25
404.107	3081.07
404.551	3096.98
404.995	2839.61
405.44	2730.76
405.884	2767.83
406.328	2673.55
406.772	2657.53
407.216	2417.87
407.66	2331.23
408.104	2207.56
408.547	2064.65
408.991	1994.92
409.435	1919.04
409.879	1886.7
410.322	1856.83
410.766	1788.94
411.209	1701.15
411.653	1628.79
412.096	1594.07
412.54	1593.05
412.983	1582.76
413.426	1585.19
413.869	1584.69
414.312	1550.65
414.756	1494.18
415.199	1427.5
415.642	1385
416.085	1385.76
416.527	1376.96
416.97	1394.79
417.413	1319.33
417.856	1302.48
418.298	1285
418.741	1271.07
419.184	1265.7
419.626	1315.34
420.069	1311.42
420.511	1317.32
420.953	1285.33
421.396	1274.75
421.838	1241.38
422.28	1269.29
422.722	1272.85
423.164	1292.84
423.606	1271.29
424.048	1270.93
424.49	1207.29
424.932	1202.89
425.374	1185.75
425.816	1207.56
426.258	1229.12
426.699	1243.55
427.141	1224.91
427.582	1244.96
428.024	1237.26
428.465	1231.31
428.907	1201.7
429.348	1187.69
429.789	1187.09
430.231	1163.14
430.672	1177.94
431.113	1148.98
431.554	1133.83
431.995	1104.6
432.436	1066.26
432.877	1041.65
433.318	1025.28
433.759	1018.34
434.2	1018.96
434.64	1008.11
435.081	1011.36
435.522	959.39
435.962	925.47
436.403	906.92
436.843	924.07
437.284	904.05
437.724	881.05
438.164	880.53
438.604	863.06
439.045	830.21
439.485	795.31
439.925	776.65
440.365	755.85
440.805	745.98
441.245	735.06
441.685	705.46
442.125	699.06
442.564	705.4
443.004	688.9
443.444	686.75
443.883	686.89
444.323	681.26
444.762	680.72
445.202	690.13
445.641	699.59
446.081	694.39
446.52	698.39
446.959	692.09
447.398	670.35
447.837	660.99
448.276	646.06
448.716	650.86
449.154	654.78
449.593	640.64
450.032	636.67
450.471	624.77
450.91	622.87
451.349	621.01
451.787	615.82
452.226	624.31
452.664	622.59
453.103	624.71
453.541	622.03
453.98	619.61
454.418	622.14
454.856	612.87
455.295	610.5
455.733	614.63
456.171	616.38
456.609	617.88
457.047	617.74
457.485	626.19
457.923	625.59
458.361	615.83
458.798	617.51
459.236	614.42
459.674	616.64
460.111	619.74
460.549	614.01
460.987	612.21
461.424	609.3
461.862	606.74
462.299	599.14
462.736	599.27
463.173	602.27
463.611	596.91
464.048	596.84
464.485	602.74
464.922	596.8
465.359	592.83
465.796	585.95
466.233	582.15
466.67	576.82
467.106	574.73
467.543	569.18
467.98	561.11
468.416	546.97
468.853	542.56
469.29	526.14
469.726	521.13
470.162	508.08
470.599	500.79
471.035	495.58
471.471	484.11
471.907	480.26
472.344	476.03
472.78	477.6
473.216	481.56
473.652	475.01
474.088	472.48
474.523	470.66
474.959	473.94
475.395	468.19
475.831	464.21
476.266	464.87
476.702	463.09
477.138	457.86
477.573	455.65
478.008	453.17
478.444	454.73
478.879	458.95
479.314	458.97
479.75	457.85
480.185	459.24
480.62	461.87
481.055	463.71
481.49	465.81
481.925	472.07
482.36	479.31
482.795	492.25
483.229	504.42
483.664	513.74
484.099	515.12
484.534	521.83
484.968	527.09
485.403	528.45
485.837	525.57
486.271	524.27
486.706	523.44
487.14	516.65
487.574	508.29
488.009	502.11
488.443	497.19
488.877	501.01
489.311	502.02
489.745	505.94
490.179	508.58
490.613	517.94
491.046	520.41
491.48	522.32
491.914	520.86
492.348	522.61
492.781	524.03
493.215	523.66
493.648	523.32
494.082	525.21
494.515	524.06
494.948	529.26
495.382	530.65
495.815	532.78
496.248	535.55
496.681	543.75
497.114	549.5
497.547	554.68
497.98	562.04
498.413	564.51
498.846	569.44
499.279	573.46
499.711	573.82
500.144	573.27
500.577	579.12
501.009	585.05
501.442	589.81
501.874	589.04
502.306	589.28
502.739	593.29
503.171	601.74
503.603	602.14
504.036	606.81
504.468	609.32
504.9	615.66
505.332	617.8
505.764	619.47
506.196	623.41
506.627	633.42
507.059	642.21
507.491	646.73
507.923	645.41
508.354	656.61
508.786	664.33
509.217	676.66
509.649	687.31
510.08	701.49
510.512	714.09
510.943	724.81
511.374	733.59
511.805	748.74
512.237	763.62
512.668	787.72
513.099	807.72
513.53	828.71
513.961	845.43
514.391	870.51
514.822	897.38
515.253	924.98
515.684	946.3
516.114	970.26
516.545	989.05
516.975	1011.85
517.406	1028.01
517.836	1034.7
518.267	1043.76
518.697	1061.66
519.127	1069.35
519.558	1078.18
519.988	1086.44
520.418	1099.49
520.848	1117.43
521.278	1128.41
521.708	1153.83
522.138	1168.77
522.567	1197.92
522.997	1222.12
523.427	1238.77
523.857	1256.97
524.286	1269.73
524.716	1285.86
525.145	1305.49
525.575	1319.13
526.004	1335.38
526.433	1328.55
526.863	1333.51
527.292	1329.02
527.721	1337.04
528.15	1345.74
528.579	1349.18
529.008	1361.82
529.437	1383.27
529.866	1396.06
530.295	1411.25
530.724	1424.51
531.152	1448.85
531.581	1462.44
532.01	1478.65
532.438	1488.79
532.867	1503.17
533.295	1521.16
533.723	1528.29
534.152	1528.84
534.58	1531.59
535.008	1521.94
535.436	1526.01
535.865	1535.02
536.293	1549.09
536.721	1563.7
537.149	1586.18
537.576	1588.61
538.004	1600.58
538.432	1608.18
538.86	1608.1
539.287	1615.3
539.715	1627.66
540.143	1629.6
540.57	1627.16
540.998	1623.92
541.425	1605.6
541.852	1588.16
542.28	1587.98
542.707	1574.83
543.134	1562.31
543.561	1558.38
543.988	1552.25
544.415	1552.45
544.842	1547.9
545.269	1541.38
545.696	1542.56
546.123	1553.43
546.549	1543.99
546.976	1532.95
547.403	1531.52
547.829	1533.51
548.256	1535.2
548.682	1530.91
549.108	1523.71
549.535	1523.51
549.961	1525.08
550.387	1514.69
550.813	1510.07
551.24	1515.6
551.666	1515.52
552.092	1507.51
552.518	1501.91
552.943	1495.96
553.369	1502.37
553.795	1505.6
554.221	1504.92
554.646	1501.08
555.072	1508.9
555.498	1510.03
555.923	1516.23
556.349	1526.59
556.774	1531.2
557.199	1530.44
557.625	1533.51
558.05	1526.85
558.475	1533.39
558.9	1530.2
559.325	1520.52
559.75	1512.11
560.175	1505.01
560.6	1495.22
561.025	1491.67
561.449	1489.56
561.874	1490.47
562.299	1490.52
562.723	1492.11
563.148	1480.03
563.572	1479.35
563.997	1484.06
564.421	1483.73
564.846	1480.14
565.27	1479.62
565.694	1472.95
566.118	1477.94
566.542	1479.66
566.966	1470
567.39	1461.68
567.814	1448.62
568.238	1443.69
568.662	1442.18
569.086	1439.62
569.509	1440.32
569.933	1424.7
570.357	1414.27
570.78	1393.98
571.204	1379.68
571.627	1367.8
572.05	1362.8
572.474	1358.41
572.897	1344.85
573.32	1336.02
573.743	1325.06
574.166	1307.64
574.589	1302.6
575.012	1294.37
575.435	1289.08
575.858	1278.23
576.281	1266.55
576.704	1250.98
577.126	1239.32
577.549	1228.42
577.972	1217.95
578.394	1207.06
578.817	1200.64
579.239	1185.05
579.661	1172.52
580.084	1159.85
580.506	1148.5
580.928	1142.99
581.35	1132.97
581.772	1126.9
582.194	1115.36
582.616	1103.06
583.038	1090.41
583.46	1078.91
583.882	1075.48
584.303	1076.16
584.725	1070.87
585.147	1071.86
585.568	1077.09
585.99	1083.97
586.411	1087.1
586.833	1095.36
587.254	1095.72
587.675	1104.44
588.096	1112.55
588.518	1106.55
588.939	1092.99
589.36	1089.82
589.781	1079.99
590.202	1059.6
590.623	1051.79
591.043	1049.15
591.464	1039.99
591.885	1036.12
592.305	1030.91
592.726	1020.15
593.147	1019.8
593.567	1014.92
593.987	1009.63
594.408	1004.11
594.828	1001.04
595.248	996.85
595.669	983.59
596.089	977.02
596.509	970.86
596.929	961.14
597.349	960.28
597.769	952.75
598.189	948.19
598.608	946.83
599.028	947.57
599.448	946.99
599.867	936.84
600.287	932.53
600.706	929.66
601.126	922.59
601.545	921.1
601.965	919.99
602.384	915.93
602.803	916.92
603.222	913.46
603.641	908.36
604.061	906
604.48	903.33
604.898	907.63
605.317	909.08
605.736	910.37
606.155	908.49
606.574	901.37
606.992	903.35
607.411	898.78
607.829	892.29
608.248	889.57
608.666	886.41
609.085	885.1
609.503	879.4
609.921	875.31
610.339	875.43
610.758	873.24
611.176	868.82
611.594	862.49
612.012	860.47
612.43	862.78
612.847	865.46
613.265	865.93
613.683	867.76
614.101	867.66
614.518	864.11
614.936	856.79
615.353	847.48
615.771	844.4
616.188	844.23
616.606	840.75
617.023	835.21
617.44	825.2
617.857	818.65
618.274	811.74
618.691	807.78
619.108	800.66
619.525	796.61
619.942	799.22
620.359	801.2
620.776	796.71
621.192	794.33
621.609	793.21
622.026	798.12
622.442	802.27
622.859	804.68
623.275	799.28
623.691	803.13
624.108	809.9
624.524	819.56
624.94	819.12
625.356	826.13
625.772	834.19
626.188	839.96
626.604	840.56
627.02	838.29
627.436	836.69
627.852	841.11
628.268	848.97
628.683	843.26
629.099	837.64
629.514	834.8
629.93	837.16
630.345	839.54
630.761	836.99
631.176	838.87
631.591	835.1
632.007	831.21
632.422	829.9
632.837	821.7
633.252	820.09
633.667	812.67
634.082	806.66
634.497	797.23
634.911	785.3
635.326	782.93
635.741	770.55
636.155	763.07
636.57	763.61
636.984	761.8
637.399	763.04
637.813	760.84
638.228	758.7
638.642	758.92
639.056	751.21
639.47	749.33
639.884	744.05
640.298	739.86
640.712	737.61
641.126	729.68
641.54	724.68
641.954	719.62
642.368	713.05
642.781	710.27
643.195	701.22
643.609	703.13
644.022	700.47
644.436	697.32
644.849	690
645.262	683.78
645.676	685.15
646.089	683.12
646.502	676.16
646.915	673.59
647.328	663.13
647.741	662.35
648.154	655.3
648.567	655.56
648.98	649.17
649.393	651.82
649.805	652.02
650.218	648.52
650.631	640.25
651.043	636.65
651.456	633.75
651.868	634.96
652.28	646.38
652.693	656.24
653.105	660.65
653.517	668.03
653.929	670.25
654.341	674.64
654.753	668.61
655.165	673.46
655.577	673.69
655.989	673.39
656.401	670.96
656.813	651.55
657.224	641.09
657.636	623.75
658.047	614.54
658.459	603.76
658.87	599.8
659.282	594.17
659.693	583.14
660.104	576.91
660.515	570.8
660.926	571.85
661.338	571.95
661.749	570.3
662.159	568.66
662.57	568.89
662.981	569.74
663.392	568.86
663.803	575.22
664.213	578.54
664.624	578.61
665.035	584.32
665.445	578.86
665.855	577.65
666.266	575.78
666.676	577.73
667.086	574.15
667.497	576.77
667.907	575.03
668.317	571.6
668.727	572.18
669.137	575.14
669.547	576.64
669.956	582.23
670.366	587.86
670.776	591.78
671.186	596.51
671.595	601.73
672.005	606.41
672.414	609.07
672.824	610.13
673.233	614.56
673.642	618.77
674.052	621.85
674.461	623.61
674.87	627.88
675.279	627.72
675.688	631.01
676.097	634.02
676.506	633.26
676.915	645.68
677.323	648.18
677.732	648.03
678.141	649.02
678.549	641.69
678.958	642.24
679.366	641.38
679.775	645.96
680.183	654.85
680.592	658.91
681	662.22
681.408	654.85
681.816	659.78
682.224	663.7
682.632	670.05
683.04	691.49
683.448	706.21
683.856	726.64
684.264	747.86
684.671	765.61
685.079	788.43
685.487	813.89
685.894	852.12
686.302	880.12
686.709	902.62
687.116	927.52
687.524	944.86
687.931	960.32
688.338	970.36
688.745	977.42
689.152	989.28
689.559	1009.06
689.966	1029.05
690.373	1036.94
690.78	1058
691.187	1094.5
691.593	1121.68
692	1147.16
692.407	1187.58
692.813	1241.62
693.22	1286.46
693.626	1332.24
694.032	1373.27
694.439	1433.47
694.845	1484.45
695.251	1548
695.657	1607.99
696.063	1693.55
696.469	1763.66
696.875	1830.46
697.281	1874.62
697.687	1928.46
698.093	1978.03
698.498	2058.1
698.904	2125.95
699.31	2216.47
699.715	2290.13
700.12	2388
700.526	2427.1
