Data from N_2_DEC_VA_2N_Splice17_12-07-32-565.txt Node
Date: Sat Mar 14 12:07:32 EDT 2020
User: sa697716
Spectrometer: FLMS03696
Trigger mode: 0
Integration Time (sec): 3.180400E-1
Scans to average: 20
Electric dark correction enabled: true
Nonlinearity correction enabled: true
Boxcar width: 5
XAxis mode: Wavelengths
Number of Pixels in Spectrum: 2048
>>>>>Begin Spectral Data<<<<<
187.83	-267557.75
188.298	1896.11
188.766	999.28
189.233	916.95
189.701	1261.2
190.169	1759.46
190.636	656.1
191.104	574.24
191.571	125.79
192.039	-50.77
192.506	-92.72
192.974	360.72
193.441	-662.39
193.908	-163.37
194.375	-34.24
194.842	-48.05
195.31	4.86
195.777	96.3
196.244	365.17
196.711	567.95
197.177	754.72
197.644	1116.15
198.111	1938.54
198.578	2742.44
199.045	2201.67
199.511	3670.19
199.978	4372.41
200.445	3691.84
200.911	4097.95
201.378	4609.43
201.844	4158.48
202.31	7130.08
202.777	7385.2
203.243	4111.3
203.709	3934.92
204.176	4704.62
204.642	3855.16
205.108	3573.22
205.574	2933.98
206.04	2712.21
206.506	2534.71
206.972	2413.25
207.438	2329.57
207.903	2684.65
208.369	2340.91
208.835	2319.56
209.301	2415
209.766	2489.13
210.232	2463.23
210.697	3058.05
211.163	3763.13
211.628	5737.35
212.094	4784.64
212.559	5842.01
213.024	3606.6
213.49	4383.28
213.955	4289.47
214.42	4228.97
214.885	3927.67
215.35	3788.96
215.815	3595.18
216.28	3818.89
216.745	3102.82
217.21	3366.92
217.675	3129.49
218.14	3539.37
218.604	3989.9
219.069	4575.35
219.534	4808.88
219.998	5621.25
220.463	6841.33
220.927	8516.94
221.392	8048.18
221.856	8175.04
222.32	10340.71
222.785	12757.85
223.249	16086.39
223.713	17990.86
224.177	17997.29
224.642	23129.17
225.106	28474.51
225.57	31120.92
226.034	23078.08
226.497	35095.09
226.961	31631.16
227.425	36833.77
227.889	40933.79
228.353	40917.19
228.816	84422.4
229.28	80679.39
229.744	67959.12
230.207	41241.11
230.671	40525.33
231.134	67040.91
231.597	77273.76
232.061	77236.44
232.524	75269.94
232.987	51722.79
233.45	46493.8
233.914	41683.03
234.377	42684.72
234.84	39013.78
235.303	45984.74
235.766	51280.84
236.229	52941.67
236.691	33303.53
237.154	37402.34
237.617	28063.15
238.08	28732.9
238.542	33603.68
239.005	23977.61
239.468	23791.63
239.93	22393.32
240.393	20330.07
240.855	17817.33
241.317	18249.85
241.78	22198.14
242.242	22916.42
242.704	24746.73
243.166	21513.95
243.629	19465.55
244.091	22394.98
244.553	24476.55
245.015	26275.6
245.477	33946.28
245.939	49731.95
246.4	52703.2
246.862	51128.37
247.324	48105.61
247.786	53737.38
248.247	70393.7
248.709	72777.31
249.17	54358.83
249.632	51144.44
250.093	59209
250.555	51063.53
251.016	31082.51
251.477	29445.52
251.939	31730.78
252.4	33263.37
252.861	39531.54
253.322	36666.07
253.783	43601.26
254.244	56536.35
254.705	44576.25
255.166	39636.43
255.627	38989.52
256.088	54911.8
256.549	58211.27
257.009	50132.65
257.47	60846.52
257.931	49538.93
258.391	37154.97
258.852	38315.97
259.312	40148.92
259.773	49599.57
260.233	41865.92
260.694	35329.76
261.154	40119.9
261.614	32195.32
262.074	28800.02
262.534	29892.68
262.994	28167.05
263.455	37507.45
263.915	31554.08
264.374	29708.4
264.834	32431.59
265.294	35956.12
265.754	37197.97
266.214	35183.73
266.673	32959.15
267.133	41570.74
267.593	41198.74
268.052	50362.47
268.512	43801.35
268.971	52758.1
269.431	57836.24
269.89	51757.01
270.349	77534
270.809	86453.24
271.268	77717.67
271.727	174244.43
272.186	112812.5
272.645	84680.92
273.104	61116.37
273.563	88426.07
274.022	69571.7
274.481	59131.13
274.94	45526.15
275.399	33869.11
275.857	39418.51
276.316	53305.63
276.775	47448.01
277.233	46697.54
277.692	43660.05
278.15	49335.94
278.609	50746.97
279.067	46963.78
279.525	43649.37
279.984	56357.74
280.442	67622.11
280.9	66638.31
281.358	43830.88
281.816	40830.32
282.274	39980.14
282.732	41316.46
283.19	41548.65
283.648	35875.16
284.106	38218.85
284.564	38833.94
285.021	36008.75
285.479	26844.68
285.937	24428.37
286.394	21408.92
286.852	22057.67
287.309	23181.07
287.767	22405.98
288.224	21298.45
288.682	23386.22
289.139	25646.48
289.596	23464.85
290.053	24366.79
290.511	30721.44
290.968	37243.46
291.425	50530.13
291.882	41928.83
292.339	36447.79
292.796	36131.9
293.252	34005.46
293.709	26953.26
294.166	24154.38
294.623	26692.09
295.079	25606.13
295.536	25707.44
295.992	23303.65
296.449	23044.41
296.905	23947.19
297.362	22961.07
297.818	24145.23
298.274	25060.83
298.731	25531.44
299.187	25244.24
299.643	27110.68
300.099	32823.22
300.555	36021.36
301.011	30147.67
301.467	29017.11
301.923	34025.94
302.379	33216.05
302.835	32640.74
303.291	32640.75
303.746	37164.39
304.202	46906.48
304.658	47062.9
305.113	31588.75
305.569	30931.33
306.024	32937.57
306.479	31411.76
306.935	26472.11
307.39	28934.53
307.845	26714.92
308.301	26887.81
308.756	26186.74
309.211	25268.54
309.666	25891.82
310.121	32146.36
310.576	32680.86
311.031	32466.38
311.486	37205.5
311.94	37166.4
312.395	49697.87
312.85	93396.33
313.305	459346.63
313.759	2376552.51
314.214	172239.92
314.668	136462.02
315.123	114763.4
315.577	41069.58
316.032	36504.02
316.486	45676.33
316.94	35984.43
317.394	25035.84
317.849	19443.86
318.303	18405.97
318.757	17367.55
319.211	19180.57
319.665	16788.58
320.119	16985.31
320.572	24375.27
321.026	22723.74
321.48	18905.08
321.934	20621.95
322.387	20668.8
322.841	22319.25
323.295	20023.93
323.748	23089.4
324.202	23446.47
324.655	28145.82
325.108	39268.94
325.562	27720
326.015	33003.19
326.468	24957.27
326.921	27891.43
327.374	26007.85
327.827	27075.72
328.28	30653.89
328.733	20520.68
329.186	18032.66
329.639	17183.91
330.092	14515.12
330.545	13827.13
330.997	13937.48
331.45	15206.06
331.903	17825.47
332.355	30667.71
332.808	29806.81
333.26	24582.29
333.713	26687.23
334.165	26893.67
334.617	35967.59
335.069	29076.88
335.522	52575.52
335.974	58230.82
336.426	53306.2
336.878	36982.47
337.33	18773.86
337.782	18374.25
338.234	23039.17
338.686	27600.15
339.137	32692.67
339.589	30749.71
340.041	24106.21
340.493	20720.51
340.944	21203.88
341.396	22853.67
341.847	19183.93
342.299	22600.96
342.75	27496.71
343.201	24037.2
343.653	27607.06
344.104	33915.96
344.555	26668.46
345.006	41485.73
345.457	31711.79
345.908	25208.98
346.359	23685.43
346.81	19269.75
347.261	20291.15
347.712	19984.06
348.163	21427.55
348.613	21685.95
349.064	20238.04
349.515	17722.81
349.965	18183.43
350.416	21954.71
350.866	24078.53
351.317	27201.92
351.767	45104.73
352.217	56955.56
352.668	47292.61
353.118	43339.1
353.568	41823.59
354.018	33046.39
354.468	34848.26
354.918	24968.9
355.368	21830.29
355.818	30883.1
356.268	88970.82
356.718	372765.23
357.168	92934.14
357.617	46708.02
358.067	51974.05
358.517	48612.5
358.966	57011.5
359.416	64013.97
359.865	69323.15
360.315	82627.04
360.764	38566.18
361.213	21600.32
361.663	20454.11
362.112	25249.79
362.561	40785.47
363.01	30776.7
363.459	25979.29
363.908	28159.56
364.357	23904.79
364.806	40311.33
365.255	27722.79
365.703	25386.7
366.152	25455.98
366.601	20649.08
367.05	16781.63
367.498	15243.75
367.947	15933.72
368.395	16558.61
368.844	14646.8
369.292	17692.47
369.74	12255.37
370.189	18776.29
370.637	22010.55
371.085	19006.06
371.533	23163.46
371.981	22295.32
372.429	21235.79
372.877	22114.45
373.325	18543.22
373.773	18931.51
374.221	16895.04
374.669	20983.35
375.116	18170.92
375.564	18368.92
376.012	20591.87
376.459	17030.01
376.907	20427.64
377.354	24827.48
377.801	23270.72
378.249	26793.86
378.696	34400.82
379.143	41786.44
379.591	44817.99
380.038	76178.29
380.485	55328.01
380.932	60119.16
381.379	55274.56
381.826	40930.83
382.273	29288.31
382.72	25788.63
383.166	25290.95
383.613	16513.66
384.06	14960.51
384.506	17391.58
384.953	12879.05
385.4	13055.88
385.846	11513.61
386.292	11312.49
386.739	11162.78
387.185	11112.82
387.631	11181.49
388.078	10932.33
388.524	11782.73
388.97	10983.82
389.416	9240.47
389.862	9894.76
390.308	9459.61
390.754	9682.18
391.2	10590.22
391.645	10924.23
392.091	10511.64
392.537	10221.81
392.983	10335.29
393.428	10209.28
393.874	11022.93
394.319	11107.2
394.765	10596.49
395.21	10946.38
395.655	10311.42
396.101	9705.04
396.546	8795.65
396.991	8930.86
397.436	8340.07
397.881	8089.81
398.326	7704.64
398.771	7293.35
399.216	6416.4
399.661	5794.62
400.106	5785.2
400.551	5931.11
400.995	5330.15
401.44	5285.44
401.885	4970.15
402.329	5019.31
402.774	4803.77
403.218	4635.14
403.663	4474.18
404.107	4590.27
404.551	4616.38
404.995	4236.74
405.44	4084.24
405.884	4143.65
406.328	4007.58
406.772	3989.94
407.216	3630.99
407.66	3511.17
408.104	3340.96
408.547	3124.43
408.991	3018.2
409.435	2900.95
409.879	2852.52
410.322	2811.24
410.766	2709.15
411.209	2566.44
411.653	2460.16
412.096	2404.57
412.54	2403.12
412.983	2384.92
413.426	2385.74
413.869	2384.71
414.312	2335.38
414.756	2252.22
415.199	2147.04
415.642	2078.44
416.085	2083.4
416.527	2067.2
416.97	2099.24
417.413	1989.06
417.856	1967.17
418.298	1943.87
418.741	1928.44
419.184	1924.58
419.626	2004.4
420.069	1999.55
420.511	2010.64
420.953	1961.86
421.396	1940.36
421.838	1888.6
422.28	1928.79
422.722	1933.48
423.164	1959.44
423.606	1924.05
424.048	1916.91
424.49	1815.25
424.932	1804.25
425.374	1777.08
425.816	1804.63
426.258	1835.57
426.699	1852.03
427.141	1817.96
427.582	1842.67
428.024	1828.23
428.465	1812
428.907	1763.33
429.348	1737.65
429.789	1731.22
430.231	1689.19
430.672	1707.45
431.113	1664.99
431.554	1640.4
431.995	1600.39
432.436	1539.65
432.877	1503.98
433.318	1475.42
433.759	1469.53
434.2	1471.55
434.64	1459.9
435.081	1466.06
435.522	1389.6
435.962	1340.69
436.403	1310.71
436.843	1334.09
437.284	1309.75
437.724	1279.99
438.164	1291.14
438.604	1268.06
439.045	1221.35
439.485	1172.64
439.925	1153.21
440.365	1130.98
440.805	1121.99
441.245	1113.03
441.685	1075.6
442.125	1075.19
442.564	1087.4
443.004	1067.14
443.444	1071.19
443.883	1081.27
444.323	1082.67
444.762	1094.06
445.202	1117.37
445.641	1143.63
446.081	1148.16
446.52	1163.98
446.959	1159.11
447.398	1138.33
447.837	1134.18
448.276	1124.26
448.716	1142.76
449.154	1161.26
449.593	1139.66
450.032	1142.8
450.471	1128.31
450.91	1136.33
451.349	1139.79
451.787	1143.16
452.226	1166.67
452.664	1171.91
453.103	1176.61
453.541	1180.12
453.98	1180.53
454.418	1194.28
454.856	1176.74
455.295	1180.48
455.733	1191.94
456.171	1202.95
456.609	1207.33
457.047	1209.07
457.485	1226.41
457.923	1230.97
458.361	1218.03
458.798	1224.26
459.236	1221.96
459.674	1234.03
460.111	1239.4
460.549	1227.55
460.987	1224.17
461.424	1221.7
461.862	1217.71
462.299	1201.64
462.736	1199.41
463.173	1203.32
463.611	1187.71
464.048	1184.83
464.485	1195.02
464.922	1186.01
465.359	1180.51
465.796	1155.58
466.233	1145.08
466.67	1132.2
467.106	1127.67
467.543	1117.84
467.98	1103.21
468.416	1077.22
468.853	1070.17
469.29	1039.39
469.726	1028.71
470.162	1002.3
470.599	998.01
471.035	991.16
471.471	969.67
471.907	966
472.344	960.87
472.78	963.06
473.216	978.19
473.652	967.12
474.088	966.26
474.523	963.14
474.959	973.89
475.395	966.4
475.831	959.37
476.266	965.34
476.702	964.42
477.138	954.83
477.573	953.5
478.008	950.55
478.444	955.27
478.879	962.85
479.314	967.73
479.75	967.74
480.185	974.37
480.62	985.93
481.055	992.27
481.49	1000.09
481.925	1016.86
482.36	1034.77
482.795	1065.36
483.229	1096.32
483.664	1122.49
484.099	1130.27
484.534	1151.3
484.968	1164.68
485.403	1172.4
485.837	1175.69
486.271	1178.1
486.706	1183.04
487.14	1175.99
487.574	1161.31
488.009	1155.43
488.443	1149.65
488.877	1165.96
489.311	1174.03
489.745	1193.02
490.179	1209.17
490.613	1235.48
491.046	1252.46
491.48	1267.64
491.914	1275.47
492.348	1292.22
492.781	1306.93
493.215	1318.66
493.648	1329.92
494.082	1349.37
494.515	1358.41
494.948	1380.67
495.382	1400.53
495.815	1419.02
496.248	1438.76
496.681	1474.85
497.114	1508.77
497.547	1539.35
497.98	1575.06
498.413	1596.24
498.846	1625.42
499.279	1653.32
499.711	1673.8
500.144	1688.75
500.577	1718.12
501.009	1752.48
501.442	1780.92
501.874	1790.84
502.306	1805
502.739	1825.94
503.171	1867.13
503.603	1881.27
504.036	1911.05
504.468	1931.39
504.9	1964.07
505.332	1988.64
505.764	2004.4
506.196	2027.42
506.627	2066.58
507.059	2102.08
507.491	2131.96
507.923	2130.62
508.354	2169.34
508.786	2196.59
509.217	2238.39
509.649	2272.25
510.08	2314.66
510.512	2351.79
510.943	2383.77
511.374	2409.25
511.805	2452.77
512.237	2494.33
512.668	2565.11
513.099	2622.31
513.53	2679.14
513.961	2719.07
514.391	2784.68
514.822	2847.62
515.253	2917.82
515.684	2966.59
516.114	3020.44
516.545	3055.59
516.975	3101.24
517.406	3127.8
517.836	3122.29
518.267	3123.53
518.697	3149.31
519.127	3145.77
519.558	3151.74
519.988	3147.34
520.418	3157.42
520.848	3183.24
521.278	3189.25
521.708	3165.03
522.138	3180.73
522.567	3233.78
522.997	3273.37
523.427	3293.42
523.857	3317.44
524.286	3326.85
524.716	3346.32
525.145	3371.34
525.575	3380.24
526.004	3399.52
526.433	3418.4
526.863	3408.53
527.292	3376.34
527.721	3376.57
528.15	3379.04
528.579	3370.11
529.008	3382.41
529.437	3421.36
529.866	3442.17
530.295	3470.56
530.724	3487.55
531.152	3535.19
531.581	3556.1
532.01	3585.21
532.438	3598.34
532.867	3623.34
533.295	3654.85
533.723	3663.23
534.152	3653.61
534.58	3649.21
535.008	3614.55
535.436	3613.73
535.865	3625.37
536.293	3652.04
536.721	3682.29
537.149	3729.44
537.576	3731.1
538.004	3754.5
538.432	3769.93
538.86	3765.35
539.287	3778.71
539.715	3804.64
540.143	3811.57
540.57	3804.74
540.998	3796.5
541.425	3747.02
541.852	3705.07
542.28	3701.95
542.707	3669.41
543.134	3639.52
543.561	3630.85
543.988	3615.33
544.415	3613.04
544.842	3600.36
545.269	3583.18
545.696	3584.24
546.123	3608.26
546.549	3584.48
546.976	3556.41
547.403	3553.38
547.829	3556.9
548.256	3559.31
548.682	3549.33
549.108	3530.09
549.535	3525.7
549.961	3529.54
550.387	3503.05
550.813	3490.22
551.24	3502.42
551.666	3503.91
552.092	3483.51
552.518	3469.6
552.943	3457.17
553.369	3470.84
553.795	3483.34
554.221	3487.72
554.646	3481.28
555.072	3501.33
555.498	3514.48
555.923	3535.24
556.349	3567.5
556.774	3587.69
557.199	3592.31
557.625	3607.09
558.05	3600.22
558.475	3624.26
558.9	3624.52
559.325	3611.93
559.75	3603.82
560.175	3595.77
560.6	3587.07
561.025	3587.29
561.449	3593.83
561.874	3611.85
562.299	3624.88
562.723	3643.83
563.148	3630.36
563.572	3645.77
563.997	3672.85
564.421	3693.12
564.846	3700.91
565.27	3714.07
565.694	3716.49
566.118	3749.09
566.542	3769.78
566.966	3764.88
567.39	3764.7
567.814	3750.42
568.238	3758.23
568.662	3779.9
569.086	3793.17
569.509	3817.99
569.933	3795.32
570.357	3790.35
570.78	3755.76
571.204	3736.85
571.627	3726.38
572.05	3731.28
572.474	3741.45
572.897	3725.16
573.32	3715.84
573.743	3705.02
574.166	3674.27
574.589	3685.81
575.012	3678.3
575.435	3684.28
575.858	3674.54
576.281	3657.6
576.704	3632.22
577.126	3613.72
577.549	3596.62
577.972	3583.73
578.394	3566.56
578.817	3555.42
579.239	3519.71
579.661	3496.22
580.084	3465.33
580.506	3440.45
580.928	3437.92
581.35	3420.17
581.772	3414.38
582.194	3390.15
582.616	3367.03
583.038	3341.73
583.46	3324.83
583.882	3322.22
584.303	3336.19
584.725	3333.49
585.147	3336.59
585.568	3362.86
585.99	3392.31
586.411	3410.5
586.833	3445.72
587.254	3453.37
587.675	3489.29
588.096	3521.78
588.518	3513.35
588.939	3479.7
589.36	3476.36
589.781	3465.35
590.202	3401.17
590.623	3382.56
591.043	3381.75
591.464	3355.82
591.885	3348.18
592.305	3337.61
592.726	3308.97
593.147	3313.83
593.567	3302.99
593.987	3288.83
594.408	3279.82
594.828	3280.75
595.248	3268.86
595.669	3226.5
596.089	3212.59
596.509	3200.41
596.929	3170.23
597.349	3172.19
597.769	3151.64
598.189	3138.27
598.608	3143.68
599.028	3147.68
599.448	3149.76
599.867	3124.43
600.287	3118.12
600.706	3108.81
601.126	3088.32
601.545	3086.76
601.965	3086.21
602.384	3074.76
602.803	3085.56
603.222	3075.33
603.641	3063.16
604.061	3055.55
604.48	3048.32
604.898	3068.88
605.317	3084.92
605.736	3093.14
606.155	3089.92
606.574	3072.03
606.992	3089.77
607.411	3081.4
607.829	3068.71
608.248	3065.65
608.666	3065.78
609.085	3067.99
609.503	3054.04
609.921	3041.88
610.339	3049.91
610.758	3053.64
611.176	3050.25
611.594	3031.18
612.012	3028.25
612.43	3038.53
612.847	3059.66
613.265	3063.41
613.683	3080.17
614.101	3086.51
614.518	3084.44
614.936	3066.34
615.353	3035.76
615.771	3031.11
616.188	3036.82
616.606	3032.23
617.023	3019.79
617.44	2989.22
617.857	2981.37
618.274	2965.65
618.691	2953.53
619.108	2935.48
619.525	2924.32
619.942	2943.57
620.359	2952.61
620.776	2943.79
621.192	2936.12
621.609	2933.73
622.026	2950.53
622.442	2963.93
622.859	2972.48
623.275	2957.78
623.691	2972.81
624.108	3000.63
624.524	3037.04
624.94	3037.5
625.356	3064.59
625.772	3097.72
626.188	3127.51
626.604	3132.06
627.02	3124.32
627.436	3120.26
627.852	3137.11
628.268	3165.17
628.683	3145.13
629.099	3124.04
629.514	3116.32
629.93	3124.99
630.345	3137.36
630.761	3129.56
631.176	3139.89
631.591	3124.6
632.007	3109.78
632.422	3108.43
632.837	3084.57
633.252	3079.17
633.667	3057.53
634.082	3036.77
634.497	3005.17
634.911	2957.33
635.326	2948.55
635.741	2906.31
636.155	2884.15
636.57	2887.13
636.984	2885.13
637.399	2885.52
637.813	2885.32
638.228	2881.04
638.642	2889.38
639.056	2866.37
639.47	2867.93
639.884	2847.45
640.298	2831.99
640.712	2827.27
641.126	2796.07
641.54	2775.41
641.954	2764.33
642.368	2733.41
642.781	2708.49
643.195	2664.04
643.609	2660.3
644.022	2642.59
644.436	2629.3
644.849	2599.2
645.262	2571.11
645.676	2574.81
646.089	2558.53
646.502	2516.07
646.915	2500.58
647.328	2459.22
647.741	2450.7
648.154	2416.05
648.567	2399.95
648.98	2363.89
649.393	2359.47
649.805	2346.44
650.218	2325.56
650.631	2286.39
651.043	2270.46
651.456	2253.37
651.868	2255.61
652.28	2294.06
652.693	2326.14
653.105	2344.92
653.517	2368.13
653.929	2370.55
654.341	2382.62
654.753	2352.1
655.165	2366.57
655.577	2361.47
655.989	2350.46
656.401	2330.27
656.813	2243.55
657.224	2195.47
657.636	2127.7
658.047	2081.71
658.459	2032.5
658.87	2008.93
659.282	1979.21
659.693	1924.94
660.104	1886.2
660.515	1847.93
660.926	1836.39
661.338	1824.07
661.749	1802.15
662.159	1772.48
662.57	1755.13
662.981	1736.71
663.392	1710.65
663.803	1708.3
664.213	1694.76
664.624	1675.43
665.035	1674.04
665.445	1635.04
665.855	1608.36
666.266	1580.54
666.676	1566.19
667.086	1538.47
667.497	1526.69
667.907	1504.39
668.317	1476.44
668.727	1457.46
669.137	1452.53
669.547	1438.75
669.956	1437.55
670.366	1434.28
670.776	1430.68
671.186	1432.7
671.595	1432.63
672.005	1433.53
672.414	1427
672.824	1417.92
673.233	1424.89
673.642	1423.53
674.052	1425.25
674.461	1425.5
674.87	1431.21
675.279	1423.37
675.688	1425.79
676.097	1425.64
676.506	1419.08
676.915	1447.5
677.323	1455.18
677.732	1453.39
678.141	1456.88
678.549	1443.52
678.958	1447.76
679.366	1454.25
679.775	1473.51
680.183	1498.46
680.592	1522.36
681	1546.46
681.408	1547.33
681.816	1579.81
682.224	1615.89
682.632	1651.44
683.04	1731.82
683.448	1805.11
683.856	1892.11
684.264	1993.46
684.671	2094.52
685.079	2213.24
685.487	2341.98
685.894	2510.39
686.302	2657.55
686.709	2782.08
687.116	2925.67
687.524	3042.71
687.931	3144.41
688.338	3232.43
688.745	3305.88
689.152	3383.18
689.559	3479.57
689.966	3570.22
690.373	3609.68
