Data from N_2_HIR_WI_4N_Splice17_12-32-52-547.txt Node
Date: Sat Mar 14 12:32:52 EDT 2020
User: sa697716
Spectrometer: FLMS03696
Trigger mode: 0
Integration Time (sec): 3.180400E-1
Scans to average: 20
Electric dark correction enabled: true
Nonlinearity correction enabled: true
Boxcar width: 5
XAxis mode: Wavelengths
Number of Pixels in Spectrum: 2048
>>>>>Begin Spectral Data<<<<<
187.83	-269297.96
188.298	2136.19
188.766	1218.1
189.233	1092.6
189.701	1469.1
190.169	1993.99
190.636	765.68
191.104	695.9
191.571	175
192.039	-30.73
192.506	16.83
192.974	587.51
193.441	-656.68
193.908	-10.65
194.375	16.83
194.842	54.91
195.31	102.04
195.777	176.84
196.244	424.56
196.711	526.21
197.177	625.27
197.644	890.47
198.111	1509.7
198.578	2113.32
199.045	1704.67
199.511	2796.83
199.978	3248.28
200.445	2779.75
200.911	3084.39
201.378	3445.99
201.844	3121.62
202.31	5403.27
202.777	5599
203.243	3134.37
203.709	3001.96
204.176	3569.31
204.642	2954.85
205.108	2779.86
205.574	2279.07
206.04	2079.23
206.506	1951.54
206.972	1851.44
207.438	1775.34
207.903	2020.02
208.369	1760.29
208.835	1760.37
209.301	1857.94
209.766	1896.68
210.232	1872.79
210.697	2309.95
211.163	2875.17
211.628	4367.91
212.094	3662.25
212.559	4489.51
213.024	2793.28
213.49	3417.63
213.955	3298.85
214.42	3219.68
214.885	3004.79
215.35	2897.81
215.815	2783.26
216.28	2950.26
216.745	2408.47
217.21	2633.33
217.675	2438.41
218.14	2770.49
218.604	3133.01
219.069	3640.81
219.534	3846.38
219.998	4511.83
220.463	5516.96
220.927	6875.22
221.392	6516.67
221.856	6642.16
222.32	8437.5
222.785	10477.17
223.249	13225.58
223.713	14828.21
224.177	14832.1
224.642	19117.28
225.106	23601.78
225.57	25863.69
226.034	19289.29
226.497	29494.37
226.961	26635.58
227.425	31023.25
227.889	34498.8
228.353	34605.55
228.816	71529.6
229.28	68623.88
229.744	57980.78
230.207	35314.15
230.671	34745.94
231.134	57559.33
231.597	66300.21
232.061	66527.83
232.524	64939.89
232.987	44776.99
233.45	40315.36
233.914	36193.7
234.377	37146.05
234.84	34010.35
235.303	40093.38
235.766	44833.38
236.229	46365.18
236.691	29263.06
237.154	32911.27
237.617	24793.16
238.08	25420.12
238.542	29786.92
239.005	21298.78
239.468	21137.27
239.93	19948.64
240.393	18146.2
240.855	15930.91
241.317	16322.78
241.78	19861.93
242.242	20508.36
242.704	22130.72
243.166	19259.62
243.629	17485.51
244.091	20165.76
244.553	22114.86
245.015	23759.26
245.477	30722.11
245.939	45041.17
246.4	47772.01
246.862	46441.66
247.324	43796.27
247.786	49044.8
248.247	64290.52
248.709	66393.86
249.17	49641.94
249.632	46714.13
250.093	54189.49
250.555	46782.72
251.016	28515.39
251.477	27037.77
251.939	29178.96
252.4	30621.34
252.861	36402.62
253.322	33846.02
253.783	40280.36
254.244	52209.89
254.705	41155.22
255.166	36551.95
255.627	35998.5
256.088	50725.98
256.549	53887.47
257.009	46337.08
257.47	56147.72
257.931	45685.16
258.391	34177.6
258.852	35230.3
259.312	36899.48
259.773	45591
260.233	38458.02
260.694	32395.76
261.154	36714.5
261.614	29411.56
262.074	26286.91
262.534	27295.47
262.994	25693.71
263.455	34229.05
263.915	28787.46
264.374	27098.37
264.834	29562.31
265.294	32763.69
265.754	33912.49
266.214	32121.29
266.673	30094.71
267.133	38006.7
267.593	37683.32
268.052	46134.49
268.512	40132.22
268.971	48417.42
269.431	53089.51
269.89	47531.3
270.349	71226.57
270.809	79477.32
271.268	71423.19
271.727	160250.33
272.186	103692.7
272.645	77784.55
273.104	56139.89
273.563	81244.17
274.022	63882.13
274.481	54371.05
274.94	41861.61
275.399	31119.62
275.857	36197.36
276.316	48931.1
276.775	43508.72
277.233	42852.15
277.692	40087.78
278.15	45300.71
278.609	46589.43
279.067	43078.36
279.525	39948.82
279.984	51596.38
280.442	61987.49
280.9	61070.64
281.358	40169.05
281.816	37432.22
282.274	36635.55
282.732	37881.74
283.19	38042.27
283.648	32801.74
284.106	34947.92
284.564	35581.58
285.021	33011.16
285.479	24601.22
285.937	22398.16
286.394	19644.96
286.852	20218.17
287.309	21242.18
287.767	20487.87
288.224	19484.39
288.682	21383.12
289.139	23439.39
289.596	21426.68
290.053	22239.13
290.511	28013.79
290.968	33934.06
291.425	46092.41
291.882	38313.56
292.339	33288.34
292.796	33042.88
293.252	31128.97
293.709	24741.5
294.166	22177.66
294.623	24521.44
295.079	23553.59
295.536	23688.28
295.992	21508.55
296.449	21239.4
296.905	22067.18
297.362	21182.46
297.818	22277.94
298.274	23110.13
298.731	23535.21
299.187	23308.51
299.643	25018.71
300.099	30226.25
300.555	33145.65
301.011	27703.94
301.467	26687.75
301.923	31263.85
302.379	30522.71
302.835	29989.61
303.291	30018.96
303.746	34165.67
304.202	43115.4
304.658	43302.3
305.113	29120.74
305.569	28524.88
306.024	30398.05
306.479	28961.36
306.935	24426.34
307.39	26702.99
307.845	24656.76
308.301	24833.88
308.756	24220.25
309.211	23358.47
309.666	23910.98
310.121	29688.65
310.576	30162.79
311.031	29966.25
311.486	34335.29
311.94	34345.44
312.395	45912.49
312.85	86400.79
313.305	424203.85
313.759	2194494.99
314.214	159081.76
314.668	126158.88
315.123	106058.36
315.577	38021.91
316.032	33801.25
316.486	42331.59
316.94	33316.02
317.394	23174.2
317.849	17974.78
318.303	17017.75
318.757	16053.37
319.211	17726.98
319.665	15506.25
320.119	15684.95
320.572	22505.26
321.026	21004.69
321.48	17487.78
321.934	19092.3
322.387	19123.51
322.841	20674.34
323.295	18579.12
323.748	21417.68
324.202	21710.52
324.655	26076.71
325.108	36510.78
325.562	25775.17
326.015	30680.03
326.468	23222.75
326.921	25970
327.374	24257.79
327.827	25293.13
328.28	28668.83
328.733	19202.83
329.186	16919
329.639	16151.72
330.092	13596.06
330.545	12948.87
330.997	13053.8
331.45	14250.47
331.903	16687.28
332.355	28697.48
332.808	27836.22
333.26	22959.29
333.713	24961.9
334.165	25172.69
334.617	33594.94
335.069	27175.95
335.522	49199.92
335.974	54497.74
336.426	49797.01
336.878	34581.28
337.33	17543.96
337.782	17158.02
338.234	21507.06
338.686	25717.16
339.137	30415.01
339.589	28632.75
340.041	22450.32
340.493	19305.82
340.944	19786.7
341.396	21339.72
341.847	17910.64
342.299	21142.25
342.75	25815.22
343.201	22558.87
343.653	25972.8
344.104	31981.04
344.555	25206.86
345.006	39282.88
345.457	30005.38
345.908	23865.58
346.359	22454.64
346.81	18339.74
347.261	19340.33
347.712	19016.22
348.163	20381.98
348.613	20606.81
349.064	19222.84
349.515	16818.08
349.965	17250.35
350.416	20827.66
350.866	22837.66
351.317	25809.64
351.767	42693.64
352.217	53944.47
352.668	44841.83
353.118	41137.83
353.568	39700.1
354.018	31395.82
354.468	33154.82
354.918	23753.84
355.368	20792.48
355.818	29442.72
356.268	84894.14
356.718	354903.83
357.168	88353.36
357.617	44366.14
358.067	49344.4
358.517	46250.58
358.966	54296.12
359.416	60794.11
359.865	65757.71
360.315	78237.01
360.764	36509.26
361.213	20432.93
361.663	19367.34
362.112	23924.94
362.561	38702.62
363.01	29187.86
363.459	24548.94
363.908	26577.1
364.357	22587.91
364.806	38180.27
365.255	26264.57
365.703	24023.74
366.152	24079.29
366.601	19549.42
367.05	15856.66
367.498	14395.91
367.947	15059.13
368.395	15691.69
368.844	13888.68
369.292	16751.89
369.74	11579.95
370.189	17744.2
370.637	20839.25
371.085	18002.63
371.533	21971.85
371.981	21230.68
372.429	20254.09
372.877	21117.95
373.325	17704.87
373.773	18065.09
374.221	16120.09
374.669	20025.93
375.116	17360.64
375.564	17537.75
376.012	19644.65
376.459	16235.09
376.907	19458.54
377.354	23595.08
377.801	22049.4
378.249	25392.29
378.696	32552.02
379.143	39545.67
379.591	42313.37
380.038	71838
380.485	51990.87
380.932	56242.97
381.379	51469.97
381.826	37934.05
382.273	27050.79
382.72	23715.25
383.166	23157.38
383.613	15062.65
384.06	13601.63
384.506	15773.65
384.953	11617.63
385.4	11751.32
385.846	10345.36
386.292	10125.23
386.739	9951.48
387.185	9865.56
387.631	9916.1
388.078	9676.52
388.524	10405.49
388.97	9652.96
389.416	8080.55
389.862	8603.33
390.308	8171.79
390.754	8328.91
391.2	9083.4
391.645	9331.82
392.091	8955.69
392.537	8677
392.983	8710.75
393.428	8587.62
393.874	9242.97
394.319	9293.13
394.765	8855.08
395.21	9150.61
395.655	8596.94
396.101	8064.06
396.546	7292.58
396.991	7384.01
397.436	6865.8
397.881	6654.8
398.326	6316.79
398.771	5982.77
399.216	5246.53
399.661	4731.53
400.106	4719.35
400.551	4835.41
400.995	4346.14
401.44	4306.25
401.885	4049.18
402.329	4098.11
402.774	3933.4
403.218	3807.06
403.663	3678.75
404.107	3783.68
404.551	3810.05
404.995	3492.75
405.44	3373.57
405.884	3434.66
406.328	3328.84
406.772	3323.36
407.216	3033.26
407.66	2936.79
408.104	2798.11
408.547	2619.4
408.991	2540.64
409.435	2452.92
409.879	2424.65
410.322	2395.9
410.766	2313.39
411.209	2200.18
411.653	2115.28
412.096	2072.42
412.54	2075.82
412.983	2061.99
413.426	2069.27
413.869	2067.52
414.312	2028.32
414.756	1956.05
415.199	1864.9
415.642	1809.5
416.085	1814.16
416.527	1801.83
416.97	1832.14
417.413	1737.1
417.856	1721.6
418.298	1702.21
418.741	1692.39
419.184	1689.8
419.626	1761.38
420.069	1764.72
420.511	1775.67
420.953	1738.86
421.396	1721.73
421.838	1677.26
422.28	1716.87
422.722	1724.07
423.164	1749.25
423.606	1719.71
424.048	1719.13
424.49	1632.08
424.932	1621.67
425.374	1602.13
425.816	1630.14
426.258	1661.54
426.699	1681.58
427.141	1656.25
427.582	1681.94
428.024	1674.18
428.465	1665.56
428.907	1624.23
429.348	1605.13
429.789	1605.97
430.231	1567.66
430.672	1585.77
431.113	1549.05
431.554	1523.74
431.995	1487.61
432.436	1433.34
432.877	1400.31
433.318	1374.84
433.759	1367.91
434.2	1367.85
434.64	1353.44
435.081	1359.13
435.522	1288.38
435.962	1240.18
436.403	1212.37
436.843	1227.54
437.284	1202.67
437.724	1172.6
438.164	1177.24
438.604	1151.65
439.045	1108.28
439.485	1061.83
439.925	1038.29
440.365	1015.55
440.805	1006.55
441.245	999.14
441.685	964.28
442.125	959.25
442.564	966.59
443.004	947.25
443.444	947.95
443.883	950.52
444.323	949.85
444.762	955.43
445.202	968.99
445.641	986.43
446.081	981.12
446.52	988.89
446.959	981.55
447.398	959.55
447.837	948.95
448.276	933.04
448.716	942.65
449.154	951.54
449.593	931.1
450.032	928.24
450.471	912.75
450.91	913.52
451.349	915.53
451.787	911.31
452.226	924.88
452.664	925.67
453.103	928.57
453.541	930.23
453.98	927.33
454.418	935.27
454.856	922.89
455.295	923.59
455.733	932.62
456.171	937.33
456.609	939.31
457.047	941.38
457.485	955.22
457.923	957.74
458.361	945.63
458.798	950.51
459.236	947.99
459.674	953
460.111	955.84
460.549	946.99
460.987	943.41
461.424	942.03
461.862	938.28
462.299	924.54
462.736	923.1
463.173	926.32
463.611	913.86
464.048	911.52
464.485	921.35
464.922	913.85
465.359	908.66
465.796	893.39
466.233	886.31
466.67	875.15
467.106	871.94
467.543	861.68
467.98	849.83
468.416	828.54
468.853	821.44
469.29	795.52
469.726	786.63
470.162	766.04
470.599	758.91
471.035	751.72
471.471	733.76
471.907	730.43
472.344	726.5
472.78	728.48
473.216	738.52
473.652	729.33
474.088	728.71
474.523	726.21
474.959	733.34
475.395	726.79
475.831	722.49
476.266	727.83
476.702	725.95
477.138	718.79
477.573	716.37
478.008	713.66
478.444	717.39
478.879	724.21
479.314	728
479.75	728.32
480.185	732.78
480.62	739.65
481.055	743.54
481.49	749.04
481.925	760.05
482.36	774.26
482.795	796.48
483.229	819.35
483.664	836.1
484.099	839.09
484.534	850.93
484.968	859.72
485.403	863.79
485.837	863.87
486.271	863.8
486.706	865.82
487.14	856.98
487.574	843.82
488.009	836.27
488.443	829.8
488.877	839.17
489.311	842.78
489.745	851.68
490.179	859.21
490.613	875.36
491.046	882.57
491.48	889.1
491.914	891.02
492.348	897.67
492.781	903.97
493.215	906.9
493.648	909.15
494.082	918.35
494.515	921.35
494.948	932.14
495.382	939.04
495.815	945.55
496.248	953.34
496.681	970.4
497.114	987.15
497.547	1001.21
497.98	1018.57
498.413	1027.21
498.846	1039.55
499.279	1050.81
499.711	1057.08
500.144	1060.73
500.577	1075.21
501.009	1091.21
501.442	1104.96
501.874	1106.95
502.306	1110.23
502.739	1120.67
503.171	1140.58
503.603	1144.99
504.036	1157.72
504.468	1166.33
504.9	1182.12
505.332	1191.67
505.764	1196.97
506.196	1206.13
506.627	1225.35
507.059	1242.96
507.491	1254.8
507.923	1252.06
508.354	1271.95
508.786	1285.36
509.217	1307.34
509.649	1324.83
510.08	1348.26
510.512	1368.12
510.943	1386.57
511.374	1399.49
511.805	1424.31
512.237	1446.84
512.668	1486.7
513.099	1519.52
513.53	1552.51
513.961	1576.27
514.391	1614.93
514.822	1654.6
515.253	1698.33
515.684	1728.01
516.114	1763.38
516.545	1785.66
516.975	1817.29
517.406	1836.94
517.836	1836.51
518.267	1840.69
518.697	1860.36
519.127	1863.64
519.558	1868.4
519.988	1869.76
520.418	1878.9
520.848	1896.53
521.278	1905.14
521.708	1915.44
522.138	1928.94
522.567	1965.8
522.997	1994.57
523.427	2010.86
523.857	2028.27
524.286	2040.06
524.716	2055.6
525.145	2076.63
525.575	2086.84
526.004	2101.95
526.433	2097.55
526.863	2094.23
527.292	2077.62
527.721	2082.84
528.15	2087.94
528.579	2086.98
529.008	2097.27
529.437	2124.84
529.866	2139.44
530.295	2159.36
530.724	2173.29
531.152	2206.2
531.581	2222.1
532.01	2243.57
532.438	2252.94
532.867	2270.94
533.295	2291.94
533.723	2298.82
534.152	2294.67
534.58	2294.12
535.008	2275.16
535.436	2277.05
535.865	2285.68
536.293	2303.91
536.721	2323.68
537.149	2353.77
537.576	2355.32
538.004	2370.94
538.432	2379.91
538.86	2378.3
539.287	2385.59
539.715	2402
540.143	2404.91
540.57	2399.49
540.998	2394.49
541.425	2364.81
541.852	2338.57
542.28	2335.66
542.707	2313.92
543.134	2296.53
543.561	2289.84
543.988	2281.11
544.415	2279.74
544.842	2272.18
545.269	2262.12
545.696	2262.68
546.123	2277.47
546.549	2264.32
546.976	2247.06
547.403	2247.18
547.829	2248.38
548.256	2249.84
548.682	2243.13
549.108	2231.79
549.535	2230.67
549.961	2232.38
550.387	2216.27
550.813	2209.42
551.24	2216.22
551.666	2218.48
552.092	2205.9
552.518	2197.27
552.943	2189.79
553.369	2200.29
553.795	2207.69
554.221	2209.25
554.646	2206.06
555.072	2218.08
555.498	2224.44
555.923	2236.72
556.349	2255.98
556.774	2266.75
557.199	2269.03
557.625	2276.62
558.05	2270.16
558.475	2282.54
558.9	2281.63
559.325	2272.01
559.75	2266.1
560.175	2257.99
560.6	2249.62
561.025	2246.79
561.449	2249.67
561.874	2257.75
562.299	2264.36
562.723	2274.22
563.148	2263.68
563.572	2269.16
563.997	2283.03
564.421	2290.51
564.846	2293.13
565.27	2299.91
565.694	2298.96
566.118	2315.22
566.542	2327.21
566.966	2320.99
567.39	2317.08
567.814	2307.11
568.238	2309.58
568.662	2317.99
569.086	2324.25
569.509	2335.53
569.933	2318.05
570.357	2309.75
570.78	2284.97
571.204	2270.19
571.627	2258.78
572.05	2256.89
572.474	2256.73
572.897	2241.37
573.32	2233.53
573.743	2222.26
574.166	2200.79
574.589	2202.63
575.012	2195.87
575.435	2195.9
575.858	2184.9
576.281	2171.66
576.704	2152.91
577.126	2139.02
577.549	2127.38
577.972	2114.85
578.394	2102.93
578.817	2094.03
579.239	2070.28
579.661	2053.26
580.084	2032.91
580.506	2016.8
580.928	2012.17
581.35	1999.72
581.772	1994.51
582.194	1978.54
582.616	1964.22
583.038	1946.35
583.46	1933.93
583.882	1931.35
584.303	1938.08
584.725	1933.54
585.147	1936.7
585.568	1951.76
585.99	1968.23
586.411	1978.73
586.833	1998.71
587.254	2001.59
587.675	2021.34
588.096	2039.2
588.518	2033.38
588.939	2013.01
589.36	2012.39
589.781	1999.69
590.202	1962.5
590.623	1951.06
591.043	1948.84
591.464	1932.08
591.885	1927.07
592.305	1920.21
592.726	1902.92
593.147	1905.07
593.567	1898.8
593.987	1889.43
594.408	1884.59
594.828	1884.75
595.248	1877.73
595.669	1853.13
596.089	1843.61
596.509	1835.28
596.929	1818.21
597.349	1819.42
597.769	1806.94
598.189	1798.49
598.608	1801.12
599.028	1804.31
599.448	1804.86
599.867	1789.55
600.287	1785.19
600.706	1780.24
601.126	1768.43
601.545	1766.22
601.965	1764.5
602.384	1757.34
602.803	1761.95
603.222	1755.15
603.641	1746.02
604.061	1740.66
604.48	1735.62
604.898	1747.1
605.317	1754.46
605.736	1757.8
606.155	1754.95
606.574	1744.94
606.992	1754.18
607.411	1748.37
607.829	1738.51
608.248	1735.24
608.666	1732.58
609.085	1732.23
609.503	1720.26
609.921	1711.95
610.339	1714.95
610.758	1715.22
611.176	1708.42
611.594	1695.95
612.012	1692.05
612.43	1697.7
612.847	1707.13
613.265	1709.01
613.683	1715.28
614.101	1718.2
614.518	1714.99
614.936	1701.92
615.353	1683.88
615.771	1679.91
616.188	1681.27
616.606	1676.6
617.023	1667.25
617.44	1649
617.857	1641.45
618.274	1631
618.691	1623.67
619.108	1611.25
619.525	1604.67
619.942	1613.06
620.359	1617.66
620.776	1611.24
621.192	1606.81
621.609	1603.87
622.026	1612.42
622.442	1618.86
622.859	1624.04
623.275	1615.34
623.691	1623.09
624.108	1637.92
624.524	1656.52
624.94	1656.95
625.356	1668.96
625.772	1686.25
626.188	1701.83
626.604	1704.13
627.02	1699.53
627.436	1695.9
627.852	1704.37
628.268	1720.16
628.683	1710.12
629.099	1699.48
629.514	1692.44
629.93	1698.4
630.345	1705.11
630.761	1700.61
631.176	1704.75
631.591	1697.46
632.007	1690.39
632.422	1688.84
632.837	1674.61
633.252	1670.33
633.667	1658.31
634.082	1647.19
634.497	1630.06
634.911	1603.79
635.326	1598.84
635.741	1578.35
636.155	1565.86
636.57	1568.22
636.984	1568.08
637.399	1571.77
637.813	1572.51
638.228	1571.22
638.642	1579.36
639.056	1568.38
639.47	1571.42
639.884	1563.05
640.298	1556.57
640.712	1557.03
641.126	1543.34
641.54	1533.59
641.954	1528.11
642.368	1514.66
642.781	1505.16
643.195	1483.22
643.609	1485.91
644.022	1479.55
644.436	1474.74
644.849	1459.23
645.262	1445.13
645.676	1447.64
646.089	1442.24
646.502	1422.22
646.915	1416.29
647.328	1396.15
647.741	1393.93
648.154	1376.58
648.567	1371.75
648.98	1354.17
649.393	1354.33
649.805	1350.66
650.218	1340.2
650.631	1319.14
651.043	1310.92
651.456	1300.91
651.868	1300.21
652.28	1321.71
652.693	1337.89
653.105	1345.42
653.517	1357.19
653.929	1357.11
654.341	1363.51
654.753	1346.81
655.165	1353.18
655.577	1348.49
655.989	1342.39
656.401	1331.47
656.813	1283.82
657.224	1256.86
657.636	1218.63
658.047	1195.02
658.459	1168.47
658.87	1154.47
659.282	1138.84
659.693	1110.92
660.104	1093.27
660.515	1075.03
660.926	1072.38
661.338	1067.32
661.749	1058.85
662.159	1046.13
662.57	1038.92
662.981	1033.88
663.392	1024.2
663.803	1028.25
664.213	1024.39
664.624	1017.14
665.035	1020.56
665.445	1002.41
665.855	992.09
666.266	981.25
666.676	978.14
667.086	965.56
667.497	961.61
667.907	952.59
668.317	938.74
668.727	933.92
669.137	932.77
669.547	927.88
669.956	929.41
670.366	930.86
670.776	932.26
671.186	936.52
671.595	939.54
672.005	943.02
672.414	940.94
672.824	938.99
673.233	943.69
673.642	946.53
674.052	948.64
674.461	950.29
674.87	956.19
675.279	951.86
675.688	953.26
676.097	955.81
676.506	951.24
676.915	969.25
677.323	971.98
677.732	969.36
678.141	968.53
678.549	955.94
678.958	954.86
679.366	954.03
679.775	959.96
680.183	972.79
680.592	979.59
681	987.77
681.408	980.24
681.816	990.9
682.224	1002.36
682.632	1015.3
683.04	1053.08
683.448	1084.83
683.856	1122.81
684.264	1168.41
684.671	1208.29
685.079	1259.78
685.487	1314.51
685.894	1390.81
686.302	1452.9
686.709	1504.61
687.116	1564.32
687.524	1612.79
687.931	1654.38
688.338	1688.45
688.745	1715.03
689.152	1749.35
689.559	1793.36
689.966	1838.94
690.373	1855.52
690.78	1898.13
691.187	1966.19
691.593	2015.79
692	2055.48
692.407	2116.51
692.813	2196.1
693.22	2257.61
693.626	2319.15
694.032	2367.94
694.439	2447.39
