Data from N_2_DIV_IL_4N_Splice17_12-35-57-192.txt Node
Date: Sat Mar 14 12:35:57 EDT 2020
User: sa697716
Spectrometer: FLMS03696
Trigger mode: 0
Integration Time (sec): 3.180400E-1
Scans to average: 20
Electric dark correction enabled: true
Nonlinearity correction enabled: true
Boxcar width: 5
XAxis mode: Wavelengths
Number of Pixels in Spectrum: 2048
>>>>>Begin Spectral Data<<<<<
187.83	-341888.32
188.298	2480.77
188.766	1360.26
189.233	1209.46
189.701	1726.36
190.169	2352.92
190.636	811.85
191.104	604.38
191.571	16.73
192.039	-113.61
192.506	-172.44
192.974	318.05
193.441	-749.86
193.908	-178.26
194.375	-73.74
194.842	11.13
195.31	92.18
195.777	185.72
196.244	426.66
196.711	499.9
197.177	593.57
197.644	805.9
198.111	1412.14
198.578	2043.84
199.045	1662.51
199.511	2718.3
199.978	3163.04
200.445	2673.24
200.911	2924.12
201.378	3266.18
201.844	2969.63
202.31	5137.18
202.777	5388.13
203.243	2969.47
203.709	2821.11
204.176	3350.67
204.642	2774.76
205.108	2593.48
205.574	2121.43
206.04	1941.57
206.506	1815.39
206.972	1708.97
207.438	1641.84
207.903	1873.73
208.369	1651
208.835	1650.34
209.301	1725.46
209.766	1765.13
210.232	1749.13
210.697	2172.04
211.163	2685.86
211.628	4073.6
212.094	3451.95
212.559	4296.52
213.024	2683.17
213.49	3293.38
213.955	3225.57
214.42	3168.29
214.885	2948.38
215.35	2844.72
215.815	2738.44
216.28	2921.9
216.745	2401.45
217.21	2612.76
217.675	2421.86
218.14	2758.62
218.604	3135.53
219.069	3632.26
219.534	3864.9
219.998	4574.62
220.463	5642.07
220.927	7080.02
221.392	6744.26
221.856	6899.02
222.32	8808.29
222.785	10973.7
223.249	13931.57
223.713	15678.66
224.177	15795.63
224.642	20389.72
225.106	25200.05
225.57	27674.1
226.034	20652.56
226.497	31553.11
226.961	28543.8
227.425	33318.68
227.889	37068.08
228.353	37156.44
228.816	76896.74
229.28	73738.23
229.744	62412.43
230.207	38048.38
230.671	37492.94
231.134	62189.64
231.597	71801.23
232.061	71948.08
232.524	70333.03
232.987	48584.79
233.45	43835.18
233.914	39364.71
234.377	40414.69
234.84	37035.72
235.303	43734.97
235.766	48858.01
236.229	50531.05
236.691	31899.8
237.154	35913.09
237.617	27018.32
238.08	27686.9
238.542	32442.37
239.005	23208.94
239.468	23037.56
239.93	21717.57
240.393	19762.69
240.855	17376.55
241.317	17813.66
241.78	21703.93
242.242	22472.73
242.704	24270.95
243.166	21136.81
243.629	19181.27
244.091	22119.04
244.553	24276.77
245.015	26106.94
245.477	33798.19
245.939	49543.39
246.4	52583.95
246.862	51147.77
247.324	48228.08
247.786	54033.44
248.247	70942.71
248.709	73393.19
249.17	54939.88
249.632	51767.69
250.093	60080.54
250.555	51931.02
251.016	31687.83
251.477	30059.7
251.939	32423.05
252.4	34027.62
252.861	40518.92
253.322	37670.08
253.783	44826.49
254.244	58129.55
254.705	45852.17
255.166	40773.24
255.627	40126.49
256.088	56595.61
256.549	60156.78
257.009	51846.99
257.47	62901.36
257.931	51147.71
258.391	38350.79
258.852	39530.42
259.312	41468.65
259.773	51223.86
260.233	43241.52
260.694	36443.68
261.154	41305.57
261.614	33124.34
262.074	29618.98
262.534	30756.16
262.994	28984.04
263.455	38593.96
263.915	32515.78
264.374	30601.95
264.834	33394.47
265.294	37028.14
265.754	38349.36
266.214	36303.17
266.673	34020.92
267.133	42952.14
267.593	42646.47
268.052	52131.6
268.512	45336.23
268.971	54627.69
269.431	59933.17
269.89	53677.47
270.349	80480.11
270.809	89705.05
271.268	80625.82
271.727	180926.01
272.186	117090.15
272.645	87717.41
273.104	63336.98
273.563	91626.67
274.022	72071.34
274.481	61237.36
274.94	47119.36
275.399	35006.3
275.857	40757.15
276.316	55101.21
276.775	48965.06
277.233	48163.13
277.692	45061.66
278.15	50965.8
278.609	52448.8
279.067	48512.67
279.525	45054.94
279.984	58248.08
280.442	69958.09
280.9	68941.25
281.358	45345.83
281.816	42282.53
282.274	41407.31
282.732	42818.33
283.19	43018.96
283.648	37112.71
284.106	39538.21
284.564	40248.29
285.021	37297.3
285.479	27807.55
285.937	25324.32
286.394	22240.1
286.852	22915.38
287.309	24117.66
287.767	23304.43
288.224	22179.43
288.682	24339.29
289.139	26718.16
289.596	24440.33
290.053	25429.62
290.511	32129.02
290.968	38945.76
291.425	52889.71
291.882	43993.23
292.339	38271.51
292.796	37986.95
293.252	35802.27
293.709	28461.32
294.166	25543.36
294.623	28258.32
295.079	27125.5
295.536	27249.35
295.992	24788.2
296.449	24511.4
296.905	25486.21
297.362	24443.15
297.818	25735.05
298.274	26714.54
298.731	27268.41
299.187	27001.55
299.643	29005.89
300.099	35120.49
300.555	38558.26
301.011	32193.59
301.467	31025.55
301.923	36347.78
302.379	35548.22
302.835	34920.39
303.291	34981.72
303.746	39841.04
304.202	50369.02
304.658	50612.01
305.113	34054.6
305.569	33362
306.024	35613.21
306.479	33987.15
306.935	28660.72
307.39	31318.97
307.845	28955.77
308.301	29138.16
308.756	28394.12
309.211	27371.49
309.666	28033.59
310.121	34816.03
310.576	35399.77
311.031	35137.19
311.486	40245.92
311.94	40252.04
312.395	53909.47
312.85	101300.14
313.305	498084.71
313.759	2576394.9
314.214	186550.54
314.668	148043.57
315.123	124443.49
315.577	44599.21
316.032	39655.3
316.486	49711.59
316.94	39230.11
317.394	27252.63
317.849	21207.43
318.303	20101.33
318.757	18956.12
319.211	20974.46
319.665	18358.55
320.119	18588.47
320.572	26724.03
321.026	24974.23
321.48	20799.14
321.934	22698.55
322.387	22794.7
322.841	24624.83
323.295	22098.75
323.748	25515.44
324.202	25884.23
324.655	31104.53
325.108	43404.72
325.562	30605
326.015	36421.52
326.468	27539.73
326.921	30801.86
327.374	28703.93
327.827	29877.23
328.28	33889.71
328.733	22699.25
329.186	19980.3
329.639	19031.86
330.092	16069.25
330.545	15311.91
330.997	15434.46
331.45	16859.44
331.903	19755.12
332.355	34056.99
332.808	33106.06
333.26	27326.9
333.713	29679.36
334.165	29891.7
334.617	39945.78
335.069	32266.56
335.522	58356.08
335.974	64590.16
336.426	59070.21
336.878	40954.95
337.33	20727.35
337.782	20231.41
338.234	25287.43
338.686	30239.97
339.137	35852.9
339.589	33758.41
340.041	26492.27
340.493	22763.18
340.944	23336.15
341.396	25119.07
341.847	21098.18
342.299	24921
342.75	30447.21
343.201	26676.8
343.653	30698.81
344.104	37732.73
344.555	29704.56
345.006	46239.48
345.457	35390.05
345.908	28128.99
346.359	26492.87
346.81	21598.25
347.261	22756.58
347.712	22420.02
348.163	24035.99
348.613	24346.19
349.064	22728.15
349.515	19902.9
349.965	20413.47
350.416	24651.12
350.866	27060.98
351.317	30607.61
351.767	50747.57
352.217	64190.25
352.668	53289.63
353.118	48789.15
353.568	47066.79
354.018	37213.96
354.468	39261.55
354.918	28181.57
355.368	24607.09
355.818	34746.87
356.268	99879.56
356.718	417854.38
357.168	103969.3
357.617	52234.95
358.067	58142.97
358.517	54494.45
358.966	64021.53
359.416	71823.95
359.865	77635.12
360.315	92573.91
360.764	43282.31
361.213	24242.72
361.663	22964.21
362.112	28378.58
362.561	45761.9
363.01	34529.86
363.459	29061.42
363.908	31413.88
364.357	26658
364.806	45030.01
365.255	30939.9
365.703	28302.79
366.152	28351.82
366.601	23001.42
367.05	18645.77
367.498	16948.4
367.947	17714.98
368.395	18413.99
368.844	16291.7
369.292	19640.77
369.74	13556.62
370.189	20802.99
370.637	24394.18
371.085	21064.2
371.533	25649.24
371.981	24758.69
372.429	23612.52
372.877	24611.81
373.325	20591.29
373.773	20992.19
374.221	18724.98
374.669	23244.25
375.116	20080
375.564	20251.17
376.012	22657.38
376.459	18679.53
376.907	22275.22
377.354	26950.59
377.801	25101.55
378.249	28840.89
378.696	36881.12
379.143	44615.23
379.591	47589.49
380.038	80380.92
380.485	58073.91
380.932	62697.26
381.379	57236
381.826	42146.42
382.273	29944.56
382.72	26171.76
383.166	25535.41
383.613	16547.21
384.06	14902.89
384.506	17235.44
384.953	12654.87
385.4	12735.67
385.846	11139.65
386.292	10872.96
386.739	10653.74
387.185	10527.86
387.631	10535.35
388.078	10208.01
388.524	10926.91
388.97	10107.96
389.416	8415.46
389.862	8958.82
390.308	8483.07
390.754	8615.48
391.2	9339.53
391.645	9545.72
392.091	9108.21
392.537	8801.24
392.983	8812.09
393.428	8651.09
393.874	9259
394.319	9274.55
394.765	8772.39
395.21	9003.87
395.655	8430.06
396.101	7887.07
396.546	7115.37
396.991	7191.53
397.436	6660.53
397.881	6427.83
398.326	6087.71
398.771	5751.87
399.216	5025.59
399.661	4521.98
400.106	4500.5
400.551	4603.07
400.995	4120.75
401.44	4063.42
401.885	3806.83
402.329	3847.48
402.774	3684.79
403.218	3554.65
403.663	3419.49
404.107	3516.24
404.551	3535.19
404.995	3239.62
405.44	3117.5
405.884	3167.85
406.328	3066.85
406.772	3056.89
407.216	2780.52
407.66	2685.65
408.104	2549.6
408.547	2382.46
408.991	2299.81
409.435	2212.75
409.879	2180.92
410.322	2150.76
410.766	2073.58
411.209	1966.29
411.653	1883.33
412.096	1842.75
412.54	1840.39
412.983	1829.92
413.426	1835.88
413.869	1835.74
414.312	1801.06
414.756	1732.95
415.199	1652.66
415.642	1601.83
416.085	1605.96
416.527	1594.84
416.97	1615.94
417.413	1531.13
417.856	1511.52
418.298	1492.51
418.741	1480.5
419.184	1475.78
419.626	1536.02
420.069	1533.55
420.511	1540.27
420.953	1505.5
421.396	1489.98
421.838	1452.94
422.28	1488.18
422.722	1494.22
423.164	1511.77
423.606	1486.14
424.048	1480.15
424.49	1407.45
424.932	1401.15
425.374	1380.58
425.816	1405.12
426.258	1428.99
426.699	1445.48
427.141	1425.23
427.582	1450.68
428.024	1445.49
428.465	1438.35
428.907	1405.45
429.348	1387.91
429.789	1384.62
430.231	1357.87
430.672	1376.34
431.113	1344.11
431.554	1325.68
431.995	1291.86
432.436	1244.07
432.877	1219.16
433.318	1197.58
433.759	1192.26
434.2	1194.38
434.64	1185.53
435.081	1187.88
435.522	1125.97
435.962	1088.45
436.403	1065.49
436.843	1079.87
437.284	1056.2
437.724	1025.64
438.164	1027.08
438.604	1004.92
439.045	963.77
439.485	923.19
439.925	902.98
440.365	879.91
440.805	868.01
441.245	856.75
441.685	825.72
442.125	819.61
442.564	827.22
443.004	808.91
443.444	805.47
443.883	807.9
444.323	803.08
444.762	804.46
445.202	813.91
445.641	828.58
446.081	821.91
446.52	828.15
446.959	821.43
447.398	800.51
447.837	791.62
448.276	779.06
448.716	785.48
449.154	790.59
449.593	773.86
450.032	773.24
450.471	757.44
450.91	757.46
451.349	756.3
451.787	752.26
452.226	762.33
452.664	761.31
453.103	762.06
453.541	760.63
453.98	760.74
454.418	764.69
454.856	751.2
455.295	750.29
455.733	757.66
456.171	760.67
456.609	762.79
457.047	764.17
457.485	776.23
457.923	777.28
458.361	767.27
458.798	769.8
459.236	768.2
459.674	773.9
460.111	777.21
460.549	769.93
460.987	767.5
461.424	763.82
461.862	759.85
462.299	748.27
462.736	747.58
463.173	749.94
463.611	741.38
464.048	739.5
464.485	745.62
464.922	740.45
465.359	736.68
465.796	727.73
466.233	722.25
466.67	714.43
467.106	712.79
467.543	706.2
467.98	697.14
468.416	678.31
468.853	672.89
469.29	652.76
469.726	645.38
470.162	627.05
470.599	618.61
471.035	613.42
471.471	598.77
471.907	594.32
472.344	590.32
472.78	591.28
473.216	598.57
473.652	591.01
474.088	590.06
474.523	588.51
474.959	594.88
475.395	588.7
475.831	584.34
476.266	586.78
476.702	585.02
477.138	578.32
477.573	576.84
478.008	574.7
478.444	576.61
478.879	581.21
479.314	582.83
479.75	581.59
480.185	584.79
480.62	590.52
481.055	594.5
481.49	598.88
481.925	607.28
482.36	618.37
482.795	635.49
483.229	652.73
483.664	666
484.099	668.49
484.534	679.41
484.968	686.05
485.403	687.73
485.837	686.35
486.271	685.78
486.706	686.79
487.14	678.4
487.574	666.82
488.009	661.36
488.443	655.21
488.877	661.26
489.311	662.72
489.745	670.05
490.179	675.69
490.613	687.76
491.046	692.57
491.48	696.73
491.914	697.37
492.348	702.87
492.781	706.08
493.215	706.84
493.648	708.31
494.082	713.14
494.515	712.67
494.948	719.87
495.382	724.29
495.815	728.18
496.248	733.05
496.681	745.28
497.114	756.32
497.547	766.49
497.98	780.25
498.413	785.29
498.846	795.03
499.279	803.3
499.711	806.91
500.144	808.49
500.577	818.37
501.009	829.17
501.442	838.2
501.874	838.77
502.306	840.03
502.739	847.02
503.171	861.41
503.603	862.92
504.036	870.62
504.468	875.72
504.9	886.19
505.332	892.24
505.764	895.62
506.196	901.43
506.627	914.59
507.059	927.18
507.491	933.52
507.923	930.79
508.354	945.07
508.786	955.31
509.217	972.82
509.649	986.61
510.08	1003.95
510.512	1019.47
510.943	1033.18
511.374	1043.49
511.805	1061.83
512.237	1080.46
512.668	1110.88
513.099	1135.78
513.53	1161.83
513.961	1180.19
514.391	1210.39
514.822	1242.48
515.253	1277.39
515.684	1302.5
516.114	1329.74
516.545	1349.74
516.975	1374.28
517.406	1391.15
517.836	1394.14
518.267	1398.72
518.697	1416.08
519.127	1419.68
519.558	1425.75
519.988	1428.4
520.418	1437.74
520.848	1454.08
521.278	1460.64
521.708	1476.73
522.138	1488.29
522.567	1517.78
522.997	1542.25
523.427	1556.8
523.857	1573.01
524.286	1582.35
524.716	1595.09
525.145	1611.79
525.575	1621.64
526.004	1634.7
526.433	1627.49
526.863	1628.03
527.292	1617.48
527.721	1622.11
528.15	1626.71
528.579	1625.84
529.008	1635.87
529.437	1657.61
529.866	1670.43
530.295	1687.68
530.724	1701.07
531.152	1727.01
531.581	1739.5
532.01	1755.38
532.438	1763.49
532.867	1776.52
533.295	1794.63
533.723	1800.18
534.152	1798.44
534.58	1798.59
535.008	1782.72
535.436	1784.08
535.865	1790.88
536.293	1804.42
536.721	1821.01
537.149	1845.23
537.576	1849.12
538.004	1860.76
538.432	1868.32
538.86	1865.46
539.287	1871.46
539.715	1885.2
540.143	1887.21
540.57	1882.96
540.998	1878.83
541.425	1855.54
541.852	1834.76
542.28	1831.54
542.707	1815.24
543.134	1801.85
543.561	1798.23
543.988	1791.43
544.415	1790.4
544.842	1784.63
545.269	1778.75
545.696	1780.46
546.123	1792.3
546.549	1782.04
546.976	1769.28
547.403	1770.32
547.829	1772.17
548.256	1774.24
548.682	1770.6
549.108	1763.44
549.535	1763.7
549.961	1765.46
550.387	1753.08
550.813	1748.93
551.24	1755.94
551.666	1757.46
552.092	1748.1
552.518	1741.31
552.943	1735.76
553.369	1742.7
553.795	1746.44
554.221	1747.38
554.646	1743.83
555.072	1753.98
555.498	1757.82
555.923	1765.61
556.349	1779.83
556.774	1787.17
557.199	1787.82
557.625	1793.37
558.05	1786.5
558.475	1798.13
558.9	1796.95
559.325	1790.14
559.75	1784.23
560.175	1778.13
560.6	1771.68
561.025	1769.95
561.449	1771.23
561.874	1776.76
562.299	1780.25
562.723	1788.28
563.148	1777.77
563.572	1781.8
563.997	1790.42
564.421	1794.54
564.846	1795.71
565.27	1799.43
565.694	1797.15
566.118	1807.57
566.542	1814.52
566.966	1809.41
567.39	1804.26
567.814	1793.28
568.238	1792.73
568.662	1798.49
569.086	1801.7
569.509	1807.94
569.933	1793.11
570.357	1784.76
570.78	1764.73
571.204	1753.06
571.627	1741.85
572.05	1740.97
572.474	1741.37
572.897	1730.18
573.32	1722.62
573.743	1712.85
574.166	1695.38
574.589	1695.53
575.012	1689.52
575.435	1687.98
575.858	1677.85
576.281	1666.5
576.704	1649.76
577.126	1637.55
577.549	1624.95
577.972	1614.02
578.394	1604.37
578.817	1596.78
579.239	1578.2
579.661	1564.94
580.084	1550.03
580.506	1537.19
580.928	1533.13
581.35	1523.4
581.772	1519.43
582.194	1506.94
582.616	1494.35
583.038	1479.74
583.46	1470.11
583.882	1468.02
584.303	1470.61
584.725	1465.61
585.147	1468.93
585.568	1480.51
585.99	1493.15
586.411	1499.75
586.833	1515.07
587.254	1517.83
587.675	1532.56
588.096	1544.82
588.518	1539.31
588.939	1524.31
589.36	1523.67
589.781	1512.5
590.202	1486.3
590.623	1476.98
591.043	1474.13
591.464	1461.02
591.885	1456.28
592.305	1451.15
592.726	1437.21
593.147	1438.41
593.567	1433.75
593.987	1426.72
594.408	1421.51
594.828	1418.38
595.248	1412.43
595.669	1395.21
596.089	1389.64
596.509	1384.69
596.929	1370.86
597.349	1371.67
597.769	1361.34
598.189	1354.95
598.608	1356.2
599.028	1358.49
599.448	1359.3
599.867	1348.51
600.287	1344.16
600.706	1339.48
601.126	1330.96
601.545	1330.52
601.965	1330.04
602.384	1325.56
602.803	1329.1
603.222	1324.53
603.641	1318.56
604.061	1313.81
604.48	1308.35
604.898	1316.63
605.317	1320.97
605.736	1322.5
606.155	1320.14
606.574	1310.16
606.992	1314.96
607.411	1310.18
607.829	1301.94
608.248	1298.03
608.666	1295.32
609.085	1294.79
609.503	1285.6
609.921	1278.99
610.339	1279.86
610.758	1278.31
611.176	1274.39
611.594	1265.83
612.012	1261.2
612.43	1264.54
612.847	1270.67
613.265	1272.58
613.683	1276.75
614.101	1276.98
614.518	1272.44
614.936	1262.89
615.353	1248.81
615.771	1246.27
616.188	1244.97
616.606	1242.08
617.023	1233.99
617.44	1219.52
617.857	1211.99
618.274	1203.13
618.691	1198.55
619.108	1190.27
619.525	1183.82
619.942	1189.61
620.359	1190.27
620.776	1186.68
621.192	1182.23
621.609	1179.62
622.026	1186.14
622.442	1191.24
622.859	1194.73
623.275	1186.91
623.691	1191.78
624.108	1202.73
624.524	1215
624.94	1215.86
625.356	1224.38
625.772	1237.34
626.188	1249.14
626.604	1251.05
627.02	1247.19
627.436	1244.48
627.852	1250.98
628.268	1263.16
628.683	1254.73
629.099	1247.83
629.514	1242.58
629.93	1245.97
630.345	1249.63
630.761	1245.71
631.176	1248.82
631.591	1244.05
632.007	1239.54
632.422	1238.02
632.837	1227.01
633.252	1224.45
633.667	1215.59
634.082	1206.98
634.497	1194.96
634.911	1177.27
635.326	1173.94
635.741	1158.22
636.155	1148.97
636.57	1149.56
636.984	1149.82
637.399	1152.35
637.813	1152.72
638.228	1151.94
638.642	1157.74
639.056	1150.76
639.47	1152.63
639.884	1147.2
640.298	1142.13
640.712	1142.91
641.126	1133.43
641.54	1126.56
641.954	1121.69
642.368	1112.85
642.781	1107.52
643.195	1092.16
643.609	1093.81
644.022	1088.31
644.436	1085.22
644.849	1075.01
645.262	1063.62
645.676	1066.55
646.089	1063.71
646.502	1051.39
646.915	1046.38
647.328	1030.32
647.741	1027.99
648.154	1015.99
648.567	1015.23
648.98	1002.75
649.393	1004.11
649.805	1002.4
650.218	995.14
650.631	979.1
651.043	973.35
651.456	968.31
651.868	968.65
652.28	986.96
652.693	1000.09
653.105	1005.41
653.517	1014.02
653.929	1013.91
654.341	1019.08
654.753	1007.17
655.165	1013.85
655.577	1012.06
655.989	1007.11
656.401	998.87
656.813	963.08
657.224	942.73
657.636	913.87
658.047	895.51
658.459	876.78
658.87	867.07
659.282	855.28
659.693	835.84
660.104	821.73
660.515	808.15
660.926	807.73
661.338	805.37
661.749	800.29
662.159	792.02
662.57	789.88
662.981	786.8
663.392	780.67
663.803	785.38
664.213	783.09
664.624	779.93
665.035	784.41
665.445	771.49
665.855	765.06
666.266	758.51
666.676	757.94
667.086	749.48
667.497	748.95
667.907	743.33
668.317	734.44
668.727	733.17
669.137	734.34
669.547	732.48
669.956	735.58
670.366	737.62
670.776	739.12
671.186	743.09
671.595	746.62
672.005	750.01
672.414	749.07
672.824	748.86
673.233	750.72
673.642	751.27
674.052	753.42
674.461	754.07
674.87	757.86
675.279	755.17
675.688	756.15
676.097	756.67
676.506	752.43
676.915	765.36
677.323	767.56
677.732	764.83
678.141	764.07
678.549	753.1
678.958	750.96
679.366	749.31
679.775	752.87
680.183	762.28
680.592	766.79
681	770.88
681.408	764.02
681.816	769.62
682.224	778.15
682.632	786.16
683.04	813.21
683.448	835.76
683.856	863.17
684.264	894.06
684.671	920.96
685.079	954.52
685.487	993.09
685.894	1047.31
686.302	1089.56
686.709	1123.22
687.116	1165
687.524	1197.13
687.931	1222.69
688.338	1245.73
688.745	1263.19
689.152	1285.58
689.559	1318.7
689.966	1349.85
690.373	1361.99
690.78	1392.38
691.187	1443.9
691.593	1482.96
692	1515.5
692.407	1567.14
692.813	1631.7
693.22	1681.92
693.626	1733.57
694.032	1775.5
694.439	1841.69
694.845	1892.88
695.251	1959.77
695.657	2016.7
696.063	2103.4
