Data from N_2_DEC_VA_2N_Splice17_12-06-54-274.txt Node
Date: Sat Mar 14 12:06:54 EDT 2020
User: sa697716
Spectrometer: FLMS03696
Trigger mode: 0
Integration Time (sec): 3.180400E-1
Scans to average: 20
Electric dark correction enabled: true
Nonlinearity correction enabled: true
Boxcar width: 5
XAxis mode: Wavelengths
Number of Pixels in Spectrum: 2048
>>>>>Begin Spectral Data<<<<<
187.83	-219704.32
188.298	1662.51
188.766	979.26
189.233	845.83
189.701	1130.18
190.169	1573.06
190.636	581.04
191.104	388.15
191.571	10.56
192.039	-110.6
192.506	-120.51
192.974	276.33
193.441	-376.57
193.908	35.09
194.375	-2.91
194.842	-3.09
195.31	71.4
195.777	150.39
196.244	451.64
196.711	802.83
197.177	1093.2
197.644	1663.87
198.111	2879.83
198.578	4049.16
199.045	3268.8
199.511	5359.61
199.978	6279.9
200.445	5269.45
200.911	5814.22
201.378	6502.17
201.844	5759.67
202.31	9779.04
202.777	9990.84
203.243	5470.3
203.709	5163.38
204.176	6071.85
204.642	4959.07
205.108	4583.76
205.574	3700.89
206.04	3405.31
206.506	3163.01
206.972	2996.28
207.438	2872.19
207.903	3265.72
208.369	2829.81
208.835	2780.81
209.301	2888.69
209.766	2935.52
210.232	2866.29
210.697	3527.18
211.163	4280.9
211.628	6398.22
212.094	5255.17
212.559	6296.38
213.024	3855.08
213.49	4623.08
213.955	4442.81
214.42	4307.23
214.885	3919.29
215.35	3712.99
215.815	3444.57
216.28	3565.3
216.745	2819.85
217.21	2903.73
217.675	2522.99
218.14	2647.42
218.604	2737.03
219.069	2865.9
219.534	2747.9
219.998	2933.73
220.463	3229.85
220.927	3609.37
221.392	3117.28
221.856	2908.34
222.32	3372.66
222.785	3882.29
223.249	4563.49
223.713	4794.58
224.177	4541.69
224.642	5483.69
225.106	6402.32
225.57	6691.37
226.034	4854.64
226.497	7115.76
226.961	6251.37
227.425	7097.91
227.889	7574
228.353	7330.9
228.816	14660.75
229.28	13657.63
229.744	11174.77
230.207	6696.38
230.671	6410.37
231.134	10158.49
231.597	11485.21
232.061	11140.38
232.524	10580.8
232.987	7203.13
233.45	6392.41
233.914	5634.47
234.377	5616.99
234.84	5069.35
235.303	5880.47
235.766	6506.54
236.229	6641.17
236.691	4114.61
237.154	4566.9
237.617	3411.63
238.08	3455.68
238.542	4016.18
239.005	2883.26
239.468	2862.25
239.93	2696.84
240.393	2434.83
240.855	2129.24
241.317	2171.97
241.78	2604.85
242.242	2684.22
242.704	2914.09
243.166	2533.09
243.629	2318.65
244.091	2647.24
244.553	2889.26
245.015	3097.3
245.477	3967.39
245.939	5774.98
246.4	6098.99
246.862	5895.61
247.324	5548.6
247.786	6164.81
248.247	7988.66
248.709	8028.29
249.17	5972.5
249.632	5693.72
250.093	6644.21
250.555	5736.06
251.016	3513.77
251.477	3330.71
251.939	3605.29
252.4	3764.3
252.861	4431.44
253.322	4143.1
253.783	4912.64
254.244	6348.87
254.705	4930.69
255.166	4324.99
255.627	4258.95
256.088	6008.52
256.549	6388.1
257.009	5465.42
257.47	6585.02
257.931	5346.26
258.391	4002.1
258.852	4132.7
259.312	4306.74
259.773	5297.66
260.233	4496.49
260.694	3773.02
261.154	4218.07
261.614	3392.11
262.074	3007.3
262.534	3102.59
262.994	2892.6
263.455	3781.44
263.915	3144.27
264.374	2908.54
264.834	3135.38
265.294	3381.85
265.754	3462.09
266.214	3233.63
266.673	2975.59
267.133	3695.59
267.593	3599.27
268.052	4365.63
268.512	3764.99
268.971	4571.68
269.431	5005.62
269.89	4436.33
270.349	6682.89
270.809	7442.48
271.268	6685.21
271.727	14852.15
272.186	9630.62
272.645	7246.68
273.104	5175.99
273.563	7480.59
274.022	5782.04
274.481	4958.39
274.94	3850.75
275.399	2840.82
275.857	3295.35
276.316	4462.56
276.775	3978.72
277.233	3944.8
277.692	3762.36
278.15	4318.65
278.609	4541.47
279.067	4269.39
279.525	4054.26
279.984	5267.9
280.442	6412.15
280.9	6487.34
281.358	4346.56
281.816	4122.68
282.274	4103.5
282.732	4260.8
283.19	4333.14
283.648	3745.56
284.106	4025.82
284.564	4088.24
285.021	3870.2
285.479	2930.66
285.937	2653.39
286.394	2367.53
286.852	2456.91
287.309	2606.95
287.767	2573.47
288.224	2481.38
288.682	2742.63
289.139	3029.81
289.596	2793.59
290.053	2896.37
290.511	3628.27
290.968	4423.13
291.425	5906.53
291.882	4947.6
292.339	4278.36
292.796	4181.75
293.252	3895.93
293.709	3106.79
294.166	2773.42
294.623	3035.06
295.079	2871.53
295.536	2892.55
295.992	2621.04
296.449	2595.95
296.905	2705.46
297.362	2614.08
297.818	2736.04
298.274	2869.59
298.731	2905.94
299.187	2880.8
299.643	3090.1
300.099	3767.76
300.555	4140.13
301.011	3468.51
301.467	3424.75
301.923	3955.89
302.379	3879.84
302.835	3847.97
303.291	3859.92
303.746	4416.9
304.202	5608.48
304.658	5693.68
305.113	3865.96
305.569	3828.16
306.024	4096.59
306.479	3826.79
306.935	3283.12
307.39	3573.58
307.845	3330.08
308.301	3399.34
308.756	3336.1
309.211	3244.87
309.666	3350.67
310.121	4251.54
310.576	4328.41
311.031	4359.3
311.486	5071.27
311.94	5061.23
312.395	6896.01
312.85	13022.82
313.305	63907.66
313.759	340223.41
314.214	24942.78
314.668	19949.82
315.123	16896.44
315.577	6172.07
316.032	5515.77
316.486	6942.08
316.94	5600.13
317.394	3906.33
317.849	3032.41
318.303	2863.23
318.757	2692.73
319.211	2988
319.665	2604.2
320.119	2621.94
320.572	3712.9
321.026	3456.85
321.48	2865.42
321.934	3071.26
322.387	3059.74
322.841	3333.68
323.295	3057.17
323.748	3467.2
324.202	3523.47
324.655	4286.93
325.108	6049.65
325.562	4294.81
326.015	5125.27
326.468	3898.36
326.921	4408.97
327.374	4159.06
327.827	4363.54
328.28	4951.03
328.733	3373.96
329.186	2970.87
329.639	2831.41
330.092	2386.97
330.545	2319.27
330.997	2375.52
331.45	2641.98
331.903	3144.03
332.355	5390.81
332.808	5290.23
333.26	4370.52
333.713	4815.84
334.165	4889.23
334.617	6575.46
335.069	5301.45
335.522	9553.71
335.974	10613.29
336.426	9711.09
336.878	6676.68
337.33	3451.41
337.782	3367.37
338.234	4282.06
338.686	5086.5
339.137	6045.49
339.589	5700.73
340.041	4501.27
340.493	3857.91
340.944	3948.51
341.396	4244.08
341.847	3608.81
342.299	4247.93
342.75	5236.78
343.201	4504.73
343.653	5156.99
344.104	6265.72
344.555	4899.29
345.006	7538.69
345.457	5849.4
345.908	4640.09
346.359	4372.72
346.81	3554.19
347.261	3738.26
347.712	3653.13
348.163	3921.22
348.613	4039.77
349.064	3802.15
349.515	3352.76
349.965	3486.32
350.416	4166.48
350.866	4568.76
351.317	5169.38
351.767	8578.54
352.217	10874.1
352.668	9068.06
353.118	8346.54
353.568	7940.9
354.018	6329.57
354.468	6721.94
354.918	4826.7
355.368	4258.91
355.818	6039.27
356.268	17341.9
356.718	73509.1
357.168	18407.19
357.617	9239.49
358.067	10247.63
358.517	9682.17
358.966	11475.78
359.416	12940.88
359.865	13998.91
360.315	16633.12
360.764	7829.48
361.213	4416.11
361.663	4143.94
362.112	5126.31
362.561	8354.19
363.01	6369.49
363.459	5386.5
363.908	5806.69
364.357	4973.93
364.806	8398.64
365.255	5809.15
365.703	5370.48
366.152	5423.22
366.601	4438.13
367.05	3657.79
367.498	3341.86
367.947	3508.28
368.395	3648.25
368.844	3256.72
369.292	3908.18
369.74	2761.33
370.189	4229.97
370.637	4947.41
371.085	4290.22
371.533	5215.35
371.981	5002.3
372.429	4822.25
372.877	5011.15
373.325	4228.93
373.773	4305.08
374.221	3846.36
374.669	4731.43
375.116	4110.39
375.564	4149.38
376.012	4617.54
376.459	3847.45
376.907	4600.31
377.354	5519.29
377.801	5203.5
378.249	6044.59
378.696	7765.12
379.143	9488.59
379.591	10096.43
380.038	17160.32
380.485	12520.04
380.932	13644.59
381.379	12588.81
381.826	9378.37
382.273	6713.79
382.72	5910.08
383.166	5774.56
383.613	3799.18
384.06	3438.32
384.506	4064.62
384.953	3028.5
385.4	3089.62
385.846	2759.13
386.292	2734.82
386.739	2754.58
387.185	2810.37
387.631	2930.95
388.078	2995.17
388.524	3373.35
388.97	3291.49
389.416	2872.94
389.862	3186.46
390.308	3158.72
390.754	3408.03
391.2	4002.07
391.645	4482.45
392.091	4765.16
392.537	5071.68
392.983	5530.04
393.428	5847.57
393.874	6780.26
394.319	7536.94
394.765	8099.99
395.21	9567.46
395.655	10325.85
396.101	11035.7
396.546	11306.74
396.991	12918.69
397.436	13523.59
397.881	14731.21
398.326	15813.73
398.771	16758.95
399.216	16367.46
399.661	16266.76
400.106	17641.38
400.551	19526.09
400.995	18817.42
401.44	19846.51
401.885	19740.16
402.329	21008.39
402.774	21108.46
403.218	21249.21
403.663	21438.92
404.107	22990.48
404.551	24201.9
404.995	23302.95
405.44	23622.46
405.884	25179.05
406.328	25508.07
406.772	26475.91
407.216	25083.89
407.66	25322.03
408.104	25322.74
408.547	24786.83
408.991	24965.06
409.435	24915.15
409.879	25264.57
410.322	25608.46
410.766	25373.84
411.209	24789.4
411.653	24558.94
412.096	24755.36
412.54	25492.28
412.983	25907.68
413.426	26460.34
413.869	27040.22
414.312	27021.99
414.756	26629.73
415.199	25937.72
415.642	25647.91
416.085	26126.17
416.527	26362.57
416.97	27206.35
417.413	26075.97
417.856	26109.71
418.298	26075.8
418.741	26048.64
419.184	26149.95
419.626	27422.19
420.069	27518.27
420.511	27786.58
420.953	27327.99
421.396	27278.63
421.838	26840.25
422.28	27679.52
422.722	28040.43
423.164	28880.56
423.606	28796.02
424.048	29216.43
424.49	28051.91
424.932	28302.66
425.374	28286.06
425.816	29031.44
426.258	29546.19
426.699	29580.62
427.141	28599.6
427.582	28616.49
428.024	28174.9
428.465	28062.87
428.907	27613.54
429.348	27727.7
429.789	28054.99
430.231	27698.78
430.672	28349.56
431.113	28135.3
431.554	28467.29
431.995	28892.02
432.436	28806.44
432.877	29042.35
433.318	29112.08
433.759	29526.58
434.2	29916.12
434.64	29986.28
435.081	30456.71
435.522	29295.55
435.962	28741.93
436.403	28541.13
436.843	29409.39
437.284	29242.06
437.724	28843.29
438.164	29339.9
438.604	28934.7
439.045	27992.65
439.485	27015.73
439.925	26796.27
440.365	26465.98
440.805	26392.82
441.245	26198.18
441.685	25355.78
442.125	25308.23
442.564	25546.28
443.004	24947.41
443.444	24951.6
443.883	25059.53
444.323	25107.94
444.762	25406.76
445.202	25875.28
445.641	26336.79
446.081	26421.91
446.52	26671.99
446.959	26476.68
447.398	25914.16
447.837	25765.53
448.276	25451.2
448.716	25773.2
449.154	26053.19
449.593	25292.27
450.032	25096.27
450.471	24646.97
450.91	24572.88
451.349	24344.39
451.787	24145.25
452.226	24355.89
452.664	24191.86
453.103	24055.14
453.541	23880.08
453.98	23521.32
454.418	23521.37
454.856	22909.97
455.295	22701.27
455.733	22624.12
456.171	22593.92
456.609	22393.74
457.047	22169.42
457.485	22257.92
457.923	22114.87
458.361	21723.24
458.798	21774.12
459.236	21674.68
459.674	21905.19
460.111	21992.77
460.549	21826.06
460.987	21848.5
461.424	21855.3
461.862	21839.57
462.299	21587.67
462.736	21587.22
463.173	21739.25
463.611	21444.47
464.048	21437.26
464.485	21660.28
464.922	21583.24
465.359	21621.77
465.796	21092.9
466.233	21063.4
466.67	20918.89
467.106	20953.68
467.543	20941.59
467.98	20817.39
468.416	20538.65
468.853	20568.09
469.29	20103.25
469.726	19998.94
470.162	19554.95
470.599	19660.24
471.035	19577.57
471.471	19200.32
471.907	19217.2
472.344	19130.17
472.78	19120.06
473.216	19327.61
473.652	19002.76
474.088	18885.51
474.523	18668.21
474.959	18729.62
475.395	18427.83
475.831	18137.78
476.266	18085.22
476.702	17874.51
477.138	17482.88
477.573	17254.02
478.008	16978.71
478.444	16811.26
478.879	16695.15
479.314	16560.98
479.75	16327.33
480.185	16208.83
480.62	16142.52
481.055	16012.34
481.49	15873.06
481.925	15860.33
482.36	15808.67
482.795	15994.41
483.229	16185.87
483.664	16257.16
484.099	16066.55
484.534	16042.77
484.968	15952.67
485.403	15782.55
485.837	15583.06
486.271	15366.73
486.706	15199.57
487.14	14939.44
487.574	14564.27
488.009	14312.88
488.443	14080.35
488.877	14068.42
489.311	13999.69
489.745	14024.7
490.179	14017.91
490.613	14086.71
491.046	14090.35
491.48	14084.71
491.914	13976.94
492.348	13971.94
492.781	13943.82
493.215	13889.62
493.648	13859.47
494.082	13878.79
494.515	13798.35
494.948	13843.37
495.382	13882.01
495.815	13862.26
496.248	13857.04
496.681	14003.96
497.114	14124.56
497.547	14191.1
497.98	14283.32
498.413	14229.67
498.846	14260.76
499.279	14287.98
499.711	14247.71
500.144	14154.42
500.577	14182.5
501.009	14242.17
501.442	14244.13
501.874	14093.51
502.306	14006.72
502.739	13942.68
503.171	14077.96
503.603	13984.56
504.036	13984.38
504.468	13914.27
504.9	13933.69
505.332	13883.63
505.764	13776.11
506.196	13725.05
506.627	13776.11
507.059	13789.83
507.491	13791.67
507.923	13546.77
508.354	13568.8
508.786	13530.82
509.217	13581.49
509.649	13591.31
510.08	13658.81
510.512	13674.68
510.943	13679.07
511.374	13635.36
511.805	13692.01
512.237	13744.9
512.668	13969.87
513.099	14114.43
513.53	14229.01
513.961	14250.79
514.391	14395.42
514.822	14515.12
515.253	14688.23
515.684	14730.35
516.114	14814.15
516.545	14792.77
516.975	14821.2
517.406	14758.64
517.836	14550.26
518.267	14387.1
518.697	14339.54
519.127	14166.37
519.558	14038.69
519.988	13872.9
520.418	13781.27
520.848	13754.03
521.278	13655.88
521.708	13263.9
522.138	13216.96
522.567	13325.23
522.997	13381.19
523.427	13360.06
523.857	13341.38
524.286	13285.46
524.716	13270.73
525.145	13281.19
525.575	13244.66
526.004	13247.32
526.433	13408.45
526.863	13305.66
527.292	13116.01
527.721	13065.79
528.15	13035.73
528.579	12968.28
529.008	12983.69
529.437	13093.28
529.866	13131.66
530.295	13191.83
530.724	13203.33
531.152	13332.82
531.581	13362.23
532.01	13435.61
532.438	13442.35
532.867	13499.8
533.295	13584.67
533.723	13580.33
534.152	13516.91
534.58	13470.94
535.008	13319.28
535.436	13297.39
535.865	13325.79
536.293	13408.6
536.721	13497.23
537.149	13648.3
537.576	13638.3
538.004	13715.84
538.432	13764.99
538.86	13742.65
539.287	13793.32
539.715	13888.28
540.143	13924.85
540.57	13912.44
540.998	13906.18
541.425	13740.6
541.852	13624.92
542.28	13643.03
542.707	13560.92
543.134	13485.56
543.561	13482.16
543.988	13455.13
544.415	13489.2
544.842	13482.2
545.269	13452.27
545.696	13486.23
546.123	13631.73
546.549	13580.69
546.976	13507.56
547.403	13524.76
547.829	13570.95
548.256	13623.48
548.682	13623.98
549.108	13590.66
549.535	13619.01
549.961	13663.51
550.387	13591.51
550.813	13563.53
551.24	13638.44
551.666	13673.77
552.092	13623.33
552.518	13602.66
552.943	13569.2
553.369	13658.02
553.795	13727.69
554.221	13746.4
554.646	13743.25
555.072	13820.77
555.498	13880.33
555.923	13962.65
556.349	14085.18
556.774	14163.62
557.199	14179.37
557.625	14256.39
558.05	14212.56
558.475	14301.55
558.9	14302.96
559.325	14242.51
559.75	14215.28
560.175	14181.1
560.6	14150.11
561.025	14143.91
561.449	14163.75
561.874	14211.01
562.299	14229.77
562.723	14293.26
563.148	14206.2
563.572	14233.08
563.997	14310.5
564.421	14350.63
564.846	14344.47
565.27	14348.46
565.694	14321.3
566.118	14381.91
566.542	14413.12
566.966	14343.48
567.39	14275.43
567.814	14172.1
568.238	14157.58
568.662	14189.41
569.086	14203.06
569.509	14274.96
569.933	14167.54
570.357	14146.36
570.78	14028
571.204	13968.46
571.627	13951.28
572.05	14015.87
572.474	14094.02
572.897	14095.47
573.32	14131.25
573.743	14174.94
574.166	14124.02
574.589	14252.39
575.012	14304.46
575.435	14429.5
575.858	14486.52
576.281	14530.09
576.704	14535.09
577.126	14575.15
577.549	14607.07
577.972	14664.73
578.394	14696.11
578.817	14742.5
579.239	14705.17
579.661	14705.97
580.084	14660.34
580.506	14667.77
580.928	14756.95
581.35	14776.3
581.772	14846.07
582.194	14830.96
582.616	14810.51
583.038	14792.18
583.46	14815.97
583.882	14878.38
584.303	15026.74
584.725	15104.14
585.147	15150.65
585.568	15322.23
585.99	15494.91
586.411	15619.35
586.833	15823.18
587.254	15896.96
587.675	16100.07
588.096	16291.44
588.518	16297.49
588.939	16176.4
589.36	16201.04
589.781	16214.06
590.202	15925.91
590.623	15893.82
591.043	15917.92
591.464	15817.18
591.885	15798.42
592.305	15757.23
592.726	15618.7
593.147	15619.45
593.567	15550.63
593.987	15447.46
594.408	15365.15
594.828	15353.58
595.248	15229.09
595.669	14962.83
596.089	14829.16
596.509	14708.52
596.929	14487.65
597.349	14417.99
597.769	14242.28
598.189	14092.57
598.608	14031.23
599.028	13966.23
599.448	13893.42
599.867	13707.55
600.287	13622.65
600.706	13513.81
601.126	13353.82
601.545	13290.43
601.965	13243.69
602.384	13165.06
602.803	13175.36
603.222	13104.07
603.641	13038.63
604.061	12994.62
604.48	12970.21
604.898	13064.56
605.317	13146.67
605.736	13203.85
606.155	13211
606.574	13164.19
606.992	13267.81
607.411	13270.29
607.829	13265.46
608.248	13304.73
608.666	13359.13
609.085	13418.5
609.503	13397.65
609.921	13404.61
610.339	13499.91
610.758	13580.57
611.176	13615.21
611.594	13597.26
612.012	13645
612.43	13741.73
612.847	13884.74
613.265	13952.19
613.683	14078.98
614.101	14175.85
614.518	14227.54
614.936	14202.11
615.353	14117.35
615.771	14153.27
616.188	14231.23
616.606	14266.92
617.023	14269.86
617.44	14181.89
617.857	14194.5
618.274	14172.26
618.691	14158.73
619.108	14114.96
619.525	14105.04
619.942	14223.69
620.359	14297.99
620.776	14283.43
621.192	14262.21
621.609	14262.82
622.026	14354.93
622.442	14442.88
622.859	14503.42
623.275	14449.83
623.691	14529.61
624.108	14677.47
624.524	14866.51
624.94	14882.23
625.356	15008.95
625.772	15187.7
626.188	15348.67
626.604	15385.33
627.02	15352.19
627.436	15333.9
627.852	15413.91
628.268	15557.22
628.683	15473.8
629.099	15394.7
629.514	15374.66
629.93	15450.18
630.345	15536.32
630.761	15528.85
631.176	15613.04
631.591	15561.32
632.007	15538.38
632.422	15592.29
632.837	15524.2
633.252	15539.69
633.667	15485.37
634.082	15440.45
634.497	15353.52
634.911	15171.79
635.326	15210.94
635.741	15088.02
636.155	15082.48
636.57	15182.77
636.984	15273.98
637.399	15378.87
637.813	15500.05
638.228	15595.84
638.642	15776.36
639.056	15772.63
639.47	15924.41
639.884	15944.92
640.298	16000.31
640.712	16113.07
641.126	16095.28
641.54	16136.47
641.954	16252.35
642.368	16224.57
642.781	16222.98
643.195	16118.37
643.609	16262.84
644.022	16317.63
644.436	16393.39
644.849	16356.38
645.262	16317.85
645.676	16478.02
646.089	16506.91
646.502	16354.88
646.915	16385.15
647.328	16272.8
647.741	16343.57
648.154	16248.65
648.567	16251.32
648.98	16123.17
649.393	16218.19
649.805	16251.47
650.218	16221.86
650.631	16040.09
651.043	16037.11
651.456	16006.59
651.868	16084.63
652.28	16413.91
652.693	16646.56
653.105	16751.38
653.517	16859.58
653.929	16813.64
654.341	16880.2
654.753	16675.73
655.165	16831.09
655.577	16849.37
655.989	16866.16
656.401	16852.04
656.813	16346.1
657.224	16180.16
657.636	15939.58
658.047	15858.01
658.459	15757.63
658.87	15840.87
659.282	15846
659.693	15627.9
660.104	15513.38
660.515	15417.4
660.926	15520.85
661.338	15632
661.749	15662.28
662.159	15595.16
662.57	15671.34
662.981	15709.68
663.392	15673.72
663.803	15855.05
664.213	15937.27
664.624	15975.39
665.035	16145.21
665.445	15977.54
665.855	15902.66
666.266	15794.92
666.676	15832.5
667.086	15714.84
667.497	15734.63
667.907	15653.9
668.317	15503.7
668.727	15377.98
669.137	15425.12
669.547	15377
669.956	15444.56
670.366	15486.17
670.776	15512.1
671.186	15584.2
671.595	15617.07
672.005	15688
672.414	15626.13
672.824	15547.94
673.233	15688.47
673.642	15683.75
674.052	15681.84
674.461	15642.55
674.87	15697.3
675.279	15573.46
675.688	15577.19
676.097	15522.6
676.506	15392.15
676.915	15633.31
677.323	15628.79
677.732	15526.34
678.141	15456.34
678.549	15204.86
678.958	15145.14
679.366	15064.02
679.775	15117.45
680.183	15156.05
680.592	15190.02
681	15188.67
681.408	14935.81
681.816	14953.71
682.224	14986.71
682.632	14973.12
