Data from N_2_DEC_VA_2N_Splice17_12-07-23-953.txt Node
Date: Sat Mar 14 12:07:23 EDT 2020
User: sa697716
Spectrometer: FLMS03696
Trigger mode: 0
Integration Time (sec): 3.180400E-1
Scans to average: 20
Electric dark correction enabled: true
Nonlinearity correction enabled: true
Boxcar width: 5
XAxis mode: Wavelengths
Number of Pixels in Spectrum: 2048
>>>>>Begin Spectral Data<<<<<
187.83	-362675.37
188.298	2615.45
188.766	1396.32
189.233	1221.8
189.701	1708.48
190.169	2234.69
190.636	815.04
191.104	674.32
191.571	100.72
192.039	-41.36
192.506	-70.44
192.974	454.5
193.441	-667.97
193.908	-119.84
194.375	-84.64
194.842	5.28
195.31	32.58
195.777	120.26
196.244	412.11
196.711	597.86
197.177	776.98
197.644	1141.54
198.111	1987.35
198.578	2819.86
199.045	2267.56
199.511	3733.12
199.978	4326.6
200.445	3654.33
200.911	4080.21
201.378	4573.71
201.844	4115.61
202.31	7027.43
202.777	7265.65
203.243	4055.69
203.709	3845.31
204.176	4590.8
204.642	3782.51
205.108	3543.42
205.574	2904.07
206.04	2659.06
206.506	2513.4
206.972	2395.95
207.438	2320.99
207.903	2662.21
208.369	2326.48
208.835	2309.53
209.301	2412.79
209.766	2488.15
210.232	2463.09
210.697	3059
211.163	3794.28
211.628	5701.19
212.094	4762.13
212.559	5805.91
213.024	3617.35
213.49	4379.02
213.955	4294.64
214.42	4207.92
214.885	3903.83
215.35	3741.75
215.815	3555.65
216.28	3765.06
216.745	3090.57
217.21	3342.36
217.675	3095.79
218.14	3507.11
218.604	3972.35
219.069	4546.82
219.534	4775.55
219.998	5596.66
220.463	6818.07
220.927	8494.84
221.392	8038.67
221.856	8127.36
222.32	10291.98
222.785	12730.05
223.249	16026.59
223.713	17887.85
224.177	17898.9
224.642	23033.51
225.106	28324.14
225.57	30999.46
226.034	22996.51
226.497	34972.69
226.961	31591.36
227.425	36741.23
227.889	40784.81
228.353	40715.1
228.816	83949.27
229.28	80304.44
229.744	67683.81
230.207	41096.2
230.671	40386.82
231.134	66839.99
231.597	76937.67
232.061	76852.46
232.524	74932.62
232.987	51568.11
233.45	46404.07
233.914	41629.7
234.377	42641.06
234.84	38984.36
235.303	45909.99
235.766	51194.17
236.229	52810.88
236.691	33252.25
237.154	37353.24
237.617	28055.47
238.08	28691.44
238.542	33593.41
239.005	23997.05
239.468	23796.91
239.93	22401.15
240.393	20363.57
240.855	17847.24
241.317	18293.7
241.78	22242.09
242.242	22977.8
242.704	24783.57
243.166	21532.39
243.629	19479.56
244.091	22393.79
244.553	24470.07
245.015	26275.83
245.477	33923.57
245.939	49703.42
246.4	52635.53
246.862	51094.17
247.324	48071.72
247.786	53735.56
248.247	70426.29
248.709	72765.07
249.17	54380.89
249.632	51207.97
250.093	59262.14
250.555	51140.19
251.016	31120.78
251.477	29460.24
251.939	31739.8
252.4	33244.72
252.861	39516.19
253.322	36706.52
253.783	43666.92
254.244	56576.84
254.705	44572.88
255.166	39584.95
255.627	38948.56
256.088	54923.72
256.549	58337.65
257.009	50239.8
257.47	60993.13
257.931	49664.82
258.391	37216.05
258.852	38366.89
259.312	40249.29
259.773	49777.38
260.233	42070.51
260.694	35444.44
261.154	40210.3
261.614	32245.61
262.074	28836.75
262.534	29931.99
262.994	28171.88
263.455	37556.44
263.915	31591.14
264.374	29699.53
264.834	32386.74
265.294	35900.81
265.754	37185.63
266.214	35185.87
266.673	32976.59
267.133	41615.98
267.593	41281.08
268.052	50502.29
268.512	43845.75
268.971	52824.18
269.431	57926.09
269.89	51847.78
270.349	77636.85
270.809	86501.76
271.268	77685.84
271.727	174121.03
272.186	112671.11
272.645	84497.62
273.104	60998.49
273.563	88313.62
274.022	69498.77
274.481	59114.08
274.94	45546.53
275.399	33867.18
275.857	39460.53
276.316	53396.52
276.775	47491.61
277.233	46754.74
277.692	43757.06
278.15	49427.48
278.609	50833.4
279.067	47051.63
279.525	43703.31
279.984	56368.31
280.442	67707.46
280.9	66695.54
281.358	43842.34
281.816	40878.31
282.274	40033.56
282.732	41371.89
283.19	41607.11
283.648	35932.48
284.106	38261.3
284.564	38904.09
285.021	36110.69
285.479	26912
285.937	24508.85
286.394	21510.58
286.852	22145.7
287.309	23288.07
287.767	22473.03
288.224	21374.62
288.682	23454.85
289.139	25736.6
289.596	23540.5
290.053	24455.2
290.511	30867.69
290.968	37364.54
291.425	50617.31
291.882	42051.21
292.339	36525.49
292.796	36231.8
293.252	34098.64
293.709	27031.06
294.166	24196.63
294.623	26716.24
295.079	25608.69
295.536	25689.3
295.992	23280.47
296.449	23015.14
296.905	23913.28
297.362	22920.78
297.818	24098.54
298.274	24984.98
298.731	25481.26
299.187	25191.99
299.643	27053.32
300.099	32711.17
300.555	35886.67
301.011	30030.78
301.467	28944.63
301.923	33898.23
302.379	33090.52
302.835	32507.55
303.291	32558.12
303.746	37034.3
304.202	46845.85
304.658	47040.46
305.113	31633.96
305.569	30975.72
306.024	33033.95
306.479	31490.84
306.935	26532.28
307.39	29011.5
307.845	26791.56
308.301	26959.07
308.756	26279.11
309.211	25291.11
309.666	25904.08
310.121	32162.88
310.576	32663.94
311.031	32385.59
311.486	37097.71
311.94	37084.46
312.395	49539.2
312.85	93204.49
313.305	457899.53
313.759	2368634.49
314.214	171753.62
314.668	136089.19
315.123	114444.41
315.577	41050.08
316.032	36523.37
316.486	45728.89
316.94	36046.24
317.394	25116.46
317.849	19483.44
318.303	18440.78
318.757	17392.19
319.211	19203.45
319.665	16823.05
320.119	17016.62
320.572	24395.37
321.026	22771.93
321.48	18945.26
321.934	20660.29
322.387	20686.94
322.841	22339.17
323.295	20034.5
323.748	23092.11
324.202	23419.1
324.655	28092.45
325.108	39195.57
325.562	27667.29
326.015	32857.77
326.468	24797.58
326.921	27739.82
327.374	25852.02
327.827	26916.59
328.28	30513.4
328.733	20433.88
329.186	17984.48
329.639	17135.63
330.092	14447.25
330.545	13766.26
330.997	13885.56
331.45	15193.48
331.903	17797.71
332.355	30630.3
332.808	29779.75
333.26	24562.51
333.713	26666.81
334.165	26835.14
334.617	35872.49
335.069	29053.17
335.522	52527.41
335.974	58269.68
336.426	53283.77
336.878	36928.11
337.33	18747.95
337.782	18304.79
338.234	22935.07
338.686	27461.89
339.137	32581.66
339.589	30684.76
340.041	24012.78
340.493	20652.02
340.944	21120.06
341.396	22731.06
341.847	19106.59
342.299	22527.23
342.75	27483.03
343.201	24006.55
343.653	27609.06
344.104	33913.74
344.555	26660.2
345.006	41553.37
345.457	31754.81
345.908	25241.2
346.359	23745.79
346.81	19332.34
347.261	20359.8
347.712	20023.1
348.163	21496.42
348.613	21727.08
349.064	20277.31
349.515	17753.49
349.965	18175.75
350.416	21899.84
350.866	24025.57
351.317	27201.05
351.767	45049.35
352.217	56941.97
352.668	47297.7
353.118	43295.87
353.568	41787.62
354.018	33054.84
354.468	34876.08
354.918	25073.21
355.368	21952.52
355.818	31059.35
356.268	89311.74
356.718	373280.41
357.168	93055.16
357.617	46736.24
358.067	52023.8
358.517	48740.98
358.966	57091.64
359.416	64002.96
359.865	69156.15
360.315	82437.78
360.764	38471.42
361.213	21538.26
361.663	20455.49
362.112	25239.47
362.561	40751.47
363.01	30686.73
363.459	25848.51
363.908	28015.2
364.357	23795.51
364.806	40143.5
365.255	27560.04
365.703	25235.55
366.152	25292.3
366.601	20474.56
367.05	16610.42
367.498	15119.82
367.947	15822.28
368.395	16472.97
368.844	14606.06
369.292	17616.37
369.74	12188.61
370.189	18691.86
370.637	21935.67
371.085	18918.49
371.533	23115.08
371.981	22319.81
372.429	21265.82
372.877	22171.88
373.325	18572.71
373.773	18952.93
374.221	16926.03
374.669	21043.29
375.116	18248.37
375.564	18433.55
376.012	20710.13
376.459	17124.5
376.907	20516.14
377.354	24894.21
377.801	23298.69
378.249	26860.17
378.696	34471.87
379.143	41859.05
379.591	44912.21
380.038	76289.47
380.485	55345.57
380.932	60039.6
381.379	55189.08
381.826	40842.95
382.273	29222.31
382.72	25701.57
383.166	25197.68
383.613	16440.78
384.06	14940.6
384.506	17389.22
384.953	12859.06
385.4	13049.26
385.846	11507.95
386.292	11284.52
386.739	11130.25
387.185	11099.46
387.631	11191.14
388.078	10944.03
388.524	11800.52
388.97	10977.05
389.416	9211.09
389.862	9869.22
390.308	9420.76
390.754	9645.84
391.2	10566.63
391.645	10916.43
392.091	10493.88
392.537	10214.3
392.983	10322.29
393.428	10196.21
393.874	11010.95
394.319	11122.47
394.765	10606.57
395.21	10997.33
395.655	10376.29
396.101	9756.11
396.546	8836.67
396.991	8962.33
397.436	8369.14
397.881	8111.71
398.326	7721.64
398.771	7322.89
399.216	6434.64
399.661	5817.92
400.106	5798.45
400.551	5938.01
400.995	5335.99
401.44	5281.47
401.885	4968.93
402.329	5014.2
402.774	4812.06
403.218	4648.19
403.663	4479.61
404.107	4591.65
404.551	4621.26
404.995	4233.89
405.44	4080.34
405.884	4148.49
406.328	4018.49
406.772	4000.54
407.216	3639.43
407.66	3515.24
408.104	3345.78
408.547	3125.2
408.991	3023.81
409.435	2907.08
409.879	2864.42
410.322	2822.6
410.766	2714.17
411.209	2573.73
411.653	2471.58
412.096	2417.37
412.54	2412.33
412.983	2392.38
413.426	2394.74
413.869	2390.86
414.312	2339.74
414.756	2251.15
415.199	2142.54
415.642	2079.74
416.085	2077.29
416.527	2056.17
416.97	2087.41
417.413	1979.85
417.856	1954.08
418.298	1931.55
418.741	1918.16
419.184	1914.98
419.626	1995.88
420.069	1997.17
420.511	2005.1
420.953	1959.65
421.396	1939.9
421.838	1887.39
422.28	1925.4
422.722	1933.72
423.164	1957.52
423.606	1919.95
424.048	1911.78
424.49	1811.29
424.932	1798.29
425.374	1770.37
425.816	1798.85
426.258	1828.99
426.699	1842.38
427.141	1808.3
427.582	1833.66
428.024	1823.38
428.465	1808.77
428.907	1762.66
429.348	1738.16
429.789	1731.92
430.231	1688.5
430.672	1708.3
431.113	1666.39
431.554	1645.34
431.995	1605.38
432.436	1542.28
432.877	1506.97
433.318	1478.92
433.759	1471.55
434.2	1473.08
434.64	1462.61
435.081	1468.05
435.522	1390.92
435.962	1342.55
436.403	1314.62
436.843	1336.33
437.284	1314.32
437.724	1283.19
438.164	1295.25
438.604	1269.4
439.045	1222.32
439.485	1173.19
439.925	1153.45
440.365	1130.14
440.805	1119.75
441.245	1108.38
441.685	1073.43
442.125	1071.82
442.564	1084.94
443.004	1063.05
443.444	1066.78
443.883	1076.12
444.323	1076.35
444.762	1089.9
445.202	1112.06
445.641	1138.74
446.081	1142.81
446.52	1158.6
446.959	1153.63
447.398	1130.72
447.837	1125.28
448.276	1114.17
448.716	1135.12
449.154	1154.62
449.593	1133.72
450.032	1138.76
450.471	1126.88
450.91	1135.69
451.349	1139.24
451.787	1142.18
452.226	1167.31
452.664	1175.12
453.103	1182.96
453.541	1184.75
453.98	1184.44
454.418	1196.38
454.856	1178.83
455.295	1180.09
455.733	1190.82
456.171	1201.68
456.609	1205.22
457.047	1207
457.485	1224.17
457.923	1226.94
458.361	1212.81
458.798	1218.54
459.236	1218.82
459.674	1230.3
460.111	1237.27
460.549	1224.83
460.987	1222.14
461.424	1219.57
461.862	1214.63
462.299	1198.03
462.736	1196.85
463.173	1200.9
463.611	1186.13
464.048	1182.26
464.485	1191.95
464.922	1181.75
465.359	1176.45
465.796	1152.85
466.233	1143.02
466.67	1127.88
467.106	1123.47
467.543	1114.18
467.98	1101.83
468.416	1076.56
468.853	1068.63
469.29	1036.88
469.726	1025.33
470.162	999.37
470.599	994.52
471.035	987.41
471.471	967.84
471.907	964.47
472.344	959.98
472.78	961.94
473.216	976.02
473.652	964.2
474.088	964.44
474.523	963.09
474.959	973.73
475.395	964.8
475.831	961.12
476.266	968.7
476.702	967.64
477.138	957.64
477.573	955.61
478.008	952.56
478.444	958.16
478.879	965.88
479.314	970.08
479.75	970.99
480.185	976.91
480.62	986.95
481.055	993.46
481.49	1001.61
481.925	1017.01
482.36	1034.84
482.795	1066.48
483.229	1098.7
483.664	1124.64
484.099	1132.44
484.534	1152.02
484.968	1166.1
485.403	1172.03
485.837	1174.71
486.271	1177.17
486.706	1183.63
487.14	1176.03
487.574	1161.25
488.009	1154.36
488.443	1150.38
488.877	1166.21
489.311	1175.39
489.745	1195.38
490.179	1212.37
490.613	1237.89
491.046	1254
491.48	1269.17
491.914	1278.6
492.348	1294.43
492.781	1310.05
493.215	1320.49
493.648	1331.47
494.082	1351.23
494.515	1358.56
494.948	1381.35
495.382	1401.24
495.815	1419.38
496.248	1439.05
496.681	1473.9
497.114	1507.4
497.547	1536.65
497.98	1571.8
498.413	1593.18
498.846	1621.36
499.279	1651.08
499.711	1669.94
500.144	1685.37
500.577	1714.66
501.009	1749.22
501.442	1776.72
501.874	1787.72
502.306	1801.85
502.739	1823.6
503.171	1864.73
503.603	1879.24
504.036	1908.65
504.468	1929.62
504.9	1962.14
505.332	1984.95
505.764	1999.39
506.196	2022.82
506.627	2060.72
507.059	2095.06
507.491	2123.71
507.923	2123.48
508.354	2161.24
508.786	2186.86
509.217	2229.09
509.649	2263
510.08	2308.6
510.512	2345.37
510.943	2378.66
511.374	2403.2
511.805	2447.19
512.237	2489.71
512.668	2559.31
513.099	2617.06
513.53	2673.47
513.961	2712.64
514.391	2776.84
514.822	2839.22
515.253	2910.54
515.684	2957.02
516.114	3013.49
516.545	3050.28
516.975	3096
517.406	3124.94
517.836	3118.75
518.267	3120.59
518.697	3146.11
519.127	3143.63
519.558	3149.83
519.988	3146.45
520.418	3157.02
520.848	3181.45
521.278	3187.52
521.708	3163.08
522.138	3176.69
522.567	3229.8
522.997	3270.02
523.427	3291.05
523.857	3313.63
524.286	3323.87
524.716	3342.84
525.145	3368.24
525.575	3378.99
526.004	3396.67
526.433	3417.26
526.863	3407.74
527.292	3375.38
527.721	3376.16
528.15	3379.2
528.579	3371.93
529.008	3383.22
529.437	3421.29
529.866	3441.45
530.295	3469.62
530.724	3486.67
531.152	3532.12
531.581	3553.52
532.01	3583.08
532.438	3596
532.867	3620.37
533.295	3651.51
533.723	3659.27
534.152	3649.99
534.58	3645.92
535.008	3609.75
535.436	3608.03
535.865	3621.22
536.293	3648.49
536.721	3679.67
537.149	3727.78
537.576	3729.93
538.004	3753.14
538.432	3768.47
538.86	3763.29
539.287	3777.55
539.715	3804.11
540.143	3811.56
540.57	3803.34
540.998	3794.45
541.425	3744.86
541.852	3700.49
542.28	3696.52
542.707	3663.17
543.134	3634.54
543.561	3627.32
543.988	3610.5
544.415	3609.25
544.842	3596.98
545.269	3580.54
545.696	3580.9
546.123	3605.66
546.549	3584.36
546.976	3557.17
547.403	3555.55
547.829	3555.83
548.256	3557.48
548.682	3549.8
549.108	3530.79
549.535	3528.22
549.961	3531.66
550.387	3506.56
550.813	3493.15
551.24	3504.55
551.666	3506.51
552.092	3486.81
552.518	3474.42
552.943	3460.07
553.369	3473.02
553.795	3485.15
554.221	3489.48
554.646	3483.72
555.072	3503.28
555.498	3515.92
555.923	3536.76
556.349	3568.54
556.774	3587.78
557.199	3594.16
557.625	3612.12
558.05	3602.24
558.475	3626.05
558.9	3625.96
559.325	3612.12
559.75	3602.79
560.175	3594.85
560.6	3584.75
561.025	3584.74
561.449	3591.09
561.874	3607.65
562.299	3620.17
562.723	3641.02
563.148	3628.13
563.572	3642.83
563.997	3669.96
564.421	3689.99
564.846	3698.75
565.27	3715.82
565.694	3719.52
566.118	3752.21
566.542	3774.81
566.966	3770.16
567.39	3771.19
567.814	3756.56
568.238	3765.55
568.662	3787.74
569.086	3802.61
569.509	3828.84
569.933	3803.97
570.357	3798.17
570.78	3763.06
571.204	3744.2
571.627	3732
572.05	3738.23
572.474	3747.45
572.897	3729.59
573.32	3720.24
573.743	3709.05
574.166	3677.46
574.589	3688.35
575.012	3681.18
575.435	3688.18
575.858	3677.28
576.281	3661.91
576.704	3634.61
577.126	3615.43
577.549	3597.78
577.972	3584.1
578.394	3566.82
578.817	3555.18
579.239	3519.7
579.661	3494.41
580.084	3463.85
580.506	3439.65
580.928	3435.58
581.35	3417.11
581.772	3413.66
582.194	3390.03
582.616	3369.33
583.038	3344.06
583.46	3327.05
583.882	3324.22
584.303	3340.12
584.725	3335.95
585.147	3338.14
585.568	3365.43
585.99	3394.62
586.411	3411.54
586.833	3447.88
587.254	3453.39
587.675	3488.98
588.096	3518.73
588.518	3509.74
588.939	3474.84
589.36	3473.07
589.781	3460.99
590.202	3395.56
590.623	3380.18
591.043	3378.78
591.464	3353.41
591.885	3345.82
592.305	3334.33
592.726	3306.38
593.147	3312.1
593.567	3301.4
593.987	3286.69
594.408	3277.13
594.828	3279.17
595.248	3265.56
595.669	3223.39
596.089	3208.15
596.509	3196.65
596.929	3168.2
597.349	3171
597.769	3149.77
598.189	3137.08
598.608	3142.21
599.028	3147.17
599.448	3149.81
599.867	3123.98
600.287	3117.5
600.706	3111
601.126	3089.61
601.545	3087.98
601.965	3087.39
602.384	3077.84
602.803	3087.34
603.222	3077.14
603.641	3065.47
604.061	3058.45
604.48	3052.38
604.898	3073.76
605.317	3088.47
605.736	3096.38
606.155	3092.72
606.574	3076.04
606.992	3092.23
607.411	3084.02
607.829	3071.05
608.248	3068.25
608.666	3067.24
609.085	3069.47
609.503	3053.81
609.921	3042.27
610.339	3051.01
610.758	3055.54
611.176	3049.11
611.594	3031.41
612.012	3027.63
612.43	3039.24
612.847	3058.4
613.265	3063.46
613.683	3078.77
614.101	3086.3
614.518	3082.43
614.936	3064.93
615.353	3033.97
615.771	3031.68
616.188	3036.62
616.606	3032.82
617.023	3019.08
617.44	2990.37
617.857	2980.39
618.274	2964.46
618.691	2952.44
619.108	2934.32
619.525	2923.59
619.942	2941.4
620.359	2949.55
620.776	2941.63
621.192	2935.05
621.609	2932.42
622.026	2949.08
622.442	2965.06
622.859	2976.14
623.275	2962.89
623.691	2977.11
624.108	3004.39
624.524	3041.2
624.94	3043.04
625.356	3068.05
625.772	3101.67
626.188	3132.37
626.604	3138.92
627.02	3130.49
627.436	3123.94
627.852	3138.19
628.268	3168.56
628.683	3150.19
629.099	3130.27
629.514	3121.05
629.93	3131.46
630.345	3142.29
630.761	3134.28
631.176	3142.03
631.591	3125.52
632.007	3112.98
632.422	3113.04
632.837	3087.23
633.252	3079.21
633.667	3055.86
634.082	3035.4
634.497	3003.43
634.911	2955.07
635.326	2945.48
635.741	2903.53
636.155	2882.69
636.57	2883.91
636.984	2882.36
637.399	2882.07
637.813	2883
638.228	2880.08
638.642	2888.36
639.056	2863.37
639.47	2865.13
639.884	2843.88
640.298	2828.51
640.712	2822.55
641.126	2792.47
641.54	2771.01
641.954	2762.85
642.368	2729.78
642.781	2702.25
643.195	2658.22
643.609	2657.11
644.022	2638.58
644.436	2626.63
644.849	2597.09
645.262	2567.79
645.676	2570.44
646.089	2554.42
646.502	2511.17
646.915	2496.92
647.328	2458.99
647.741	2448.75
648.154	2413.51
648.567	2399.44
648.98	2364.96
649.393	2361.47
649.805	2349.75
650.218	2327.86
650.631	2289.05
651.043	2273.74
651.456	2257.78
651.868	2258.28
652.28	2300.08
652.693	2331.58
653.105	2348.79
653.517	2370.5
653.929	2370.66
654.341	2380.35
654.753	2351.49
655.165	2364.99
655.577	2356.78
655.989	2343.53
656.401	2325.25
656.813	2236.11
657.224	2187.52
657.636	2121.35
658.047	2074.77
658.459	2027.11
658.87	2005.52
659.282	1974.69
659.693	1922.01
660.104	1884.51
660.515	1849.31
660.926	1837.2
661.338	1826.18
661.749	1804.6
662.159	1775.54
662.57	1760.59
662.981	1741.45
663.392	1715.88
663.803	1714.24
664.213	1699.96
664.624	1680.2
665.035	1676.19
665.445	1638.33
665.855	1610.05
666.266	1582.29
666.676	1567.52
667.086	1538.54
667.497	1526.14
667.907	1504.28
668.317	1477.18
668.727	1458.05
669.137	1452.87
669.547	1439.62
669.956	1437.48
670.366	1434.14
670.776	1430.68
671.186	1431.88
671.595	1432.54
672.005	1434.59
672.414	1425.87
672.824	1417.42
673.233	1424.28
673.642	1423.6
674.052	1425.16
674.461	1424.36
674.87	1432.41
675.279	1424.89
675.688	1427.03
676.097	1428.1
676.506	1421.77
676.915	1451.74
677.323	1458.89
677.732	1456.05
678.141	1458.59
678.549	1445.45
678.958	1449.83
679.366	1456.08
679.775	1473.79
680.183	1499.07
680.592	1522
681	1544.93
681.408	1545.18
681.816	1576.28
682.224	1614.54
682.632	1651.33
683.04	1731.68
683.448	1805.23
683.856	1891
684.264	1992.62
684.671	2094.82
685.079	2210.64
685.487	2340.44
685.894	2510.46
686.302	2659.51
686.709	2782.58
687.116	2926.47
687.524	3041.77
687.931	3143.73
688.338	3233.52
688.745	3308.73
689.152	3386.24
689.559	3486.93
689.966	3578.86
690.373	3615.34
690.78	3693.28
