Data from N_2_DIV_IL_4N_Splice17_12-35-32-815.txt Node
Date: Sat Mar 14 12:35:32 EDT 2020
User: sa697716
Spectrometer: FLMS03696
Trigger mode: 0
Integration Time (sec): 3.180400E-1
Scans to average: 20
Electric dark correction enabled: true
Nonlinearity correction enabled: true
Boxcar width: 5
XAxis mode: Wavelengths
Number of Pixels in Spectrum: 2048
>>>>>Begin Spectral Data<<<<<
187.83	-389117.25
188.298	2732.78
188.766	1393.63
189.233	1282.29
189.701	1795.31
190.169	2391.97
190.636	834.71
191.104	667.91
191.571	66.35
192.039	-134.02
192.506	-216.04
192.974	261.58
193.441	-358.93
193.908	-164.53
194.375	-60.17
194.842	-44.38
195.31	-0.68
195.777	133.18
196.244	379.03
196.711	456.41
197.177	574.21
197.644	819.82
198.111	1430.64
198.578	1979.11
199.045	1600.76
199.511	2632.82
199.978	3108.77
200.445	2637.5
200.911	2901.43
201.378	3216.24
201.844	2909.3
202.31	5002.14
202.777	5230.79
203.243	2906.73
203.709	2783.44
204.176	3328.85
204.642	2763.92
205.108	2583.45
205.574	2105.87
206.04	1917.43
206.506	1809.64
206.972	1708.55
207.438	1645.07
207.903	1879.47
208.369	1649.98
208.835	1642.29
209.301	1730.56
209.766	1767.22
210.232	1760.27
210.697	2186.41
211.163	2708.14
211.628	4107.97
212.094	3488.87
212.559	4294.3
213.024	2675.62
213.49	3298
213.955	3226.8
214.42	3174.49
214.885	2975.72
215.35	2848.49
215.815	2763.87
216.28	2968.71
216.745	2424.32
217.21	2651.54
217.675	2468.87
218.14	2834.25
218.604	3209.53
219.069	3728.25
219.534	3955.54
219.998	4670.55
220.463	5742.51
220.927	7176.29
221.392	6821.34
221.856	6993.99
222.32	8906.35
222.785	11075.14
223.249	14024.5
223.713	15757.65
224.177	15848.82
224.642	20474.17
225.106	25312.7
225.57	27747.85
226.034	20719.01
226.497	31647.13
226.961	28658.38
227.425	33431.87
227.889	37244.59
228.353	37360.16
228.816	77451.45
229.28	74311.51
229.744	62854.65
230.207	38255.27
230.671	37789.52
231.134	62635.62
231.597	72351.43
232.061	72435.16
232.524	70810.17
232.987	48849.93
233.45	44049.16
233.914	39548.39
234.377	40630.11
234.84	37253.96
235.303	44021.39
235.766	49144.84
236.229	50837.53
236.691	32037.53
237.154	36071.98
237.617	27167.67
238.08	27860.29
238.542	32629.19
239.005	23362.24
239.468	23184.84
239.93	21868.44
240.393	19879.42
240.855	17470.91
241.317	17905.93
241.78	21832.32
242.242	22562.8
242.704	24367.15
243.166	21230.72
243.629	19285.17
244.091	22212.86
244.553	24380.76
245.015	26204.6
245.477	33940.21
245.939	49839.67
246.4	52933.13
246.862	51502.37
247.324	48616.58
247.786	54441.43
248.247	71410.81
248.709	73811.91
249.17	55262.93
249.632	51980.84
250.093	60294.19
250.555	52066.31
251.016	31723.7
251.477	30099.49
251.939	32463.14
252.4	34079.16
252.861	40568.34
253.322	37691.42
253.783	44891.77
254.244	58221.35
254.705	45982.92
255.166	40910.68
255.627	40325.8
256.088	56883.13
256.549	60446.83
257.009	52083.69
257.47	63204.15
257.931	51465.3
258.391	38591.58
258.852	39756.61
259.312	41680.47
259.773	51468.15
260.233	43453.89
260.694	36611.55
261.154	41503.58
261.614	33271.4
262.074	29748.3
262.534	30896.5
262.994	29077.46
263.455	38741.32
263.915	32610.97
264.374	30677.15
264.834	33479.29
265.294	37085.3
265.754	38410.26
266.214	36379.12
266.673	34082.95
267.133	42995.93
267.593	42638.1
268.052	52178.1
268.512	45369.06
268.971	54681.31
269.431	60017.98
269.89	53776.42
270.349	80620.8
270.809	89882.35
271.268	80748.69
271.727	181198.69
272.186	117354.26
272.645	88004.96
273.104	63477.24
273.563	91910.03
274.022	72314.89
274.481	61476.38
274.94	47302.94
275.399	35172.55
275.857	40938.14
276.316	55365.63
276.775	49239.38
277.233	48467.5
277.692	45336.8
278.15	51272
278.609	52700.54
279.067	48773.98
279.525	45306.67
279.984	58548.94
280.442	70269.83
280.9	69248.65
281.358	45540.53
281.816	42446.72
282.274	41567
282.732	42974.07
283.19	43218.36
283.648	37310.43
284.106	39756.79
284.564	40436.35
285.021	37491.65
285.479	27951.43
285.937	25440.04
286.394	22322.28
286.852	22976.86
287.309	24156.13
287.767	23349.26
288.224	22208.58
288.682	24386.1
289.139	26740.54
289.596	24459.06
290.053	25416.03
290.511	32124.47
290.968	38962.82
291.425	52956.22
291.882	44082.03
292.339	38375.22
292.796	38066.75
293.252	35887.58
293.709	28525.18
294.166	25601.44
294.623	28353.15
295.079	27230.35
295.536	27372.47
295.992	24871.88
296.449	24596.14
296.905	25575.23
297.362	24534.56
297.818	25847.32
298.274	26825.36
298.731	27354.84
299.187	27109.06
299.643	29116.66
300.099	35266.4
300.555	38702.31
301.011	32378.51
301.467	31224.81
301.923	36613.09
302.379	35817.94
302.835	35191.93
303.291	35265.04
303.746	40179.63
304.202	50787.69
304.658	50987.57
305.113	34320.93
305.569	33639.81
306.024	35900.12
306.479	34208.72
306.935	28841.86
307.39	31506.79
307.845	29140.7
308.301	29339.89
308.756	28596.67
309.211	27543.29
309.666	28232.61
310.121	35019.88
310.576	35575.02
311.031	35289.21
311.486	40463.66
311.94	40477.93
312.395	54152.37
312.85	101762.59
313.305	499861.31
313.759	2587791.08
314.214	187636.38
314.668	148667.3
315.123	125096.23
315.577	44839.89
316.032	39862.98
316.486	49923.52
316.94	39367.87
317.394	27390.71
317.849	21286.45
318.303	20159.44
318.757	19017.07
319.211	21031.86
319.665	18433.51
320.119	18657.21
320.572	26767.55
321.026	25031.82
321.48	20838.47
321.934	22724.84
322.387	22764.14
322.841	24582.74
323.295	22083.96
323.748	25488.58
324.202	25871.45
324.655	31059.27
325.108	43376.36
325.562	30645.22
326.015	36429.9
326.468	27588.59
326.921	30862.82
327.374	28803.33
327.827	30007.62
328.28	34025.22
328.733	22779.49
329.186	20033.14
329.639	19095.53
330.092	16118.49
330.545	15367.27
330.997	15500.09
331.45	16927.33
331.903	19827.78
332.355	34156.36
332.808	33195.26
333.26	27381.53
333.713	29714.52
334.165	29945.85
334.617	40003.13
335.069	32320.86
335.522	58421.15
335.974	64661.64
336.426	59130.69
336.878	41034.09
337.33	20819.19
337.782	20337.9
338.234	25476.66
338.686	30528.89
339.137	36117.55
339.589	34016.13
340.041	26649.89
340.493	22892.18
340.944	23457.12
341.396	25267.95
341.847	21239.58
342.299	25027.92
342.75	30559.26
343.201	26749.22
343.653	30738.25
344.104	37848.74
344.555	29784.4
345.006	46450.34
345.457	35546.86
345.908	28289.99
346.359	26596.12
346.81	21689.11
347.261	22883.67
347.712	22519.46
348.163	24149.26
348.613	24447.28
349.064	22838.87
349.515	20022.51
349.965	20530.47
350.416	24756.36
350.866	27180.78
351.317	30735.86
351.767	50832.84
352.217	64223.4
352.668	53383.78
353.118	48935.73
353.568	47218.1
354.018	37287.29
354.468	39285.62
354.918	28160.74
355.368	24652.39
355.818	34825.18
356.268	100176.93
356.718	419097.36
357.168	104236.08
357.617	52283.38
358.067	58129.03
358.517	54485.89
358.966	63891.17
359.416	71702.94
359.865	77675.81
360.315	92577.39
360.764	43192.1
361.213	24232.47
361.663	22986.72
362.112	28416.4
362.561	45916.14
363.01	34656.55
363.459	29225.99
363.908	31654.02
364.357	26892
364.806	45402.82
365.255	31209.64
365.703	28542.57
366.152	28566.05
366.601	23160.41
367.05	18797.2
367.498	17076.53
367.947	17824.19
368.395	18515.34
368.844	16404.15
369.292	19795.46
369.74	13662.16
370.189	20911.44
370.637	24526.66
371.085	21141.47
371.533	25773.83
371.981	24847.58
372.429	23693.34
372.877	24696.03
373.325	20665.47
373.773	21015.82
374.221	18693.43
374.669	23198.72
375.116	20080.47
375.564	20266.34
376.012	22699.64
376.459	18700.41
376.907	22337.22
377.354	26998.88
377.801	25152.55
378.249	28860.45
378.696	36938.23
379.143	44707.98
379.591	47638.83
380.038	80551.17
380.485	58163.97
380.932	62705.5
381.379	57288.26
381.826	42130.62
382.273	29941.39
382.72	26172.01
383.166	25504.5
383.613	16523.11
384.06	14922.74
384.506	17254.61
384.953	12673.2
385.4	12778.3
385.846	11197.77
386.292	10925.49
386.739	10698.73
387.185	10590.84
387.631	10616.23
388.078	10295.39
388.524	11026.43
388.97	10162.68
389.416	8478.33
389.862	9011.89
390.308	8521.41
390.754	8645.45
391.2	9375.21
391.645	9609.7
392.091	9163.09
392.537	8836.98
392.983	8862.07
393.428	8699.07
393.874	9327.5
394.319	9338.21
394.765	8830.85
395.21	9074.69
395.655	8512.15
396.101	7958.88
396.546	7161.09
396.991	7213.9
397.436	6692.12
397.881	6441.74
398.326	6101.92
398.771	5759.65
399.216	5037.65
399.661	4533.27
400.106	4508.62
400.551	4601.24
400.995	4119.83
401.44	4071.8
401.885	3828.33
402.329	3862.01
402.774	3704.07
403.218	3576.17
403.663	3441.45
404.107	3531.48
404.551	3551.3
404.995	3253.78
405.44	3134.85
405.884	3184.55
406.328	3078.12
406.772	3067.72
407.216	2790.31
407.66	2697.79
408.104	2556.63
408.547	2389.91
408.991	2309.2
409.435	2222.51
409.879	2190.87
410.322	2158.16
410.766	2080.6
411.209	1975.97
411.653	1890.05
412.096	1848.06
412.54	1845.33
412.983	1834.7
413.426	1840.12
413.869	1838.85
414.312	1800.25
414.756	1732.39
415.199	1652.09
415.642	1600.45
416.085	1598.13
416.527	1586.94
416.97	1609.58
417.413	1526.08
417.856	1507.69
418.298	1490.91
418.741	1477.22
419.184	1473.1
419.626	1534.13
420.069	1535.92
420.511	1542.48
420.953	1509.38
421.396	1496.4
421.838	1460.93
422.28	1492.97
422.722	1502.7
423.164	1522.87
423.606	1497.26
424.048	1494.26
424.49	1418.74
424.932	1409.75
425.374	1392.05
425.816	1417.53
426.258	1443.27
426.699	1456.5
427.141	1435.1
427.582	1455
428.024	1448.44
428.465	1442.38
428.907	1406.87
429.348	1389.43
429.789	1387.88
430.231	1358.62
430.672	1377.36
431.113	1346.53
431.554	1326.12
431.995	1293.21
432.436	1245.66
432.877	1216.58
433.318	1194.18
433.759	1190.12
434.2	1190.28
434.64	1180.17
435.081	1183.88
435.522	1123.46
435.962	1082.75
436.403	1062.13
436.843	1078.54
437.284	1057.72
437.724	1028.61
438.164	1033.54
438.604	1011.17
439.045	972.09
439.485	931.34
439.925	911.74
440.365	885.67
440.805	872.87
441.245	860.77
441.685	828.5
442.125	822.01
442.564	827.17
443.004	805.98
443.444	803.37
443.883	806.98
444.323	800.85
444.762	803.26
445.202	815.74
445.641	829.54
446.081	824.38
446.52	829.37
446.959	820.46
447.398	803.24
447.837	794.97
448.276	780.68
448.716	786.15
449.154	792.32
449.593	772.28
450.032	769.34
450.471	756.54
450.91	757.02
451.349	756.73
451.787	755.04
452.226	764.04
452.664	763.56
453.103	765.87
453.541	765.54
453.98	765.23
454.418	770.06
454.856	757.22
455.295	755.33
455.733	762.04
456.171	765.23
456.609	766.11
457.047	767.32
457.485	780.51
457.923	781.72
458.361	771.38
458.798	773.42
459.236	772.74
459.674	778.61
460.111	782.97
460.549	775.97
460.987	772.99
461.424	769.42
461.862	764.57
462.299	752.18
462.736	751.56
463.173	753.49
463.611	744.9
464.048	742.13
464.485	748.21
464.922	740.82
465.359	735.01
465.796	726.56
466.233	722.4
466.67	715.86
467.106	712.67
467.543	705.36
467.98	695.95
468.416	677.95
468.853	673.14
469.29	652.5
469.726	644.79
470.162	627.7
470.599	617.99
471.035	610.74
471.471	595.82
471.907	592.61
472.344	587.67
472.78	588.82
473.216	596.05
473.652	588.66
474.088	587.31
474.523	586.2
474.959	592.49
475.395	587.35
475.831	583.51
476.266	587.06
476.702	585.57
477.138	580.11
477.573	578.46
478.008	575.89
478.444	578.18
478.879	583.1
479.314	585.35
479.75	584.9
480.185	587.92
480.62	593.54
481.055	595.98
481.49	600.48
481.925	608.79
482.36	619.72
482.795	637.3
483.229	654.01
483.664	668.01
484.099	670.05
484.534	680.43
484.968	687.62
485.403	689.46
485.837	688.07
486.271	686.43
486.706	686.12
487.14	677.55
487.574	667.1
488.009	661.55
488.443	655.2
488.877	661.56
489.311	663.41
489.745	670.18
490.179	675.91
490.613	688.75
491.046	693.32
491.48	698.98
491.914	699.27
492.348	703.68
492.781	706.62
493.215	708.11
493.648	709.32
494.082	714.61
494.515	715.31
494.948	723.34
495.382	727.03
495.815	731.43
496.248	735.94
496.681	748.63
497.114	759.21
497.547	769.07
497.98	781.92
498.413	788.28
498.846	797.24
499.279	804.53
499.711	807.23
500.144	808.89
500.577	818.43
501.009	828.93
501.442	838.13
501.874	838.68
502.306	839.84
502.739	845.99
503.171	859.24
503.603	861.76
504.036	870.61
504.468	876.12
504.9	887.34
505.332	894.08
505.764	896.91
506.196	902.97
506.627	916.47
507.059	929.16
507.491	937.23
507.923	934.69
508.354	947.88
508.786	957.41
509.217	974.31
509.649	987.57
510.08	1004.66
510.512	1021.68
510.943	1035.17
511.374	1045.64
511.805	1064.62
512.237	1082.5
512.668	1113.69
513.099	1140.46
513.53	1166.72
513.961	1185.8
514.391	1216.12
514.822	1248.46
515.253	1282.19
515.684	1307.71
516.114	1336.51
516.545	1356.86
516.975	1382.69
517.406	1398.54
517.836	1399.22
518.267	1405.09
518.697	1421.92
519.127	1425.42
519.558	1431.75
519.988	1434.23
520.418	1443.34
520.848	1458.97
521.278	1466.3
521.708	1473.78
522.138	1485.35
522.567	1515.32
522.997	1539.05
523.427	1553.8
523.857	1569.93
524.286	1579.51
524.716	1594.12
525.145	1612.31
525.575	1622.65
526.004	1636.29
526.433	1637.43
526.863	1637.82
527.292	1627.79
527.721	1632.23
528.15	1636.87
528.579	1636.85
529.008	1646.93
529.437	1669.02
529.866	1681
530.295	1696.64
530.724	1709.34
531.152	1734.83
531.581	1748.16
532.01	1764.74
532.438	1772.84
532.867	1786.55
533.295	1804.67
533.723	1810.58
534.152	1807.27
534.58	1806.32
535.008	1790.13
535.436	1791.25
535.865	1799.9
536.293	1814.08
536.721	1829.03
537.149	1854.22
537.576	1857.74
538.004	1869.77
538.432	1876.53
538.86	1874.73
539.287	1881.71
539.715	1896.93
540.143	1899.03
540.57	1893.37
540.998	1889.11
541.425	1866.31
541.852	1844.93
542.28	1841.82
542.707	1825.84
543.134	1812.25
543.561	1808.21
543.988	1800.73
544.415	1799.79
544.842	1794.2
545.269	1787.71
545.696	1788.28
546.123	1800.54
546.549	1790.47
546.976	1777.94
547.403	1777.85
547.829	1779.19
548.256	1780.59
548.682	1777.07
549.108	1769.12
549.535	1769.84
549.961	1771.6
550.387	1759.18
550.813	1754.07
551.24	1759.89
551.666	1761.54
552.092	1750.73
552.518	1744.11
552.943	1738.23
553.369	1746.16
553.795	1751.92
554.221	1751.8
554.646	1749.48
555.072	1760.42
555.498	1765.18
555.923	1774.12
556.349	1788.88
556.774	1797.72
557.199	1798.91
557.625	1805.86
558.05	1799.4
558.475	1810
558.9	1808.76
559.325	1800.99
559.75	1794.93
560.175	1789.46
560.6	1781.89
561.025	1778.93
561.449	1779.73
561.874	1785.48
562.299	1790.41
562.723	1797.76
563.148	1788.35
563.572	1791.36
563.997	1799.62
564.421	1804.69
564.846	1804.47
565.27	1809.06
565.694	1806.88
566.118	1819.05
566.542	1827.15
566.966	1820.05
567.39	1815.38
567.814	1802.94
568.238	1803.71
568.662	1810.45
569.086	1812.98
569.509	1820.03
569.933	1805.27
570.357	1799.07
570.78	1777.81
571.204	1764.39
571.627	1752.79
572.05	1751
572.474	1751.24
572.897	1738.82
573.32	1730.94
573.743	1721.15
574.166	1703.53
574.589	1703.48
575.012	1695.3
575.435	1694.58
575.858	1686.19
576.281	1675.75
576.704	1659.9
577.126	1647.34
577.549	1635.62
577.972	1624.88
578.394	1615.01
578.817	1607.06
579.239	1588.04
579.661	1574.64
580.084	1559.47
580.506	1546.58
580.928	1543.22
581.35	1533.03
581.772	1528.36
582.194	1516.44
582.616	1504
583.038	1489.6
583.46	1480.05
583.882	1477.39
584.303	1481.99
584.725	1478.17
585.147	1480.03
585.568	1490.84
585.99	1502.88
586.411	1510.85
586.833	1526.08
587.254	1527.85
587.675	1541.89
588.096	1555.3
588.518	1550.63
588.939	1534.49
589.36	1531.96
589.781	1520.41
590.202	1491.82
590.623	1483.28
591.043	1480.61
591.464	1466.84
591.885	1463.9
592.305	1458.67
592.726	1444.78
593.147	1445.6
593.567	1441.16
593.987	1433.98
594.408	1429.43
594.828	1427.53
595.248	1421.13
595.669	1403.73
596.089	1397.79
596.509	1391.68
596.929	1378.39
597.349	1378.84
597.769	1369.22
598.189	1362.24
598.608	1363.36
599.028	1366.43
599.448	1366.81
599.867	1354.83
600.287	1350.67
600.706	1346.63
601.126	1337.04
601.545	1335.01
601.965	1334.09
602.384	1329.4
602.803	1332.37
603.222	1327.78
603.641	1320.41
604.061	1317.27
604.48	1313.25
604.898	1320.01
605.317	1323.9
605.736	1325.84
606.155	1324.69
606.574	1315.11
606.992	1319.3
607.411	1314.64
607.829	1306.42
608.248	1303.89
608.666	1300.84
609.085	1300.27
609.503	1292.25
609.921	1287.11
610.339	1288.61
610.758	1286.1
611.176	1281.55
611.594	1273.2
612.012	1269.11
612.43	1272.14
612.847	1277.22
613.265	1277.18
613.683	1280.88
614.101	1282.17
614.518	1277.73
614.936	1267.27
615.353	1253.71
615.771	1251.03
616.188	1251.23
616.606	1247.98
617.023	1240.6
617.44	1227.37
617.857	1221.11
618.274	1212.15
618.691	1205.26
619.108	1196
619.525	1190.08
619.942	1196.32
620.359	1197.79
620.776	1192.39
621.192	1188.45
621.609	1185.85
622.026	1192.13
622.442	1196.88
622.859	1200.19
623.275	1192.8
623.691	1198.01
624.108	1209.23
624.524	1222.28
624.94	1223.13
625.356	1232.27
625.772	1244.06
626.188	1255.91
626.604	1257.37
627.02	1253.7
627.436	1251.81
627.852	1259.96
628.268	1271.44
628.683	1263.49
629.099	1256.35
629.514	1250.81
629.93	1254.62
630.345	1258.28
630.761	1254.14
631.176	1256.58
631.591	1251.14
632.007	1246.06
632.422	1243.75
632.837	1232.54
633.252	1229.27
633.667	1219.45
634.082	1211.87
634.497	1200.06
634.911	1183.71
635.326	1181.13
635.741	1165.32
636.155	1157.13
636.57	1158.45
636.984	1158.27
637.399	1161.94
637.813	1162.18
638.228	1161.41
638.642	1166.8
639.056	1158.36
639.47	1158.88
639.884	1152.57
640.298	1148.01
640.712	1148.46
641.126	1138.47
641.54	1132.45
641.954	1127.86
642.368	1118.24
642.781	1113.87
643.195	1097.76
643.609	1098.54
644.022	1095.53
644.436	1091.32
644.849	1080.88
645.262	1070.64
645.676	1073.19
646.089	1069.74
646.502	1057.29
646.915	1052.78
647.328	1036.15
647.741	1035.36
648.154	1024.22
648.567	1021.06
648.98	1009.36
649.393	1010.25
649.805	1006.85
650.218	998.49
650.631	982.65
651.043	975.13
651.456	970.16
651.868	969.26
652.28	985.71
652.693	999.37
653.105	1004.93
653.517	1014.22
653.929	1014.51
654.341	1019.56
654.753	1008.94
655.165	1016.27
655.577	1014.5
655.989	1009.71
656.401	1002.73
656.813	966.86
657.224	947.03
657.636	918.95
658.047	901.8
658.459	882.31
658.87	873.06
659.282	861.06
659.693	840.03
660.104	825.59
660.515	812.97
660.926	813.18
661.338	811.14
661.749	804.91
662.159	796.16
662.57	792.1
662.981	789.74
663.392	783.36
663.803	788.57
664.213	788.02
664.624	785.39
665.035	788.76
665.445	774.91
665.855	768.43
666.266	762.58
666.676	761.93
667.086	754.01
667.497	753.06
667.907	748.11
668.317	738.73
668.727	735.35
669.137	735.61
669.547	732.96
669.956	735.24
670.366	737.76
670.776	739.34
671.186	742.07
671.595	745.73
672.005	748.97
672.414	747.48
672.824	746.55
673.233	749.49
673.642	751.48
674.052	754.51
674.461	756.09
674.87	758.77
675.279	755.13
675.688	757.11
676.097	757.01
676.506	752.05
676.915	765.8
677.323	767.08
677.732	765.02
678.141	763.84
678.549	752.51
678.958	749.96
679.366	748.25
679.775	750.76
680.183	759.81
680.592	764
681	768.81
681.408	760.14
681.816	766.74
682.224	773.71
682.632	781.66
683.04	808.87
683.448	831.99
683.856	859.35
684.264	892.23
684.671	918.97
685.079	954.5
685.487	991.92
685.894	1047.83
686.302	1090.52
686.709	1125.7
687.116	1166.68
687.524	1198.51
687.931	1223.97
688.338	1246.69
688.745	1262.92
689.152	1285.53
689.559	1317.31
689.966	1350.74
690.373	1365.33
690.78	1398.19
691.187	1449.58
691.593	1487.72
692	1520.02
692.407	1571.93
692.813	1635.46
693.22	1686.75
693.626	1742.21
694.032	1783.47
694.439	1849.27
694.845	1898.72
695.251	1962.7
695.657	2020.83
696.063	2110.77
