Data from N_2_DEC_NC_4N_Splice17_12-25-33-856.txt Node
Date: Sat Mar 14 12:25:33 EDT 2020
User: sa697716
Spectrometer: FLMS03696
Trigger mode: 0
Integration Time (sec): 3.180400E-1
Scans to average: 20
Electric dark correction enabled: true
Nonlinearity correction enabled: true
Boxcar width: 5
XAxis mode: Wavelengths
Number of Pixels in Spectrum: 2048
>>>>>Begin Spectral Data<<<<<
187.83	-337248.86
188.298	2505.15
188.766	1397.63
189.233	1212.02
189.701	1635.61
190.169	2396.13
190.636	926.37
191.104	783.09
191.571	144.16
192.039	-43.59
192.506	-14.1
192.974	460.08
193.441	-738.85
193.908	-37.47
194.375	-21.2
194.842	12.99
195.31	232.86
195.777	232.39
196.244	467.64
196.711	495.03
197.177	617.01
197.644	839.26
198.111	1421.51
198.578	2019.28
199.045	1604.74
199.511	2604.34
199.978	2999.36
200.445	2538.14
200.911	2797.31
201.378	3103.8
201.844	2795.28
202.31	4728.11
202.777	4943.89
203.243	2729.36
203.709	2584.04
204.176	3072.05
204.642	2531.57
205.108	2384.5
205.574	1938
206.04	1757.28
206.506	1643.67
206.972	1555.73
207.438	1509.51
207.903	1717.51
208.369	1500.7
208.835	1502.41
209.301	1572
209.766	1595.13
210.232	1563.75
210.697	1907.52
211.163	2353.15
211.628	3539.03
212.094	3007.06
212.559	3674.02
213.024	2296.52
213.49	2828.4
213.955	2729.83
214.42	2658.35
214.885	2505.25
215.35	2416.55
215.815	2358.53
216.28	2483.63
216.745	2033.16
217.21	2193.31
217.675	2008.25
218.14	2251.68
218.604	2492.11
219.069	2834.07
219.534	2968.41
219.998	3414.16
220.463	4129.58
220.927	5039.73
221.392	4730.57
221.856	4781.22
222.32	5998.91
222.785	7395.34
223.249	9293.55
223.713	10364
224.177	10381.06
224.642	13316.43
225.106	16352.05
225.57	17806.52
226.034	13250.22
226.497	20180.18
226.961	18180.3
227.425	21165.56
227.889	23506.94
228.353	23455.87
228.816	48337.59
229.28	46169.01
229.744	38812.58
230.207	23631.8
230.671	23195.88
231.134	38270.38
231.597	44095.59
232.061	43998.69
232.524	42823.52
232.987	29482.79
233.45	26508.61
233.914	23757.25
234.377	24341.07
234.84	22244.01
235.303	26174.53
235.766	29223.19
236.229	30166.57
236.691	18988.07
237.154	21307.62
237.617	15997.7
238.08	16335.18
238.542	19089.53
239.005	13633.51
239.468	13500.65
239.93	12732.22
240.393	11559.2
240.855	10137.68
241.317	10387.2
241.78	12592.07
242.242	13008.27
242.704	14056.38
243.166	12231.75
243.629	11110.53
244.091	12796.3
244.553	14005.42
245.015	15021.5
245.477	19377.22
245.939	28364.74
246.4	30010.69
246.862	29170.4
247.324	27456.92
247.786	30673.81
248.247	40151.11
248.709	41293.4
249.17	30825.72
249.632	29013.1
250.093	33627.02
250.555	29033.6
251.016	17679.3
251.477	16742.43
251.939	18043.23
252.4	18897.24
252.861	22406.94
253.322	20796.22
253.783	24762.78
254.244	32049.54
254.705	25224.04
255.166	22360.19
255.627	21966.36
256.088	30962.27
256.549	32880.28
257.009	28286.02
257.47	34294.82
257.931	27899.8
258.391	20894.68
258.852	21528.16
259.312	22563.19
259.773	27869.4
260.233	23594.46
260.694	19918.64
261.154	22585.98
261.614	18110.88
262.074	16198.14
262.534	16838.21
262.994	15887.17
263.455	21133.8
263.915	17794.07
264.374	16744.16
264.834	18237.46
265.294	20164.48
265.754	20864.13
266.214	19699.32
266.673	18434.98
267.133	23206.08
267.593	22990.78
268.052	28070.91
268.512	24389.07
268.971	29350.82
269.431	32147.87
269.89	28762.96
270.349	43115.02
270.809	48025.9
271.268	43171.07
271.727	96789.82
272.186	62670.06
272.645	46902.94
273.104	33792.54
273.563	48894.57
274.022	38456.63
274.481	32695.15
274.94	25189.01
275.399	18704.88
275.857	21750.84
276.316	29380.6
276.775	26110.79
277.233	25675.38
277.692	24059.18
278.15	27207.85
278.609	28005.35
279.067	25887.52
279.525	24043.49
279.984	31012.42
280.442	37252.88
280.9	36745.09
281.358	24166.11
281.816	22537.02
282.274	22094.97
282.732	22816.21
283.19	22950.56
283.648	19791.92
284.106	21090.4
284.564	21440.73
285.021	19926.07
285.479	14828.42
285.937	13462.05
286.394	11826.44
286.852	12152.58
287.309	12780.52
287.767	12358.89
288.224	11741.5
288.682	12874.43
289.139	14102.88
289.596	12901.42
290.053	13371.22
290.511	16834.29
290.968	20406.6
291.425	27626.62
291.882	22987.01
292.339	19955.93
292.796	19755.97
293.252	18585.66
293.709	14759.45
294.166	13226.93
294.623	14591.18
295.079	13984.85
295.536	14055.95
295.992	12766.67
296.449	12624.31
296.905	13107.65
297.362	12562.4
297.818	13187.12
298.274	13673.56
298.731	13893.42
299.187	13735
299.643	14744.49
300.099	17841.06
300.555	19555.03
301.011	16321.73
301.467	15739.21
301.923	18409.54
302.379	17973.46
302.835	17642.01
303.291	17666.29
303.746	20139.47
304.202	25419.81
304.658	25526.84
305.113	17144.79
305.569	16792.92
306.024	17889.33
306.479	16990.86
306.935	14330.08
307.39	15635.49
307.845	14433.03
308.301	14536.14
308.756	14167.59
309.211	13663.18
309.666	13977.38
310.121	17362.94
310.576	17634.13
311.031	17490.25
311.486	20001.37
311.94	19935.11
312.395	26636.46
312.85	50092.68
313.305	245393.68
313.759	1269216.55
314.214	91833.68
314.668	72807.18
315.123	61183.73
315.577	21913.55
316.032	19495.96
316.486	24425.29
316.94	19328.75
317.394	13453.76
317.849	10446.85
318.303	9871.64
318.757	9286.39
319.211	10254.29
319.665	8972.02
320.119	9077.44
320.572	12999.83
321.026	12111.95
321.48	10091.85
321.934	10971.55
322.387	10999.37
322.841	11879.86
323.295	10703.45
323.748	12337.05
324.202	12525.41
324.655	15036.53
325.108	20985.41
325.562	14828.08
326.015	17633.71
326.468	13327.75
326.921	14902.55
327.374	13902.89
327.827	14493.8
328.28	16399.66
328.733	11003.55
329.186	9666.07
329.639	9208.02
330.092	7761.44
330.545	7391
330.997	7461.07
331.45	8157.9
331.903	9556.36
332.355	16401.84
332.808	15935.42
333.26	13129.42
333.713	14252.73
334.165	14341.61
334.617	19096.59
335.069	15423
335.522	27879.84
335.974	30850.04
336.426	28171.79
336.878	19507.08
337.33	9895.81
337.782	9626.92
338.234	12081.2
338.686	14411.8
339.137	17079.07
339.589	16124.84
340.041	12670.71
340.493	10871.88
340.944	11147.96
341.396	11997.53
341.847	10105.22
342.299	11932.52
342.75	14620.71
343.201	12746.07
343.653	14647.74
344.104	18003.97
344.555	14147.39
345.006	21878.66
345.457	16776.01
345.908	13294.14
346.359	12513.43
346.81	10171.73
347.261	10704.03
347.712	10508.26
348.163	11254.14
348.613	11408.07
349.064	10649.79
349.515	9324.92
349.965	9588.53
350.416	11524.4
350.866	12634.99
351.317	14245.62
351.767	23660.86
352.217	29932.27
352.668	24875.66
353.118	22757.25
353.568	21889.83
354.018	17297.23
354.468	18251.41
354.918	13093.03
355.368	11465.4
355.818	16192.39
356.268	46611.08
356.718	194584.42
357.168	48397.57
357.617	24291.54
358.067	27085.35
358.517	25480.87
358.966	29908.91
359.416	33539.78
359.865	36202.01
360.315	43199.36
360.764	20180.91
361.213	11301.04
361.663	10658.23
362.112	13149.55
362.561	21185.18
363.01	15945.48
363.459	13368.62
363.908	14424.47
364.357	12281.56
364.806	20786.07
365.255	14245.22
365.703	13073.6
366.152	13107.21
366.601	10695.34
367.05	8675.55
367.498	7902.18
367.947	8259.02
368.395	8598.02
368.844	7651.45
369.292	9191.93
369.74	6330.54
370.189	9693.48
370.637	11345.46
371.085	9766.39
371.533	11853.57
371.981	11426.28
372.429	10908.16
372.877	11346.75
373.325	9491.28
373.773	9621.89
374.221	8554.96
374.669	10624.1
375.116	9197.94
375.564	9285.06
376.012	10436.52
376.459	8612.53
376.907	10284.44
377.354	12382.31
377.801	11580.85
378.249	13301.27
378.696	17053.81
379.143	20622.62
379.591	22011.46
380.038	37177.94
380.485	26788.78
380.932	28784.6
381.379	26398.42
381.826	19463.33
382.273	13847.77
382.72	12063.11
383.166	11804.91
383.613	7660.02
384.06	6927.3
384.506	8017.82
384.953	5881.72
385.4	5920.24
385.846	5189.92
386.292	5045.05
386.739	4933.91
387.185	4871.16
387.631	4882.92
388.078	4737.58
388.524	5061.57
388.97	4673.03
389.416	3892.99
389.862	4145.63
390.308	3937.03
390.754	4004.12
391.2	4343.01
391.645	4450.48
392.091	4285.17
392.537	4164.39
392.983	4179.35
393.428	4130.66
393.874	4449.03
394.319	4502.85
394.765	4297.63
395.21	4421.85
395.655	4168.63
396.101	3916.89
396.546	3546.66
396.991	3582.63
397.436	3324.22
397.881	3219.34
398.326	3051.48
398.771	2892.92
399.216	2531.57
399.661	2287.96
400.106	2297.89
400.551	2364.86
400.995	2135.07
401.44	2119.06
401.885	2000.91
402.329	2034.12
402.774	1956.6
403.218	1908.15
403.663	1840.87
404.107	1896.89
404.551	1918.14
404.995	1759.43
405.44	1693.17
405.884	1719.57
406.328	1664.23
406.772	1660.12
407.216	1516.87
407.66	1470.4
408.104	1394.11
408.547	1313.13
408.991	1273.66
409.435	1225.62
409.879	1216.23
410.322	1204.51
410.766	1169.36
411.209	1118
411.653	1075.97
412.096	1058.6
412.54	1061.15
412.983	1057.75
413.426	1062.8
413.869	1064.11
414.312	1047
414.756	1007.95
415.199	961.51
415.642	935.11
416.085	937.93
416.527	930.89
416.97	943.15
417.413	895.62
417.856	885.23
418.298	873.31
418.741	863.27
419.184	860.89
419.626	895.01
420.069	895.13
420.511	899.07
420.953	880.13
421.396	874.95
421.838	852.04
422.28	871.18
422.722	879.32
423.164	892.51
423.606	880.85
424.048	878.05
424.49	838.26
424.932	837.16
425.374	825.51
425.816	839.33
426.258	853.37
426.699	862.66
427.141	851.73
427.582	861.82
428.024	859.5
428.465	853.32
428.907	833.23
429.348	821.02
429.789	820.2
430.231	805.03
430.672	817.84
431.113	800.69
431.554	789.19
431.995	769.28
432.436	744.6
432.877	728.08
433.318	718.11
433.759	715.4
434.2	716.56
434.64	709.3
435.081	709.16
435.522	671.42
435.962	647.19
436.403	635.7
436.843	644.89
437.284	629.56
437.724	612.84
438.164	614.94
438.604	602.22
439.045	581.04
439.485	561.54
439.925	551.98
440.365	538.88
440.805	532.24
441.245	526.58
441.685	507.74
442.125	504.87
442.564	508.46
443.004	499.33
443.444	500.26
443.883	503.24
444.323	498.26
444.762	499.64
445.202	508.26
445.641	519.76
446.081	519.18
446.52	526.46
446.959	525.18
447.398	515.23
447.837	510.98
448.276	504.12
448.716	510.76
449.154	517.17
449.593	508.85
450.032	509.85
450.471	502.93
450.91	504.09
451.349	505.64
451.787	506.04
452.226	515.17
452.664	517.27
453.103	519.55
453.541	519.35
453.98	521.65
454.418	525.57
454.856	518.12
455.295	518.06
455.733	524.01
456.171	527.03
456.609	529.03
457.047	530.3
457.485	537.81
457.923	540.75
458.361	534.31
458.798	535.64
459.236	535.66
459.674	539.87
460.111	542.82
460.549	538.46
460.987	536.91
461.424	534.08
461.862	532.42
462.299	525.59
462.736	525.54
463.173	527.08
463.611	523.51
464.048	522.12
464.485	526.96
464.922	522.26
465.359	519.02
465.796	515.92
466.233	512.93
466.67	509.59
467.106	508.66
467.543	502.7
467.98	497.15
468.416	483.73
468.853	480.04
469.29	466.28
469.726	462.06
470.162	450.32
470.599	441.93
471.035	438.14
471.471	427.08
471.907	423.83
472.344	421.08
472.78	423.1
473.216	428.46
473.652	424.24
474.088	422.93
474.523	421.57
474.959	426.43
475.395	423.3
475.831	422.02
476.266	425.12
476.702	425.25
477.138	421.53
477.573	420.59
478.008	419.54
478.444	421.55
478.879	426.59
479.314	429.21
479.75	429.9
480.185	432.56
480.62	436.19
481.055	438.66
481.49	442.64
481.925	449.65
482.36	458.74
482.795	472.72
483.229	486.29
483.664	497.33
484.099	499.66
484.534	507.42
484.968	513.17
485.403	515.22
485.837	515.25
486.271	515.67
486.706	516.94
487.14	511.73
487.574	504.33
488.009	501.13
488.443	498.07
488.877	504.91
489.311	508.28
489.745	516.26
490.179	523.48
490.613	536.2
491.046	541.84
491.48	548.59
491.914	551.67
492.348	558.64
492.781	564.46
493.215	568.36
493.648	572.61
494.082	580.2
494.515	583.42
494.948	593.54
495.382	600.41
495.815	608.94
496.248	617.65
496.681	632.69
497.114	646.93
497.547	661.13
497.98	677.5
498.413	687.49
498.846	701.14
499.279	714.63
499.711	723.77
500.144	732.15
500.577	747.06
501.009	763.87
501.442	780.01
501.874	787.54
502.306	794.98
502.739	809.73
503.171	830.52
503.603	840.73
504.036	856.51
504.468	867.98
504.9	885.56
505.332	899.04
505.764	910.18
506.196	923.84
506.627	944.34
507.059	964.3
507.491	978.51
507.923	983.76
508.354	1005.36
508.786	1022.17
509.217	1047.55
509.649	1067.84
510.08	1093.84
510.512	1116.58
510.943	1137.35
511.374	1155.58
511.805	1183.13
512.237	1209.93
512.668	1249.33
513.099	1284.04
513.53	1318.91
513.961	1345.96
514.391	1386.36
514.822	1426.51
515.253	1469.97
515.684	1502.32
516.114	1538.1
516.545	1565
516.975	1596.69
517.406	1619.21
517.836	1623.14
518.267	1631.47
518.697	1653.6
519.127	1659.52
519.558	1669.68
519.988	1675.55
520.418	1688.96
520.848	1709.43
521.278	1719.46
521.708	1736.05
522.138	1751.12
522.567	1787.45
522.997	1817.37
523.427	1834.52
523.857	1854.96
524.286	1866.48
524.716	1883.43
525.145	1904.01
525.575	1916.82
526.004	1933.51
526.433	1928.69
526.863	1928.05
527.292	1915.6
527.721	1921.23
528.15	1928.06
528.579	1927.65
529.008	1939.84
529.437	1965.5
529.866	1980.82
530.295	1999.65
530.724	2013.14
531.152	2044.48
531.581	2060.98
532.01	2081.63
532.438	2091.17
532.867	2106.86
533.295	2126.67
533.723	2132.14
534.152	2129.27
534.58	2128.99
535.008	2110.2
535.436	2112.29
535.865	2120.18
536.293	2137.31
536.721	2154.73
537.149	2183.82
537.576	2187.43
538.004	2203.17
538.432	2212.42
538.86	2208.97
539.287	2216.79
539.715	2233.9
540.143	2237.71
540.57	2232.61
540.998	2227.52
541.425	2200.45
541.852	2175.73
542.28	2172.46
542.707	2152.69
543.134	2136.94
543.561	2133.13
543.988	2124.07
544.415	2122.12
544.842	2114.8
545.269	2107.84
545.696	2108.66
546.123	2123.31
546.549	2111.38
546.976	2097.96
547.403	2097.12
547.829	2098.87
548.256	2100.02
548.682	2094.44
549.108	2085.54
549.535	2084.74
549.961	2085.29
550.387	2070.35
550.813	2063.66
551.24	2070.2
551.666	2069.82
552.092	2059.18
552.518	2051.37
552.943	2044.52
553.369	2053.31
553.795	2058.74
554.221	2060
554.646	2057.27
555.072	2069.34
555.498	2075.03
555.923	2085.06
556.349	2102.66
556.774	2112.3
557.199	2115.05
557.625	2122.42
558.05	2116.45
558.475	2130.33
558.9	2128.49
559.325	2119.38
559.75	2112.29
560.175	2106.32
560.6	2099.53
561.025	2097.81
561.449	2099.41
561.874	2106.08
562.299	2112.41
562.723	2121.68
563.148	2110.89
563.572	2117.37
563.997	2130.52
564.421	2137.79
564.846	2139.29
565.27	2145.6
565.694	2144.6
566.118	2160.23
566.542	2169.88
566.966	2162.93
567.39	2157.51
567.814	2145.37
568.238	2145.23
568.662	2151.42
569.086	2156.34
569.509	2166.12
569.933	2149.29
570.357	2142.05
570.78	2118.36
571.204	2102.99
571.627	2091.89
572.05	2091.19
572.474	2091.95
572.897	2078.6
573.32	2071.37
573.743	2060.61
574.166	2039.64
574.589	2041.28
575.012	2031.5
575.435	2029.73
575.858	2020.42
576.281	2006.94
576.704	1988.19
577.126	1973.8
577.549	1961.38
577.972	1949.28
578.394	1936.91
578.817	1927.72
579.239	1904.34
579.661	1889.55
580.084	1871.33
580.506	1856.39
580.928	1852.69
581.35	1840.13
581.772	1834.51
582.194	1818.06
582.616	1802.79
583.038	1786.63
583.46	1775.15
583.882	1772.82
584.303	1777.78
584.725	1772.66
585.147	1773.06
585.568	1785.95
585.99	1800.28
586.411	1809.24
586.833	1826.56
587.254	1829.04
587.675	1844.6
588.096	1859.21
588.518	1851.47
588.939	1831.39
589.36	1829.44
589.781	1819.43
590.202	1784.31
590.623	1773.85
591.043	1771.16
591.464	1757.48
591.885	1752.87
592.305	1746.44
592.726	1730.24
593.147	1732.98
593.567	1726.51
593.987	1717.48
594.408	1711.28
594.828	1710.17
595.248	1703.87
595.669	1681.39
596.089	1672.78
596.509	1665.75
596.929	1650.02
597.349	1650.84
597.769	1638.45
598.189	1631.94
598.608	1634.15
599.028	1635.31
599.448	1635.74
599.867	1621.11
600.287	1616.39
600.706	1611.98
601.126	1599.89
601.545	1599.57
601.965	1597.9
602.384	1591.68
602.803	1594.99
603.222	1588.41
603.641	1580.14
604.061	1574.42
604.48	1569.62
604.898	1578.94
605.317	1583.91
605.736	1586.33
606.155	1581.5
606.574	1571.28
606.992	1576.13
607.411	1569.07
607.829	1558.85
608.248	1555.69
608.666	1552.68
609.085	1550.48
609.503	1538.31
609.921	1530.41
610.339	1531.15
610.758	1529.69
611.176	1523.05
611.594	1511.01
612.012	1506.17
612.43	1508.84
612.847	1513.77
613.265	1513.3
613.683	1516.81
614.101	1518.02
614.518	1511.96
614.936	1499.52
615.353	1481.94
615.771	1476.2
616.188	1476.56
616.606	1471.04
617.023	1462.22
617.44	1445.75
617.857	1437.08
618.274	1426.94
618.691	1418.9
619.108	1407.61
619.525	1400.62
619.942	1406.83
620.359	1408.88
620.776	1402.04
621.192	1397.74
621.609	1394.67
622.026	1401.93
622.442	1408.7
622.859	1411.93
623.275	1402.96
623.691	1407.62
624.108	1419.78
624.524	1434.03
624.94	1433.74
625.356	1445.08
625.772	1460.05
626.188	1473.58
626.604	1474.64
627.02	1470.24
627.436	1467.15
627.852	1475.52
628.268	1489.36
628.683	1478.62
629.099	1469.93
629.514	1464.85
629.93	1467.95
630.345	1472.71
630.761	1466.96
631.176	1470.69
631.591	1462.42
632.007	1455.55
632.422	1452.29
632.837	1440.12
633.252	1436.77
633.667	1424.97
634.082	1413.57
634.497	1398.5
634.911	1375.63
635.326	1371.32
635.741	1351.44
636.155	1341.03
636.57	1341.05
636.984	1341.58
637.399	1342.63
637.813	1342.19
638.228	1340.28
638.642	1344.67
639.056	1331.97
639.47	1330.75
639.884	1320.52
640.298	1311.75
640.712	1307.8
641.126	1292.88
641.54	1279.22
641.954	1270.25
642.368	1253.67
642.781	1242.22
643.195	1220.6
643.609	1219.2
644.022	1209.85
644.436	1202.09
644.849	1186.08
645.262	1170.74
645.676	1169.65
646.089	1162.76
646.502	1142.83
646.915	1134.2
647.328	1112.13
647.741	1105.49
648.154	1087.67
648.567	1081.52
648.98	1063.88
649.393	1060.09
649.805	1051.67
650.218	1040.34
650.631	1019.68
651.043	1011.26
651.456	1001.96
651.868	999.48
652.28	1014.18
652.693	1024.84
653.105	1027.11
653.517	1033.64
653.929	1030.88
654.341	1032.91
654.753	1016.86
655.165	1019.41
655.577	1012.71
655.989	1003.25
656.401	991.21
656.813	950.68
657.224	925.66
657.636	893.18
658.047	870.31
658.459	845.97
658.87	831.42
659.282	813.69
659.693	788.3
660.104	768.15
660.515	749.41
660.926	742.33
661.338	733.63
661.749	721.81
662.159	707.06
662.57	696.75
662.981	686.8
663.392	674.27
663.803	671.45
664.213	663.19
664.624	653
665.035	649.04
665.445	629.92
665.855	617.71
666.266	605.3
666.676	597.85
667.086	585.83
667.497	580.8
667.907	571.62
668.317	560.39
668.727	555.27
669.137	551.63
669.547	546.54
669.956	545.44
670.366	544.49
670.776	544.1
671.186	544.84
671.595	544.51
672.005	543.92
672.414	542.01
672.824	539.62
673.233	539.87
673.642	539.45
674.052	541.12
674.461	542.42
674.87	544
675.279	541.78
675.688	541.27
676.097	542.62
676.506	540.57
676.915	549.65
677.323	551.93
677.732	550.27
678.141	552.28
678.549	546.22
678.958	546.35
679.366	547.86
679.775	552.18
680.183	563.16
680.592	570.52
681	578.44
681.408	578.67
681.816	589.65
682.224	601.47
682.632	616.01
683.04	645.07
683.448	670.8
683.856	704.88
684.264	742.66
684.671	780.15
685.079	823.71
685.487	873.53
685.894	939.57
686.302	998.05
686.709	1051.37
687.116	1112.9
687.524	1168.37
687.931	1219.41
688.338	1262.3
688.745	1303.03
689.152	1345.48
689.559	1400.99
689.966	1454.84
690.373	1488.61
690.78	1540.9
691.187	1615.35
691.593	1671.47
692	1721.89
692.407	1793.13
692.813	1880.05
693.22	1950.41
693.626	2022.4
694.032	2080.36
694.439	2164.46
694.845	2228.58
695.251	2309.93
695.657	2380.61
696.063	2486.77
696.469	2564.66
696.875	2637.93
697.281	2676.88
697.687	2723.95
698.093	2764.97
698.498	2842.92
