Data from N_2_DIV_OH_2N_Splice17_12-21-56-564.txt Node
Date: Sat Mar 14 12:21:56 EDT 2020
User: sa697716
Spectrometer: FLMS03696
Trigger mode: 0
Integration Time (sec): 3.180400E-1
Scans to average: 20
Electric dark correction enabled: true
Nonlinearity correction enabled: true
Boxcar width: 5
XAxis mode: Wavelengths
Number of Pixels in Spectrum: 2048
>>>>>Begin Spectral Data<<<<<
187.83	-284912.81
188.298	2020.42
188.766	1109.78
189.233	965.43
189.701	1373.64
190.169	1914.83
190.636	774.08
191.104	628.9
191.571	110.48
192.039	-43.62
192.506	-63.79
192.974	524.1
193.441	-935.91
193.908	-320.45
194.375	-102.55
194.842	1.9
195.31	83.46
195.777	177.57
196.244	394.38
196.711	526.31
197.177	670.03
197.644	990.18
198.111	1747.87
198.578	2427.01
199.045	1949.4
199.511	3164.69
199.978	3652.62
200.445	3102.15
200.911	3443.52
201.378	3877.68
201.844	3501.53
202.31	6008.51
202.777	6219.62
203.243	3444.23
203.709	3272.53
204.176	3900.59
204.642	3226.24
205.108	3030.45
205.574	2474.33
206.04	2256.51
206.506	2103.02
206.972	1979.06
207.438	1901.37
207.903	2165.77
208.369	1894.46
208.835	1883.64
209.301	1955.65
209.766	1981.27
210.232	1960.02
210.697	2425.53
211.163	2980.09
211.628	4488.74
212.094	3754.88
212.559	4579.28
213.024	2846.05
213.49	3459.84
213.955	3395.67
214.42	3324.58
214.885	3108.97
215.35	2963.58
215.815	2827.16
216.28	2991.79
216.745	2406.75
217.21	2593.18
217.675	2350.48
218.14	2593.07
218.604	2851.82
219.069	3223.11
219.534	3349.15
219.998	3842.76
220.463	4603.01
220.927	5605.18
221.392	5234.82
221.856	5287.15
222.32	6600.69
222.785	8145.96
223.249	10206.2
223.713	11343.38
224.177	11274.93
224.642	14389.12
225.106	17660.24
225.57	19311.43
226.034	14345.5
226.497	21794
226.961	19607.31
227.425	22783.49
227.889	25160.51
228.353	25140.37
228.816	51926.2
229.28	49570.56
229.744	41756.52
230.207	25321.86
230.671	24825.5
231.134	40953.67
231.597	47158.73
232.061	47113.25
232.524	45895.89
232.987	31545.97
233.45	28358.16
233.914	25406.9
234.377	25999.65
234.84	23776.7
235.303	28030.18
235.766	31281.39
236.229	32280.88
236.691	20314.12
237.154	22827.82
237.617	17178.43
238.08	17611.04
238.542	20608.32
239.005	14718.55
239.468	14605.4
239.93	13768.7
240.393	12510.17
240.855	10983.78
241.317	11237.93
241.78	13664.65
242.242	14128.69
242.704	15257.77
243.166	13271.53
243.629	12061.17
244.091	13901.22
244.553	15229.52
245.015	16336.08
245.477	21125.99
245.939	30928.39
246.4	32876.62
246.862	31903.15
247.324	29991.8
247.786	33478.94
248.247	43867.91
248.709	45152.16
249.17	33699.58
249.632	31737.68
250.093	36771.1
250.555	31709.96
251.016	19308.28
251.477	18251.55
251.939	19675.18
252.4	20642.1
252.861	24533.14
253.322	22784.5
253.783	27077.69
254.244	35082.51
254.705	27642.01
255.166	24552.76
255.627	24138.8
256.088	34009.89
256.549	36087.18
257.009	31078.87
257.47	37665.04
257.931	30613.57
258.391	22938.18
258.852	23646.77
259.312	24759.08
259.773	30527.32
260.233	25777.34
260.694	21726.32
261.154	24606.29
261.614	19772.77
262.074	17656.79
262.534	18318.88
262.994	17275
263.455	22956.36
263.915	19326.64
264.374	18207.81
264.834	19833.9
265.294	21957.6
265.754	22711.83
266.214	21469.84
266.673	20080.33
267.133	25309.04
267.593	25077.36
268.052	30631.92
268.512	26643.82
268.971	32089.69
269.431	35109.01
269.89	31423.79
270.349	47128.08
270.809	52537.43
271.268	47195.51
271.727	105707.15
272.186	68376.78
272.645	51241.82
273.104	36939.73
273.563	53471.82
274.022	42013.01
274.481	35757.94
274.94	27578.37
275.399	20463.02
275.857	23804.08
276.316	32223.21
276.775	28684.76
277.233	28293.48
277.692	26501.09
278.15	29986.2
278.609	30840.09
279.067	28541.07
279.525	26520.28
279.984	34217.72
280.442	41122.46
280.9	40616.4
281.358	26683.62
281.816	24886.98
282.274	24356.77
282.732	25192.66
283.19	25359.66
283.648	21922.74
284.106	23384.28
284.564	23800.81
285.021	22122.74
285.479	16505.3
285.937	15018.47
286.394	13221.01
286.852	13620.11
287.309	14326.58
287.767	13863.94
288.224	13164.68
288.682	14432.54
289.139	15838.13
289.596	14484.35
290.053	15026.17
290.511	18938.05
290.968	22935.09
291.425	31084.59
291.882	25832.6
292.339	22461.82
292.796	22256.82
293.252	20976.97
293.709	16654.77
294.166	14932.97
294.623	16494.86
295.079	15838.88
295.536	15932.74
295.992	14468.3
296.449	14299.67
296.905	14851.61
297.362	14244.52
297.818	14969.35
298.274	15529.36
298.731	15826.42
299.187	15662.8
299.643	16794.58
300.099	20310.59
300.555	22250.71
301.011	18595.56
301.467	17946.7
301.923	21018.63
302.379	20575.89
302.835	20223.83
303.291	20248.03
303.746	23059.13
304.202	29095.32
304.658	29258.22
305.113	19696.55
305.569	19316.21
306.024	20621.45
306.479	19594.25
306.935	16533.27
307.39	18030.12
307.845	16675.22
308.301	16803.52
308.756	16381.87
309.211	15801.85
309.666	16202.44
310.121	20110.84
310.576	20417.07
311.031	20235
311.486	23244.79
311.94	23246.18
312.395	31100.31
312.85	58388.46
313.305	286807.26
313.759	1485196.58
314.214	107757.12
314.668	85450.02
315.123	71838.63
315.577	25809.56
316.032	22958.9
316.486	28765.84
316.94	22724.45
317.394	15838.27
317.849	12305.66
318.303	11652.38
318.757	10984.34
319.211	12146.18
319.665	10622.17
320.119	10741.87
320.572	15358.17
321.026	14359.72
321.48	11926.23
321.934	12990.09
322.387	12991.55
322.841	14037.37
323.295	12620.87
323.748	14548.78
324.202	14756.82
324.655	17732.12
325.108	24830.8
325.562	17586.15
326.015	20925.04
326.468	15840.34
326.921	17712.14
327.374	16523.82
327.827	17238.4
328.28	19509.29
328.733	13088.4
329.186	11504.25
329.639	10975.49
330.092	9252.79
330.545	8811.09
330.997	8888.59
331.45	9729.66
331.903	11414.06
332.355	19662.49
332.808	19088.83
333.26	15792.14
333.713	17159.45
334.165	17298.86
334.617	23131.8
335.069	18674.91
335.522	33777.96
335.974	37324.18
336.426	34150.91
336.878	23689.05
337.33	12010.17
337.782	11742.83
338.234	14681.9
338.686	17557.31
339.137	20788.98
339.589	19521.27
340.041	15322.93
340.493	13185.23
340.944	13524.41
341.396	14547.1
341.847	12232.07
342.299	14457.2
342.75	17609.08
343.201	15387.69
343.653	17660.76
344.104	21733.37
344.555	17120.86
345.006	26561.93
345.457	20329.16
345.908	16144.44
346.359	15187.02
346.81	12336.27
347.261	12967.23
347.712	12783.63
348.163	13698.73
348.613	13908.74
349.064	12967.28
349.515	11333.53
349.965	11649.71
350.416	14026.06
350.866	15418.99
351.317	17395.65
351.767	28835.42
352.217	36521.56
352.668	30320.15
353.118	27765.15
353.568	26717.73
354.018	21134.13
354.468	22336.08
354.918	16029.05
355.368	14030.5
355.818	19792
356.268	57054.96
356.718	239353.9
357.168	59553.7
357.617	29895.65
358.067	33271.44
358.517	31183.84
358.966	36622.72
359.416	41069.26
359.865	44427.1
360.315	52990.54
360.764	24775.21
361.213	13886.32
361.663	13130.33
362.112	16224.52
362.561	26195.62
363.01	19768.78
363.459	16690.59
363.908	18100.95
364.357	15406.95
364.806	25958.15
365.255	17867.86
365.703	16413.9
366.152	16468.18
366.601	13392.5
367.05	10891.96
367.498	9937.19
367.947	10402.74
368.395	10809.81
368.844	9581.11
369.292	11560.88
369.74	8024.48
370.189	12298.03
370.637	14419.8
371.085	12473.12
371.533	15184.53
371.981	14655.93
372.429	14009.04
372.877	14642.18
373.325	12297.22
373.773	12567.22
374.221	11216.94
374.669	13961.26
375.116	12101.95
375.564	12241.33
376.012	13744.04
376.459	11412.39
376.907	13702.59
377.354	16634.17
377.801	15569.51
378.249	17980.14
378.696	23090.14
379.143	28135.96
379.591	30134.95
380.038	51282
380.485	37290.18
380.932	40438.66
381.379	37217.8
381.826	27526.35
382.273	19636.47
382.72	17229.5
383.166	16889.89
383.613	11006.65
384.06	9968.94
384.506	11594.38
384.953	8546.57
385.4	8652.21
385.846	7607.31
386.292	7421.96
386.739	7294.42
387.185	7247.46
387.631	7304.88
388.078	7117.43
388.524	7645.93
388.97	7099.32
389.416	5944.19
389.862	6340.99
390.308	6024.8
390.754	6146.12
391.2	6713.79
391.645	6896.97
392.091	6616.49
392.537	6411.72
392.983	6447.5
393.428	6372.13
393.874	6846.25
394.319	6895.63
394.765	6573.33
395.21	6777.04
395.655	6378.4
396.101	5986.29
396.546	5416.18
396.991	5477.63
397.436	5105.72
397.881	4939.04
398.326	4680.26
398.771	4427.77
399.216	3869.33
399.661	3488.18
400.106	3479.96
400.551	3560.02
400.995	3195.67
401.44	3160.37
401.885	2970.43
402.329	2992.17
402.774	2866.69
403.218	2766.63
403.663	2663.32
404.107	2736.42
404.551	2751.15
404.995	2514.5
405.44	2420.19
405.884	2449.04
406.328	2364.99
406.772	2354.7
407.216	2140.4
407.66	2066.47
408.104	1957.27
408.547	1830.42
408.991	1766.84
409.435	1695.51
409.879	1673.61
410.322	1647.49
410.766	1588.1
411.209	1507.44
411.653	1446.24
412.096	1415.02
412.54	1410.3
412.983	1404.01
413.426	1405.74
413.869	1404.33
414.312	1380.89
414.756	1329.63
415.199	1269.5
415.642	1232.18
416.085	1235.49
416.527	1223.87
416.97	1243.23
417.413	1182.97
417.856	1169.27
418.298	1157.89
418.741	1149.18
419.184	1142.57
419.626	1185.44
420.069	1184.65
420.511	1190.32
420.953	1161.91
421.396	1150.71
421.838	1119.35
422.28	1143.05
422.722	1147.88
423.164	1161.72
423.606	1142
424.048	1138.72
424.49	1082
424.932	1075.79
425.374	1062.16
425.816	1081.17
426.258	1102.14
426.699	1115.52
427.141	1098.46
427.582	1113.17
428.024	1107.6
428.465	1101.43
428.907	1075.22
429.348	1062.29
429.789	1062.42
430.231	1040.07
430.672	1053.41
431.113	1028.58
431.554	1012.71
431.995	988.21
432.436	955.63
432.877	935.56
433.318	921.01
433.759	917.8
434.2	920.26
434.64	911.44
435.081	914.12
435.522	867.69
435.962	837.38
436.403	819.23
436.843	831.46
437.284	814.19
437.724	792.98
438.164	795.8
438.604	778.86
439.045	750.05
439.485	719.23
439.925	704.17
440.365	687.74
440.805	679.21
441.245	672.95
441.685	648.7
442.125	644.43
442.564	649.46
443.004	635.57
443.444	634.95
443.883	636.93
444.323	633.95
444.762	637.31
445.202	646.58
445.641	659.52
446.081	656.93
446.52	663.64
446.959	658.91
447.398	645.55
447.837	639.74
448.276	630.42
448.716	636.61
449.154	642.71
449.593	628.93
450.032	628.58
450.471	617.06
450.91	618.63
451.349	618.95
451.787	615.92
452.226	624.65
452.664	624.96
453.103	625.96
453.541	627.01
453.98	627.01
454.418	630.62
454.856	620.78
455.295	621.03
455.733	627.22
456.171	629.57
456.609	631.75
457.047	631.86
457.485	640.97
457.923	641.87
458.361	632.83
458.798	634.1
459.236	632.32
459.674	636.61
460.111	639.62
460.549	632.32
460.987	629.22
461.424	627.61
461.862	624.86
462.299	614.51
462.736	614.49
463.173	615.24
463.611	609.4
464.048	608.8
464.485	613.35
464.922	606.98
465.359	604.04
465.796	598.42
466.233	593.77
466.67	588.11
467.106	587.94
467.543	582.79
467.98	576.1
468.416	562.01
468.853	557.65
469.29	541.1
469.726	535.1
470.162	521.2
470.599	513.06
471.035	507.5
471.471	494.95
471.907	491.84
472.344	488.33
472.78	489.85
473.216	494.76
473.652	488.51
474.088	487.21
474.523	486.39
474.959	489.76
475.395	485.66
475.831	483.01
476.266	484.91
476.702	483.4
477.138	477.56
477.573	476.08
478.008	474.39
478.444	476.39
478.879	480.69
479.314	482.7
479.75	482.54
480.185	485.02
480.62	488.54
481.055	490.8
481.49	494.58
481.925	501.78
482.36	511.76
482.795	526.02
483.229	539.96
483.664	551.6
484.099	553.2
484.534	562.43
484.968	568.12
485.403	571.35
485.837	571.49
486.271	571.26
486.706	572.39
487.14	565.22
487.574	556.74
488.009	552.63
488.443	548.49
488.877	555.48
489.311	557.98
489.745	565.23
490.179	570.44
490.613	582.61
491.046	588.41
491.48	594.39
491.914	596.72
492.348	603.61
492.781	608.78
493.215	612.3
493.648	615.46
494.082	622.18
494.515	625.74
494.948	636.38
495.382	643.01
495.815	649.69
496.248	656.73
496.681	672.25
497.114	685.43
497.547	698.16
497.98	713.5
498.413	723.28
498.846	736.98
499.279	748.3
499.711	755.63
500.144	762.76
500.577	777.11
501.009	793.56
501.442	806.69
501.874	812.74
502.306	820.28
502.739	833.24
503.171	852.65
503.603	860.92
504.036	875.38
504.468	887.75
504.9	905.22
505.332	917.79
505.764	928.15
506.196	941.23
506.627	961.26
507.059	980.96
507.491	996.27
507.923	1000.26
508.354	1023.37
508.786	1041.83
509.217	1067.02
509.649	1088.69
510.08	1115.27
510.512	1139.29
510.943	1163.54
511.374	1183.77
511.805	1212.74
512.237	1240.42
512.668	1283.52
513.099	1320.04
513.53	1357.66
513.961	1386.14
514.391	1428.9
514.822	1472.46
515.253	1519.49
515.684	1553.12
516.114	1592.19
516.545	1623.22
516.975	1659.76
517.406	1686.64
517.836	1693.82
518.267	1705.03
518.697	1731.77
519.127	1740.99
519.558	1754.5
519.988	1762.82
520.418	1780.19
520.848	1805.09
521.278	1817.5
521.708	1824.41
522.138	1842.41
522.567	1884.3
522.997	1919.16
523.427	1940.02
523.857	1962.46
524.286	1978.65
524.716	1998.85
525.145	2023.03
525.575	2038.35
526.004	2058.42
526.433	2069.84
526.863	2071.65
527.292	2059.53
527.721	2068.05
528.15	2077.27
528.579	2080.53
529.008	2095.21
529.437	2126.57
529.866	2146.2
530.295	2169.69
530.724	2186.84
531.152	2221.77
531.581	2242.2
532.01	2266.77
532.438	2276.95
532.867	2297.47
533.295	2321.78
533.723	2330.42
534.152	2327.97
534.58	2328.45
535.008	2310.5
535.436	2314.17
535.865	2325.33
536.293	2344.01
536.721	2365.68
537.149	2401.15
537.576	2405.72
538.004	2423.56
538.432	2435.08
538.86	2434.61
539.287	2445.86
539.715	2463.69
540.143	2469.11
540.57	2466.24
540.998	2463.26
541.425	2433.63
541.852	2406.75
542.28	2404.37
542.707	2383.71
543.134	2366.42
543.561	2361.34
543.988	2351.77
544.415	2352.01
544.842	2345.31
545.269	2336.4
545.696	2337.73
546.123	2355.29
546.549	2343.03
546.976	2326.92
547.403	2326.23
547.829	2328.72
548.256	2332.12
548.682	2328.13
549.108	2317.73
549.535	2317.1
549.961	2319.26
550.387	2302.47
550.813	2293.81
551.24	2300.58
551.666	2301.59
552.092	2290.72
552.518	2281.93
552.943	2272.95
553.369	2282.46
553.795	2289.28
554.221	2290.23
554.646	2285.78
555.072	2299.44
555.498	2305.91
555.923	2317.23
556.349	2337
556.774	2346.94
557.199	2348.43
557.625	2357.33
558.05	2348.55
558.475	2362.58
558.9	2360.03
559.325	2349.23
559.75	2341.19
560.175	2331.77
560.6	2322.99
561.025	2320.16
561.449	2321.2
561.874	2327.94
562.299	2332.46
562.723	2341.04
563.148	2328.98
563.572	2334.56
563.997	2347.29
564.421	2353.67
564.846	2355.2
565.27	2361.63
565.694	2357.92
566.118	2372.57
566.542	2382.42
566.966	2374.31
567.39	2368.35
567.814	2352.5
568.238	2352.76
568.662	2360.22
569.086	2364.06
569.509	2374.55
569.933	2351.95
570.357	2343.13
570.78	2316.86
571.204	2300.09
571.627	2285.71
572.05	2282.34
572.474	2282.31
572.897	2264.07
573.32	2252.34
573.743	2238.68
574.166	2213.55
574.589	2213.89
575.012	2203.16
575.435	2199.82
575.858	2187.1
576.281	2173
576.704	2153.5
577.126	2137.83
577.549	2124.8
577.972	2113.6
578.394	2099.15
578.817	2089.39
579.239	2066.09
579.661	2048.18
580.084	2028.21
580.506	2010.42
580.928	2005.05
581.35	1990.84
581.772	1984.05
582.194	1966.7
582.616	1948.8
583.038	1930.55
583.46	1916.78
583.882	1911.77
584.303	1917.3
584.725	1911.35
585.147	1913.08
585.568	1925.11
585.99	1938.82
586.411	1946.74
586.833	1963.2
587.254	1965.04
587.675	1983.29
588.096	1998.27
588.518	1991.2
588.939	1967.77
589.36	1964.09
589.781	1950.85
590.202	1913.44
590.623	1901.91
591.043	1897.79
591.464	1882.22
591.885	1876.32
592.305	1868.76
592.726	1851.86
593.147	1852.05
593.567	1845.37
593.987	1836.24
594.408	1828.59
594.828	1826.88
595.248	1819.62
595.669	1796.35
596.089	1787.1
596.509	1777.94
596.929	1759.94
597.349	1759.71
597.769	1746.53
598.189	1739.6
598.608	1739.89
599.028	1742.46
599.448	1741.36
599.867	1724.5
600.287	1719.1
600.706	1712.86
601.126	1700.27
601.545	1698.31
601.965	1696.05
602.384	1689.73
602.803	1692.41
603.222	1685.97
603.641	1677.44
604.061	1672.57
604.48	1667.15
604.898	1675.13
605.317	1680.85
605.736	1684.04
606.155	1679.01
606.574	1667.63
606.992	1674.55
607.411	1667.46
607.829	1657.11
608.248	1652.07
608.666	1648.01
609.085	1646.72
609.503	1636.41
609.921	1628.29
610.339	1629.16
610.758	1628.16
611.176	1621.46
611.594	1607.94
612.012	1602.75
612.43	1605.73
612.847	1611.98
613.265	1612.53
613.683	1616.27
614.101	1617.57
614.518	1611.63
614.936	1598.5
615.353	1580.47
615.771	1575.69
616.188	1575.1
616.606	1570.38
617.023	1561.37
617.44	1544.33
617.857	1537.22
618.274	1527.07
618.691	1519.29
619.108	1507.58
619.525	1499.68
619.942	1506.09
620.359	1509.59
620.776	1503.83
621.192	1498.86
621.609	1495.17
622.026	1503.57
622.442	1509.28
622.859	1512.4
623.275	1502.34
623.691	1509.22
624.108	1522.39
624.524	1540.13
624.94	1539.94
625.356	1552.08
625.772	1566.84
626.188	1580.92
626.604	1582.66
627.02	1577.41
627.436	1575.25
627.852	1582.62
628.268	1596.58
628.683	1585.98
629.099	1575.12
629.514	1568.59
629.93	1571.54
630.345	1576.99
630.761	1572.58
631.176	1575.9
631.591	1568.16
632.007	1558.97
632.422	1557.1
632.837	1542.09
633.252	1536.92
633.667	1522.02
634.082	1508.71
634.497	1492.36
634.911	1465.21
635.326	1457.93
635.741	1434.38
636.155	1420.36
636.57	1418.83
636.984	1414.69
637.399	1413.54
637.813	1409.44
638.228	1405.22
638.642	1406.52
639.056	1390.31
639.47	1386.91
639.884	1371.95
640.298	1360.28
640.712	1352.84
641.126	1333.97
641.54	1317.22
641.954	1305.28
642.368	1286.69
642.781	1273.01
643.195	1248.84
643.609	1243.64
644.022	1232.33
644.436	1223.75
644.849	1204.92
645.262	1186.98
645.676	1185.14
646.089	1177.45
646.502	1156.66
646.915	1147.93
647.328	1125.46
647.741	1119.04
648.154	1101.47
648.567	1094.49
648.98	1076.94
649.393	1074.43
649.805	1068.49
650.218	1056.96
650.631	1038.45
651.043	1030.36
651.456	1021.54
651.868	1020.17
652.28	1035.83
652.693	1048.43
653.105	1054.08
653.517	1061.26
653.929	1061.07
654.341	1065.41
654.753	1050.83
655.165	1055.42
655.577	1050.98
655.989	1044.08
656.401	1032.77
656.813	994.18
657.224	971.44
657.636	939.95
658.047	920.78
658.459	897.88
658.87	884.92
659.282	870.64
659.693	846.43
660.104	829.08
660.515	812.71
660.926	809.13
661.338	803.33
661.749	793.31
662.159	781.24
662.57	771.87
662.981	763.58
663.392	752.97
663.803	753.47
664.213	746.55
664.624	738.22
665.035	737.62
665.445	719.98
665.855	709.23
666.266	699.27
666.676	693.79
667.086	683.43
667.497	680.03
667.907	672.2
668.317	661.5
668.727	658.29
669.137	657.04
669.547	652.9
669.956	653.56
670.366	653.53
670.776	653.4
671.186	655.89
671.595	657.83
672.005	659.6
672.414	659.58
672.824	658.56
673.233	661.71
673.642	664.42
674.052	666.76
674.461	669.41
674.87	673.3
675.279	671.63
675.688	672.64
676.097	675.67
676.506	674
676.915	687.61
677.323	691.89
677.732	690.82
678.141	691.35
678.549	684.12
678.958	686.18
679.366	688.88
679.775	696.01
680.183	710.89
680.592	718.33
681	727.26
681.408	724.79
681.816	734.79
682.224	748.38
682.632	764.29
683.04	797.71
683.448	826.79
683.856	863.86
684.264	906.22
684.671	944.62
685.079	995.64
685.487	1051.65
685.894	1126.01
686.302	1191.83
686.709	1249.16
687.116	1314.79
687.524	1374.65
687.931	1427.29
688.338	1476.25
688.745	1521.38
689.152	1572.23
689.559	1631.98
689.966	1693.67
690.373	1732.42
690.78	1791.3
691.187	1877.58
691.593	1945.71
692	2005.97
692.407	2092.6
692.813	2192.67
693.22	2274.88
693.626	2360.03
694.032	2429.38
694.439	2530.79
694.845	2608.84
695.251	2709
695.657	2796.47
696.063	2926.72
696.469	3023.93
696.875	3113.66
697.281	3166.46
