Data from N_2_DIV_IL_4N_Splice17_12-35-29-847.txt Node
Date: Sat Mar 14 12:35:29 EDT 2020
User: sa697716
Spectrometer: FLMS03696
Trigger mode: 0
Integration Time (sec): 3.180400E-1
Scans to average: 20
Electric dark correction enabled: true
Nonlinearity correction enabled: true
Boxcar width: 5
XAxis mode: Wavelengths
Number of Pixels in Spectrum: 2048
>>>>>Begin Spectral Data<<<<<
187.83	-312206.65
188.298	2246.05
188.766	1249.86
189.233	1112.51
189.701	1555.35
190.169	2214.2
190.636	816.74
191.104	695.29
191.571	93.22
192.039	-91.95
192.506	-176.33
192.974	284.44
193.441	-538.74
193.908	63.7
194.375	4.79
194.842	6.74
195.31	74.2
195.777	146.47
196.244	389.31
196.711	447.18
197.177	553.79
197.644	787.74
198.111	1393.32
198.578	1988.85
199.045	1578.15
199.511	2592.56
199.978	3044.84
200.445	2593.04
200.911	2863.62
201.378	3181.45
201.844	2894.1
202.31	4948.5
202.777	5169.98
203.243	2858.19
203.709	2695.31
204.176	3223.92
204.642	2684.78
205.108	2532.02
205.574	2068.4
206.04	1884.28
206.506	1758.36
206.972	1654.5
207.438	1598.32
207.903	1797.08
208.369	1577.55
208.835	1579.13
209.301	1653.48
209.766	1686.69
210.232	1661.28
210.697	2059.06
211.163	2566.31
211.628	3927.27
212.094	3331.87
212.559	4167.75
213.024	2631.78
213.49	3224.45
213.955	3170.27
214.42	3123.05
214.885	2905.64
215.35	2816.65
215.815	2749.52
216.28	2928.65
216.745	2402.78
217.21	2608.23
217.675	2413.84
218.14	2755.78
218.604	3137.23
219.069	3654.85
219.534	3900.85
219.998	4612.1
220.463	5674.68
220.927	7098.33
221.392	6778.71
221.856	6936.73
222.32	8868.7
222.785	11034.78
223.249	14015.4
223.713	15786.4
224.177	15874.54
224.642	20474.25
225.106	25346.88
225.57	27814.77
226.034	20710.31
226.497	31649.85
226.961	28640.91
227.425	33417.16
227.889	37247.99
228.353	37326.06
228.816	77167.42
229.28	74041.38
229.744	62649.02
230.207	38136.89
230.671	37623.37
231.134	62474.15
231.597	72077.39
232.061	72301.55
232.524	70745.87
232.987	48801.35
233.45	44003.35
233.914	39542.86
234.377	40625.68
234.84	37217.79
235.303	43976.07
235.766	49141.08
236.229	50827.4
236.691	32065.19
237.154	36053.51
237.617	27143.78
238.08	27841.82
238.542	32619
239.005	23346.32
239.468	23148.11
239.93	21841.71
240.393	19881.7
240.855	17444.97
241.317	17892.78
241.78	21796.35
242.242	22556.41
242.704	24342.64
243.166	21209.81
243.629	19262.53
244.091	22201.76
244.553	24353.9
245.015	26173.5
245.477	33859.21
245.939	49711.61
246.4	52783.41
246.862	51369.62
247.324	48472.47
247.786	54326.27
248.247	71180.75
248.709	73609.3
249.17	55089.93
249.632	51967.38
250.093	60305.79
250.555	52104.7
251.016	31780.67
251.477	30146.89
251.939	32512.58
252.4	34100.77
252.861	40567.48
253.322	37754.78
253.783	44934.65
254.244	58281.08
254.705	45942.66
255.166	40881.24
255.627	40253.14
256.088	56793.92
256.549	60348.5
257.009	52018.64
257.47	63176.53
257.931	51417.24
258.391	38502.48
258.852	39699.83
259.312	41606.15
259.773	51388.03
260.233	43416.37
260.694	36613.44
261.154	41527.71
261.614	33297.92
262.074	29756.66
262.534	30906.42
262.994	29112.59
263.455	38780.94
263.915	32655.31
264.374	30784.86
264.834	33594.48
265.294	37205.74
265.754	38530.08
266.214	36457.67
266.673	34161.63
267.133	43124.51
267.593	42765.95
268.052	52304.94
268.512	45494.47
268.971	54810.45
269.431	60040.03
269.89	53769.45
270.349	80641.9
270.809	89867.95
271.268	80789.27
271.727	181213.52
272.186	117329.72
272.645	87987.17
273.104	63483.32
273.563	91946.56
274.022	72321.42
274.481	61486.1
274.94	47393.75
275.399	35194.75
275.857	40973.81
276.316	55375.86
276.775	49254.42
277.233	48481.37
277.692	45357.59
278.15	51322.03
278.609	52734.05
279.067	48789.27
279.525	45317.35
279.984	58485.09
280.442	70237.53
280.9	69210.11
281.358	45525.03
281.816	42450.41
282.274	41564.79
282.732	42954.83
283.19	43179.56
283.648	37277.92
284.106	39719.97
284.564	40416.51
285.021	37468.57
285.479	27956.25
285.937	25441.95
286.394	22331.76
286.852	22988.43
287.309	24174.95
287.767	23347.78
288.224	22209.65
288.682	24396.66
289.139	26761.61
289.596	24499.39
290.053	25488.31
290.511	32195.82
290.968	39068.02
291.425	53065.26
291.882	44141.71
292.339	38431.49
292.796	38159.17
293.252	35987.5
293.709	28611.67
294.166	25683.52
294.623	28414.18
295.079	27269.92
295.536	27398.55
295.992	24868.74
296.449	24598.34
296.905	25585.88
297.362	24554.78
297.818	25852.15
298.274	26804.62
298.731	27320.56
299.187	27075.39
299.643	29080.92
300.099	35208.53
300.555	38663.39
301.011	32373.67
301.467	31238.95
301.923	36626.23
302.379	35778.2
302.835	35181.61
303.291	35240.87
303.746	40135.61
304.202	50721.4
304.658	50949.77
305.113	34288.1
305.569	33602.13
306.024	35818.75
306.479	34124.02
306.935	28755.1
307.39	31448.48
307.845	29038.78
308.301	29277.02
308.756	28548.8
309.211	27502.72
309.666	28183.95
310.121	34984.37
310.576	35504.77
311.031	35241.47
311.486	40358.44
311.94	40374.68
312.395	54000.97
312.85	101594.69
313.305	499330.06
313.759	2583681.13
314.214	187180.33
314.668	148599.04
315.123	124911.86
315.577	44785.02
316.032	39867.05
316.486	50001.98
316.94	39395.94
317.394	27421.98
317.849	21322.18
318.303	20190.96
318.757	19056.83
319.211	21094.72
319.665	18465.3
320.119	18706.23
320.572	26856.25
321.026	25100.09
321.48	20896.2
321.934	22819.86
322.387	22870.89
322.841	24717.38
323.295	22199.22
323.748	25611.28
324.202	25967.43
324.655	31157.61
325.108	43498.37
325.562	30733.52
326.015	36555.62
326.468	27638
326.921	30931.66
327.374	28876.55
327.827	30052.9
328.28	34034.14
328.733	22770.58
329.186	20055.86
329.639	19143.34
330.092	16160.64
330.545	15391.98
330.997	15497.45
331.45	16934.45
331.903	19828.06
332.355	34107.38
332.808	33164.33
333.26	27379.29
333.713	29773.52
334.165	29967.81
334.617	39987.9
335.069	32330.71
335.522	58472.39
335.974	64797.39
336.426	59259.87
336.878	41112.08
337.33	20825.96
337.782	20325.78
338.234	25446.05
338.686	30439.22
339.137	36077.43
339.589	33966.11
340.041	26598.03
340.493	22870.52
340.944	23435.33
341.396	25238.11
341.847	21204.6
342.299	25019.17
342.75	30534.61
343.201	26682.35
343.653	30710.67
344.104	37768.9
344.555	29718.91
345.006	46292.72
345.457	35432.32
345.908	28215.5
346.359	26535.46
346.81	21626.92
347.261	22839.31
347.712	22511.54
348.163	24134.21
348.613	24390.49
349.064	22787.95
349.515	19974.33
349.965	20503.29
350.416	24704.92
350.866	27067.01
351.317	30598.15
351.767	50633.79
352.217	63918.01
352.668	52992.74
353.118	48589.89
353.568	46913.78
354.018	37057.95
354.468	39074.97
354.918	27988.28
355.368	24482.53
355.818	34613.86
356.268	99632.54
356.718	417037.55
357.168	103824.94
357.617	52158.09
358.067	58043.94
358.517	54411.9
358.966	63785.02
359.416	71487.8
359.865	77327.26
360.315	92181.31
360.764	43135.9
361.213	24164.19
361.663	22926.95
362.112	28308.43
362.561	45810.21
363.01	34560.94
363.459	29076.68
363.908	31494.11
364.357	26772.68
364.806	45255.94
365.255	31115.96
365.703	28438.67
366.152	28507.57
366.601	23104.42
367.05	18746.05
367.498	17019.09
367.947	17785.69
368.395	18494.93
368.844	16360.6
369.292	19738.61
369.74	13633.53
370.189	20916.73
370.637	24519.45
371.085	21150.43
371.533	25743.94
371.981	24812.07
372.429	23601.25
372.877	24579.72
373.325	20573.91
373.773	20976.4
374.221	18659.8
374.669	23141.29
375.116	19959.25
375.564	20109.95
376.012	22511.48
376.459	18571.46
376.907	22223.74
377.354	26888.43
377.801	25072.28
378.249	28846.33
378.696	36860.7
379.143	44636.18
379.591	47679.56
380.038	80668.13
380.485	58346.62
380.932	63001.73
381.379	57574.61
381.826	42296.58
382.273	30065.02
382.72	26264.76
383.166	25556.75
383.613	16569.02
384.06	14915.61
384.506	17222.99
384.953	12640.11
385.4	12723.05
385.846	11132.1
386.292	10859.17
386.739	10637.55
387.185	10512.37
387.631	10516.22
388.078	10193.32
388.524	10911.15
388.97	10100.84
389.416	8417.38
389.862	8951.65
390.308	8461.47
390.754	8581.12
391.2	9305.34
391.645	9513.45
392.091	9087.3
392.537	8784.07
392.983	8804.62
393.428	8647.05
393.874	9255.85
394.319	9285.19
394.765	8790.27
395.21	9041.04
395.655	8486.27
396.101	7936.67
396.546	7155.43
396.991	7224.21
397.436	6698.52
397.881	6459.11
398.326	6109.74
398.771	5763.1
399.216	5032.34
399.661	4526.48
400.106	4500.2
400.551	4592.63
400.995	4109.84
401.44	4060.89
401.885	3812.73
402.329	3849.68
402.774	3691.39
403.218	3568.79
403.663	3441.11
404.107	3535.19
404.551	3558.8
404.995	3257.88
405.44	3136.87
405.884	3185.35
406.328	3078.83
406.772	3064.28
407.216	2788.24
407.66	2690.65
408.104	2555.09
408.547	2386.48
408.991	2305.4
409.435	2215.53
409.879	2186.18
410.322	2155.98
410.766	2079.72
411.209	1978.2
411.653	1898.68
412.096	1856.2
412.54	1854.82
412.983	1839.38
413.426	1841.39
413.869	1840.1
414.312	1803.14
414.756	1735.88
415.199	1653.22
415.642	1602.88
416.085	1602.4
416.527	1588.59
416.97	1612.11
417.413	1527.8
417.856	1511.61
418.298	1493.14
418.741	1481.43
419.184	1479.71
419.626	1539.43
420.069	1539.81
420.511	1547.34
420.953	1509.29
421.396	1493.54
421.838	1454.93
422.28	1487.6
422.722	1494.29
423.164	1517.46
423.606	1490.92
424.048	1485.32
424.49	1411.32
424.932	1401.75
425.374	1383.39
425.816	1410.89
426.258	1434.69
426.699	1450.79
427.141	1428.79
427.582	1450.26
428.024	1444.17
428.465	1437.46
428.907	1401.13
429.348	1384.27
429.789	1384.84
430.231	1356.03
430.672	1374.8
431.113	1345.78
431.554	1326.04
431.995	1294.72
432.436	1249.44
432.877	1221.13
433.318	1198.68
433.759	1195.46
434.2	1195.5
434.64	1183.86
435.081	1186.68
435.522	1123.22
435.962	1081.48
436.403	1058.38
436.843	1074.08
437.284	1049.31
437.724	1022.61
438.164	1025.35
438.604	999.92
439.045	961.68
439.485	922.93
439.925	902.95
440.365	881.28
440.805	869.65
441.245	858.7
441.685	825.3
442.125	820.55
442.564	823.94
443.004	804.63
443.444	805.27
443.883	806.47
444.323	799.75
444.762	800.95
445.202	812.25
445.641	827.52
446.081	823.03
446.52	830.75
446.959	821.6
447.398	802.26
447.837	793.57
448.276	779.11
448.716	786.39
449.154	794.12
449.593	776.57
450.032	771.02
450.471	756.66
450.91	758.19
451.349	757.93
451.787	755.15
452.226	767.3
452.664	766.64
453.103	768.22
453.541	767.63
453.98	766.05
454.418	770.49
454.856	759.33
455.295	758.56
455.733	762.56
456.171	765.15
456.609	765.69
457.047	764.93
457.485	776.79
457.923	777.95
458.361	767.31
458.798	770.49
459.236	768.34
459.674	774.88
460.111	778.13
460.549	771.15
460.987	769.23
461.424	767.41
461.862	764.09
462.299	753.14
462.736	752.97
463.173	756.3
463.611	747.27
464.048	745.81
464.485	752.43
464.922	745.32
465.359	741.07
465.796	732.23
466.233	726.3
466.67	718.44
467.106	714.23
467.543	706.75
467.98	696.46
468.416	677.52
468.853	672.71
469.29	651.81
469.726	644.58
470.162	628
470.599	618.24
471.035	612.5
471.471	597.9
471.907	595.17
472.344	591.32
472.78	592.27
473.216	599.72
473.652	591.47
474.088	589.58
474.523	587.76
474.959	592.65
475.395	587.21
475.831	583.57
476.266	586.21
476.702	584.27
477.138	577.53
477.573	576.73
478.008	575
478.444	577.76
478.879	583.09
479.314	584.45
479.75	584.11
480.185	587.28
480.62	592.7
481.055	596.3
481.49	600.87
481.925	609.42
482.36	619.72
482.795	636.49
483.229	652.64
483.664	665.65
484.099	668.92
484.534	679.66
484.968	685.71
485.403	687.38
485.837	686.02
486.271	684.65
486.706	686.13
487.14	677.73
487.574	667.09
488.009	661.3
488.443	655.23
488.877	662.02
489.311	663.97
489.745	671.43
490.179	678.05
490.613	691.24
491.046	696.12
491.48	700.06
491.914	700.74
492.348	705.41
492.781	709.66
493.215	711.33
493.648	711.73
494.082	716.47
494.515	716.25
494.948	722.94
495.382	727.48
495.815	732.43
496.248	737.97
496.681	750.96
497.114	761.93
497.547	771.51
497.98	784.13
498.413	790.26
498.846	798.87
499.279	806.97
499.711	811.55
500.144	812
500.577	821.49
501.009	831.68
501.442	839.45
501.874	839.97
502.306	840.37
502.739	847.57
503.171	861.63
503.603	864.31
504.036	873.44
504.468	877.63
504.9	888.07
505.332	894.01
505.764	896.95
506.196	904.29
506.627	917.79
507.059	931.41
507.491	939.79
507.923	937.14
508.354	951.74
508.786	961.16
509.217	978.8
509.649	993.19
510.08	1010.9
510.512	1026.69
510.943	1040.37
511.374	1051.17
511.805	1070.12
512.237	1087.56
512.668	1118.42
513.099	1144.65
513.53	1170.06
513.961	1189.35
514.391	1219.8
514.822	1251.59
515.253	1285.82
515.684	1309.66
516.114	1337.06
516.545	1357.2
516.975	1381.62
517.406	1398.51
517.836	1399.56
518.267	1405.67
518.697	1421.41
519.127	1424.08
519.558	1430.3
519.988	1433.01
520.418	1442.92
520.848	1460.34
521.278	1467.41
521.708	1476.01
522.138	1487.66
522.567	1518.15
522.997	1542.79
523.427	1558.08
523.857	1575.47
524.286	1585.51
524.716	1600.44
525.145	1618.47
525.575	1629.27
526.004	1643.54
526.433	1643.59
526.863	1642.44
527.292	1630.89
527.721	1636.17
528.15	1640.95
528.579	1640.83
529.008	1650.61
529.437	1672.14
529.866	1684.81
530.295	1700.7
530.724	1712.44
531.152	1739.31
531.581	1753.89
532.01	1771.66
532.438	1778.78
532.867	1792.58
533.295	1810.23
533.723	1816.37
534.152	1814.33
534.58	1814.17
535.008	1797.77
535.436	1800.12
535.865	1808.43
536.293	1821.77
536.721	1837.55
537.149	1863.2
537.576	1866.71
538.004	1879.77
538.432	1886.97
538.86	1885.06
539.287	1892.06
539.715	1907.17
540.143	1909.04
540.57	1904.81
540.998	1901.49
541.425	1877.99
541.852	1856.3
542.28	1854.13
542.707	1837.47
543.134	1822.66
543.561	1819.21
543.988	1811.46
544.415	1809.54
544.842	1804.25
545.269	1796.91
545.696	1798.47
546.123	1811.28
546.549	1800.53
546.976	1787.87
547.403	1787.09
547.829	1789.51
548.256	1789.86
548.682	1785.22
549.108	1777.32
549.535	1776.21
549.961	1777.63
550.387	1764.24
550.813	1758.79
551.24	1765.09
551.666	1765.84
552.092	1755.83
552.518	1749.49
552.943	1744.11
553.369	1752.59
553.795	1759.52
554.221	1760.28
554.646	1758.4
555.072	1770.15
555.498	1774.84
555.923	1784.97
556.349	1800.14
556.774	1808.73
557.199	1810.53
557.625	1816.67
558.05	1810.41
558.475	1820.25
558.9	1820.47
559.325	1812.54
559.75	1806.13
560.175	1800.74
560.6	1793.94
561.025	1791.07
561.449	1792.39
561.874	1797.33
562.299	1802.86
562.723	1809.74
563.148	1799.38
563.572	1802.9
563.997	1811.89
564.421	1817.21
564.846	1816.44
565.27	1819.53
565.694	1817.37
566.118	1829.12
566.542	1837.11
566.966	1830.4
567.39	1825.86
567.814	1813.97
568.238	1813.61
568.662	1817.64
569.086	1819.3
569.509	1826.8
569.933	1811.74
570.357	1805.19
570.78	1783.8
571.204	1769.61
571.627	1758.32
572.05	1756.37
572.474	1757.05
572.897	1743.89
573.32	1736.51
573.743	1726.7
574.166	1708.61
574.589	1708.29
575.012	1699.8
575.435	1699.6
575.858	1691.18
576.281	1679.29
576.704	1664
577.126	1651.57
577.549	1641.3
577.972	1631.91
578.394	1622.07
578.817	1614.97
579.239	1596.51
579.661	1583.64
580.084	1568.09
580.506	1555.55
580.928	1552
581.35	1540.41
581.772	1535.62
582.194	1521.44
582.616	1509.45
583.038	1495.21
583.46	1484.64
583.882	1482.31
584.303	1486.26
584.725	1481.08
585.147	1483.4
585.568	1494.31
585.99	1508.18
586.411	1515.68
586.833	1531.82
587.254	1533.51
587.675	1547.96
588.096	1560.74
588.518	1555.31
588.939	1539.34
589.36	1537.84
589.781	1527.18
590.202	1500.21
590.623	1489.76
591.043	1487.07
591.464	1474.93
591.885	1470.61
592.305	1466.03
592.726	1452.83
593.147	1453.91
593.567	1448.61
593.987	1441.22
594.408	1435.94
594.828	1433.51
595.248	1429.35
595.669	1411.76
596.089	1404.61
596.509	1398.89
596.929	1385.17
597.349	1385.35
597.769	1375.28
598.189	1369.55
598.608	1371.4
599.028	1374.2
599.448	1374.87
599.867	1361.49
600.287	1357.55
600.706	1353.18
601.126	1343.84
601.545	1342.86
601.965	1341.95
602.384	1338.07
602.803	1340.57
603.222	1335.77
603.641	1328.75
604.061	1325.48
604.48	1321.95
604.898	1329.78
605.317	1334.22
605.736	1335.99
606.155	1332.56
606.574	1323.86
606.992	1328.03
607.411	1323.85
607.829	1315.12
608.248	1312.38
608.666	1308.92
609.085	1307.27
609.503	1297.88
609.921	1292.24
610.339	1293.53
610.758	1292.02
611.176	1287.74
611.594	1279.44
612.012	1274.89
612.43	1278.39
612.847	1282.57
613.265	1282.79
613.683	1288.16
614.101	1288.87
614.518	1284.94
614.936	1274.42
615.353	1260.66
615.771	1256.25
616.188	1255.33
616.606	1251.99
617.023	1244.84
617.44	1232.18
617.857	1224.57
618.274	1214.68
618.691	1209.38
619.108	1199.68
619.525	1194.2
619.942	1200.85
620.359	1203.36
620.776	1198.56
621.192	1194.18
621.609	1192.46
622.026	1197.97
622.442	1203.7
622.859	1206.77
623.275	1199.94
623.691	1204.75
624.108	1216.17
624.524	1228.47
624.94	1228.7
625.356	1238.05
625.772	1250.98
626.188	1261.62
626.604	1263.26
627.02	1260.84
627.436	1260.41
627.852	1266.82
628.268	1279.51
628.683	1270.51
629.099	1262.91
629.514	1258
629.93	1261.53
630.345	1265.81
630.761	1261.76
631.176	1264.95
631.591	1258.51
632.007	1252.19
632.422	1250.2
632.837	1238.15
633.252	1236.11
633.667	1226.51
634.082	1218.25
634.497	1206
634.911	1187.28
635.326	1183.48
635.741	1168.44
636.155	1159.67
636.57	1161.36
636.984	1161.54
637.399	1164.63
637.813	1164.32
638.228	1164.1
638.642	1168.78
639.056	1160.65
639.47	1162.05
639.884	1155.86
640.298	1151.58
640.712	1150.66
641.126	1139.86
641.54	1132.91
641.954	1128.42
642.368	1118.53
642.781	1113.3
643.195	1098.27
643.609	1100.81
644.022	1097.75
644.436	1095.52
644.849	1084.05
645.262	1074.99
645.676	1077.86
646.089	1074.93
646.502	1061.67
646.915	1057.54
647.328	1041.17
647.741	1039.15
648.154	1024.73
648.567	1022.22
648.98	1009.09
649.393	1009.77
649.805	1007.02
650.218	999.58
650.631	983.55
651.043	977.27
651.456	972.07
651.868	972.23
652.28	989.25
652.693	1002.76
653.105	1007.25
653.517	1017.21
653.929	1017.79
654.341	1021.81
654.753	1009.13
655.165	1014.63
655.577	1012.45
655.989	1007.46
656.401	998.97
656.813	964.04
657.224	944.82
657.636	917.63
658.047	899.82
658.459	880.61
658.87	872.41
659.282	861.87
659.693	842.67
660.104	829.47
660.515	816.35
660.926	816.67
661.338	814.32
661.749	808.42
662.159	799.69
662.57	796.33
662.981	793.02
663.392	786.31
663.803	791.03
664.213	788.86
664.624	784.94
665.035	788.41
665.445	774.77
665.855	768.08
666.266	762.33
666.676	760.48
667.086	750.99
667.497	750.99
667.907	745.85
668.317	737.63
668.727	735.65
669.137	736.5
669.547	734.54
669.956	737.19
670.366	738.67
670.776	740.41
671.186	744.99
671.595	749.52
672.005	751.89
672.414	751.03
672.824	748.71
673.233	752.29
673.642	753.72
674.052	756.92
674.461	757.92
674.87	762.69
675.279	758.82
675.688	759.04
676.097	758.51
676.506	754.46
676.915	766.37
677.323	768.03
677.732	765.11
678.141	763.49
678.549	751.01
678.958	749.57
679.366	747.26
679.775	750.61
680.183	760.31
680.592	765.1
681	769.18
681.408	762.25
681.816	768.49
682.224	775.24
682.632	783.25
683.04	811.26
683.448	833.66
683.856	862.19
684.264	893.71
684.671	921.47
685.079	955.2
685.487	994.92
685.894	1050.27
686.302	1094.51
686.709	1129.7
687.116	1172.13
687.524	1204.13
687.931	1232.47
688.338	1253.79
688.745	1272.53
689.152	1293.41
689.559	1327.61
689.966	1360.31
690.373	1373.87
690.78	1404.63
691.187	1457.29
691.593	1494.91
692	1528.08
692.407	1579.34
692.813	1646.03
693.22	1696.46
693.626	1749.76
694.032	1793
694.439	1859.97
694.845	1911.97
695.251	1977.99
695.657	2037.4
696.063	2127.6
