Data from N_2_DEC_NC_4N_Splice17_12-25-00-594.txt Node
Date: Sat Mar 14 12:25:00 EDT 2020
User: sa697716
Spectrometer: FLMS03696
Trigger mode: 0
Integration Time (sec): 3.180400E-1
Scans to average: 20
Electric dark correction enabled: true
Nonlinearity correction enabled: true
Boxcar width: 5
XAxis mode: Wavelengths
Number of Pixels in Spectrum: 2048
>>>>>Begin Spectral Data<<<<<
187.83	-329490
188.298	2437.66
188.766	1304.47
189.233	1183.37
189.701	1723.32
190.169	2227.83
190.636	853.63
191.104	667.44
191.571	60.51
192.039	-80.29
192.506	-163.54
192.974	319.54
193.441	-407.54
193.908	-16.01
194.375	12.21
194.842	74.24
195.31	61.27
195.777	144.42
196.244	412.64
196.711	665.13
197.177	918.05
197.644	1375.28
198.111	2408.6
198.578	3378.2
199.045	2735.95
199.511	4491.71
199.978	5302.74
200.445	4444.81
200.911	4901.06
201.378	5480.28
201.844	4856.79
202.31	8240.91
202.777	8470.46
203.243	4659.36
203.709	4408.39
204.176	5188.13
204.642	4247.72
205.108	3927.04
205.574	3204.6
206.04	2944.15
206.506	2760.65
206.972	2612.26
207.438	2504.98
207.903	2852.9
208.369	2475.8
208.835	2442.66
209.301	2545.25
209.766	2595.52
210.232	2557.86
210.697	3135.47
211.163	3832.27
211.628	5726.23
212.094	4763.23
212.559	5757.09
213.024	3508.35
213.49	4235.62
213.955	4106.04
214.42	4001.43
214.885	3674.35
215.35	3485.05
215.815	3294.17
216.28	3443.8
216.745	2757.74
217.21	2880.2
217.675	2553.96
218.14	2774.94
218.604	2978.84
219.069	3233.74
219.534	3229.24
219.998	3584.51
220.463	4146.73
220.927	4898.78
221.392	4450.98
221.856	4369.04
222.32	5354.78
222.785	6452.4
223.249	7925.92
223.713	8637.77
224.177	8477.49
224.642	10676.06
225.106	12939.14
225.57	13941.62
226.034	10255.23
226.497	15422.97
226.961	13775.61
227.425	15888.18
227.889	17462.43
228.353	17269.08
228.816	35317.19
229.28	33596.37
229.744	28099.37
230.207	17034.18
230.671	16645.39
231.134	27297.82
231.597	31331.41
232.061	31101.13
232.524	30154.84
232.987	20651.62
233.45	18567.29
233.914	16579.43
234.377	16874.76
234.84	15400.43
235.303	18052.9
235.766	20118.72
236.229	20694.93
236.691	12973.34
237.154	14544.59
237.617	10922.99
238.08	11177.21
238.542	13044.27
239.005	9343.45
239.468	9278.7
239.93	8733
240.393	7933.53
240.855	6948.46
241.317	7094.56
241.78	8606.65
242.242	8895.2
242.704	9609.64
243.166	8358.62
243.629	7589.88
244.091	8716.65
244.553	9533.42
245.015	10224.52
245.477	13189.78
245.939	19298.05
246.4	20507.57
246.862	19884.45
247.324	18738.1
247.786	20903.16
248.247	27352.4
248.709	28137.29
249.17	21020.82
249.632	19863.29
250.093	23053.8
250.555	19896.88
251.016	12148.26
251.477	11497.76
251.939	12422.78
252.4	12991.64
252.861	15419.27
253.322	14347.82
253.783	17044.96
254.244	22124.89
254.705	17399.06
255.166	15448.58
255.627	15212.17
256.088	21427.07
256.549	22769.61
257.009	19591.66
257.47	23779.55
257.931	19374.93
258.391	14514.59
258.852	14991.99
259.312	15657.32
259.773	19263.48
260.233	16299.18
260.694	13744.4
261.154	15543.32
261.614	12485.59
262.074	11144.53
262.534	11565.9
262.994	10876.35
263.455	14432.09
263.915	12124.73
264.374	11407.38
264.834	12463.26
265.294	13766.8
265.754	14224.48
266.214	13441.06
266.673	12556.28
267.133	15813.37
267.593	15654.36
268.052	19126.01
268.512	16613.24
268.971	20028.93
269.431	21924.46
269.89	19556.83
270.349	29313.68
270.809	32661.71
271.268	29380.97
271.727	65797.94
272.186	42599.07
272.645	31940.71
273.104	23041.71
273.563	33361.43
274.022	26153.28
274.481	22313.17
274.94	17231.41
275.399	12780.64
275.857	14868.68
276.316	20096.4
276.775	17886.29
277.233	17642.74
277.692	16532.97
278.15	18756.59
278.609	19330.25
279.067	17924.12
279.525	16665.54
279.984	21528.87
280.442	25922.63
280.9	25653.55
281.358	16916.08
281.816	15821.82
282.274	15486.26
282.732	16010.7
283.19	16080.92
283.648	13887.13
284.106	14822.93
284.564	15090.27
285.021	14048.48
285.479	10495.12
285.937	9544.56
286.394	8398.55
286.852	8653.62
287.309	9140.09
287.767	8846.22
288.224	8422.72
288.682	9253.29
289.139	10180.92
289.596	9321.35
290.053	9666.67
290.511	12179.88
290.968	14753.6
291.425	19972.16
291.882	16614.57
292.339	14416.37
292.796	14284.55
293.252	13417.43
293.709	10652.21
294.166	9538.62
294.623	10526.57
295.079	10106.31
295.536	10158.44
295.992	9218
296.449	9114.77
296.905	9486.95
297.362	9101.06
297.818	9575.15
298.274	9940.71
298.731	10119.51
299.187	10012.22
299.643	10735.94
300.099	12967.38
300.555	14220.21
301.011	11892.71
301.467	11499.93
301.923	13393.8
302.379	13110.32
302.835	12880.97
303.291	12942.96
303.746	14741.62
304.202	18602.59
304.658	18721.62
305.113	12599.67
305.569	12365.52
306.024	13194.06
306.479	12556.38
306.935	10647.34
307.39	11618.22
307.845	10758.09
308.301	10862.36
308.756	10606.07
309.211	10247.92
309.666	10519.42
310.121	13118.27
310.576	13347.84
311.031	13258.12
311.486	15193.66
311.94	15176.4
312.395	20396.74
312.85	38372.88
313.305	187886.44
313.759	979732.73
314.214	70980.4
314.668	56306
315.123	47538.49
315.577	17083.65
316.032	15265.72
316.486	19109.28
316.94	15084.33
317.394	10508.39
317.849	8168.35
318.303	7751.37
318.757	7300.19
319.211	8095.73
319.665	7090.82
320.119	7157.38
320.572	10221.93
321.026	9538.97
321.48	7931.73
321.934	8656
322.387	8650.83
322.841	9352.91
323.295	8432.12
323.748	9664.9
324.202	9823.96
324.655	11811.71
325.108	16572.27
325.562	11732.34
326.015	13940.06
326.468	10587.85
326.921	11827.89
327.374	11059.18
327.827	11543.72
328.28	13058.98
328.733	8827.3
329.186	7752.26
329.639	7383.09
330.092	6207.96
330.545	5923.01
330.997	5987.33
331.45	6552.37
331.903	7710.12
332.355	13258.15
332.808	12868.54
333.26	10606.75
333.713	11527.57
334.165	11657.73
334.617	15616.57
335.069	12608.24
335.522	22794.34
335.974	25314.51
336.426	23206.99
336.878	16090.62
337.33	8179.19
337.782	8014.69
338.234	10114.27
338.686	12060.28
339.137	14313.5
339.589	13470.49
340.041	10620.34
340.493	9128.12
340.944	9351.4
341.396	10059.43
341.847	8473.07
342.299	10037.21
342.75	12279.63
343.201	10695.74
343.653	12271.33
344.104	14998.58
344.555	11789.19
345.006	18214.89
345.457	14017.65
345.908	11117.53
346.359	10456.68
346.81	8502.01
347.261	8918.5
347.712	8749.14
348.163	9362.14
348.613	9538.36
349.064	8919.13
349.515	7819.1
349.965	8054.93
350.416	9672.68
350.866	10639.28
351.317	12017.79
351.767	19978.54
352.217	25282.38
352.668	21039.3
353.118	19361.32
353.568	18621.03
354.018	14796.88
354.468	15683.04
354.918	11294.97
355.368	9919.93
355.818	14011.23
356.268	40385.3
356.718	169154.84
357.168	42274.55
357.617	21274.1
358.067	23640.54
358.517	22234.94
358.966	26083.3
359.416	29258.77
359.865	31588.07
360.315	37631.02
360.764	17597.52
361.213	9872.1
361.663	9363.18
362.112	11552.25
362.561	18677.36
363.01	14088.84
363.459	11853.43
363.908	12844.15
364.357	10952.33
364.806	18497.8
365.255	12780.2
365.703	11774.26
366.152	11871.4
366.601	9661.04
367.05	7891.99
367.498	7203.07
367.947	7555.08
368.395	7876.57
368.844	7009.22
369.292	8437.21
369.74	5859.74
370.189	8976.51
370.637	10521.61
371.085	9096.2
371.533	11080.01
371.981	10684.34
372.429	10203.05
372.877	10632.26
373.325	8925.27
373.773	9104.15
374.221	8144.61
374.669	10135.63
375.116	8776.56
375.564	8856.05
376.012	9875.71
376.459	8180.9
376.907	9792.89
377.354	11881.77
377.801	11159.81
378.249	12912.07
378.696	16597.15
379.143	20145.78
379.591	21551.63
380.038	36824.39
380.485	26921.55
380.932	29495.84
381.379	27396.14
381.826	20508.18
382.273	14857.32
382.72	13268.61
383.166	13253.75
383.613	8848.88
384.06	8271.64
384.506	9963.72
384.953	7633.59
385.4	8069.7
385.846	7501
386.292	7834.91
386.739	8309.93
387.185	8934.12
387.631	9809.32
388.078	10508.68
388.524	12378.81
388.97	12446.21
389.416	11136.47
389.862	12517.84
390.308	12499.38
390.754	13516.39
391.2	15902.03
391.645	17893.25
392.091	18849.41
392.537	19886.66
392.983	21447.65
393.428	22183.62
393.874	25204.69
394.319	27329.35
394.765	28728.94
395.21	33231.18
395.655	34948.66
396.101	36243.52
396.546	35863.08
396.991	39578.45
397.436	39979.26
397.881	42065.41
398.326	43681.23
398.771	44740.23
399.216	42215.24
399.661	40481.46
400.106	42291.99
400.551	45034.15
400.995	41794.18
401.44	42476.89
401.885	40760.98
402.329	41855.75
402.774	40609.57
403.218	39496.33
403.663	38540.2
404.107	40012.32
404.551	40739.11
404.995	37913.08
405.44	37080.23
405.884	38153.71
406.328	37407.95
406.772	37715.63
407.216	34778.93
407.66	34137.52
408.104	33043.01
408.547	31267.73
408.991	30529.17
409.435	29574.42
409.879	29220.37
410.322	28964.23
410.766	28046.96
411.209	26811.77
411.653	25966.36
412.096	25589.71
412.54	25827.7
412.983	25854.94
413.426	26063.4
413.869	26280.7
414.312	26003.68
414.756	25385.79
415.199	24506.03
415.642	24044.42
416.085	24318.1
416.527	24378.97
416.97	25017.36
417.413	23828.87
417.856	23654.05
418.298	23430.43
418.741	23271.79
419.184	23213.95
419.626	24213.99
420.069	24137.57
420.511	24251.78
420.953	23670.72
421.396	23471.31
421.838	22944.02
422.28	23519.65
422.722	23764.19
423.164	24392.27
423.606	24237.92
424.048	24464.07
424.49	23356.72
424.932	23462.59
425.374	23333.27
425.816	23940.26
426.258	24421.55
426.699	24550.88
427.141	23933.94
427.582	24160.28
428.024	23912.82
428.465	23774.45
428.907	23225.04
429.348	23073.26
429.789	23108.85
430.231	22645.5
430.672	22956.77
431.113	22553.09
431.554	22463.08
431.995	22367.99
432.436	21806.64
432.877	21579.99
433.318	21334.17
433.759	21452.94
434.2	21608.83
434.64	21575.61
435.081	21809.79
435.522	20916.61
435.962	20382.32
436.403	20188.6
436.843	20732.13
437.284	20564.54
437.724	20263.4
438.164	20584.05
438.604	20273.68
439.045	19531.07
439.485	18714.54
439.925	18420.44
440.365	18026.13
440.805	17856.62
441.245	17553.53
441.685	16899.77
442.125	16779.7
442.564	16869.61
443.004	16413.2
443.444	16356.98
443.883	16371.17
444.323	16345.13
444.762	16481.76
445.202	16719.11
445.641	16950.22
446.081	16975.65
446.52	17024.95
446.959	16815.65
447.398	16357.91
447.837	16141.27
448.276	15829.63
448.716	15943.99
449.154	16072.23
449.593	15578.67
450.032	15422.78
450.471	15100.92
450.91	14998.98
451.349	14821.57
451.787	14667.76
452.226	14752.79
452.664	14627.03
453.103	14509.49
453.541	14335.62
453.98	14033.43
454.418	13918.95
454.856	13467.88
455.295	13283.27
455.733	13160.77
456.171	13080.08
456.609	12910.55
457.047	12696.49
457.485	12693.57
457.923	12563.41
458.361	12306.23
458.798	12305.21
459.236	12218.86
459.674	12324.45
460.111	12323.52
460.549	12218.36
460.987	12214.86
461.424	12184.19
461.862	12179.13
462.299	12018.95
462.736	11994.32
463.173	12078.36
463.611	11917.12
464.048	11922.95
464.485	12038.31
464.922	11983.32
465.359	11978.2
465.796	11649.85
466.233	11621.83
466.67	11521.25
467.106	11522.8
467.543	11498.45
467.98	11393.91
468.416	11196.16
468.853	11155.32
469.29	10849.43
469.726	10751.82
470.162	10473.26
470.599	10486.15
471.035	10388.95
471.471	10136.03
471.907	10091.73
472.344	9999.91
472.78	9955.49
473.216	10024.09
473.652	9825.63
474.088	9733.4
474.523	9579.91
474.959	9570.79
475.395	9382.28
475.831	9201.33
476.266	9143.23
476.702	9006.07
477.138	8774.84
477.573	8626.63
478.008	8455.34
478.444	8335.98
478.879	8249.02
479.314	8158.89
479.75	8020.57
480.185	7942.41
480.62	7888.8
481.055	7810.64
481.49	7727.55
481.925	7710.79
482.36	7685.14
482.795	7785.9
483.229	7899.39
483.664	7948.97
484.099	7862.96
484.534	7853.53
484.968	7809.88
485.403	7725.01
485.837	7624.47
486.271	7513.76
486.706	7421.54
487.14	7277.92
487.574	7070.81
488.009	6921.95
488.443	6788.27
488.877	6770.81
489.311	6729.33
489.745	6734.01
490.179	6725.48
490.613	6752.7
491.046	6749.25
491.48	6742.8
491.914	6687.72
492.348	6682.5
492.781	6666.03
493.215	6635.76
493.648	6614.34
494.082	6618.15
494.515	6577.51
494.948	6598.05
495.382	6616.15
495.815	6607.24
496.248	6607.25
496.681	6679.68
497.114	6740.28
497.547	6775.9
497.98	6825.71
498.413	6807
498.846	6828.54
499.279	6844.71
499.711	6826.23
500.144	6782.89
500.577	6800.51
501.009	6832.35
501.442	6836.99
501.874	6765.89
502.306	6722.99
502.739	6690.63
503.171	6752.85
503.603	6706.25
504.036	6705.99
504.468	6675.2
504.9	6686.65
505.332	6664.12
505.764	6613.81
506.196	6589.62
506.627	6617.02
507.059	6627.73
507.491	6632.57
507.923	6519.31
508.354	6533.66
508.786	6518.43
509.217	6545.92
509.649	6555.47
510.08	6592.81
510.512	6608.16
510.943	6619.02
511.374	6605.83
511.805	6641.3
512.237	6673.68
512.668	6791.97
513.099	6872.76
513.53	6944.84
513.961	6972.1
514.391	7058.99
514.822	7133.39
515.253	7232.45
515.684	7265.67
516.114	7318.91
516.545	7318.18
516.975	7341.92
517.406	7317.41
517.836	7218.67
518.267	7138.16
518.697	7113.24
519.127	7025.43
519.558	6961.47
519.988	6879.08
520.418	6833.05
520.848	6819.09
521.278	6770.74
521.708	6595.9
522.138	6575.19
522.567	6634.33
522.997	6668.66
523.427	6667.66
523.857	6669.15
524.286	6650.3
524.716	6650.2
525.145	6662.06
525.575	6649.89
526.004	6656.65
526.433	6725.44
526.863	6678.83
527.292	6587.02
527.721	6562.96
528.15	6545.84
528.579	6509.35
529.008	6516.34
529.437	6572.39
529.866	6595.45
530.295	6631.33
530.724	6644
531.152	6714.58
531.581	6735.18
532.01	6776.71
532.438	6783.48
532.867	6814.97
533.295	6861.14
533.723	6861.97
534.152	6833.28
534.58	6811.6
535.008	6735.72
535.436	6726.47
535.865	6742.67
536.293	6786.61
536.721	6834.81
537.149	6917.64
537.576	6921.05
538.004	6966.79
538.432	6993.9
538.86	6984.15
539.287	7011.15
539.715	7061.23
540.143	7080.31
540.57	7073.56
540.998	7069.71
541.425	6984.56
541.852	6920.82
542.28	6923.54
542.707	6876.37
543.134	6834.33
543.561	6829.12
543.988	6812.37
544.415	6825.64
544.842	6818.27
545.269	6801.62
545.696	6816.49
546.123	6886.15
546.549	6858.22
546.976	6819.44
547.403	6825.68
547.829	6846.73
548.256	6870.19
548.682	6867.41
549.108	6847.71
549.535	6859.18
549.961	6878.19
550.387	6839.38
550.813	6823.76
551.24	6859.48
551.666	6874.39
552.092	6846.57
552.518	6834.49
552.943	6816.88
553.369	6861.1
553.795	6895.88
554.221	6905.22
554.646	6904.03
555.072	6943.9
555.498	6974.65
555.923	7018.68
556.349	7084.28
556.774	7126.74
557.199	7137.06
557.625	7175.57
558.05	7154.02
558.475	7199.94
558.9	7202.22
559.325	7171.6
559.75	7157.88
560.175	7138.69
560.6	7121.43
561.025	7115.85
561.449	7123.85
561.874	7146.73
562.299	7158.3
562.723	7192.18
563.148	7150.34
563.572	7164.16
563.997	7203.61
564.421	7223.19
564.846	7221.67
565.27	7226.25
565.694	7215.39
566.118	7247.7
566.542	7266.26
566.966	7233.09
567.39	7199.11
567.814	7147.66
568.238	7141.51
568.662	7158.57
569.086	7165.59
569.509	7200.47
569.933	7143.03
570.357	7128.28
570.78	7064.9
571.204	7030.72
571.627	7016.91
572.05	7045.6
572.474	7079.13
572.897	7074.37
573.32	7086.59
573.743	7102.95
574.166	7074.63
574.589	7134.15
575.012	7157.76
575.435	7218.11
575.858	7243.48
576.281	7261.37
576.704	7258.58
577.126	7273.6
577.549	7284.98
577.972	7309.84
578.394	7322.43
578.817	7342.19
579.239	7319.81
579.661	7314.62
580.084	7287.11
580.506	7284.56
580.928	7324.38
581.35	7329.96
581.772	7361.82
582.194	7351.96
582.616	7339.99
583.038	7330.99
583.46	7340.67
583.882	7372.25
584.303	7446.03
584.725	7485.38
585.147	7515.26
585.568	7607.23
585.99	7703.19
586.411	7777.49
586.833	7890.46
587.254	7935.62
587.675	8042.86
588.096	8144.88
588.518	8153.28
588.939	8097.91
589.36	8114.38
589.781	8119.75
590.202	7975.27
590.623	7954.88
591.043	7960.26
591.464	7905.28
591.885	7894.15
592.305	7872.32
592.726	7802.66
593.147	7802.93
593.567	7768.43
593.987	7716.41
594.408	7675.3
594.828	7668.58
595.248	7607.81
595.669	7475.91
596.089	7408.44
596.509	7347.8
596.929	7236.57
597.349	7201.22
597.769	7113.45
598.189	7039.2
598.608	7009.96
599.028	6979.65
599.448	6943.96
599.867	6851.29
600.287	6808.01
600.706	6754.28
601.126	6673.52
601.545	6642.07
601.965	6618.35
602.384	6578.94
602.803	6584
603.222	6548.4
603.641	6513.8
604.061	6491.92
604.48	6478.98
604.898	6526.97
605.317	6568.48
605.736	6598.55
606.155	6604.18
606.574	6583.11
606.992	6635.96
607.411	6638.28
607.829	6636.31
608.248	6657.24
608.666	6684.37
609.085	6715.66
609.503	6705.99
609.921	6708.89
610.339	6757.27
610.758	6798.12
611.176	6815.45
611.594	6806.74
612.012	6831.28
612.43	6880.36
612.847	6954.49
613.265	6991.3
613.683	7056.49
614.101	7107.36
614.518	7134.25
614.936	7120.75
615.353	7077.45
615.771	7095.54
616.188	7134.48
616.606	7150.95
617.023	7152.18
617.44	7104.99
617.857	7108.27
618.274	7095.26
618.691	7087.43
619.108	7065.88
619.525	7062.73
619.942	7124.98
620.359	7165.01
620.776	7162.15
621.192	7157.48
621.609	7165.03
622.026	7220.43
622.442	7274.92
622.859	7313.6
623.275	7293.47
623.691	7340.82
624.108	7423.26
624.524	7527.8
624.94	7546.76
625.356	7621.01
625.772	7720.56
626.188	7809.44
626.604	7835.16
627.02	7826.37
627.436	7825.47
627.852	7875.5
628.268	7957.9
628.683	7926.35
629.099	7893.52
629.514	7886.47
629.93	7928.01
630.345	7977.15
630.761	7978.01
631.176	8025.78
631.591	8002.54
632.007	7993.02
632.422	8021.83
632.837	7989.82
633.252	7999.7
633.667	7973.31
634.082	7951.39
634.497	7911.66
634.911	7821.81
635.326	7843.16
635.741	7782.62
636.155	7781.15
636.57	7839.62
636.984	7895.59
637.399	7959.27
637.813	8029.08
638.228	8086.81
638.642	8194.83
639.056	8203.01
639.47	8292.18
639.884	8315.36
640.298	8355.16
640.712	8427.12
641.126	8426.69
641.54	8455.85
641.954	8521.47
642.368	8516.15
642.781	8527.91
643.195	8482.36
643.609	8572.41
644.022	8617.4
644.436	8673.9
644.849	8674.78
645.262	8670.75
645.676	8776.47
646.089	8815.6
646.502	8758.53
646.915	8792.45
647.328	8746.01
647.741	8793.25
648.154	8750.39
648.567	8758.92
648.98	8697.41
649.393	8751.36
649.805	8772.35
650.218	8758.43
650.631	8655.57
651.043	8651.98
651.456	8637.93
651.868	8685.06
652.28	8878.98
652.693	9033.68
653.105	9130.99
653.517	9241.07
653.929	9259.71
654.341	9334.85
654.753	9246.8
655.165	9353.87
655.577	9380.15
655.989	9401.74
656.401	9399.62
656.813	9115.39
657.224	9002.54
657.636	8838.52
658.047	8753.34
658.459	8664.14
658.87	8683.26
659.282	8671.51
659.693	8546.33
660.104	8482.86
660.515	8431.62
660.926	8497.47
661.338	8565.56
661.749	8590.87
662.159	8563.62
662.57	8614.94
662.981	8650.52
663.392	8645.35
663.803	8759.67
664.213	8822.25
664.624	8859.62
665.035	8970.62
665.445	8889.88
665.855	8863.18
666.266	8821.36
666.676	8858.59
667.086	8809.02
667.497	8838.43
667.907	8813.54
668.317	8751.82
668.727	8703.53
669.137	8748.27
669.547	8742.74
669.956	8799.51
670.366	8844.22
670.776	8881.38
671.186	8945
671.595	8987.08
672.005	9047.19
672.414	9031.05
672.824	9000.06
673.233	9093.64
673.642	9109.7
674.052	9128.69
674.461	9129.49
674.87	9179.58
675.279	9126
675.688	9144.47
676.097	9132.27
676.506	9074.58
676.915	9235.77
677.323	9256.13
677.732	9220.06
678.141	9201.18
678.549	9070.69
678.958	9052.26
679.366	9027.09
679.775	9077.98
680.183	9122.56
680.592	9159.73
681	9180.68
681.408	9045.91
681.816	9076.15
682.224	9113.57
682.632	9119.7
683.04	9344.93
683.448	9481.27
683.856	9618.99
684.264	9757.18
684.671	9874.67
685.079	10028.78
685.487	10194.01
685.894	10505.9
686.302	10677.62
686.709	10716.88
687.116	10814.37
687.524	10797.32
687.931	10738.05
