Data from N_2_HIR_IL_4N_Splice17_12-10-30-660.txt Node
Date: Sat Mar 14 12:10:30 EDT 2020
User: sa697716
Spectrometer: FLMS03696
Trigger mode: 0
Integration Time (sec): 3.180400E-1
Scans to average: 20
Electric dark correction enabled: true
Nonlinearity correction enabled: true
Boxcar width: 5
XAxis mode: Wavelengths
Number of Pixels in Spectrum: 2048
>>>>>Begin Spectral Data<<<<<
187.83	-297896.29
188.298	2194.53
188.766	1167.71
189.233	1067.35
189.701	1539.42
190.169	2188.08
190.636	841.93
191.104	693.88
191.571	123.52
192.039	-48.74
192.506	-58.35
192.974	465.68
193.441	-630.77
193.908	-239.73
194.375	-45.75
194.842	48.21
195.31	165.61
195.777	165.29
196.244	350.09
196.711	423.46
197.177	521.82
197.644	738.13
198.111	1279.83
198.578	1823.98
199.045	1497.08
199.511	2429.67
199.978	2833.59
200.445	2408.65
200.911	2675.11
201.378	3022.75
201.844	2742.66
202.31	4681.56
202.777	4892.25
203.243	2749.39
203.709	2601.65
204.176	3099.22
204.642	2554.31
205.108	2382.94
205.574	1945.03
206.04	1787.05
206.506	1667.56
206.972	1574.57
207.438	1523.1
207.903	1743.91
208.369	1523.87
208.835	1529.62
209.301	1590.64
209.766	1630.15
210.232	1612.65
210.697	2005.39
211.163	2454.59
211.628	3697.12
212.094	3095.88
212.559	3807.72
213.024	2328.78
213.49	2843.58
213.955	2760.66
214.42	2685.67
214.885	2495.58
215.35	2402.13
215.815	2300.57
216.28	2438.82
216.745	1976.16
217.21	2138.74
217.675	1946.44
218.14	2193.28
218.604	2408.63
219.069	2710.44
219.534	2829.91
219.998	3274.38
220.463	3947.87
220.927	4822.4
221.392	4534.62
221.856	4584.93
222.32	5737.17
222.785	7087.27
223.249	8922.91
223.713	9967.62
224.177	9986.68
224.642	12817.87
225.106	15766.15
225.57	17220.02
226.034	12835.73
226.497	19442.08
226.961	17562.13
227.425	20480.13
227.889	22678.92
228.353	22655.06
228.816	46753.26
229.28	44668.39
229.744	37636.33
230.207	22905.29
230.671	22488.94
231.134	37120.53
231.597	42894.96
232.061	42828.96
232.524	41702.66
232.987	28729.68
233.45	25833.09
233.914	23150.78
234.377	23747.15
234.84	21717.03
235.303	25582.52
235.766	28530.18
236.229	29498.21
236.691	18574.19
237.154	20850.74
237.617	15699.48
238.08	16095.25
238.542	18863.93
239.005	13485.92
239.468	13382.23
239.93	12630.01
240.393	11476.34
240.855	10096.58
241.317	10327.75
241.78	12564.07
242.242	13013.72
242.704	14050.29
243.166	12223.53
243.629	11089.68
244.091	12781.74
244.553	14001.29
245.015	15047.96
245.477	19481.43
245.939	28555.96
246.4	30330.87
246.862	29532.22
247.324	27827.98
247.786	31133.91
248.247	40825.21
248.709	42170.67
249.17	31574.16
249.632	29756.35
250.093	34556.99
250.555	29823.26
251.016	18184.23
251.477	17254.36
251.939	18604.83
252.4	19520.86
252.861	23245.52
253.322	21672.98
253.783	25816.2
254.244	33492.92
254.705	26427.34
255.166	23470.98
255.627	23152.98
256.088	32683.71
256.549	34773.69
257.009	29950.75
257.47	36337.79
257.931	29584.01
258.391	22143.28
258.852	22832.67
259.312	23954.69
259.773	29575.63
260.233	25036.53
260.694	21125.93
261.154	23987.84
261.614	19257.3
262.074	17216.48
262.534	17919.64
262.994	16909.3
263.455	22536.2
263.915	18993.34
264.374	17898.18
264.834	19563.82
265.294	21680.96
265.754	22457.09
266.214	21279.67
266.673	19936.01
267.133	25189.06
267.593	25006.11
268.052	30597.21
268.512	26607.31
268.971	32119.51
269.431	35222.54
269.89	31581.05
270.349	47333.89
270.809	52837.41
271.268	47484.6
271.727	106636.5
272.186	69142.56
272.645	51878.98
273.104	37446.59
273.563	54278.75
274.022	42745.59
274.481	36409.71
274.94	28080.45
275.399	20906.86
275.857	24342.99
276.316	32961.36
276.775	29331.25
277.233	28891.19
277.692	27070.11
278.15	30674.41
278.609	31586.4
279.067	29235.42
279.525	27168.32
279.984	35086.73
280.442	42181.59
280.9	41626.77
281.358	27375.51
281.816	25566.05
282.274	25074.49
282.732	25926.15
283.19	26044.38
283.648	22483.32
284.106	23947.91
284.564	24387.49
285.021	22643.29
285.479	16869.63
285.937	15348.66
286.394	13467.51
286.852	13856.16
287.309	14547.58
287.767	14081.02
288.224	13403.8
288.682	14711.5
289.139	16149.63
289.596	14765.7
290.053	15326.71
290.511	19332.35
290.968	23451.36
291.425	31850.01
291.882	26476.7
292.339	23052.81
292.796	22804.37
293.252	21495.98
293.709	17076.34
294.166	15322.16
294.623	16952.71
295.079	16288.22
295.536	16369.01
295.992	14873.63
296.449	14716.5
296.905	15327.74
297.362	14702.59
297.818	15478.72
298.274	16056.47
298.731	16373.57
299.187	16187.87
299.643	17362.75
300.099	20993.53
300.555	23048.42
301.011	19249.86
301.467	18577.88
301.923	21716.7
302.379	21209.87
302.835	20835.04
303.291	20839.59
303.746	23749.21
304.202	30013.5
304.658	30161.03
305.113	20280.01
305.569	19876.09
306.024	21214.1
306.479	20165.65
306.935	17006.11
307.39	18578.85
307.845	17173.56
308.301	17310.17
308.756	16845.17
309.211	16232.12
309.666	16628.05
310.121	20668.21
310.576	20968.18
311.031	20760.85
311.486	23781.78
311.94	23763.99
312.395	31782.33
312.85	59673.84
313.305	292773.55
313.759	1517858.78
314.214	110056.32
314.668	87356.31
315.123	73470.74
315.577	26402.95
316.032	23488.91
316.486	29459.17
316.94	23259.08
317.394	16205.43
317.849	12593.51
318.303	11920.38
318.757	11237.19
319.211	12417.17
319.665	10847.15
320.119	10963.2
320.572	15693.57
321.026	14652.27
321.48	12211.25
321.934	13302.94
322.387	13329.02
322.841	14427.85
323.295	12975.08
323.748	14933.02
324.202	15155.81
324.655	18216.67
325.108	25484.12
325.562	17998.62
326.015	21402.49
326.468	16163.88
326.921	18071.15
327.374	16867.46
327.827	17532.7
328.28	19877.28
328.733	13333.85
329.186	11736.79
329.639	11178.23
330.092	9411.23
330.545	8983.25
330.997	9078.31
331.45	9921.49
331.903	11654.55
332.355	20044.96
332.808	19483.26
333.26	16058.58
333.713	17441.83
334.165	17551.45
334.617	23478.08
335.069	18962.08
335.522	34204.51
335.974	37835.08
336.426	34505.94
336.878	23893.25
337.33	12110.12
337.782	11832.85
338.234	14829.77
338.686	17738.89
339.137	20995.1
339.589	19732.82
340.041	15508.03
340.493	13342.87
340.944	13691.22
341.396	14764.7
341.847	12397.32
342.299	14634.56
342.75	17853.25
343.201	15589.82
343.653	17891.96
344.104	21983.45
344.555	17298.95
345.006	26866.28
345.457	20608.78
345.908	16352.08
346.359	15378.23
346.81	12500.8
347.261	13159.96
347.712	12973.19
348.163	13900.56
348.613	14078.7
349.064	13150.28
349.515	11525
349.965	11822.06
350.416	14206.07
350.866	15563.25
351.317	17583.84
351.767	29156.29
352.217	36773.51
352.668	30528.82
353.118	27948.26
353.568	26976.97
354.018	21335.68
354.468	22524.84
354.918	16166.29
355.368	14133.42
355.818	19989.54
356.268	57663.72
356.718	241792.75
357.168	60256.16
357.617	30164.81
358.067	33549.41
358.517	31411.47
358.966	36888.74
359.416	41355.42
359.865	44699.04
360.315	53256.11
360.764	24903.35
361.213	13903.75
361.663	13151.88
362.112	16230.71
362.561	26243.61
363.01	19813.79
363.459	16664.83
363.908	18009.03
364.357	15298.04
364.806	25796.59
365.255	17739.79
365.703	16226
366.152	16261.94
366.601	13201.15
367.05	10744.14
367.498	9790.22
367.947	10261.91
368.395	10675.96
368.844	9470.08
369.292	11395.45
369.74	7875.07
370.189	12076.17
370.637	14173.11
371.085	12241.97
371.533	14880.23
371.981	14326.33
372.429	13642.1
372.877	14173.02
373.325	11902.98
373.773	12091.15
374.221	10785.76
374.669	13391.88
375.116	11562.61
375.564	11651.56
376.012	13044.05
376.459	10774.51
376.907	12879.27
377.354	15560.32
377.801	14550.68
378.249	16693.84
378.696	21406.74
379.143	25907.05
379.591	27701.04
380.038	46992.86
380.485	34062.73
380.932	36852.72
381.379	33765.87
381.826	24907.02
382.273	17770.04
382.72	15588.04
383.166	15231.54
383.613	9912.68
384.06	8956.49
384.506	10391.33
384.953	7643.12
385.4	7714.2
385.846	6777.08
386.292	6636.78
386.739	6518.67
387.185	6471.14
387.631	6476.13
388.078	6313.77
388.524	6780.94
388.97	6292.06
389.416	5261.55
389.862	5611.39
390.308	5334.9
390.754	5440.27
391.2	5916.91
391.645	6083.28
392.091	5841.34
392.537	5678.55
392.983	5703.15
393.428	5629.02
393.874	6069.27
394.319	6125.86
394.765	5849.65
395.21	6046.13
395.655	5687.63
396.101	5369.03
396.546	4872.43
396.991	4933.75
397.436	4610.27
397.881	4474.5
398.326	4259.37
398.771	4037.99
399.216	3548.22
399.661	3208.57
400.106	3211.95
400.551	3307.54
400.995	2974.13
401.44	2951.32
401.885	2784.97
402.329	2823.5
402.774	2719.58
403.218	2643.47
403.663	2563.13
404.107	2649.57
404.551	2682.44
404.995	2469.53
405.44	2390.81
405.884	2440.37
406.328	2376.82
406.772	2378.11
407.216	2172.13
407.66	2111.58
408.104	2017.42
408.547	1899.65
408.991	1840.83
409.435	1779.74
409.879	1759.09
410.322	1741.17
410.766	1685.96
411.209	1607.18
411.653	1546.95
412.096	1520.09
412.54	1525.56
412.983	1516.8
413.426	1522.29
413.869	1526.29
414.312	1500.2
414.756	1453.09
415.199	1390.84
415.642	1353.86
416.085	1357.28
416.527	1353.3
416.97	1378.57
417.413	1308.43
417.856	1296.24
418.298	1286.89
418.741	1279.88
419.184	1281
419.626	1333.47
420.069	1334
420.511	1342.11
420.953	1315.5
421.396	1304.54
421.838	1271.84
422.28	1302.26
422.722	1314.25
423.164	1333.85
423.606	1313.8
424.048	1310.66
424.49	1248.18
424.932	1244.41
425.374	1228.77
425.816	1249.15
426.258	1273.2
426.699	1290.05
427.141	1273.78
427.582	1288.93
428.024	1280.14
428.465	1274.38
428.907	1242.04
429.348	1227.52
429.789	1229.03
430.231	1203.32
430.672	1219.88
431.113	1193.15
431.554	1175.56
431.995	1146.91
432.436	1108.56
432.877	1085.9
433.318	1068.1
433.759	1067.05
434.2	1067.13
434.64	1054.72
435.081	1057.06
435.522	1003.93
435.962	969.64
436.403	949.9
436.843	962.76
437.284	942.21
437.724	918.5
438.164	920.31
438.604	898.95
439.045	865.73
439.485	829.76
439.925	812.82
440.365	794.46
440.805	782.54
441.245	772.78
441.685	744.83
442.125	739.96
442.564	742.6
443.004	724.32
443.444	722.07
443.883	723.22
444.323	718.66
444.762	720.07
445.202	728.01
445.641	740.77
446.081	736.08
446.52	740.52
446.959	731.95
447.398	714.85
447.837	707.96
448.276	695.73
448.716	703.77
449.154	708.54
449.593	690.57
450.032	687.57
450.471	674.59
450.91	674.31
451.349	673.9
451.787	670.21
452.226	678.8
452.664	676.92
453.103	677.87
453.541	673.72
453.98	672.12
454.418	676.6
454.856	664.14
455.295	661.72
455.733	665.28
456.171	666.68
456.609	668.38
457.047	668.72
457.485	678.55
457.923	678.01
458.361	668.05
458.798	670.05
459.236	668.56
459.674	673.21
460.111	675.87
460.549	669.02
460.987	667.3
461.424	665.85
461.862	662.13
462.299	650.98
462.736	650
463.173	653.45
463.611	646.31
464.048	644.27
464.485	650.38
464.922	645.92
465.359	643.09
465.796	634.82
466.233	629.1
466.67	624.11
467.106	624.8
467.543	618.65
467.98	610.73
468.416	596.15
468.853	591.72
469.29	573.78
469.726	566.17
470.162	552.24
470.599	545.43
471.035	541.5
471.471	528.54
471.907	524.05
472.344	521.64
472.78	523.21
473.216	528.56
473.652	522.6
474.088	521.27
474.523	520.55
474.959	525.24
475.395	519.9
475.831	515.66
476.266	517.8
476.702	516.16
477.138	509.58
477.573	507.26
478.008	504.13
478.444	505.48
478.879	508.86
479.314	509.91
479.75	508.2
480.185	509.82
480.62	513.17
481.055	514.62
481.49	517.91
481.925	524.71
482.36	532.29
482.795	546.04
483.229	559.34
483.664	569.17
484.099	569.16
484.534	577.05
484.968	580.68
485.403	582.09
485.837	580.82
486.271	578.41
486.706	578.4
487.14	571.44
487.574	562.89
488.009	557
488.443	552.11
488.877	557.52
489.311	558
489.745	564.33
490.179	568.53
490.613	578.44
491.046	582.09
491.48	585.28
491.914	584.74
492.348	587.72
492.781	590.93
493.215	591.36
493.648	591.34
494.082	594.94
494.515	594
494.948	598.97
495.382	601.29
495.815	604.18
496.248	607.8
496.681	616.72
497.114	624.95
497.547	631.83
497.98	641.6
498.413	645.91
498.846	652.47
499.279	658.59
499.711	660.96
500.144	661.95
500.577	668.69
501.009	676.38
501.442	683.56
501.874	683.72
502.306	684.41
502.739	690.02
503.171	701.23
503.603	703.88
504.036	711.27
504.468	715.1
504.9	723.22
505.332	728.34
505.764	732.03
506.196	737.24
506.627	748.86
507.059	759.37
507.491	766.39
507.923	765.03
508.354	777.04
508.786	785.08
509.217	799.84
509.649	812.69
510.08	829.23
510.512	842.46
510.943	855.41
511.374	865.05
511.805	882.78
512.237	898.74
512.668	926.11
513.099	948.28
513.53	970.76
513.961	987.9
514.391	1014
514.822	1041.84
515.253	1072.5
515.684	1094.81
516.114	1121.55
516.545	1139.93
516.975	1163.45
517.406	1179.57
517.836	1184.93
518.267	1193.98
518.697	1212.16
519.127	1219.53
519.558	1228.5
519.988	1235.22
520.418	1247.01
520.848	1264.65
521.278	1274.64
521.708	1297.41
522.138	1311.23
522.567	1340.77
522.997	1365.72
523.427	1381.42
523.857	1398.01
524.286	1408.94
524.716	1423.2
525.145	1442.52
525.575	1453.92
526.004	1469.36
526.433	1462.69
526.863	1465
527.292	1457.3
527.721	1464.35
528.15	1472.51
528.579	1475.82
529.008	1488.48
529.437	1511.17
529.866	1525.18
530.295	1542.18
530.724	1554.48
531.152	1579.7
531.581	1593.75
532.01	1611.44
532.438	1620.92
532.867	1635.68
533.295	1652.97
533.723	1658.55
534.152	1657.39
534.58	1658.28
535.008	1644.99
535.436	1648.65
535.865	1656.62
536.293	1671.15
536.721	1686.61
537.149	1709.07
537.576	1710.6
538.004	1723.25
538.432	1730.76
538.86	1729.95
539.287	1736.26
539.715	1748.51
540.143	1750.56
540.57	1747.42
540.998	1744.49
541.425	1725.26
541.852	1706.54
542.28	1706.81
542.707	1692.44
543.134	1681.5
543.561	1677.78
543.988	1671.78
544.415	1672.13
544.842	1668.47
545.269	1663.25
545.696	1665.28
546.123	1677.08
546.549	1668.56
546.976	1657.33
547.403	1657.76
547.829	1660.15
548.256	1663.91
548.682	1661.09
549.108	1655.08
549.535	1655.04
549.961	1656.28
550.387	1645.53
550.813	1640.01
551.24	1646.09
551.666	1647.77
552.092	1638.49
552.518	1632.01
552.943	1625.94
553.369	1632.05
553.795	1637.23
554.221	1636.64
554.646	1633.35
555.072	1640.95
555.498	1645.07
555.923	1652.14
556.349	1663.4
556.774	1669.6
557.199	1669.91
557.625	1674.19
558.05	1666.99
558.475	1674.77
558.9	1673.47
559.325	1664.01
559.75	1657.51
560.175	1648.85
560.6	1640.66
561.025	1636.61
561.449	1636.44
561.874	1639.08
562.299	1640.77
562.723	1645.78
563.148	1633.46
563.572	1633.23
563.997	1639.05
564.421	1640.99
564.846	1638.96
565.27	1639.04
565.694	1633.87
566.118	1640.38
566.542	1643.1
566.966	1633.71
567.39	1627.44
567.814	1615.07
568.238	1612.77
568.662	1615.08
569.086	1614.51
569.509	1619.03
569.933	1604.81
570.357	1597.08
570.78	1576.9
571.204	1564.16
571.627	1553.3
572.05	1548.88
572.474	1546.73
572.897	1533.79
573.32	1525.79
573.743	1515.07
574.166	1497.14
574.589	1493.91
575.012	1484.9
575.435	1482.28
575.858	1472.86
576.281	1461.59
576.704	1446.31
577.126	1433.98
577.549	1423.38
577.972	1412.22
578.394	1402.41
578.817	1395.22
579.239	1377.86
579.661	1366.22
580.084	1351.43
580.506	1338.25
580.928	1334.55
581.35	1324.79
581.772	1321.13
582.194	1308.12
582.616	1297.71
583.038	1283.87
583.46	1273.81
583.882	1271.5
584.303	1272.36
584.725	1267.78
585.147	1268.75
585.568	1275.07
585.99	1282.35
586.411	1284.31
586.833	1294.6
587.254	1292.72
587.675	1302.73
588.096	1311.12
588.518	1304.37
588.939	1290.4
589.36	1288.17
589.781	1277.76
590.202	1253.48
590.623	1245.35
591.043	1243.17
591.464	1232.12
591.885	1227.45
592.305	1221.57
592.726	1209.73
593.147	1209.29
593.567	1203.54
593.987	1195.37
594.408	1189.77
594.828	1187.31
595.248	1182.24
595.669	1166.94
596.089	1160.01
596.509	1154.96
596.929	1144.27
597.349	1143.64
597.769	1135.59
598.189	1128.59
598.608	1128.87
599.028	1129.7
599.448	1128.19
599.867	1116.4
600.287	1113.38
600.706	1110.37
601.126	1102.12
601.545	1100.33
601.965	1099.54
602.384	1094.98
602.803	1097.26
603.222	1093.7
603.641	1088.38
604.061	1085.37
604.48	1082.51
604.898	1087.06
605.317	1089.45
605.736	1089.86
606.155	1086.81
606.574	1077.93
606.992	1081.05
607.411	1077.08
607.829	1068.9
608.248	1065.52
608.666	1062.39
609.085	1060.53
609.503	1053.73
609.921	1048.95
610.339	1049.91
610.758	1048.6
611.176	1044.45
611.594	1036.99
612.012	1033.14
612.43	1035.19
612.847	1039.56
613.265	1040.63
613.683	1043.88
614.101	1044.32
614.518	1040.38
614.936	1033.28
615.353	1021.36
615.771	1018.48
616.188	1018.1
616.606	1014.86
617.023	1008.98
617.44	997.89
617.857	991.29
618.274	983.34
618.691	977.5
619.108	971.01
619.525	964.94
619.942	968.92
620.359	970.27
620.776	965.33
621.192	961.91
621.609	959.71
622.026	963.71
622.442	967.09
622.859	970.4
623.275	965.25
623.691	967.22
624.108	975.83
624.524	986.06
624.94	985.58
625.356	992.66
625.772	1002.42
626.188	1010.05
626.604	1010.91
627.02	1009.26
627.436	1007.54
627.852	1012.29
628.268	1022.48
628.683	1015.28
629.099	1008.85
629.514	1005.25
629.93	1006.84
630.345	1010.18
630.761	1006.91
631.176	1009.79
631.591	1004.75
632.007	999.01
632.422	996.29
632.837	986.92
633.252	984.16
633.667	975.74
634.082	967.57
634.497	957.9
634.911	942.76
635.326	939.38
635.741	925.36
636.155	916.45
636.57	916.95
636.984	914.84
637.399	914.11
637.813	911.51
638.228	908.66
638.642	910.71
639.056	901.15
639.47	899
639.884	890.48
640.298	882.86
640.712	880.19
641.126	868.31
641.54	860.05
641.954	853.81
642.368	844.5
642.781	837.99
643.195	823.16
643.609	822.06
644.022	815.6
644.436	811.63
644.849	802.13
645.262	791.88
645.676	791.9
646.089	787.14
646.502	776.38
646.915	770.99
647.328	758.86
647.741	757.5
648.154	748.94
648.567	748.33
648.98	738.54
649.393	739.79
649.805	737.95
650.218	733.36
650.631	724.25
651.043	720.07
651.456	717.71
651.868	718.12
652.28	731.19
652.693	740.87
653.105	745.6
653.517	753.24
653.929	752.62
654.341	757.23
654.753	748.32
655.165	752.37
655.577	751.43
655.989	747.93
656.401	743.28
656.813	717.87
657.224	705.55
657.636	684.93
658.047	675.06
658.459	663.11
658.87	658.05
659.282	651.56
659.693	638.43
660.104	630.44
660.515	622.51
660.926	622.48
661.338	621.72
661.749	618.69
662.159	614.44
662.57	611.5
662.981	609.72
663.392	605.33
663.803	610.28
664.213	610.78
664.624	609.1
665.035	613.49
665.445	606.04
665.855	604.16
666.266	598.96
666.676	598.53
667.086	594.34
667.497	595.78
667.907	594
668.317	587.65
668.727	587.73
669.137	588.94
669.547	588.24
669.956	591.23
670.366	593.27
670.776	596.42
671.186	601.31
671.595	604.82
672.005	607.87
672.414	607.56
672.824	608.7
673.233	612.21
673.642	615.87
674.052	619.55
674.461	623.24
674.87	627.5
675.279	625.77
675.688	628.05
676.097	630.19
676.506	629.07
676.915	641.69
677.323	644.95
677.732	644.26
678.141	644.36
678.549	636.35
678.958	634.85
679.366	634.44
679.775	639.47
680.183	648.6
680.592	653.14
681	658.19
681.408	652.51
681.816	658.49
682.224	663.9
682.632	672.13
683.04	694.37
683.448	712.92
683.856	735.72
684.264	760.99
684.671	783.15
685.079	809.61
685.487	840.97
685.894	885.88
686.302	920
686.709	948.54
687.116	979.38
687.524	1005.12
687.931	1026.37
688.338	1043.28
688.745	1057.88
689.152	1075.85
689.559	1106.17
689.966	1134.78
690.373	1148.76
690.78	1177.35
691.187	1223.49
691.593	1259.95
692	1291.55
692.407	1340.74
692.813	1401.59
693.22	1452.19
693.626	1503.95
694.032	1547.01
694.439	1610.73
694.845	1663.71
695.251	1729.65
695.657	1790.1
696.063	1877.44
696.469	1947.01
696.875	2011.14
697.281	2051.48
697.687	2101.59
698.093	2145.54
698.498	2220.57
698.904	2280.76
