Data from N_2_DEC_CT_2N_Splice17_12-28-07-604.txt Node
Date: Sat Mar 14 12:28:07 EDT 2020
User: sa697716
Spectrometer: FLMS03696
Trigger mode: 0
Integration Time (sec): 3.180400E-1
Scans to average: 20
Electric dark correction enabled: true
Nonlinearity correction enabled: true
Boxcar width: 5
XAxis mode: Wavelengths
Number of Pixels in Spectrum: 2048
>>>>>Begin Spectral Data<<<<<
187.83	-355567.75
188.298	2539.69
188.766	1295.52
189.233	1191.07
189.701	1608.7
190.169	2180.73
190.636	799.77
191.104	596.57
191.571	122.32
192.039	-60.29
192.506	-126.27
192.974	346.8
193.441	-551.32
193.908	-173.42
194.375	-66.09
194.842	-36.55
195.31	34.08
195.777	126.66
196.244	335.43
196.711	486.27
197.177	665.44
197.644	996.85
198.111	1726.62
198.578	2425.99
199.045	1947.51
199.511	3208.75
199.978	3744.04
200.445	3156.58
200.911	3492.08
201.378	3911.04
201.844	3558.83
202.31	6082.31
202.777	6265.47
203.243	3485.58
203.709	3322.45
204.176	3972.08
204.642	3278.09
205.108	3054.73
205.574	2509.03
206.04	2307.27
206.506	2167.25
206.972	2051.85
207.438	1976.24
207.903	2264.52
208.369	1982.75
208.835	1985.02
209.301	2079
209.766	2143.46
210.232	2137.01
210.697	2652.53
211.163	3273.1
211.628	4990.54
212.094	4183.44
212.559	5158.94
213.024	3204.65
213.49	3942.84
213.955	3876.81
214.42	3833.87
214.885	3567.51
215.35	3433.91
215.815	3289.13
216.28	3516.42
216.745	2887.4
217.21	3166.49
217.675	2952.47
218.14	3377.9
218.604	3831.08
219.069	4448.21
219.534	4730.36
219.998	5604.26
220.463	6911.97
220.927	8667.07
221.392	8249.44
221.856	8404.64
222.32	10703.52
222.785	13304.4
223.249	16829.86
223.713	18884.48
224.177	18937.62
224.642	24400.89
225.106	30138.24
225.57	33030.28
226.034	24600.38
226.497	37505.9
226.961	33888.08
227.425	39546.32
227.889	43996.83
228.353	44111.09
228.816	91202.18
229.28	87362.66
229.744	73745.07
230.207	44812.86
230.671	44108.82
231.134	73126.03
231.597	84356.68
232.061	84554.64
232.524	82492.11
232.987	56785.97
233.45	51103.43
233.914	45876.61
234.377	47047.58
234.84	43057.72
235.303	50831.03
235.766	56711.83
236.229	58565.74
236.691	36887.54
237.154	41446.74
237.617	31156.53
238.08	31926.87
238.542	37377.66
239.005	26703.72
239.468	26479.91
239.93	24972.57
240.393	22693.8
240.855	19928.24
241.317	20411.05
241.78	24859.36
242.242	25694.1
242.704	27715.49
243.166	24138.95
243.629	21901.35
244.091	25242.43
244.553	27668.18
245.015	29718.81
245.477	38451.09
245.939	56358.99
246.4	59887.31
246.862	58194.84
247.324	54917.27
247.786	61537.12
248.247	80700.9
248.709	83437.12
249.17	62426.69
249.632	58841.28
250.093	68185.96
250.555	58912.1
251.016	35958.34
251.477	34127.36
251.939	36879.68
252.4	38704.11
252.861	46109.01
253.322	42905.95
253.783	51134.06
254.244	66431.05
254.705	52426.02
255.166	46725.25
255.627	46083.43
256.088	65018.22
256.549	69068.44
257.009	59543.18
257.47	72287.21
257.931	58893.21
258.391	44159.61
258.852	45490.78
259.312	47692.85
259.773	59018.95
260.233	49865.24
260.694	42023.79
261.154	47689.55
261.614	38262.28
262.074	34235.78
262.534	35600.44
262.994	33527.77
263.455	44743.6
263.915	37759.26
264.374	35614.73
264.834	38882.27
265.294	43153.75
265.754	44725.77
266.214	42375.07
266.673	39759.86
267.133	50201.78
267.593	49849.93
268.052	61033.74
268.512	53057.73
268.971	63953.89
269.431	70140.11
269.89	62842.77
270.349	94211.19
270.809	105160.02
271.268	94590.78
271.727	212272.26
272.186	137533.43
272.645	103146.52
273.104	74518.87
273.563	107976.75
274.022	85010.52
274.481	72335.54
274.94	55757.28
275.399	41483.81
275.857	48286.3
276.316	65336.62
276.775	58146.49
277.233	57284.36
277.692	53655.17
278.15	60736.93
278.609	62463.73
279.067	57843.56
279.525	53743.75
279.984	69466.67
280.442	83499.88
280.9	82375.39
281.358	54231.5
281.816	50572.84
282.274	49550.7
282.732	51204.14
283.19	51477.47
283.648	44433.27
284.106	47339.38
284.564	48148.39
285.021	44615.45
285.479	33239.19
285.937	30252.09
286.394	26505.66
286.852	27285.31
287.309	28645.75
287.767	27639.77
288.224	26240.42
288.682	28819.98
289.139	31604.91
289.596	28887.23
290.053	30030.14
290.511	37906.54
290.968	45954.78
291.425	62461.92
291.882	51937.84
292.339	45234.65
292.796	44966.09
293.252	42442
293.709	33682.97
294.166	30210.24
294.623	33431.53
295.079	32120.8
295.536	32276.73
295.992	29312.49
296.449	29001.78
296.905	30175.85
297.362	28935.06
297.818	30457.02
298.274	31580.89
298.731	32244.26
299.187	31948.81
299.643	34337.9
300.099	41510.15
300.555	45562.42
301.011	38113.61
301.467	36722.67
301.923	43053.99
302.379	42087.87
302.835	41329.12
303.291	41423.24
303.746	47162.6
304.202	59606.76
304.658	59898.25
305.113	40332.35
305.569	39536.26
306.024	42196.85
306.479	40226.34
306.935	33919.62
307.39	37081.67
307.845	34284.91
308.301	34494.54
308.756	33648.96
309.211	32415.03
309.666	33195.43
310.121	41187.1
310.576	41839.23
311.031	41535.05
311.486	47628.9
311.94	47575.24
312.395	63623.48
312.85	119633.4
313.305	588734.79
313.759	3042868.35
314.214	220331.22
314.668	174759.35
315.123	146913.89
315.577	52633.92
316.032	46689.21
316.486	58433.37
316.94	46075.25
317.394	32069.37
317.849	24920.77
318.303	23597.58
318.757	22275.29
319.211	24662.95
319.665	21578.84
320.119	21854.86
320.572	31399.02
321.026	29376.02
321.48	24453.74
321.934	26711.71
322.387	26777.94
322.841	28931.13
323.295	25970.9
323.748	29979.25
324.202	30396.62
324.655	36526.93
325.108	50984.51
325.562	35979.17
326.015	42750.39
326.468	32329.85
326.921	36154.82
327.374	33692.82
327.827	35072.24
328.28	39700.56
328.733	26569.2
329.186	23387.01
329.639	22290.32
330.092	18816.23
330.545	17936.33
330.997	18100.09
331.45	19785.49
331.903	23150.46
332.355	39883.45
332.808	38754.99
333.26	31978.37
333.713	34682.09
334.165	34900.17
334.617	46602.86
335.069	37661.29
335.522	68065
335.974	75244.66
336.426	68648.55
336.878	47537.39
337.33	24073.99
337.782	23497.31
338.234	29393.01
338.686	35130.17
339.137	41605.37
339.589	39131.39
340.041	30643.65
340.493	26312.22
340.944	26985.78
341.396	29049.93
341.847	24431.79
342.299	28806.25
342.75	35146.32
343.201	30760.4
343.653	35453.75
344.104	43644.06
344.555	34378.36
345.006	53676.08
345.457	41082.4
345.908	32681.04
346.359	30763.84
346.81	25043.4
347.261	26413.4
347.712	26024.96
348.163	27911.94
348.613	28200.81
349.064	26305.44
349.515	23034.55
349.965	23590.32
350.416	28418.92
350.866	31175.84
351.317	35287.51
351.767	58522.78
352.217	74019.58
352.668	61503.25
353.118	56391.05
353.568	54492.38
354.018	43068.12
354.468	45375.07
354.918	32511.16
355.368	28456.62
355.818	40238.65
356.268	115699
356.718	483802.14
357.168	120358.64
357.617	60360.4
358.067	67100.26
358.517	62830.04
358.966	73727.41
359.416	82680.3
359.865	89398.65
360.315	106568.6
360.764	49682.03
361.213	27827.73
361.663	26392.91
362.112	32576.05
362.561	52577.9
363.01	39708.52
363.459	33424.81
363.908	36162.15
364.357	30692.99
364.806	51867.34
365.255	35655.26
365.703	32641.62
366.152	32673.07
366.601	26452.31
367.05	21483.7
367.498	19517.66
367.947	20399.46
368.395	21220.13
368.844	18779.8
369.292	22677.86
369.74	15653.55
370.189	23977.07
370.637	28077.49
371.085	24252.54
371.533	29562.78
371.981	28451.75
372.429	27087.11
372.877	28209.6
373.325	23595.29
373.773	24044.16
374.221	21387.86
374.669	26520.91
375.116	22934.88
375.564	23157.81
376.012	25889.11
376.459	21337.06
376.907	25562.61
377.354	30967.5
377.801	28855.05
378.249	33206.41
378.696	42495.52
379.143	51510.4
379.591	55005.94
380.038	93073.49
380.485	67337.24
380.932	72886.34
381.379	66719.99
381.826	49077.33
382.273	34936.46
382.72	30607.02
383.166	29848.79
383.613	19378.86
384.06	17491.67
384.506	20263.5
384.953	14921.72
385.4	15046.93
385.846	13210.99
386.292	12922.07
386.739	12682.07
387.185	12575.7
387.631	12606.92
388.078	12259.41
388.524	13169.57
388.97	12216.77
389.416	10206.95
389.862	10867.53
390.308	10332.9
390.754	10511.52
391.2	11446.05
391.645	11761.64
392.091	11259.22
392.537	10902.49
392.983	10971.1
393.428	10798.97
393.874	11596.37
394.319	11666.74
394.765	11081.36
395.21	11428.28
395.655	10754.83
396.101	10092.63
396.546	9124.06
396.991	9248.05
397.436	8619.96
397.881	8333.5
398.326	7914.47
398.771	7492.36
399.216	6573.31
399.661	5942.54
400.106	5921.65
400.551	6065.84
400.995	5451.15
401.44	5400.81
401.885	5079.84
402.329	5138.46
402.774	4939.4
403.218	4780.62
403.663	4615.51
404.107	4747.3
404.551	4781.28
404.995	4393.95
405.44	4245.49
405.884	4317.03
406.328	4186.8
406.772	4181.07
407.216	3811.98
407.66	3689.07
408.104	3516.17
408.547	3297.51
408.991	3196.91
409.435	3084.78
409.879	3042.34
410.322	3002.55
410.766	2901.15
411.209	2757.09
411.653	2645.91
412.096	2586.53
412.54	2589.96
412.983	2574.37
413.426	2578.4
413.869	2578.64
414.312	2529.33
414.756	2438.76
415.199	2326.63
415.642	2255.67
416.085	2260.17
416.527	2245.19
416.97	2286.91
417.413	2167.56
417.856	2144.13
418.298	2126.54
418.741	2113.29
419.184	2111.11
419.626	2205.84
420.069	2206.41
420.511	2217.68
420.953	2166.25
421.396	2149.57
421.838	2097.32
422.28	2149.02
422.722	2158.86
423.164	2188.76
423.606	2150.15
424.048	2147.34
424.49	2036.91
424.932	2029.32
425.374	2006.02
425.816	2046.79
426.258	2082.52
426.699	2102.28
427.141	2067.47
427.582	2103.14
428.024	2094.55
428.465	2085.84
428.907	2033.74
429.348	2010.61
429.789	2005.95
430.231	1959.83
430.672	1982.18
431.113	1936.27
431.554	1908.28
431.995	1861.39
432.436	1791.12
432.877	1747.93
433.318	1714.18
433.759	1705.06
434.2	1704.54
434.64	1686.69
435.081	1692
435.522	1603.6
435.962	1543.5
436.403	1509.97
436.843	1531.35
437.284	1500.4
437.724	1462.09
438.164	1469.59
438.604	1437.76
439.045	1381.02
439.485	1324.72
439.925	1298.66
440.365	1268.12
440.805	1254.96
441.245	1238.9
441.685	1196.23
442.125	1190.9
442.564	1201.91
443.004	1178.53
443.444	1180.49
443.883	1187.39
444.323	1185.28
444.762	1194.32
445.202	1215.66
445.641	1242.64
446.081	1243.29
446.52	1256.82
446.959	1249.33
447.398	1221.1
447.837	1209.09
448.276	1192.77
448.716	1207.82
449.154	1224.5
449.593	1197.58
450.032	1197.4
450.471	1179.73
450.91	1185.07
451.349	1185.61
451.787	1183.2
452.226	1206.18
452.664	1210.76
453.103	1216.01
453.541	1217.63
453.98	1215.08
454.418	1227.33
454.856	1209.98
455.295	1208.84
455.733	1218.73
456.171	1227.96
456.609	1231.03
457.047	1231.63
457.485	1248.7
457.923	1250.63
458.361	1235.38
458.798	1242.05
459.236	1239.88
459.674	1250.37
460.111	1258.61
460.549	1246.95
460.987	1245.41
461.424	1242.65
461.862	1237.98
462.299	1219.51
462.736	1218.47
463.173	1223.38
463.611	1207.97
464.048	1204.08
464.485	1213.94
464.922	1203.19
465.359	1198.63
465.796	1174.61
466.233	1165.28
466.67	1153.08
467.106	1150.69
467.543	1140.17
467.98	1126.47
468.416	1099.22
468.853	1092.1
469.29	1061.24
469.726	1048.67
470.162	1022.01
470.599	1015.32
471.035	1006.82
471.471	984.9
471.907	980.63
472.344	975.57
472.78	977.14
473.216	991.08
473.652	980.41
474.088	979.02
474.523	977.44
474.959	987.4
475.395	980.65
475.831	976.39
476.266	981.45
476.702	981.14
477.138	971.47
477.573	969.74
478.008	966.5
478.444	970.64
478.879	978.48
479.314	983.68
479.75	983.84
480.185	989.74
480.62	998.58
481.055	1005.65
481.49	1012.6
481.925	1028.45
482.36	1046.25
482.795	1076.89
483.229	1107.99
483.664	1134
484.099	1140.45
484.534	1157.93
484.968	1169.8
485.403	1175.73
485.837	1176.05
486.271	1176.28
486.706	1178.69
487.14	1168.35
487.574	1151.55
488.009	1143.49
488.443	1134.48
488.877	1147.09
489.311	1153.83
489.745	1168.95
490.179	1180.54
490.613	1202.22
491.046	1213.61
491.48	1224.79
491.914	1229.36
492.348	1241.12
492.781	1250.49
493.215	1255.98
493.648	1261.05
494.082	1273.34
494.515	1276.17
494.948	1293.05
495.382	1306.69
495.815	1318.41
496.248	1330.66
496.681	1356.26
497.114	1378.9
497.547	1398.63
497.98	1423.52
498.413	1435.93
498.846	1455.53
499.279	1473.32
499.711	1483.33
500.144	1489.33
500.577	1508.8
501.009	1531.3
501.442	1550.03
501.874	1554.32
502.306	1561.23
502.739	1575.36
503.171	1603.35
503.603	1610.58
504.036	1630.53
504.468	1642.39
504.9	1663.99
505.332	1677.3
505.764	1684.31
506.196	1697.53
506.627	1723.15
507.059	1747.3
507.491	1764.98
507.923	1759.91
508.354	1785.46
508.786	1800.55
509.217	1830.42
509.649	1854.3
510.08	1886.52
510.512	1913.44
510.943	1936.83
511.374	1953.06
511.805	1984.54
512.237	2014.49
512.668	2068.75
513.099	2111.94
513.53	2156.15
513.961	2184.94
514.391	2234.18
514.822	2283.92
515.253	2339.76
515.684	2376.19
516.114	2419.74
516.545	2447.27
516.975	2483.35
517.406	2504.26
517.836	2498.93
518.267	2500.24
518.697	2522.97
519.127	2522.62
519.558	2525.62
519.988	2523.26
520.418	2532.04
520.848	2553.08
521.278	2558.24
521.708	2552
522.138	2564.29
522.567	2608.5
522.997	2642.77
523.427	2660.93
523.857	2678.83
524.286	2688.6
524.716	2703.98
525.145	2725.36
525.575	2733.67
526.004	2749.87
526.433	2755.51
526.863	2748.93
527.292	2724.1
527.721	2724.7
528.15	2726.74
528.579	2722.38
529.008	2733.87
529.437	2765.95
529.866	2784.19
530.295	2808.59
530.724	2823.72
531.152	2862.32
531.581	2881.38
532.01	2905.96
532.438	2916.45
532.867	2936.2
533.295	2961.66
533.723	2968.43
534.152	2962.14
534.58	2958.56
535.008	2929.63
535.436	2930.66
535.865	2941.74
536.293	2963.73
536.721	2987.6
537.149	3027.8
537.576	3030.71
538.004	3049.4
538.432	3061.08
538.86	3057.09
539.287	3068.19
539.715	3089.05
540.143	3093.03
540.57	3084.84
540.998	3076.43
541.425	3038.49
541.852	3003.68
542.28	3000.21
542.707	2974.11
543.134	2949.68
543.561	2942.22
543.988	2929.32
544.415	2928.9
544.842	2919
545.269	2907.96
545.696	2909.91
546.123	2930.69
546.549	2914.25
546.976	2893.49
547.403	2892.05
547.829	2896.2
548.256	2899.78
548.682	2893.47
549.108	2881.12
549.535	2881.29
549.961	2883.59
550.387	2863.76
550.813	2853.47
551.24	2862.32
551.666	2862.48
552.092	2847.41
552.518	2837.33
552.943	2827.32
553.369	2839.1
553.795	2848.26
554.221	2848.38
554.646	2844.66
555.072	2860.87
555.498	2870.77
555.923	2887.65
556.349	2914.03
556.774	2931.12
557.199	2935.13
557.625	2947.84
558.05	2940.56
558.475	2960.13
558.9	2961.79
559.325	2950.86
559.75	2945.55
560.175	2938.23
560.6	2930.62
561.025	2932.75
561.449	2936.93
561.874	2950.38
562.299	2959.53
562.723	2977.2
563.148	2965.35
563.572	2978.45
563.997	2998.99
564.421	3013.26
564.846	3019.92
565.27	3031.07
565.694	3031.86
566.118	3056.09
566.542	3073.32
566.966	3069.91
567.39	3067.87
567.814	3054.91
568.238	3058.52
568.662	3074.82
569.086	3085.48
569.509	3104.96
569.933	3086.38
570.357	3079.23
570.78	3051.56
571.204	3034.19
571.627	3023.05
572.05	3025.57
572.474	3032.06
572.897	3017.14
573.32	3009.5
573.743	2998
574.166	2971.5
574.589	2978.37
575.012	2971.19
575.435	2974.59
575.858	2965.52
576.281	2950.49
576.704	2928.04
577.126	2912.39
577.549	2899.29
577.972	2888.07
578.394	2872.77
578.817	2862.79
579.239	2832.62
579.661	2812.07
580.084	2786.01
580.506	2766
580.928	2763.34
581.35	2748.56
581.772	2744.64
582.194	2723.58
582.616	2704.68
583.038	2684.37
583.46	2671.11
583.882	2669.25
584.303	2682.48
584.725	2680.37
585.147	2683.55
585.568	2704.66
585.99	2728.44
586.411	2742.05
586.833	2770.62
587.254	2776.23
587.675	2805.68
588.096	2831.18
588.518	2824.24
588.939	2796.55
589.36	2794.56
589.781	2783.5
590.202	2733.21
590.623	2719.33
591.043	2717.76
591.464	2698.56
591.885	2693.02
592.305	2685.36
592.726	2662.91
593.147	2666.56
593.567	2659.48
593.987	2648.84
594.408	2641.2
594.828	2641.34
595.248	2632.25
595.669	2599.83
596.089	2588.43
596.509	2578.9
596.929	2555.33
597.349	2558.61
597.769	2541.28
598.189	2530.58
598.608	2533.6
599.028	2539.16
599.448	2542.23
599.867	2521.97
600.287	2515.69
600.706	2509.18
601.126	2492.78
601.545	2491.65
601.965	2489.3
602.384	2482.68
602.803	2489.87
603.222	2482.73
603.641	2471.89
604.061	2465.41
604.48	2461.4
604.898	2478.91
605.317	2491.3
605.736	2496.05
606.155	2493.7
606.574	2479.3
606.992	2490.76
607.411	2484.81
607.829	2472.86
608.248	2469.98
608.666	2469.78
609.085	2469.35
609.503	2455.89
609.921	2445.71
610.339	2453.05
610.758	2453.21
611.176	2447.82
611.594	2432.88
612.012	2427.61
612.43	2434.64
612.847	2449.06
613.265	2451.11
613.683	2460.99
614.101	2466.33
614.518	2462.63
614.936	2446.14
615.353	2421.03
615.771	2416.97
616.188	2420.17
616.606	2416.99
617.023	2407.29
617.44	2382.75
617.857	2374.89
618.274	2363.75
618.691	2353.97
619.108	2338.13
619.525	2328.6
619.942	2343.88
620.359	2351.5
620.776	2343.78
621.192	2337.37
621.609	2336.07
622.026	2350.41
622.442	2361.07
622.859	2368.32
623.275	2355.8
623.691	2367.83
624.108	2390.79
624.524	2419.57
624.94	2420.54
625.356	2441.24
625.772	2467.57
626.188	2489.65
626.604	2492.71
627.02	2486.17
627.436	2482.14
627.852	2494.78
628.268	2517.63
628.683	2501.71
629.099	2484.71
629.514	2475.83
629.93	2481.94
630.345	2490.68
630.761	2484.4
631.176	2490.93
631.591	2477.04
632.007	2465.68
632.422	2465.3
632.837	2445.19
633.252	2441.65
633.667	2425.3
634.082	2410.28
634.497	2388.62
634.911	2353.38
635.326	2348.05
635.741	2319.42
636.155	2306.05
636.57	2311.05
636.984	2313.11
637.399	2318.25
637.813	2321.17
638.228	2322.71
638.642	2335.26
639.056	2319.42
639.47	2323.58
639.884	2311.74
640.298	2302.58
640.712	2304.83
641.126	2284.59
641.54	2272.81
641.954	2268.92
642.368	2249.45
642.781	2234.26
643.195	2204.15
643.609	2208.6
644.022	2200.78
644.436	2197.17
644.849	2177.14
645.262	2157.42
645.676	2162.99
646.089	2154.04
646.502	2123.19
646.915	2114.22
647.328	2082.27
647.741	2077.83
648.154	2052.76
648.567	2043.81
648.98	2015.52
649.393	2015.25
649.805	2007.1
650.218	1990.94
650.631	1959.47
651.043	1947.66
651.456	1935.49
651.868	1938.88
652.28	1971.23
652.693	1998.85
653.105	2012.9
653.517	2032.95
653.929	2033.63
654.341	2043.59
654.753	2019.19
655.165	2031.97
655.577	2025.89
655.989	2015.69
656.401	1999.17
656.813	1926.65
657.224	1884.93
657.636	1828.67
658.047	1788.95
658.459	1749.57
658.87	1731.05
659.282	1707.66
659.693	1663.5
660.104	1632.44
660.515	1602.65
660.926	1597.27
661.338	1589.4
661.749	1573.71
662.159	1552.22
662.57	1541.34
662.981	1528.85
663.392	1510.16
663.803	1512.13
664.213	1503.73
664.624	1492.55
665.035	1494.73
665.445	1464.43
665.855	1445.6
666.266	1425.54
666.676	1416.95
667.086	1397.57
667.497	1389.51
667.907	1373.66
668.317	1353.31
668.727	1339.91
669.137	1336.47
669.547	1327.3
669.956	1327.23
670.366	1326.97
670.776	1326.41
671.186	1329.79
671.595	1331.58
672.005	1335.75
672.414	1331.65
672.824	1324.82
673.233	1332.01
673.642	1333.48
674.052	1334.82
674.461	1333.77
674.87	1339.45
675.279	1331.52
675.688	1332.47
676.097	1331.13
676.506	1322.77
676.915	1344.24
677.323	1347.07
677.732	1341.5
678.141	1339.97
678.549	1322.54
678.958	1322.67
679.366	1321.46
679.775	1331.75
680.183	1348.27
680.592	1360.85
681	1374.22
681.408	1365.79
681.816	1385.28
682.224	1406.63
682.632	1426.63
683.04	1483.63
683.448	1532.36
683.856	1593.17
684.264	1662.33
684.671	1730.12
685.079	1810.83
685.487	1897.33
685.894	2018.25
686.302	2117.71
686.709	2200.4
687.116	2298.22
687.524	2376.06
687.931	2442.25
688.338	2496.36
688.745	2542.36
689.152	2591.47
689.559	2657.06
689.966	2720.37
690.373	2741.32
