Data from N_2_HIR_WI_4N_Splice17_12-32-13-956.txt Node
Date: Sat Mar 14 12:32:13 EDT 2020
User: sa697716
Spectrometer: FLMS03696
Trigger mode: 0
Integration Time (sec): 3.180400E-1
Scans to average: 20
Electric dark correction enabled: true
Nonlinearity correction enabled: true
Boxcar width: 5
XAxis mode: Wavelengths
Number of Pixels in Spectrum: 2048
>>>>>Begin Spectral Data<<<<<
187.83	-271779.54
188.298	2059.68
188.766	1124.74
189.233	1037.35
189.701	1445.07
190.169	1961.01
190.636	777.85
191.104	664.39
191.571	101.89
192.039	-50.57
192.506	-48.5
192.974	564.87
193.441	-644.43
193.908	-98.66
194.375	-0.73
194.842	50.77
195.31	122.63
195.777	217.83
196.244	430.49
196.711	445.39
197.177	511.8
197.644	708.11
198.111	1247.88
198.578	1689.62
199.045	1321.17
199.511	2141.17
199.978	2477.18
200.445	2132.03
200.911	2314.54
201.378	2548.77
201.844	2294.09
202.31	3941.07
202.777	4091.45
203.243	2255.14
203.709	2143.01
204.176	2577.09
204.642	2131.59
205.108	1982.96
205.574	1576.74
206.04	1413.55
206.506	1330.69
206.972	1266.83
207.438	1216.6
207.903	1376.97
208.369	1207.31
208.835	1217.28
209.301	1276.57
209.766	1303.04
210.232	1303.28
210.697	1625.51
211.163	2015.49
211.628	2987.65
212.094	2487.36
212.559	3087.34
213.024	1932.08
213.49	2387.22
213.955	2309.11
214.42	2228.32
214.885	2073.11
215.35	1990.27
215.815	1935.4
216.28	2066.73
216.745	1671.55
217.21	1794.72
217.675	1603.04
218.14	1763.5
218.604	1902.86
219.069	2139.1
219.534	2225.6
219.998	2539.87
220.463	3011.8
220.927	3602.44
221.392	3336.75
221.856	3362.41
222.32	4174.43
222.785	5137.6
223.249	6428.42
223.713	7150.6
224.177	7096.15
224.642	9059.09
225.106	11091.57
225.57	12101.71
226.034	9072.78
226.497	13834.71
226.961	12510.65
227.425	14588.45
227.889	16132.49
228.353	16131.87
228.816	33265.21
229.28	31824.41
229.744	26767.35
230.207	16314.26
230.671	16044.24
231.134	26354.73
231.597	30398.36
232.061	30339.8
232.524	29483.76
232.987	20335.53
233.45	18350.56
233.914	16492.72
234.377	16930.11
234.84	15501.69
235.303	18238.82
235.766	20367.34
236.229	21080.72
236.691	13261.73
237.154	14897.8
237.617	11259.44
238.08	11527.49
238.542	13497.67
239.005	9661.13
239.468	9601.85
239.93	9061.06
240.393	8253.69
240.855	7243.18
241.317	7424.74
241.78	9037.48
242.242	9361.37
242.704	10118.71
243.166	8823.99
243.629	8035.4
244.091	9255.66
244.553	10148.19
245.015	10914.64
245.477	14115.42
245.939	20734.44
246.4	21981.87
246.862	21385.02
247.324	20208.75
247.786	22642.01
248.247	29709.2
248.709	30624.64
249.17	22946.64
249.632	21716.36
250.093	25296.24
250.555	21892.97
251.016	13381.5
251.477	12731.94
251.939	13750.31
252.4	14421.46
252.861	17145.97
253.322	16014.18
253.783	19052.51
254.244	24722.99
254.705	19464.56
255.166	17308.36
255.627	17080.64
256.088	24127.95
256.549	25655.66
257.009	22132.97
257.47	26903.31
257.931	21944.85
258.391	16475.95
258.852	17016.55
259.312	17878.74
259.773	22106.71
260.233	18737.06
260.694	15830.8
261.154	18008.55
261.614	14492.55
262.074	12971.5
262.534	13505.43
262.994	12777.07
263.455	17011.2
263.915	14372.49
264.374	13550.8
264.834	14827.28
265.294	16443.29
265.754	17078.15
266.214	16155.65
266.673	15184.99
267.133	19220.02
267.593	19109.23
268.052	23418.44
268.512	20404.6
268.971	24710.1
269.431	27157.18
269.89	24370.39
270.349	36604.59
270.809	40884.92
271.268	36901.77
271.727	82828.66
272.186	53767.08
272.645	40424.87
273.104	29147.7
273.563	42288.91
274.022	33249.42
274.481	28388.04
274.94	21928.07
275.399	16323.41
275.857	19034.46
276.316	25753.55
276.775	22944.09
277.233	22623.65
277.692	21208.82
278.15	24081.67
278.609	24868.96
279.067	23053.39
279.525	21437.38
279.984	27715.92
280.442	33356.84
280.9	33012.37
281.358	21749.48
281.816	20326.11
282.274	19936.7
282.732	20610.33
283.19	20727.92
283.648	17889.74
284.106	19065.8
284.564	19432.35
285.021	18056.95
285.479	13486.72
285.937	12249.37
286.394	10787.35
286.852	11114.32
287.309	11696.67
287.767	11330.18
288.224	10801.37
288.682	11867.95
289.139	13076.45
289.596	11991.75
290.053	12457.53
290.511	15737.19
290.968	19142.72
291.425	25982.62
291.882	21678.62
292.339	18905.26
292.796	18781.15
293.252	17702.26
293.709	14085.06
294.166	12649.59
294.623	13974.47
295.079	13418.1
295.536	13511.96
295.992	12266.04
296.449	12138.6
296.905	12641.18
297.362	12154.38
297.818	12786.1
298.274	13304.18
298.731	13567.07
299.187	13418.97
299.643	14413.54
300.099	17472.4
300.555	19151.16
301.011	16037.39
301.467	15518.52
301.923	18134.74
302.379	17714.89
302.835	17416.18
303.291	17427.79
303.746	19818.1
304.202	25085.81
304.658	25203.21
305.113	16994.42
305.569	16684.09
306.024	17756.11
306.479	16873.61
306.935	14250.75
307.39	15558.55
307.845	14396.39
308.301	14504.08
308.756	14157.95
309.211	13622.6
309.666	13968.49
310.121	17330.89
310.576	17560.5
311.031	17465.17
311.486	19989.42
311.94	19967.98
312.395	26656.79
312.85	50148.39
313.305	246043.74
313.759	1278388.97
314.214	92820.42
314.668	73722.15
315.123	62046.67
315.577	22346.58
316.032	19876.27
316.486	24931.54
316.94	19698.54
317.394	13767.41
317.849	10701.85
318.303	10152.85
318.757	9569.23
319.211	10585.86
319.665	9257.67
320.119	9370.79
320.572	13401.6
321.026	12523.87
321.48	10428.69
321.934	11357.87
322.387	11349.98
322.841	12253.86
323.295	11023.87
323.748	12684.34
324.202	12852.51
324.655	15455.89
325.108	21621.53
325.562	15272.74
326.015	18164.03
326.468	13751.32
326.921	15411.14
327.374	14396.99
327.827	15018.88
328.28	17025.59
328.733	11433.62
329.186	10076.53
329.639	9599.18
330.092	8095.72
330.545	7742.54
330.997	7806.99
331.45	8546.15
331.903	10002.93
332.355	17217.23
332.808	16732.5
333.26	13781.44
333.713	14974.32
334.165	15059.19
334.617	20062.04
335.069	16161.23
335.522	29134.79
335.974	32281.49
336.426	29431.84
336.878	20395.29
337.33	10353.51
337.782	10096.12
338.234	12669.79
338.686	15155.4
339.137	17967.88
339.589	16939.84
340.041	13293.74
340.493	11432.84
340.944	11705
341.396	12628.23
341.847	10645.6
342.299	12562.08
342.75	15379.53
343.201	13400.9
343.653	15391.11
344.104	18923.72
344.555	14907.08
345.006	23186.57
345.457	17791.22
345.908	14131.25
346.359	13314.38
346.81	10812.53
347.261	11387.07
347.712	11156.87
348.163	11961.68
348.613	12125.49
349.064	11303.84
349.515	9897.44
349.965	10168.12
350.416	12220.08
350.866	13405.56
351.317	15086.15
351.767	25028.14
352.217	31702.28
352.668	26406.9
353.118	24224.09
353.568	23338.42
354.018	18497.91
354.468	19493.88
354.918	13993.51
355.368	12248.8
355.818	17335.72
356.268	49851.7
356.718	208943.45
357.168	51934.74
357.617	26012.17
358.067	28897.74
358.517	27065.93
358.966	31783.31
359.416	35743.5
359.865	38563.93
360.315	45961.78
360.764	21497.03
361.213	12097.01
361.663	11432.3
362.112	14081.76
362.561	22745.57
363.01	17196.61
363.459	14481.19
363.908	15664.29
364.357	13304.19
364.806	22463.13
365.255	15448.77
365.703	14150.97
366.152	14168.76
366.601	11512.37
367.05	9383.83
367.498	8547.47
367.947	8916.49
368.395	9274.49
368.844	8216.44
369.292	9897.93
369.74	6860.2
370.189	10479.24
370.637	12275.08
371.085	10570.67
371.533	12877.31
371.981	12402.21
372.429	11858.01
372.877	12393.16
373.325	10399.82
373.773	10592.35
374.221	9442.68
374.669	11689.49
375.116	10150.49
375.564	10228.53
376.012	11475.42
376.459	9475.5
376.907	11326.76
377.354	13710.78
377.801	12815.34
378.249	14794.35
378.696	18956.48
379.143	22994.72
379.591	24588.59
380.038	41655.35
380.485	30223.79
380.932	32735.07
381.379	30094.94
381.826	22285.44
382.273	15837.83
382.72	13840.68
383.166	13494.43
383.613	8783.72
384.06	7938.57
384.506	9241.01
384.953	6811.79
385.4	6872.64
385.846	6037.41
386.292	5891.95
386.739	5776.87
387.185	5733.74
387.631	5775.63
388.078	5638.23
388.524	6051.86
388.97	5629.03
389.416	4709.65
389.862	5029.04
390.308	4797.51
390.754	4902.61
391.2	5354.37
391.645	5518.02
392.091	5326.21
392.537	5175.9
392.983	5206.53
393.428	5162.12
393.874	5556.32
394.319	5626.06
394.765	5378.96
395.21	5556.59
395.655	5239.16
396.101	4936.81
396.546	4471.86
396.991	4537.74
397.436	4237
397.881	4111.22
398.326	3913.71
398.771	3719.66
399.216	3259.63
399.661	2944.97
400.106	2951.38
400.551	3041.08
400.995	2737.57
401.44	2726.54
401.885	2568.41
402.329	2605.17
402.774	2513.54
403.218	2445.4
403.663	2371.56
404.107	2456.83
404.551	2488.62
404.995	2291.49
405.44	2211.48
405.884	2253.01
406.328	2186.73
406.772	2187.9
407.216	2002.63
407.66	1943.12
408.104	1851.48
408.547	1735.53
408.991	1680.11
409.435	1619.19
409.879	1602.09
410.322	1587.63
410.766	1540.94
411.209	1467.58
411.653	1411.06
412.096	1385.32
412.54	1389.25
412.983	1381.89
413.426	1391.03
413.869	1393.85
414.312	1376.03
414.756	1328.53
415.199	1268.53
415.642	1233.72
416.085	1239.6
416.527	1236.18
416.97	1256.35
417.413	1192.98
417.856	1184.55
418.298	1174.23
418.741	1166.55
419.184	1161.04
419.626	1211.45
420.069	1214.05
420.511	1221.93
420.953	1196.62
421.396	1188.27
421.838	1161.07
422.28	1191.3
422.722	1198.94
423.164	1220.43
423.606	1201.39
424.048	1204.92
424.49	1143.6
424.932	1138.19
425.374	1122.4
425.816	1140.74
426.258	1163.57
426.699	1179.94
427.141	1160
427.582	1174.71
428.024	1165.37
428.465	1159.67
428.907	1129.08
429.348	1117.51
429.789	1120.27
430.231	1097.76
430.672	1113.69
431.113	1083.58
431.554	1063.75
431.995	1037.84
432.436	1002.22
432.877	980.62
433.318	963.67
433.759	957.29
434.2	957.41
434.64	946.35
435.081	948.21
435.522	899.69
435.962	868.01
436.403	851.78
436.843	863.34
437.284	845.7
437.724	822.55
438.164	825.92
438.604	809.75
439.045	777.62
439.485	746.56
439.925	729.83
440.365	710.63
440.805	702.25
441.245	690.31
441.685	665.33
442.125	659.75
442.564	663.75
443.004	647.23
443.444	646.44
443.883	649.55
444.323	643.78
444.762	645.88
445.202	656.17
445.641	668.66
446.081	666.83
446.52	672.02
446.959	667.69
447.398	653.44
447.837	647.91
448.276	635.64
448.716	639.69
449.154	645.47
449.593	633.11
450.032	632.85
450.471	622.37
450.91	623.97
451.349	625.83
451.787	623.21
452.226	633.42
452.664	634.49
453.103	637.28
453.541	639.95
453.98	641.81
454.418	646.22
454.856	636.44
455.295	635.74
455.733	641.42
456.171	644.66
456.609	646.89
457.047	647.49
457.485	658.94
457.923	660.95
458.361	653.02
458.798	653.92
459.236	653.12
459.674	658.26
460.111	661.73
460.549	655.79
460.987	653.43
461.424	651.7
461.862	648.17
462.299	637.17
462.736	638.02
463.173	639.61
463.611	634.51
464.048	633.21
464.485	637.19
464.922	630.06
465.359	625.64
465.796	619.99
466.233	615.5
466.67	610.51
467.106	608.58
467.543	600.43
467.98	593
468.416	576.9
468.853	572.08
469.29	555.77
469.726	550.07
470.162	536.87
470.599	526.84
471.035	520.95
471.471	508.56
471.907	505.98
472.344	503.57
472.78	505.64
473.216	512.39
473.652	506.52
474.088	504.59
474.523	504.95
474.959	510.04
475.395	506.67
475.831	504.21
476.266	507.07
476.702	505.75
477.138	500.95
477.573	498.44
478.008	496.63
478.444	499.12
478.879	504.1
479.314	505.69
479.75	504.7
480.185	507.01
480.62	511.89
481.055	514.99
481.49	519.45
481.925	526.99
482.36	537.4
482.795	552.21
483.229	567.15
483.664	579.72
484.099	581.83
484.534	591.98
484.968	599.09
485.403	601.71
485.837	602.25
486.271	601.46
486.706	602.94
487.14	596.57
487.574	587.89
488.009	583.46
488.443	578.82
488.877	585.84
489.311	588.04
489.745	594.87
490.179	601.05
490.613	612.27
491.046	617.99
491.48	623.52
491.914	625.85
492.348	631.81
492.781	636.14
493.215	639.17
493.648	640.91
494.082	647.46
494.515	648.7
494.948	657.15
495.382	662.35
495.815	667.43
496.248	672.69
496.681	684.69
497.114	695.18
497.547	706.15
497.98	719.87
498.413	727.89
498.846	738.23
499.279	747.96
499.711	752.39
500.144	755.62
500.577	767.14
501.009	779.51
501.442	790.15
501.874	793.74
502.306	796.81
502.739	805.45
503.171	820.26
503.603	824.83
504.036	834.81
504.468	842.41
504.9	855.06
505.332	862.66
505.764	867.57
506.196	875.35
506.627	890.6
507.059	904.04
507.491	912.5
507.923	911.47
508.354	925.99
508.786	937.18
509.217	954.15
509.649	968.9
510.08	987.5
510.512	1004.28
510.943	1018.29
511.374	1028.52
511.805	1047.21
512.237	1065.58
512.668	1096.18
513.099	1121.16
513.53	1146.47
513.961	1164.53
514.391	1193.32
514.822	1223.17
515.253	1255.19
515.684	1277.8
516.114	1303.45
516.545	1322.26
516.975	1343.63
517.406	1358.48
517.836	1358.51
518.267	1362.67
518.697	1377.13
519.127	1377.98
519.558	1382.55
519.988	1384.63
520.418	1392.33
520.848	1406.85
521.278	1412.59
521.708	1432.61
522.138	1441.52
522.567	1468.44
522.997	1489.04
523.427	1501.92
523.857	1515.96
524.286	1523.65
524.716	1534.36
525.145	1549.78
525.575	1559.22
526.004	1570.05
526.433	1556.72
526.863	1555.76
527.292	1544.58
527.721	1548.79
528.15	1553.87
528.579	1553.29
529.008	1561.98
529.437	1581.34
529.866	1592.54
530.295	1605.83
530.724	1617.52
531.152	1641.43
531.581	1652.96
532.01	1668.09
532.438	1673.6
532.867	1684.3
533.295	1701.6
533.723	1706.14
534.152	1704.38
534.58	1704.46
535.008	1689.57
535.436	1691.03
535.865	1697.43
536.293	1709.68
536.721	1723.82
537.149	1747.59
537.576	1750.36
538.004	1760.18
538.432	1767.26
538.86	1765.53
539.287	1770.98
539.715	1783.79
540.143	1785.3
540.57	1781.72
540.998	1778.46
541.425	1757.44
541.852	1737.93
542.28	1735.22
542.707	1720.37
543.134	1707.55
543.561	1702.63
543.988	1696.34
544.415	1695.39
544.842	1690.18
545.269	1683.08
545.696	1685.19
546.123	1697.34
546.549	1687.24
546.976	1675.62
547.403	1675.03
547.829	1675.8
548.256	1677.33
548.682	1673.24
549.108	1666.36
549.535	1665.57
549.961	1666.83
550.387	1654.6
550.813	1650.03
551.24	1655.94
551.666	1657.87
552.092	1648.88
552.518	1642.75
552.943	1638.69
553.369	1645.64
553.795	1650.71
554.221	1652.22
554.646	1650.82
555.072	1660.57
555.498	1664.94
555.923	1673.59
556.349	1687.1
556.774	1695.59
557.199	1698.33
557.625	1703.68
558.05	1698.47
558.475	1708.57
558.9	1708.64
559.325	1701.8
559.75	1696.93
560.175	1691.55
560.6	1686.97
561.025	1685.37
561.449	1686.79
561.874	1692.37
562.299	1697.73
562.723	1706.47
563.148	1698.49
563.572	1703.82
563.997	1714.27
564.421	1720.7
564.846	1722.41
565.27	1726.98
565.694	1726.57
566.118	1739.52
566.542	1748.74
566.966	1744.93
567.39	1741.68
567.814	1733.41
568.238	1733.14
568.662	1738.26
569.086	1742.09
569.509	1750.8
569.933	1738.8
570.357	1734.14
570.78	1715.84
571.204	1704.66
571.627	1695.49
572.05	1695.09
572.474	1695.75
572.897	1685.25
573.32	1680.43
573.743	1672.06
574.166	1655.9
574.589	1657.69
575.012	1651.64
575.435	1651.48
575.858	1643.79
576.281	1634.5
576.704	1620.64
577.126	1610.47
577.549	1602.59
577.972	1595.01
578.394	1587.31
578.817	1582.3
579.239	1563.64
579.661	1551.42
580.084	1537.61
580.506	1526.25
580.928	1523.27
581.35	1513.77
581.772	1509.89
582.194	1496.24
582.616	1483.69
583.038	1470.32
583.46	1460.47
583.882	1459.07
584.303	1463.75
584.725	1459.99
585.147	1463.08
585.568	1473.48
585.99	1485.74
586.411	1493.82
586.833	1509.15
587.254	1511.86
587.675	1526.17
588.096	1539.5
588.518	1534.2
588.939	1518.73
589.36	1517.83
589.781	1507.74
590.202	1480.77
590.623	1472.81
591.043	1470.79
591.464	1459.07
591.885	1455.63
592.305	1450.82
592.726	1436.76
593.147	1438.57
593.567	1433.76
593.987	1427.45
594.408	1422.27
594.828	1420.77
595.248	1415.57
595.669	1398.39
596.089	1392.3
596.509	1386.16
596.929	1372.92
597.349	1374.29
597.769	1364.6
598.189	1359.04
598.608	1360.95
599.028	1363.7
599.448	1364.3
599.867	1352.41
600.287	1347.74
600.706	1343.79
601.126	1335.33
601.545	1334.36
601.965	1333.09
602.384	1329.18
602.803	1331.69
603.222	1326.01
603.641	1319.47
604.061	1315.93
604.48	1312.23
604.898	1320.25
605.317	1324.68
605.736	1326.45
606.155	1325.17
606.574	1317.51
606.992	1322.19
607.411	1318.04
607.829	1311.1
608.248	1307.82
608.666	1305.6
609.085	1304.74
609.503	1296.26
609.921	1291.38
610.339	1293.03
610.758	1291.47
611.176	1286.4
611.594	1278.01
612.012	1274.98
612.43	1277.78
612.847	1284.22
613.265	1284.92
613.683	1289.49
614.101	1291.05
614.518	1286.74
614.936	1276.53
615.353	1262.96
615.771	1260.23
616.188	1260.25
616.606	1257.07
617.023	1251.24
617.44	1237.95
617.857	1231.78
618.274	1222.86
618.691	1217.29
619.108	1208.99
619.525	1204.08
619.942	1210.36
620.359	1212.42
620.776	1208.11
621.192	1204.82
621.609	1201.95
622.026	1208.57
622.442	1214.2
622.859	1217.56
623.275	1210.44
623.691	1215.75
624.108	1226.42
624.524	1238.97
624.94	1239.31
625.356	1248.29
625.772	1260.35
626.188	1272.31
626.604	1273.55
627.02	1270.51
627.436	1270.19
627.852	1277.33
628.268	1288.58
628.683	1280.23
629.099	1272.87
629.514	1267.84
629.93	1272.36
630.345	1276.74
630.761	1272.77
631.176	1276.54
631.591	1270.96
632.007	1264.59
632.422	1263.14
632.837	1252.69
633.252	1251.5
633.667	1242.64
634.082	1234.96
634.497	1223.14
634.911	1204.76
635.326	1201.78
635.741	1185.45
636.155	1176.86
636.57	1178.39
636.984	1178.78
637.399	1181.72
637.813	1181.11
638.228	1180.07
638.642	1185.44
639.056	1175.69
639.47	1176.68
639.884	1169.25
640.298	1164.59
640.712	1164.14
641.126	1153.13
641.54	1145.24
641.954	1140.36
642.368	1129.01
642.781	1122.35
643.195	1104.95
643.609	1105.67
644.022	1101.09
644.436	1097.17
644.849	1085.81
645.262	1072.99
645.676	1074.61
646.089	1069.75
646.502	1056.38
646.915	1052.61
647.328	1036.66
647.741	1034.15
648.154	1021.51
648.567	1017.63
648.98	1003.74
649.393	1002.45
649.805	999.34
650.218	991.09
650.631	975.32
651.043	966.16
651.456	958.53
651.868	956.69
652.28	972.77
652.693	984.41
653.105	988.91
653.517	997.71
653.929	997.73
654.341	1001.28
654.753	988.3
655.165	991.88
655.577	988.06
655.989	981.85
656.401	972.57
656.813	936.52
657.224	915.39
657.636	885.44
658.047	866.69
658.459	845.99
658.87	835.39
659.282	821.79
659.693	800.87
660.104	785.65
660.515	770.06
660.926	767.2
661.338	761.92
661.749	754.75
662.159	745.1
662.57	737.74
662.981	731.33
663.392	722.16
663.803	723.48
664.213	718.9
664.624	712.18
665.035	713.2
665.445	697.21
665.855	688.21
666.266	677.88
666.676	673.32
667.086	663.79
667.497	660.91
667.907	653.7
668.317	643.38
668.727	639.98
669.137	639.16
669.547	634.68
669.956	635.86
670.366	637.04
670.776	638.14
671.186	640.34
671.595	642.52
672.005	644.04
672.414	642.29
672.824	641.43
673.233	642.99
673.642	644.31
674.052	645.97
674.461	646.76
674.87	649.76
675.279	646.26
675.688	646.97
676.097	647.64
676.506	644.11
676.915	655.48
677.323	657.01
677.732	655.06
678.141	654.65
678.549	647.36
678.958	648.01
679.366	647.89
679.775	653.04
680.183	663.5
680.592	669.9
681	676.61
681.408	672.09
681.816	680.81
682.224	690.83
682.632	702.14
683.04	729.66
683.448	752.28
683.856	781.04
684.264	815.03
684.671	846.06
685.079	883.05
685.487	924.87
685.894	984.16
686.302	1031.78
686.709	1072.85
687.116	1121.45
687.524	1161.51
687.931	1196.45
688.338	1225.96
688.745	1249.75
689.152	1278.7
689.559	1316.51
689.966	1353.33
690.373	1369.27
690.78	1402.92
691.187	1455.21
691.593	1491.67
692	1524.92
692.407	1574.31
692.813	1636.38
693.22	1684.02
693.626	1731.32
694.032	1770.17
694.439	1832.21
694.845	1877.87
695.251	1937.61
695.657	1988.46
696.063	2068.56
696.469	2124.59
696.875	2176.27
697.281	2201.99
697.687	2235.36
