Data from N_2_DIV_IL_4N_Splice17_12-35-38-107.txt Node
Date: Sat Mar 14 12:35:38 EDT 2020
User: sa697716
Spectrometer: FLMS03696
Trigger mode: 0
Integration Time (sec): 3.180400E-1
Scans to average: 20
Electric dark correction enabled: true
Nonlinearity correction enabled: true
Boxcar width: 5
XAxis mode: Wavelengths
Number of Pixels in Spectrum: 2048
>>>>>Begin Spectral Data<<<<<
187.83	-319012.04
188.298	2344.99
188.766	1302.04
189.233	1160.16
189.701	1635.52
190.169	2285.21
190.636	875.97
191.104	695.3
191.571	78.59
192.039	-77.33
192.506	-36.78
192.974	669.44
193.441	-917.96
193.908	-211.08
194.375	-78.68
194.842	0.22
195.31	98.23
195.777	192.19
196.244	395.71
196.711	449.69
197.177	582.12
197.644	835.93
198.111	1465.3
198.578	2016.69
199.045	1607.27
199.511	2657.61
199.978	3111.35
200.445	2666.41
200.911	2933.94
201.378	3305.35
201.844	3008.36
202.31	5133.38
202.777	5352.88
203.243	2954.89
203.709	2827.91
204.176	3393.32
204.642	2795.93
205.108	2622.75
205.574	2121.26
206.04	1944.37
206.506	1830.69
206.972	1736.75
207.438	1677.76
207.903	1907.96
208.369	1678.95
208.835	1669.96
209.301	1752.01
209.766	1778.87
210.232	1759.43
210.697	2186.95
211.163	2690.55
211.628	4048.06
212.094	3432.06
212.559	4253.73
213.024	2648.46
213.49	3260.99
213.955	3202.05
214.42	3147.03
214.885	2960.16
215.35	2848.32
215.815	2768.84
216.28	2963.64
216.745	2434.61
217.21	2639.08
217.675	2448.92
218.14	2816.72
218.604	3197.38
219.069	3726.99
219.534	3970.85
219.998	4676.08
220.463	5747.24
220.927	7183.24
221.392	6851.33
221.856	7018.95
222.32	8938.37
222.785	11136.66
223.249	14091.5
223.713	15830.09
224.177	15892.04
224.642	20493.82
225.106	25342.37
225.57	27857.01
226.034	20761.86
226.497	31688.66
226.961	28657.85
227.425	33488
227.889	37252.93
228.353	37380.15
228.816	77334.8
229.28	74181.47
229.744	62751.33
230.207	38270.91
230.671	37685.33
231.134	62545.54
231.597	72266.85
232.061	72501.1
232.524	70820.47
232.987	48870.87
233.45	44040.58
233.914	39599.52
234.377	40657.92
234.84	37281.94
235.303	44001.55
235.766	49165.07
236.229	50852.01
236.691	32071.36
237.154	36077.37
237.617	27174.13
238.08	27863.66
238.542	32680.81
239.005	23382.07
239.468	23225.43
239.93	21899.42
240.393	19928.75
240.855	17512.18
241.317	17962.69
241.78	21884.26
242.242	22609.79
242.704	24420.01
243.166	21262.69
243.629	19303.5
244.091	22265.75
244.553	24421.16
245.015	26238.77
245.477	33948.3
245.939	49805.04
246.4	52858.41
246.862	51429.37
247.324	48544.74
247.786	54405.58
248.247	71403.15
248.709	73823.62
249.17	55230.5
249.632	52040.48
250.093	60373.11
250.555	52194.86
251.016	31828.44
251.477	30205.72
251.939	32579.44
252.4	34217.95
252.861	40702.06
253.322	37859.98
253.783	45072.9
254.244	58481.09
254.705	46119.42
255.166	41027.83
255.627	40395.6
256.088	56981.01
256.549	60499.96
257.009	52106.31
257.47	63144.1
257.931	51390.28
258.391	38498.38
258.852	39700.79
259.312	41586.04
259.773	51373.92
260.233	43411.13
260.694	36612.12
261.154	41482.77
261.614	33279.18
262.074	29771.47
262.534	30953.84
262.994	29149.53
263.455	38861.89
263.915	32705.67
264.374	30817.19
264.834	33655.99
265.294	37268.02
265.754	38584.06
266.214	36550.62
266.673	34243.99
267.133	43209.48
267.593	42877.15
268.052	52507.22
268.512	45664.28
268.971	54994.38
269.431	60282.16
269.89	53968.32
270.349	80916.37
270.809	90160.06
271.268	81057.19
271.727	181769.87
272.186	117690
272.645	88183.12
273.104	63607.04
273.563	92063.75
274.022	72490.42
274.481	61600.11
274.94	47399.21
275.399	35243.55
275.857	41057.87
276.316	55541.15
276.775	49434.12
277.233	48654.34
277.692	45514
278.15	51441.07
278.609	52879.93
279.067	48890.44
279.525	45445.62
279.984	58689.55
280.442	70472.9
280.9	69417.62
281.358	45655.27
281.816	42541.73
282.274	41675.15
282.732	43113.79
283.19	43321.48
283.648	37394.1
284.106	39864.6
284.564	40537.28
285.021	37600.4
285.479	28018.13
285.937	25489.19
286.394	22345.35
286.852	23006.98
287.309	24176.7
287.767	23334.68
288.224	22227.13
288.682	24400.96
289.139	26785.41
289.596	24518.25
290.053	25508.99
290.511	32238.91
290.968	39103.78
291.425	53158.02
291.882	44244.9
292.339	38527.22
292.796	38275.91
293.252	36056.16
293.709	28641.08
294.166	25687.79
294.623	28412.22
295.079	27291.33
295.536	27402.8
295.992	24911.21
296.449	24657.16
296.905	25653.48
297.362	24613.09
297.818	25922.97
298.274	26897.71
298.731	27453.78
299.187	27180.56
299.643	29200.58
300.099	35323.21
300.555	38801.91
301.011	32449.38
301.467	31249.91
301.923	36605.03
302.379	35778.76
302.835	35173.68
303.291	35226.13
303.746	40109.07
304.202	50656.18
304.658	50898.92
305.113	34261.85
305.569	33623.09
306.024	35834.33
306.479	34142.66
306.935	28797.98
307.39	31484.18
307.845	29072.35
308.301	29298.5
308.756	28583.94
309.211	27585.65
309.666	28285.84
310.121	35112.58
310.576	35642.46
311.031	35421.96
311.486	40628.79
311.94	40625.11
312.395	54289.71
312.85	102076.37
313.305	501621.3
313.759	2592954.69
314.214	187761.16
314.668	148743.61
315.123	125025.61
315.577	44808.19
316.032	39877.79
316.486	50021.99
316.94	39420.2
317.394	27443.88
317.849	21323.07
318.303	20199.34
318.757	19049.64
319.211	21078.08
319.665	18460.44
320.119	18709
320.572	26849.21
321.026	25103.28
321.48	20882.87
321.934	22804.62
322.387	22882.74
322.841	24702.37
323.295	22185.23
323.748	25601.21
324.202	25988.31
324.655	31212.37
325.108	43572.98
325.562	30799.48
326.015	36556
326.468	27631.25
326.921	30889.98
327.374	28806.68
327.827	30012.34
328.28	34010.23
328.733	22770.44
329.186	20036.26
329.639	19108.31
330.092	16137.75
330.545	15354.05
330.997	15491.76
331.45	16924.04
331.903	19837.12
332.355	34185.07
332.808	33274.01
333.26	27475.22
333.713	29844.4
334.165	30051.39
334.617	40116.02
335.069	32424.52
335.522	58712.3
335.974	65115.92
336.426	59613.87
336.878	41351.95
337.33	20951.34
337.782	20440.71
338.234	25584.44
338.686	30643.72
339.137	36331.98
339.589	34242.59
340.041	26815.67
340.493	23043.31
340.944	23575.81
341.396	25367.55
341.847	21312.77
342.299	25139.91
342.75	30691.94
343.201	26839.51
343.653	30847.52
344.104	37940.69
344.555	29857
345.006	46504.2
345.457	35567.49
345.908	28288.51
346.359	26662.08
346.81	21741.14
347.261	22898.76
347.712	22547.71
348.163	24235.28
348.613	24521.82
349.064	22887.18
349.515	20052.33
349.965	20571.95
350.416	24793.11
350.866	27226.91
351.317	30736.69
351.767	50892.83
352.217	64372.38
352.668	53464.3
353.118	48901.09
353.568	47255.82
354.018	37369.96
354.468	39356.03
354.918	28219.83
355.368	24713.35
355.818	34896.25
356.268	100482.08
356.718	420358.86
357.168	104698.32
357.617	52575.2
358.067	58520.64
358.517	54771.11
358.966	64172.14
359.416	72052.99
359.865	77961.32
360.315	92803.77
360.764	43329.98
361.213	24266.39
361.663	23013.16
362.112	28407.17
362.561	45871.07
363.01	34639.83
363.459	29215.34
363.908	31647.22
364.357	26848.98
364.806	45342.15
365.255	31197.97
365.703	28545.64
366.152	28586.59
366.601	23191.77
367.05	18804.16
367.498	17070.48
367.947	17799.54
368.395	18470.92
368.844	16367.05
369.292	19776.17
369.74	13662.2
370.189	20923.52
370.637	24560.76
371.085	21165.18
371.533	25753.38
371.981	24829.14
372.429	23682.29
372.877	24703.87
373.325	20687.27
373.773	21063.48
374.221	18728.03
374.669	23260.61
375.116	20114.78
375.564	20280.74
376.012	22724.92
376.459	18725.66
376.907	22373.62
377.354	27055.46
377.801	25206.91
378.249	28963.98
378.696	37044.91
379.143	44896.33
379.591	47794.2
380.038	80758.32
380.485	58287.77
380.932	62852.19
381.379	57447.3
381.826	42269.69
382.273	30035.56
382.72	26270.16
383.166	25592.48
383.613	16600.67
384.06	14961.78
384.506	17305.18
384.953	12721.52
385.4	12817.34
385.846	11234.13
386.292	10964.7
386.739	10754.86
387.185	10636.61
387.631	10632.64
388.078	10304.72
388.524	11013.3
388.97	10159.44
389.416	8466.72
389.862	8997.65
390.308	8506.58
390.754	8636.09
391.2	9355.7
391.645	9567.47
392.091	9145.46
392.537	8831.15
392.983	8851.71
393.428	8693.71
393.874	9327.89
394.319	9350.71
394.765	8846.01
395.21	9106.72
395.655	8523.85
396.101	7974.15
396.546	7178.3
396.991	7240.41
397.436	6719.73
397.881	6497.03
398.326	6148.12
398.771	5789.88
399.216	5056.35
399.661	4552.35
400.106	4522.43
400.551	4625.32
400.995	4149.38
401.44	4101.49
401.885	3846.22
402.329	3882.11
402.774	3714.23
403.218	3585.86
403.663	3458.88
404.107	3553.03
404.551	3572.71
404.995	3270.93
405.44	3147.72
405.884	3189.14
406.328	3078.83
406.772	3063.69
407.216	2785.29
407.66	2692.3
408.104	2557.63
408.547	2387.55
408.991	2309.18
409.435	2220.03
409.879	2187.18
410.322	2158.02
410.766	2083.03
411.209	1982.62
411.653	1902.06
412.096	1864.08
412.54	1857.95
412.983	1847.17
413.426	1853.3
413.869	1850.27
414.312	1810.09
414.756	1746.91
415.199	1664.06
415.642	1616
416.085	1614.01
416.527	1602.63
416.97	1621.9
417.413	1539.65
417.856	1519.15
418.298	1501.42
418.741	1487.96
419.184	1489.79
419.626	1549.32
420.069	1546.57
420.511	1550.67
420.953	1516.36
421.396	1499.32
421.838	1462.82
422.28	1494.8
422.722	1501.64
423.164	1523.26
423.606	1496.71
424.048	1489.37
424.49	1411.88
424.932	1405.67
425.374	1386.05
425.816	1410.48
426.258	1437.41
426.699	1451.16
427.141	1427.93
427.582	1449.99
428.024	1442.66
428.465	1436.38
428.907	1403.18
429.348	1388.94
429.789	1390.26
430.231	1363.95
430.672	1384.58
431.113	1352.7
431.554	1331.86
431.995	1300.58
432.436	1254.72
432.877	1227.27
433.318	1204.63
433.759	1200
434.2	1199.35
434.64	1186.08
435.081	1186.43
435.522	1123.2
435.962	1081.59
436.403	1059.6
436.843	1072.81
437.284	1048.26
437.724	1020.58
438.164	1024.1
438.604	1000.15
439.045	962.6
439.485	922.41
439.925	904.58
440.365	881.61
440.805	869.55
441.245	858
441.685	827.11
442.125	820.74
442.564	824.4
443.004	805.47
443.444	804.62
443.883	806.25
444.323	800.28
444.762	799.79
445.202	809.57
445.641	825.99
446.081	822.05
446.52	829.48
446.959	823.15
447.398	803.92
447.837	794.96
448.276	779.41
448.716	785.26
449.154	791.76
449.593	773.84
450.032	773.46
450.471	757.94
450.91	759.11
451.349	757.96
451.787	754.44
452.226	767.18
452.664	766.22
453.103	767.88
453.541	767.04
453.98	766.74
454.418	772.57
454.856	759.81
455.295	759.64
455.733	765.83
456.171	768.82
456.609	770.58
457.047	769.43
457.485	782.93
457.923	784.82
458.361	774.01
458.798	776.48
459.236	774.43
459.674	779.82
460.111	782.67
460.549	774.7
460.987	772.63
461.424	770.71
461.862	766.79
462.299	752.8
462.736	750.53
463.173	753.45
463.611	745.93
464.048	744.21
464.485	749.85
464.922	743.11
465.359	738.89
465.796	729.58
466.233	722.79
466.67	715.31
467.106	714.1
467.543	707.45
467.98	699.13
468.416	680.72
468.853	675.43
469.29	654.73
469.726	646.73
470.162	629.9
470.599	621.06
471.035	614.69
471.471	599.82
471.907	596.25
472.344	593.22
472.78	593.8
473.216	600.86
473.652	592.98
474.088	591.53
474.523	590.09
474.959	594.93
475.395	589.6
475.831	586.01
476.266	588.99
476.702	587.4
477.138	580.45
477.573	578.53
478.008	575.93
478.444	578.79
478.879	584.3
479.314	586.16
479.75	585.31
480.185	587.72
480.62	592.87
481.055	595.41
481.49	599.47
481.925	608.29
482.36	619.23
482.795	635.49
483.229	652.45
483.664	665.67
484.099	668.79
484.534	679.98
484.968	686.55
485.403	688.99
485.837	689.26
486.271	687.8
486.706	688.29
487.14	679.96
487.574	670.34
488.009	663.96
488.443	658.14
488.877	664.77
489.311	666.24
489.745	673.63
490.179	679.63
490.613	691.53
491.046	695.96
491.48	700.2
491.914	700.56
492.348	705.32
492.781	709.18
493.215	710.37
493.648	710.82
494.082	715.82
494.515	715.16
494.948	722.11
495.382	725.45
495.815	731.13
496.248	736.7
496.681	749.73
497.114	760.22
497.547	769.42
497.98	782.56
498.413	788.56
498.846	797.81
499.279	806.22
499.711	810.41
500.144	812.58
500.577	821.94
501.009	832.21
501.442	840.96
501.874	840.73
502.306	842.88
502.739	849.77
503.171	863.21
503.603	865.44
504.036	875.13
504.468	880.11
504.9	890.35
505.332	896.39
505.764	899.94
506.196	906.62
506.627	920.99
507.059	932.36
507.491	939.28
507.923	936.94
508.354	951.05
508.786	959.67
509.217	976.4
509.649	990.24
510.08	1008.23
510.512	1024.43
510.943	1037.21
511.374	1047.61
511.805	1067.16
512.237	1085.53
512.668	1116.41
513.099	1142.34
513.53	1169.39
513.961	1188.34
514.391	1219.71
514.822	1251.93
515.253	1285.71
515.684	1310.45
516.114	1339.52
516.545	1359.67
516.975	1383.86
517.406	1399.77
517.836	1400.68
518.267	1406.3
518.697	1423.92
519.127	1427.88
519.558	1433.03
519.988	1434.98
520.418	1444.1
520.848	1459.44
521.278	1466.58
521.708	1475.92
522.138	1487.44
522.567	1517.65
522.997	1540.91
523.427	1554.32
523.857	1569.37
524.286	1578.25
524.716	1592.75
525.145	1610.59
525.575	1621.53
526.004	1635.38
526.433	1635.73
526.863	1635.61
527.292	1625.29
527.721	1630.31
528.15	1635.78
528.579	1635.38
529.008	1646.83
529.437	1669.27
529.866	1682.14
530.295	1696.88
530.724	1708.08
531.152	1733.93
531.581	1747.68
532.01	1764.01
532.438	1771.99
532.867	1785.77
533.295	1804.58
533.723	1809.06
534.152	1806.17
534.58	1806.19
535.008	1791.55
535.436	1793.66
535.865	1800.94
536.293	1813.9
536.721	1829.5
537.149	1855.19
537.576	1857.05
538.004	1869.06
538.432	1877.79
538.86	1875.71
539.287	1882.66
539.715	1896.19
540.143	1898.3
540.57	1894.43
540.998	1891.04
541.425	1868.77
541.852	1845.82
542.28	1845.15
542.707	1828.89
543.134	1813.67
543.561	1809.85
543.988	1801.28
544.415	1799.24
544.842	1794.49
545.269	1787.34
545.696	1789.78
546.123	1801.96
546.549	1791.46
546.976	1778.49
547.403	1777.24
547.829	1779.04
548.256	1780.16
548.682	1777.86
549.108	1771.3
549.535	1770.3
549.961	1771.57
550.387	1758.47
550.813	1753.32
551.24	1760.61
551.666	1760.81
552.092	1751.53
552.518	1745.25
552.943	1739.36
553.369	1745.6
553.795	1750.62
554.221	1751.08
554.646	1748
555.072	1759.38
555.498	1764.2
555.923	1773.44
556.349	1788.43
556.774	1798.12
557.199	1800.42
557.625	1807.42
558.05	1801.89
558.475	1813.1
558.9	1813
559.325	1804.84
559.75	1798.46
560.175	1791.39
560.6	1784.27
561.025	1782.31
561.449	1783.22
561.874	1788.66
562.299	1793.02
562.723	1800.17
563.148	1789.47
563.572	1794.25
563.997	1805.4
564.421	1810.68
564.846	1811.81
565.27	1815.2
565.694	1813.01
566.118	1824
566.542	1831.08
566.966	1824.57
567.39	1820.35
567.814	1809.48
568.238	1808.27
568.662	1813.13
569.086	1815.44
569.509	1822.32
569.933	1807.18
570.357	1799.81
570.78	1778.42
571.204	1765.7
571.627	1755.81
572.05	1753.15
572.474	1753.33
572.897	1740.46
573.32	1732.65
573.743	1722.05
574.166	1704.47
574.589	1705.12
575.012	1697.2
575.435	1695.46
575.858	1686.05
576.281	1673.95
576.704	1658.29
577.126	1646.67
577.549	1635.68
577.972	1625.12
578.394	1615.1
578.817	1607.65
579.239	1589
579.661	1576.41
580.084	1562.5
580.506	1548.94
580.928	1545.25
581.35	1535.62
581.772	1531.16
582.194	1517.8
582.616	1506.8
583.038	1493.44
583.46	1482.2
583.882	1478.71
584.303	1482.53
584.725	1477.94
585.147	1481.09
585.568	1491.4
585.99	1502.07
586.411	1508.92
586.833	1524.12
587.254	1525.15
587.675	1538.82
588.096	1551.89
588.518	1547.54
588.939	1531.92
589.36	1529.95
589.781	1518.5
590.202	1492.05
590.623	1484.41
591.043	1481.94
591.464	1469.85
591.885	1466.45
592.305	1460.69
592.726	1448.59
593.147	1449.91
593.567	1443.59
593.987	1436.17
594.408	1430.98
594.828	1428.05
595.248	1421.01
595.669	1402.92
596.089	1396.26
596.509	1389.75
596.929	1376.65
597.349	1377.61
597.769	1367.55
598.189	1362.3
598.608	1363.57
599.028	1365.94
599.448	1365.75
599.867	1355.1
600.287	1350.58
600.706	1347.05
601.126	1337.66
601.545	1337.42
601.965	1335.18
602.384	1330.37
602.803	1332.99
603.222	1328.19
603.641	1322.23
604.061	1318.28
604.48	1313.57
604.898	1322.12
605.317	1326.29
605.736	1329.31
606.155	1326.44
606.574	1317.72
606.992	1323.08
607.411	1318.94
607.829	1311.09
608.248	1307.98
608.666	1305.71
609.085	1304.84
609.503	1296.16
609.921	1290
610.339	1290.64
610.758	1289.09
611.176	1283.67
611.594	1274.2
612.012	1269.08
612.43	1272.34
612.847	1277.24
613.265	1278.4
613.683	1282.09
614.101	1282.62
614.518	1277.87
614.936	1267.68
615.353	1252.77
615.771	1249.82
616.188	1250.1
616.606	1247.99
617.023	1239.57
617.44	1225.69
617.857	1218.9
618.274	1210.25
618.691	1203.14
619.108	1194.95
619.525	1188.98
619.942	1195.52
620.359	1198.18
620.776	1192.79
621.192	1189.2
621.609	1187.73
622.026	1194.99
622.442	1199.92
622.859	1203.5
623.275	1197.03
623.691	1201.41
624.108	1211.55
624.524	1225.42
624.94	1225.53
625.356	1234.4
625.772	1246.47
626.188	1258.52
626.604	1258.88
627.02	1254.21
627.436	1253.6
627.852	1260.83
628.268	1272.93
628.683	1264.29
629.099	1255.95
629.514	1249.73
629.93	1254.44
630.345	1257.62
630.761	1252.62
631.176	1256.65
631.591	1252.71
632.007	1246.88
632.422	1244.99
632.837	1233.4
633.252	1232.04
633.667	1221.8
634.082	1215.05
634.497	1201.75
634.911	1184.3
635.326	1181.67
635.741	1165.61
636.155	1155.54
636.57	1156.76
636.984	1156.03
637.399	1159.31
637.813	1159.48
638.228	1160.28
638.642	1165.09
639.056	1157.52
639.47	1159.1
639.884	1152.86
640.298	1147.91
640.712	1149.31
641.126	1138.85
641.54	1133.38
641.954	1129.53
642.368	1120.39
642.781	1114.7
643.195	1099.08
643.609	1102.19
644.022	1098.39
644.436	1094.99
644.849	1085.09
645.262	1074.91
645.676	1078.08
646.089	1074.61
646.502	1061.37
646.915	1055.71
647.328	1039.68
647.741	1038.7
648.154	1024.46
648.567	1021.35
648.98	1008.53
649.393	1009.08
649.805	1005.98
650.218	998.43
650.631	983.55
651.043	977.92
651.456	972.69
651.868	972.83
652.28	989.49
652.693	1002.54
653.105	1008.36
653.517	1017.07
653.929	1017.14
654.341	1022.23
654.753	1009.68
655.165	1015.23
655.577	1011.1
655.989	1006.86
656.401	999.39
656.813	965.09
657.224	945.44
657.636	918.52
658.047	902.64
658.459	883.8
658.87	874.59
659.282	864.15
659.693	843.51
660.104	830.69
660.515	817.46
660.926	816.91
661.338	813.64
661.749	809.31
662.159	801.14
662.57	796.79
662.981	793.55
663.392	786.61
663.803	790.29
664.213	788.87
664.624	784.86
665.035	787.94
665.445	774.34
665.855	767.45
666.266	760.55
666.676	758.14
667.086	749.49
667.497	749.81
667.907	745.04
668.317	736.88
668.727	734.41
669.137	735.72
669.547	734.07
669.956	736.19
670.366	738.99
670.776	739.77
671.186	743.34
671.595	747.59
672.005	749.25
672.414	748.72
672.824	747.38
673.233	750.98
673.642	752.47
674.052	755.4
674.461	758.46
674.87	761.32
675.279	759.52
675.688	760.09
676.097	761.09
676.506	757.38
676.915	770.16
677.323	770.78
677.732	767.55
678.141	766.8
678.549	754.71
678.958	751.65
679.366	750.59
679.775	754.21
680.183	763.93
680.592	767.97
681	772.48
681.408	765.06
681.816	771.39
682.224	778.61
682.632	785.69
683.04	812.42
683.448	835.22
683.856	861.19
684.264	891.42
684.671	917.79
685.079	952.49
685.487	991.85
685.894	1045.18
686.302	1090.05
686.709	1126.11
687.116	1167.62
687.524	1201.4
687.931	1229.52
688.338	1252.83
688.745	1271.49
689.152	1294.1
689.559	1326.44
689.966	1358.96
690.373	1372.5
690.78	1402.17
691.187	1452.28
691.593	1490.47
692	1523.08
692.407	1571.18
692.813	1637.19
693.22	1686.6
693.626	1737.76
694.032	1779.51
694.439	1843.87
694.845	1895.16
695.251	1961.1
695.657	2022.48
696.063	2111.05
696.469	2176.46
