Data from N_2_DIV_WI_4N_Splice17_12-18-13-958.txt Node
Date: Sat Mar 14 12:18:13 EDT 2020
User: sa697716
Spectrometer: FLMS03696
Trigger mode: 0
Integration Time (sec): 3.180400E-1
Scans to average: 20
Electric dark correction enabled: true
Nonlinearity correction enabled: true
Boxcar width: 5
XAxis mode: Wavelengths
Number of Pixels in Spectrum: 2048
>>>>>Begin Spectral Data<<<<<
187.83	-339152.74
188.298	2460.36
188.766	1338.13
189.233	1222.76
189.701	1722.71
190.169	2308.14
190.636	833.1
191.104	672.38
191.571	76.04
192.039	-66.4
192.506	-65.9
192.974	321.95
193.441	-444.96
193.908	202.68
194.375	30.93
194.842	110.78
195.31	125.16
195.777	148.43
196.244	374.11
196.711	424.45
197.177	534.8
197.644	760.6
198.111	1323.02
198.578	1860.96
199.045	1471.36
199.511	2443.76
199.978	2831.4
200.445	2424.23
200.911	2687.78
201.378	2987.23
201.844	2696.11
202.31	4625.92
202.777	4831.11
203.243	2692.47
203.709	2573.37
204.176	3094.79
204.642	2574.02
205.108	2429.03
205.574	1980.14
206.04	1807.65
206.506	1702.72
206.972	1627.43
207.438	1570.07
207.903	1779.54
208.369	1558.63
208.835	1564.26
209.301	1633.02
209.766	1678.73
210.232	1661.57
210.697	2082.57
211.163	2597.6
211.628	3958.06
212.094	3348.46
212.559	4154.31
213.024	2619.09
213.49	3205.93
213.955	3136.77
214.42	3100.59
214.885	2897.78
215.35	2798.49
215.815	2696.92
216.28	2902.81
216.745	2381.02
217.21	2603.65
217.675	2434.35
218.14	2796.79
218.604	3206.23
219.069	3741.88
219.534	3997.58
219.998	4724.06
220.463	5815.24
220.927	7301.31
221.392	6949.58
221.856	7109.03
222.32	9055.39
222.785	11264.43
223.249	14248.03
223.713	15953.28
224.177	16028.84
224.642	20617.64
225.106	25487.93
225.57	27938.95
226.034	20771.99
226.497	31638.17
226.961	28577.68
227.425	33280.68
227.889	36927.78
228.353	36946.41
228.816	76402.53
229.28	72961.42
229.744	61633.41
230.207	37412.61
230.671	36780.34
231.134	60915.22
231.597	70198.8
232.061	70202.53
232.524	68463.44
232.987	47085.16
233.45	42298
233.914	37908.96
234.377	38880.88
234.84	35525.17
235.303	41927.56
235.766	46733.28
236.229	48206.65
236.691	30316.88
237.154	34043.2
237.617	25572.43
238.08	26176.92
238.542	30645.63
239.005	21886.21
239.468	21687.71
239.93	20415.41
240.393	18492.74
240.855	16229.19
241.317	16612.12
241.78	20199.75
242.242	20847.2
242.704	22493.11
243.166	19547.41
243.629	17716.23
244.091	20380.24
244.553	22299.9
245.015	23919.27
245.477	30947.86
245.939	45297.1
246.4	48017.9
246.862	46647.47
247.324	43966
247.786	49123.9
248.247	64423.98
248.709	66441.39
249.17	49662.1
249.632	46723.38
250.093	54135.38
250.555	46643.65
251.016	28407.66
251.477	26922.91
251.939	29011.52
252.4	30392.54
252.861	36102.62
253.322	33504.96
253.783	39849.2
254.244	51619.39
254.705	40711.49
255.166	36173.51
255.627	35612.18
256.088	50132.81
256.549	53161.53
257.009	45728.55
257.47	55405.74
257.931	45074.12
258.391	33791.78
258.852	34820.38
259.312	36475.95
259.773	44984.84
260.233	37969.57
260.694	31992.17
261.154	36308.12
261.614	29126.14
262.074	26021.81
262.534	27037.7
262.994	25482.31
263.455	33931.34
263.915	28562.74
264.374	26891.55
264.834	29354.61
265.294	32531.22
265.754	33689.78
266.214	31856.82
266.673	29836.05
267.133	37658.96
267.593	37330.44
268.052	45624.81
268.512	39657.62
268.971	47770.03
269.431	52346.88
269.89	46805.12
270.349	70082
270.809	78014.02
271.268	70044.86
271.727	156990.56
272.186	101626.44
272.645	76121.09
273.104	54891.57
273.563	79391.85
274.022	62434.43
274.481	53070.14
274.94	40861.8
275.399	30385.32
275.857	35361.71
276.316	47848.02
276.775	42544.18
277.233	41834.77
277.692	39114.31
278.15	44224.01
278.609	45441.37
279.067	42013.83
279.525	38976.24
279.984	50311.43
280.442	60316.01
280.9	59400.73
281.358	39038.85
281.816	36355.68
282.274	35573.7
282.732	36774.16
283.19	36916.44
283.648	31841.37
284.106	33888.49
284.564	34442
285.021	31908.69
285.479	23778.98
285.937	21629.61
286.394	18950.3
286.852	19491.29
287.309	20469.53
287.767	19751.11
288.224	18768.81
288.682	20582.17
289.139	22558.21
289.596	20621.66
290.053	21405.51
290.511	26985.59
290.968	32680.4
291.425	44297.58
291.882	36793.95
292.339	32005.15
292.796	31693.85
293.252	29820.42
293.709	23614.25
294.166	21142.54
294.623	23359.72
295.079	22413.06
295.536	22494.47
295.992	20398.66
296.449	20182.61
296.905	20964.64
297.362	20083.34
297.818	21120.64
298.274	21893.88
298.731	22327.97
299.187	22081.32
299.643	23662.83
300.099	28569.45
300.555	31281.94
301.011	26128.36
301.467	25128.44
301.923	29372.96
302.379	28618.07
302.835	28063.41
303.291	28054.95
303.746	31883.56
304.202	40220.34
304.658	40359.13
305.113	27129.39
305.569	26572.38
306.024	28296.6
306.479	26908.32
306.935	22700.22
307.39	24801.77
307.845	22913.28
308.301	23046.96
308.756	22448.73
309.211	21602.95
309.666	22095.65
310.121	27395.74
310.576	27814.01
311.031	27590.71
311.486	31594.15
311.94	31496.08
312.395	42078.36
312.85	78963.81
313.305	387833.88
313.759	2004324.6
314.214	145202.69
314.668	115012.8
315.123	96614.71
315.577	34582.38
316.032	30675.65
316.486	38377.88
316.94	30279.22
317.394	21038.5
317.849	16336.12
318.303	15435.67
318.757	14548.91
319.211	16080.37
319.665	14060.42
320.119	14220.92
320.572	20379.62
321.026	19034.16
321.48	15838.09
321.934	17218.09
322.387	17251.5
322.841	18618.31
323.295	16713.32
323.748	19259.07
324.202	19528.44
324.655	23436.71
325.108	32684.39
325.562	23057.52
326.015	27416.81
326.468	20715.25
326.921	23206.09
327.374	21629.08
327.827	22495.74
328.28	25480.36
328.733	17060.04
329.186	14987.66
329.639	14282.16
330.092	12037.6
330.545	11450.98
330.997	11533.58
331.45	12593.75
331.903	14732.15
332.355	25326.8
332.808	24608.5
333.26	20273.63
333.713	21984.99
334.165	22132.44
334.617	29508.06
335.069	23848.6
335.522	43149.61
335.974	47731.07
336.426	43542.33
336.878	30115.78
337.33	15269.61
337.782	14898.59
338.234	18660.4
338.686	22268.58
339.137	26378.13
339.589	24872.61
340.041	19489.56
340.493	16752.27
340.944	17141.86
341.396	18473.05
341.847	15552.26
342.299	18321.2
342.75	22309.62
343.201	19492.15
343.653	22482.17
344.104	27592.01
344.555	21722.32
345.006	33777.98
345.457	25831.07
345.908	20549.03
346.359	19364.98
346.81	15758.48
347.261	16609.35
347.712	16370.77
348.163	17536.71
348.613	17716.75
349.064	16543.51
349.515	14461.43
349.965	14836.33
350.416	17875.41
350.866	19588.34
351.317	22071.6
351.767	36526.25
352.217	46094.26
352.668	38238.54
353.118	35073.68
353.568	33856.46
354.018	26716.72
354.468	28161.67
354.918	20204.71
355.368	17659.01
355.818	24930.39
356.268	71796.41
356.718	300508.62
357.168	74784.17
357.617	37561.59
358.067	41717.32
358.517	39084.3
358.966	45873.31
359.416	51448.83
359.865	55537.18
360.315	66104.73
360.764	30849.53
361.213	17276.84
361.663	16362.79
362.112	20194.31
362.561	32592.19
363.01	24559.52
363.459	20618.74
363.908	22314.34
364.357	18931.03
364.806	31950.65
365.255	21915.52
365.703	20090.04
366.152	20094.7
366.601	16304.98
367.05	13234.36
367.498	12033.74
367.947	12579.55
368.395	13097.27
368.844	11566.89
369.292	13928.11
369.74	9623.84
370.189	14757.83
370.637	17259.16
371.085	14875.9
371.533	18041.87
371.981	17356.75
372.429	16504.44
372.877	17188.22
373.325	14366.9
373.773	14666.39
374.221	13028.53
374.669	16134.55
375.116	13905.71
375.564	13987.75
376.012	15608.51
376.459	12880.03
376.907	15382.81
377.354	18597.33
377.801	17285.66
378.249	19844.18
378.696	25316.08
379.143	30686.62
379.591	32668.59
380.038	55263.81
380.485	39961.43
380.932	43142.27
381.379	39425.52
381.826	29037.28
382.273	20610.7
382.72	18018.83
383.166	17526.84
383.613	11366.53
384.06	10222.95
384.506	11790.44
384.953	8644.3
385.4	8686.56
385.846	7598.18
386.292	7389.27
386.739	7205.16
387.185	7113.16
387.631	7096.5
388.078	6888.89
388.524	7348.66
388.97	6773.68
389.416	5652.39
389.862	6008.86
390.308	5690.24
390.754	5762.3
391.2	6249.2
391.645	6388.86
392.091	6106.75
392.537	5907.28
392.983	5889.35
393.428	5788.93
393.874	6198.84
394.319	6195.95
394.765	5866.25
395.21	6015.65
395.655	5639.02
396.101	5275.12
396.546	4759.78
396.991	4784.51
397.436	4429.09
397.881	4276.47
398.326	4034.13
398.771	3814.1
399.216	3338.07
399.661	3002.55
400.106	2988.65
400.551	3051.89
400.995	2729.44
401.44	2687.29
401.885	2521.15
402.329	2542.95
402.774	2436.95
403.218	2362.45
403.663	2270.65
404.107	2331.69
404.551	2341.88
404.995	2141.57
405.44	2059.87
405.884	2087.43
406.328	2023.07
406.772	2014.71
407.216	1833.85
407.66	1768.83
408.104	1674.16
408.547	1564.62
408.991	1510.86
409.435	1452.19
409.879	1431.12
410.322	1413.34
410.766	1363.11
411.209	1295.49
411.653	1242.53
412.096	1216.76
412.54	1216.1
412.983	1208.17
413.426	1213.04
413.869	1211.85
414.312	1191.57
414.756	1147.36
415.199	1092.59
415.642	1060.23
416.085	1062.02
416.527	1053.79
416.97	1068.68
417.413	1014.82
417.856	999.73
418.298	987.09
418.741	975.07
419.184	968.47
419.626	1005.51
420.069	1007.22
420.511	1013.08
420.953	989.67
421.396	981.45
421.838	954
422.28	972.75
422.722	979.18
423.164	992.44
423.606	978.52
424.048	977.13
424.49	930.07
424.932	922.89
425.374	907.28
425.816	921.84
426.258	935.81
426.699	947.61
427.141	936.07
427.582	949.83
428.024	944.45
428.465	937.05
428.907	914.69
429.348	903.55
429.789	902.98
430.231	885.19
430.672	894.84
431.113	875.37
431.554	863.2
431.995	840.03
432.436	812.14
432.877	795.16
433.318	781.75
433.759	779.2
434.2	779.43
434.64	771.11
435.081	773.25
435.522	734.61
435.962	708.98
436.403	693.96
436.843	703.9
437.284	687.45
437.724	668.12
438.164	670.06
438.604	652.5
439.045	627.82
439.485	602.62
439.925	590.19
440.365	573.46
440.805	563.81
441.245	555.7
441.685	533.77
442.125	528.79
442.564	530.9
443.004	518.25
443.444	518.08
443.883	519.06
444.323	514.57
444.762	513.53
445.202	520.38
445.641	531.97
446.081	528.59
446.52	533.06
446.959	529.26
447.398	516.29
447.837	510.22
448.276	500.06
448.716	503.32
449.154	507.36
449.593	497.48
450.032	496.27
450.471	484.23
450.91	483.82
451.349	483.13
451.787	479.26
452.226	486.15
452.664	486.33
453.103	486.65
453.541	486.22
453.98	485.19
454.418	486.8
454.856	479.5
455.295	478.71
455.733	483.57
456.171	485.59
456.609	486.44
457.047	486.57
457.485	494.73
457.923	496.43
458.361	488.82
458.798	489.24
459.236	488.57
459.674	491.26
460.111	493.15
460.549	487.17
460.987	485.48
461.424	484.28
461.862	481.41
462.299	472.04
462.736	471.79
463.173	473.66
463.611	471.8
464.048	471
464.485	475.48
464.922	472.28
465.359	470.07
465.796	467.32
466.233	463.49
466.67	461.24
467.106	461.54
467.543	456.58
467.98	450.66
468.416	437.66
468.853	433.53
469.29	420.7
469.726	416.09
470.162	404.43
470.599	396.55
471.035	391.95
471.471	381.4
471.907	378.41
472.344	375.7
472.78	377.09
473.216	380.75
473.652	375.86
474.088	374.17
474.523	373.5
474.959	376.78
475.395	372.11
475.831	370.81
476.266	372.54
476.702	370.92
477.138	367.07
477.573	365.45
478.008	363.77
478.444	365.27
478.879	368.43
479.314	368.94
479.75	368.42
480.185	370.3
480.62	372.69
481.055	373.06
481.49	376.13
481.925	380.98
482.36	388.37
482.795	398.81
483.229	408.59
483.664	416.85
484.099	417.75
484.534	423.16
484.968	427.13
485.403	427.6
485.837	427.22
486.271	425.69
486.706	425.53
487.14	420.23
487.574	413.7
488.009	410.47
488.443	406.61
488.877	411.92
489.311	413.75
489.745	418.51
490.179	423.74
490.613	433.26
491.046	437.27
491.48	441.05
491.914	441.47
492.348	445.17
492.781	448.68
493.215	450.32
493.648	451.92
494.082	456.42
494.515	457.94
494.948	464.21
495.382	467.28
495.815	471.99
496.248	476.45
496.681	485.77
497.114	494.28
497.547	501.95
497.98	512.69
498.413	517.26
498.846	525.48
499.279	532.46
499.711	536.04
500.144	539.39
500.577	548.83
501.009	558.12
501.442	567.44
501.874	570.69
502.306	574.14
502.739	582.55
503.171	596.02
503.603	601.14
504.036	610.77
504.468	617.92
504.9	628.84
505.332	635.77
505.764	642
506.196	650.46
506.627	664.08
507.059	677.31
507.491	686
507.923	688.28
508.354	702.75
508.786	714.56
509.217	731.57
509.649	747.27
510.08	765.13
510.512	782.74
510.943	798.32
511.374	811.95
511.805	831.95
512.237	851
512.668	880.46
513.099	905.88
513.53	931.18
513.961	952.18
514.391	982.12
514.822	1013.18
515.253	1046.34
515.684	1070.84
516.114	1099.74
516.545	1122.07
516.975	1147.31
517.406	1165.28
517.836	1171.4
518.267	1181.76
518.697	1201.39
519.127	1208.07
519.558	1218.09
519.988	1225.41
520.418	1238.46
520.848	1256.46
521.278	1267.39
521.708	1291.86
522.138	1306.91
522.567	1336.63
522.997	1361.19
523.427	1376.71
523.857	1395.71
524.286	1408.42
524.716	1424.01
525.145	1443.09
525.575	1455.17
526.004	1470.37
526.433	1463.56
526.863	1465.86
527.292	1460.08
527.721	1467.21
528.15	1475.48
528.579	1477.43
529.008	1489.09
529.437	1510.82
529.866	1524.02
530.295	1540.26
530.724	1552.4
531.152	1577.56
531.581	1592.19
532.01	1608.95
532.438	1617.41
532.867	1631.01
533.295	1647.77
533.723	1653.21
534.152	1651.72
534.58	1652.65
535.008	1639.58
535.436	1642.99
535.865	1650.52
536.293	1663.05
536.721	1678.08
537.149	1701.51
537.576	1704.65
538.004	1717.51
538.432	1725.14
538.86	1724.64
539.287	1731.33
539.715	1743.68
540.143	1745.91
540.57	1741.51
540.998	1738.74
541.425	1718.37
541.852	1699.78
542.28	1697.62
542.707	1682.45
543.134	1669.65
543.561	1665.28
543.988	1658.08
544.415	1658.17
544.842	1653.37
545.269	1646.42
545.696	1648.43
546.123	1659.84
546.549	1650.21
546.976	1637.78
547.403	1636.89
547.829	1639.48
548.256	1641.19
548.682	1639
549.108	1631.13
549.535	1629.7
549.961	1632.5
550.387	1619.19
550.813	1613.28
551.24	1619.23
551.666	1621.29
552.092	1612.37
552.518	1605.62
552.943	1600.69
553.369	1605.74
553.795	1610.87
554.221	1611.38
554.646	1607.28
555.072	1616.56
555.498	1621.37
555.923	1627.78
556.349	1640.72
556.774	1647.57
557.199	1648.3
557.625	1651.98
558.05	1645.09
558.475	1653.99
558.9	1651.16
559.325	1642.58
559.75	1635.87
560.175	1627.9
560.6	1620.61
561.025	1615.67
561.449	1615.45
561.874	1617.93
562.299	1620.43
562.723	1625.45
563.148	1613.97
563.572	1615.99
563.997	1623.57
564.421	1626.39
564.846	1625.2
565.27	1626.4
565.694	1622.06
566.118	1629.26
566.542	1633.7
566.966	1625.21
567.39	1619.52
567.814	1606.74
568.238	1603.87
568.662	1605
569.086	1604.44
569.509	1608.45
569.933	1592.99
570.357	1583.67
570.78	1562.21
571.204	1548.45
571.627	1536.79
572.05	1531.92
572.474	1530.86
572.897	1517.5
573.32	1509.49
573.743	1499.15
574.166	1480.02
574.589	1477.08
575.012	1469.59
575.435	1467.38
575.858	1457.38
576.281	1445.1
576.704	1429.59
577.126	1416.14
577.549	1404.68
577.972	1392.98
578.394	1381.41
578.817	1373.51
579.239	1356.72
579.661	1343.12
580.084	1328.29
580.506	1314.23
580.928	1309.55
581.35	1298.14
581.772	1291.84
582.194	1279.28
582.616	1267.79
583.038	1254.54
583.46	1244.36
583.882	1240.49
584.303	1241.64
584.725	1235.86
585.147	1237.2
585.568	1244.43
585.99	1253.6
586.411	1259.49
586.833	1269.99
587.254	1270.38
587.675	1280.06
588.096	1289.5
588.518	1283.17
588.939	1269.58
589.36	1267.27
589.781	1255.89
590.202	1231.76
590.623	1223.89
591.043	1219.83
591.464	1208.35
591.885	1203.82
592.305	1198.64
592.726	1186.62
593.147	1187.09
593.567	1181.99
593.987	1175.4
594.408	1171.8
594.828	1169.14
595.248	1163.24
595.669	1147.39
596.089	1141.92
596.509	1136
596.929	1124.93
597.349	1124.22
597.769	1114.94
598.189	1108.55
598.608	1108.87
599.028	1110
599.448	1109.21
599.867	1098.47
600.287	1094.65
600.706	1090.53
601.126	1082.32
601.545	1080.9
601.965	1079.06
602.384	1073.43
602.803	1074.88
603.222	1070.72
603.641	1063.96
604.061	1060.75
604.48	1057.35
604.898	1063.17
605.317	1066.01
605.736	1066.79
606.155	1063.33
606.574	1055.31
606.992	1059.17
607.411	1054.4
607.829	1045.8
608.248	1041.58
608.666	1038.66
609.085	1035.9
609.503	1027.45
609.921	1021.29
610.339	1020.66
610.758	1018.04
611.176	1012.88
611.594	1004.99
612.012	1000.74
612.43	1001.85
612.847	1005.09
613.265	1003.69
613.683	1005.86
614.101	1005.18
614.518	999.85
614.936	991.48
615.353	979.48
615.771	975.52
616.188	973.07
616.606	969.33
617.023	962.77
617.44	950.52
617.857	943.86
618.274	936.39
618.691	929.88
619.108	922.45
619.525	916.34
619.942	920.3
620.359	921.79
620.776	917.46
621.192	913.75
621.609	911.41
622.026	916.42
622.442	920.06
622.859	920.86
623.275	915.19
623.691	918.16
624.108	926.29
624.524	935.74
624.94	935.25
625.356	941.97
625.772	950.49
626.188	958.2
626.604	958.49
627.02	954.77
627.436	953.51
627.852	958.79
628.268	967.12
628.683	958.93
629.099	952.47
629.514	947.96
629.93	950.62
630.345	954.12
630.761	950.71
631.176	952.59
631.591	948.76
632.007	943.64
632.422	940.45
632.837	930.24
633.252	928.31
633.667	919.4
634.082	911.21
634.497	900.28
634.911	884.29
635.326	879.57
635.741	865.7
636.155	856.59
636.57	854.96
636.984	852.75
637.399	853.62
637.813	850.6
638.228	847.93
638.642	849.23
639.056	839.39
639.47	836.94
639.884	829.32
640.298	822.78
640.712	819.49
641.126	809.04
641.54	801.06
641.954	794.22
642.368	784.23
642.781	776.38
643.195	761.13
643.609	759.3
644.022	752.45
644.436	746.49
644.849	735.72
645.262	725.08
645.676	723.29
646.089	717.97
646.502	705.61
646.915	700.03
647.328	686.5
647.741	683.94
648.154	674.33
648.567	672.45
648.98	663.01
649.393	662.15
649.805	658.85
650.218	651.82
650.631	640.32
651.043	635.96
651.456	630.87
651.868	630.68
652.28	639.36
652.693	645.24
653.105	646.47
653.517	651.55
653.929	650.57
654.341	652.63
654.753	644.85
655.165	647.18
655.577	643.6
655.989	640.08
656.401	633.52
656.813	611.17
657.224	598.63
657.636	580.1
658.047	568.11
658.459	555.05
658.87	547.84
659.282	539.65
659.693	527.02
660.104	517.66
660.515	506.79
660.926	503.2
661.338	499.93
661.749	494.77
662.159	488.55
662.57	485.12
662.981	481.88
663.392	476.31
663.803	478.01
664.213	475.55
664.624	471.86
665.035	473.79
665.445	465.25
665.855	461.42
666.266	456.37
666.676	454.24
667.086	447.6
667.497	446.73
667.907	443.67
668.317	438.27
668.727	438.63
669.137	439.26
669.547	438.93
669.956	441.06
670.366	442.05
670.776	443.5
671.186	446.79
671.595	449.7
672.005	451.99
672.414	452.73
672.824	453.24
673.233	454.56
673.642	456.32
674.052	458.43
674.461	462.23
674.87	466.23
675.279	466.39
675.688	467.38
676.097	469.37
676.506	467.87
676.915	477.17
677.323	479.03
677.732	478.7
678.141	478.84
678.549	473.21
678.958	472.3
679.366	471.56
679.775	475.22
680.183	484.08
680.592	487.13
681	492.04
681.408	488.09
681.816	493.67
682.224	499.11
682.632	507.3
683.04	525.72
683.448	542.49
683.856	563.37
684.264	585.84
684.671	605.86
685.079	634.09
685.487	662.25
685.894	702.73
686.302	736.21
686.709	766.04
687.116	800.6
687.524	830.08
687.931	856.79
688.338	882.54
688.745	904.45
689.152	930.29
689.559	964.14
689.966	999.57
690.373	1022.13
690.78	1058.06
691.187	1108.66
691.593	1150.59
692	1189.7
692.407	1242.01
692.813	1306.35
693.22	1360.54
693.626	1415.77
694.032	1464.03
694.439	1532.63
694.845	1587.79
695.251	1657.29
695.657	1720.72
696.063	1811.68
696.469	1883.21
696.875	1952.71
697.281	1996.68
697.687	2049.7
698.093	2096.77
698.498	2172.5
698.904	2233.4
699.31	2320.54
699.715	2387.01
700.12	2478.01
700.526	2506.46
