Data from N_2_DEC_ON_6N_Splice17_12-15-10-524.txt Node
Date: Sat Mar 14 12:15:10 EDT 2020
User: sa697716
Spectrometer: FLMS03696
Trigger mode: 0
Integration Time (sec): 3.180400E-1
Scans to average: 20
Electric dark correction enabled: true
Nonlinearity correction enabled: true
Boxcar width: 5
XAxis mode: Wavelengths
Number of Pixels in Spectrum: 2048
>>>>>Begin Spectral Data<<<<<
187.83	-277762.5
188.298	2180.92
188.766	1191.29
189.233	1095.11
189.701	1501.42
190.169	2101.83
190.636	898.19
191.104	694.37
191.571	139.98
192.039	-13.18
192.506	66.04
192.974	580.46
193.441	-609.82
193.908	-91.13
194.375	32.1
194.842	74.23
195.31	188.83
195.777	240.88
196.244	437.31
196.711	557.83
197.177	693.43
197.644	988.49
198.111	1674.51
198.578	2357.9
199.045	1906.83
199.511	3085.25
199.978	3600.18
200.445	3044.18
200.911	3364.3
201.378	3768.94
201.844	3363.63
202.31	5801.5
202.777	6043.61
203.243	3363.58
203.709	3175.83
204.176	3775.21
204.642	3139.77
205.108	2940.09
205.574	2407.29
206.04	2202.09
206.506	2053.2
206.972	1970.95
207.438	1887.29
207.903	2153.91
208.369	1897.84
208.835	1875.29
209.301	1966.37
209.766	1998.87
210.232	1968.2
210.697	2430.68
211.163	2989.82
211.628	4522.58
212.094	3748.12
212.559	4583.44
213.024	2843.5
213.49	3439.62
213.955	3384.67
214.42	3293.33
214.885	3054.13
215.35	2930.19
215.815	2776.54
216.28	2964.68
216.745	2401.49
217.21	2586.48
217.675	2367.46
218.14	2631.09
218.604	2910
219.069	3278.94
219.534	3400.98
219.998	3918.94
220.463	4704.23
220.927	5757.7
221.392	5371.07
221.856	5428.93
222.32	6804.48
222.785	8343.54
223.249	10477
223.713	11666.7
224.177	11613.73
224.642	14859.9
225.106	18246.74
225.57	19883.14
226.034	14790.4
226.497	22456.35
226.961	20204.19
227.425	23475.36
227.889	25990.43
228.353	25890.68
228.816	53315.42
229.28	51019.46
229.744	42945.72
230.207	26076.79
230.671	25609.93
231.134	42256.34
231.597	48575.12
232.061	48476.04
232.524	47186.86
232.987	32429.96
233.45	29191.38
233.914	26143.66
234.377	26726.64
234.84	24458.55
235.303	28799.44
235.766	32096.59
236.229	33132.17
236.691	20882.56
237.154	23441.33
237.617	17656.44
238.08	18085.22
238.542	21146.21
239.005	15111.28
239.468	14984.3
239.93	14106.16
240.393	12818.2
240.855	11239.53
241.317	11497.48
241.78	13967.43
242.242	14441.4
242.704	15556.11
243.166	13529.75
243.629	12273.07
244.091	14119.79
244.553	15468.53
245.015	16603.49
245.477	21443.8
245.939	31396.06
246.4	33259.3
246.862	32294.18
247.324	30382.12
247.786	33966.73
248.247	44477.86
248.709	45887.46
249.17	34295.59
249.632	32268.38
250.093	37370.97
250.555	32215.81
251.016	19631.61
251.477	18611.41
251.939	20060.04
252.4	20997.2
252.861	24917.09
253.322	23145.89
253.783	27475.02
254.244	35524.88
254.705	27953.48
255.166	24778.96
255.627	24360.61
256.088	34305.32
256.549	36349.65
257.009	31211.75
257.47	37790.15
257.931	30739.23
258.391	22965.66
258.852	23631.95
259.312	24748.18
259.773	30499.36
260.233	25763.48
260.694	21695.7
261.154	24560
261.614	19683.52
262.074	17582.2
262.534	18235.88
262.994	17139.62
263.455	22818.28
263.915	19183.65
264.374	17998.17
264.834	19601.71
265.294	21649.6
265.754	22351.25
266.214	21095.11
266.673	19714.85
267.133	24774.91
267.593	24539.23
268.052	29948.82
268.512	25971.02
268.971	31270.9
269.431	34232.74
269.89	30608.63
270.349	45799.93
270.809	51011.75
271.268	45816.55
271.727	102568.26
272.186	66443.52
272.645	49757.64
273.104	35878.59
273.563	51868.79
274.022	40722.77
274.481	34668.14
274.94	26685.27
275.399	19844.05
275.857	23074.56
276.316	31194.04
276.775	27742.29
277.233	27310.65
277.692	25577.79
278.15	28887.65
278.609	29724.23
279.067	27514.35
279.525	25565.07
279.984	32992.82
280.442	39595.51
280.9	39139.13
281.358	25730.56
281.816	24009.29
282.274	23507.36
282.732	24306.04
283.19	24444.02
283.648	21110.32
284.106	22503.89
284.564	22901.69
285.021	21278.71
285.479	15880.07
285.937	14416.51
286.394	12674.3
286.852	13039
287.309	13710.1
287.767	13247.23
288.224	12620.89
288.682	13860.96
289.139	15221.87
289.596	13936.83
290.053	14482.29
290.511	18245.7
290.968	22135.17
291.425	30000.33
291.882	24986.98
292.339	21734.75
292.796	21571.62
293.252	20323.35
293.709	16136.76
294.166	14458.46
294.623	15961.36
295.079	15321.35
295.536	15425.6
295.992	14026.49
296.449	13890.94
296.905	14423.79
297.362	13854.2
297.818	14560.27
298.274	15127.27
298.731	15433.28
299.187	15291.04
299.643	16434.05
300.099	19881.86
300.555	21803.57
301.011	18230.61
301.467	17580.81
301.923	20604.21
302.379	20142.77
302.835	19807.71
303.291	19868.18
303.746	22626.05
304.202	28581.62
304.658	28735.32
305.113	19330.82
305.569	18973.8
306.024	20250.72
306.479	19301.18
306.935	16317.41
307.39	17856.46
307.845	16534.78
308.301	16640.96
308.756	16249.79
309.211	15688.43
309.666	16090.57
310.121	20062.62
310.576	20404.65
311.031	20257.52
311.486	23244.04
311.94	23266
312.395	31156.28
312.85	58631.81
313.305	288277.19
313.759	1495701.23
314.214	108567.94
314.668	86223.84
315.123	72494.93
315.577	26045.02
316.032	23214.98
316.486	29125.62
316.94	22982.16
317.394	16024.68
317.849	12462.06
318.303	11799.86
318.757	11125.44
319.211	12318.97
319.665	10784.27
320.119	10912.61
320.572	15623.24
321.026	14577.35
321.48	12136.84
321.934	13229.67
322.387	13256.61
322.841	14315.79
323.295	12873.13
323.748	14825.55
324.202	15031.01
324.655	18054.24
325.108	25261.71
325.562	17851.74
326.015	21265.35
326.468	16051.4
326.921	17980.23
327.374	16748.48
327.827	17432.9
328.28	19750.99
328.733	13249.66
329.186	11655.42
329.639	11103.37
330.092	9352.16
330.545	8924.69
330.997	8999.61
331.45	9864.35
331.903	11572.07
332.355	19892.23
332.808	19309.7
333.26	15917.24
333.713	17273.67
334.165	17403.97
334.617	23239.59
335.069	18790.17
335.522	33929.2
335.974	37565.63
336.426	34324.78
336.878	23752.45
337.33	12076.2
337.782	11826.38
338.234	14846.4
338.686	17783.66
339.137	21098.53
339.589	19894.35
340.041	15608.71
340.493	13446.83
340.944	13792.86
341.396	14838.69
341.847	12472.94
342.299	14699.92
342.75	17941.62
343.201	15670.86
343.653	17984.02
344.104	22061.64
344.555	17316.3
345.006	26937.82
345.457	20594.63
345.908	16312.18
346.359	15350.09
346.81	12488.57
347.261	13167.69
347.712	12968.4
348.163	13888.91
348.613	14078.62
349.064	13124.28
349.515	11495.9
349.965	11792.95
350.416	14195.94
350.866	15569.28
351.317	17610.91
351.767	29238.67
352.217	36922.51
352.668	30670.49
353.118	28115.39
353.568	27074.79
354.018	21459.82
354.468	22670.43
354.918	16237.75
355.368	14228.46
355.818	20159.18
356.268	57948.57
356.718	242669.18
357.168	60460.05
357.617	30269.55
358.067	33649.41
358.517	31573.01
358.966	37127.22
359.416	41668.56
359.865	45051.9
360.315	53621.06
360.764	25071.86
361.213	14066.41
361.663	13333.53
362.112	16456.78
362.561	26573.89
363.01	20119.51
363.459	16933.64
363.908	18266.17
364.357	15516.48
364.806	26202.28
365.255	18040.91
365.703	16515.12
366.152	16544.07
366.601	13375.16
367.05	10878.36
367.498	9936.31
367.947	10344.14
368.395	10772.06
368.844	9557.82
369.292	11530.46
369.74	7983.4
370.189	12213.04
370.637	14297.47
371.085	12317.81
371.533	15023.31
371.981	14417.71
372.429	13700.32
372.877	14296.3
373.325	11961.37
373.773	12176.58
374.221	10839.05
374.669	13454.29
375.116	11629.12
375.564	11707.28
376.012	13099.47
376.459	10801.44
376.907	12921.19
377.354	15617.73
377.801	14570.35
378.249	16745.42
378.696	21396.34
379.143	25870.04
379.591	27534.18
380.038	46595.23
380.485	33743.78
380.932	36493.87
381.379	33395.29
381.826	24640.6
382.273	17512.38
382.72	15308.9
383.166	14912.15
383.613	9681.75
384.06	8738.78
384.506	10111.56
384.953	7416.96
385.4	7460.48
385.846	6523.21
386.292	6357.56
386.739	6219.41
387.185	6158.78
387.631	6168.54
388.078	6014.71
388.524	6453.12
388.97	5973.24
389.416	4992.94
389.862	5319.5
390.308	5050.58
390.754	5135.51
391.2	5566.96
391.645	5707.7
392.091	5469.92
392.537	5296.29
392.983	5299.65
393.428	5218.53
393.874	5597.7
394.319	5626.8
394.765	5351.87
395.21	5512.49
395.655	5175.81
396.101	4873.31
396.546	4401.78
396.991	4452.64
397.436	4134.2
397.881	4003.9
398.326	3792.24
398.771	3593.91
399.216	3152.72
399.661	2846.05
400.106	2840.04
400.551	2919.68
400.995	2617.93
401.44	2595.98
401.885	2440.2
402.329	2467.77
402.774	2364.85
403.218	2292.58
403.663	2208.61
404.107	2271.92
404.551	2291.9
404.995	2101.72
405.44	2026.39
405.884	2059.13
406.328	1993.47
406.772	1990.98
407.216	1819.88
407.66	1763.85
408.104	1676.93
408.547	1574.52
408.991	1525.42
409.435	1463.92
409.879	1445.8
410.322	1427.59
410.766	1382.88
411.209	1317.19
411.653	1263.6
412.096	1238.81
412.54	1238.78
412.983	1233.66
413.426	1238.15
413.869	1238.62
414.312	1219.02
414.756	1175.26
415.199	1123.68
415.642	1092.71
416.085	1096.02
416.527	1090.31
416.97	1107.27
417.413	1053.53
417.856	1040.42
418.298	1029.81
418.741	1021.07
419.184	1018.02
419.626	1059.97
420.069	1057.73
420.511	1063.35
420.953	1039.62
421.396	1030.8
421.838	1005.29
422.28	1026.98
422.722	1034.16
423.164	1048.64
423.606	1031.59
424.048	1032.07
424.49	983.26
424.932	981.49
425.374	966.99
425.816	984.04
426.258	1000.27
426.699	1009.51
427.141	993.9
427.582	1007.58
428.024	1000.34
428.465	995.16
428.907	969.8
429.348	960.23
429.789	958.64
430.231	938.8
430.672	949.67
431.113	929.45
431.554	919.83
431.995	899.79
432.436	871.37
432.877	857.74
433.318	845.07
433.759	843.18
434.2	843.48
434.64	836.69
435.081	842.71
435.522	803.25
435.962	776.58
436.403	760.65
436.843	771.62
437.284	754.75
437.724	733.6
438.164	735.45
438.604	722.04
439.045	695.38
439.485	667.63
439.925	653.59
440.365	639.81
440.805	631.87
441.245	624.33
441.685	603.17
442.125	599.68
442.564	604.06
443.004	593.09
443.444	592.72
443.883	594.6
444.323	591.83
444.762	592.62
445.202	600.46
445.641	614.09
446.081	611.7
446.52	618.11
446.959	614.73
447.398	603.13
447.837	598.58
448.276	589.46
448.716	599.22
449.154	606.69
449.593	595.69
450.032	594.94
450.471	584.34
450.91	588.13
451.349	588.68
451.787	586.72
452.226	595.44
452.664	595.87
453.103	597.69
453.541	596.62
453.98	596
454.418	601.99
454.856	592.85
455.295	593.77
455.733	597.69
456.171	601.03
456.609	603.31
457.047	604.5
457.485	613.85
457.923	615.53
458.361	606.87
458.798	609.04
459.236	605.83
459.674	611.06
460.111	612.4
460.549	606.99
460.987	604.57
461.424	602.56
461.862	599.16
462.299	589.41
462.736	589.24
463.173	592.17
463.611	586.35
464.048	585.96
464.485	591.7
464.922	587.59
465.359	584.67
465.796	578.56
466.233	574.32
466.67	569.19
467.106	567.81
467.543	561.74
467.98	554.18
468.416	540.23
468.853	536.43
469.29	518.92
469.726	513.05
470.162	499.08
470.599	492.05
471.035	487.3
471.471	477.11
471.907	474.19
472.344	471.35
472.78	472.26
473.216	477.62
473.652	471.81
474.088	471.13
474.523	469.78
474.959	474.47
475.395	469.58
475.831	466.85
476.266	467.44
476.702	465.84
477.138	461.25
477.573	459.8
478.008	458.68
478.444	461.15
478.879	465.16
479.314	467.48
479.75	467.48
480.185	470.01
480.62	474.5
481.055	477.92
481.49	481.75
481.925	488.95
482.36	498.84
482.795	512.02
483.229	525.01
483.664	536.01
484.099	537.72
484.534	546.33
484.968	551.96
485.403	553.09
485.837	552.34
486.271	552.01
486.706	552.55
487.14	545.61
487.574	538.2
488.009	533.87
488.443	529.84
488.877	536.64
489.311	539.5
489.745	545.94
490.179	552.45
490.613	564.74
491.046	569.77
491.48	575.42
491.914	577.9
492.348	583.13
492.781	588.12
493.215	591.35
493.648	593.44
494.082	598.94
494.515	602.02
494.948	610.43
495.382	615.4
495.815	622.44
496.248	629.15
496.681	642.74
497.114	654.77
497.547	667.01
497.98	681.88
498.413	691.63
498.846	703.6
499.279	714.62
499.711	722.19
500.144	727.44
500.577	740.56
501.009	755.3
501.442	768
501.874	774.56
502.306	780.9
502.739	792.32
503.171	809.79
503.603	817.92
504.036	831.44
504.468	841.8
504.9	858.95
505.332	871.45
505.764	880.21
506.196	892.89
506.627	912.18
507.059	930.19
507.491	944.75
507.923	948.17
508.354	968.8
508.786	985.31
509.217	1008.77
509.649	1029.81
510.08	1054.32
510.512	1077.45
510.943	1098.29
511.374	1116.1
511.805	1143.42
512.237	1169.35
512.668	1210.51
513.099	1245.46
513.53	1281.55
513.961	1311.44
514.391	1350.49
514.822	1393.09
515.253	1438.25
515.684	1472.18
516.114	1511.13
516.545	1540.15
516.975	1574.85
517.406	1599.67
517.836	1607.37
518.267	1618.11
518.697	1641.48
519.127	1652.45
519.558	1664.82
519.988	1673.89
520.418	1690.29
520.848	1715.42
521.278	1730.23
521.708	1747.72
522.138	1765.88
522.567	1806.18
522.997	1840.47
523.427	1862.55
523.857	1885.52
524.286	1900.59
524.716	1920.84
525.145	1944.92
525.575	1958.98
526.004	1978.51
526.433	1980.62
526.863	1983.97
527.292	1974.34
527.721	1981.88
528.15	1991.19
528.579	1994.16
529.008	2009.2
529.437	2038.63
529.866	2057.26
530.295	2080.38
530.724	2096.46
531.152	2131.55
531.581	2149.57
532.01	2171.82
532.438	2184.76
532.867	2204.22
533.295	2227.37
533.723	2236.07
534.152	2234.45
534.58	2234.92
535.008	2218.16
535.436	2221.56
535.865	2232.34
536.293	2252.81
536.721	2273.48
537.149	2305.35
537.576	2309.16
538.004	2326
538.432	2337.19
538.86	2337.2
539.287	2348.33
539.715	2364.72
540.143	2369.89
540.57	2365.82
540.998	2360.12
541.425	2333.52
541.852	2307.52
542.28	2307.03
542.707	2286.58
543.134	2269.76
543.561	2262.9
543.988	2253.07
544.415	2251.74
544.842	2244.73
545.269	2235.14
545.696	2238.39
546.123	2253.63
546.549	2241.19
546.976	2223.78
547.403	2223.89
547.829	2225.64
548.256	2229
548.682	2224.64
549.108	2216.34
549.535	2215.69
549.961	2217.5
550.387	2199.64
550.813	2192.15
551.24	2198.64
551.666	2199.9
552.092	2187.96
552.518	2179.13
552.943	2170.66
553.369	2179.44
553.795	2184.4
554.221	2184.09
554.646	2180.02
555.072	2191.64
555.498	2197.34
555.923	2209.38
556.349	2226.84
556.774	2236.61
557.199	2238.89
557.625	2247.06
558.05	2239.16
558.475	2251.93
558.9	2251.6
559.325	2241.93
559.75	2234.59
560.175	2225.27
560.6	2216.4
561.025	2214.22
561.449	2214.89
561.874	2220.19
562.299	2223.94
562.723	2230.99
563.148	2218.39
563.572	2221.48
563.997	2231.26
564.421	2238.09
564.846	2237.55
565.27	2239.69
565.694	2234.2
566.118	2247.73
566.542	2255.67
566.966	2247.24
567.39	2241.03
567.814	2224.71
568.238	2223.08
568.662	2228.34
569.086	2228.79
569.509	2236.33
569.933	2216.84
570.357	2207.4
570.78	2178.75
571.204	2161.7
571.627	2147.13
572.05	2143.71
572.474	2143.47
572.897	2127.1
573.32	2116.63
573.743	2104.05
574.166	2080.68
574.589	2080.03
575.012	2068.62
575.435	2065.9
575.858	2052.51
576.281	2037.59
576.704	2017.48
577.126	2001.29
577.549	1985.89
577.972	1972.2
578.394	1956.89
578.817	1946.87
579.239	1922.7
579.661	1906.07
580.084	1886.24
580.506	1870.12
580.928	1863.98
581.35	1848.87
581.772	1841.98
582.194	1825.25
582.616	1808.88
583.038	1792.42
583.46	1779.05
583.882	1774.77
584.303	1778.21
584.725	1772.31
585.147	1772.71
585.568	1784.91
585.99	1798.81
586.411	1805.27
586.833	1822.66
587.254	1824.52
587.675	1840.7
588.096	1855.18
588.518	1848.41
588.939	1827.81
589.36	1824.84
589.781	1812.77
590.202	1777.06
590.623	1766.02
591.043	1762.96
591.464	1746.61
591.885	1740.25
592.305	1732.9
592.726	1716.23
593.147	1716.78
593.567	1710.38
593.987	1701.53
594.408	1694.13
594.828	1692.04
595.248	1684.19
595.669	1662.68
596.089	1654.74
596.509	1647.86
596.929	1631.24
597.349	1631.05
597.769	1617.85
598.189	1610.08
598.608	1611.58
599.028	1614.36
599.448	1613.95
599.867	1598.77
600.287	1592.42
600.706	1586.22
601.126	1574.82
601.545	1572.91
601.965	1570.77
602.384	1564.9
602.803	1567.73
603.222	1560.2
603.641	1551.92
604.061	1546.68
604.48	1542.31
604.898	1550.74
605.317	1555.85
605.736	1556.51
606.155	1551.82
606.574	1540.79
606.992	1545.47
607.411	1539.29
607.829	1529.95
608.248	1524.37
608.666	1521.43
609.085	1518.71
609.503	1507.46
609.921	1498.99
610.339	1500.11
610.758	1497.44
611.176	1490.81
611.594	1480.33
612.012	1473.77
612.43	1475.52
612.847	1481.54
613.265	1480.16
613.683	1483.99
614.101	1484.96
614.518	1478.26
614.936	1466.03
615.353	1449.99
615.771	1444.65
616.188	1442.4
616.606	1438.5
617.023	1430.31
617.44	1412.7
617.857	1404.53
618.274	1394.26
618.691	1386.39
619.108	1376.19
619.525	1368.45
619.942	1374.35
620.359	1377.06
620.776	1370.61
621.192	1365.01
621.609	1361.97
622.026	1369.47
622.442	1374.94
622.859	1378.11
623.275	1370.03
623.691	1375.77
624.108	1388.56
624.524	1403.04
624.94	1402.06
625.356	1412.74
625.772	1427.15
626.188	1438.32
626.604	1439.67
627.02	1435.44
627.436	1432.62
627.852	1439.74
628.268	1453.83
628.683	1443.08
629.099	1433.59
629.514	1428.37
629.93	1432.56
630.345	1435.77
630.761	1432.23
631.176	1434.67
631.591	1426.67
632.007	1418.4
632.422	1415.28
632.837	1400.37
633.252	1395.23
633.667	1383.1
634.082	1371.07
634.497	1354.79
634.911	1332.11
635.326	1324.6
635.741	1304.05
636.155	1291.24
636.57	1289.83
636.984	1286.68
637.399	1286.1
637.813	1283.57
638.228	1279.25
638.642	1282.52
639.056	1269.27
639.47	1267.6
639.884	1257.62
640.298	1248.68
640.712	1245.12
641.126	1230.43
641.54	1217.87
641.954	1208.69
642.368	1193.74
642.781	1182.7
643.195	1161.23
643.609	1159.3
644.022	1150.36
644.436	1141.67
644.849	1126.45
645.262	1111.01
645.676	1108.87
646.089	1102.08
646.502	1083.49
646.915	1074.82
647.328	1055.34
647.741	1050.18
648.154	1032.89
648.567	1026.75
648.98	1011.01
649.393	1008.72
649.805	1002.42
650.218	992.66
650.631	974.58
651.043	967.32
651.456	959.61
651.868	959.05
652.28	973.88
652.693	985.53
653.105	989.69
653.517	997.61
653.929	995.32
654.341	998.43
654.753	983.88
655.165	987.06
655.577	981.34
655.989	974.56
656.401	963.87
656.813	925.97
657.224	903.72
657.636	873.99
658.047	855.11
658.459	833.73
658.87	822.02
659.282	808.35
659.693	785.8
660.104	770.39
660.515	754.62
660.926	748.27
661.338	743.19
661.749	735.19
662.159	723.68
662.57	715.73
662.981	709.26
663.392	699.05
663.803	699.65
664.213	694.35
664.624	686.78
665.035	686.55
665.445	672.86
665.855	663.26
666.266	654.11
666.676	650.11
667.086	640.52
667.497	637.77
667.907	631.77
668.317	622.52
668.727	619.56
669.137	618.12
669.547	614.4
669.956	614.86
670.366	615.64
670.776	616.08
671.186	616.85
671.595	618.34
672.005	620
672.414	619
672.824	616.78
673.233	618.32
673.642	620.71
674.052	622.99
674.461	625.71
674.87	628.87
675.279	626.28
675.688	628.4
676.097	629.94
676.506	628.19
676.915	639.61
677.323	643.63
677.732	643.17
678.141	642.85
678.549	635.39
678.958	635.73
679.366	636.11
679.775	641.94
680.183	652.49
680.592	658.7
681	665.32
681.408	662.45
681.816	671.12
682.224	682.6
682.632	695.82
683.04	725.26
683.448	750.29
683.856	782.39
684.264	819.92
684.671	854.53
685.079	896.91
685.487	943.28
685.894	1007.38
686.302	1063.55
686.709	1110.29
687.116	1166.78
687.524	1216.03
687.931	1260.53
688.338	1302.53
688.745	1337.5
689.152	1377.67
689.559	1430.01
689.966	1482.22
690.373	1512.55
690.78	1561.87
691.187	1636.76
691.593	1694.81
692	1746.58
692.407	1819.76
692.813	1906.79
693.22	1979.29
693.626	2053.51
694.032	2114.07
694.439	2204.23
694.845	2277.59
695.251	2367.19
695.657	2447.7
696.063	2564.16
696.469	2653.32
696.875	2738.67
697.281	2791.12
697.687	2853.39
698.093	2908.34
