Data from N_3_DIV_WI_4N_Splice17_12-57-54-388.txt Node
Date: Sat Mar 14 12:57:54 EDT 2020
User: sa697716
Spectrometer: FLMS03696
Trigger mode: 0
Integration Time (sec): 3.180400E-1
Scans to average: 20
Electric dark correction enabled: true
Nonlinearity correction enabled: true
Boxcar width: 5
XAxis mode: Wavelengths
Number of Pixels in Spectrum: 2048
>>>>>Begin Spectral Data<<<<<
187.83	-239108.75
188.298	1718.75
188.766	947.26
189.233	768.67
189.701	1133.41
190.169	1578.97
190.636	552.9
191.104	473.87
191.571	39.12
192.039	-99.97
192.506	-171.22
192.974	318.52
193.441	-719.51
193.908	-160.27
194.375	-110.94
194.842	-53.02
195.31	5.19
195.777	101.85
196.244	277.18
196.711	236.16
197.177	279.42
197.644	345.98
198.111	609.85
198.578	855.18
199.045	653.28
199.511	1018.97
199.978	1132.56
200.445	984.15
200.911	1071.17
201.378	1140.24
201.844	1055.87
202.31	1761.22
202.777	1828.03
203.243	1014.81
203.709	961.78
204.176	1167.16
204.642	1003.91
205.108	971.47
205.574	777.27
206.04	679.51
206.506	656.43
206.972	612.9
207.438	591.51
207.903	672.45
208.369	600.07
208.835	621.87
209.301	652.59
209.766	652.88
210.232	657.14
210.697	811.07
211.163	1024.04
211.628	1515.14
212.094	1333.2
212.559	1729.96
213.024	1113.5
213.49	1407.43
213.955	1351.39
214.42	1321.72
214.885	1241.87
215.35	1216.26
215.815	1266.7
216.28	1386.21
216.745	1142.59
217.21	1261.75
217.675	1181.88
218.14	1374.09
218.604	1577.61
219.069	1907.32
219.534	2116.92
219.998	2555.2
220.463	3180.05
220.927	3949.88
221.392	3799.36
221.856	3943.29
222.32	5056.6
222.785	6346.79
223.249	8102.21
223.713	9161.4
224.177	9242.39
224.642	11893.7
225.106	14731.48
225.57	16175.81
226.034	12192.94
226.497	18699.04
226.961	17012.85
227.425	19937.47
227.889	22223.8
228.353	22355.35
228.816	46360.09
229.28	44546.56
229.744	37761.77
230.207	23111.97
230.671	22857.03
231.134	37853.48
231.597	43862.71
232.061	44066.76
232.524	43044.08
232.987	29798.64
233.45	26924.09
233.914	24249.06
234.377	24955.76
234.84	22948.98
235.303	27126.13
235.766	30365.29
236.229	31499.31
236.691	19881.61
237.154	22387.98
237.617	16928.69
238.08	17358.72
238.542	20367.93
239.005	14617.18
239.468	14532.39
239.93	13726.44
240.393	12511.96
240.855	11029.91
241.317	11331.72
241.78	13832.81
242.242	14370.72
242.704	15582.8
243.166	13628.55
243.629	12448.22
244.091	14408.62
244.553	15859.46
245.015	17131.98
245.477	22245.28
245.939	32729.08
246.4	34865.36
246.862	34036.99
247.324	32201.53
247.786	36148.05
248.247	47573.83
248.709	49268.39
249.17	36955.94
249.632	34958.97
250.093	40638.59
250.555	35238.75
251.016	21594.47
251.477	20573.5
251.939	22292.67
252.4	23458.47
252.861	27969.59
253.322	26097.64
253.783	31165.9
254.244	40556.43
254.705	32099.94
255.166	28632.44
255.627	28268.52
256.088	39936.18
256.549	42493.74
257.009	36624.28
257.47	44478.18
257.931	36315.71
258.391	27280.81
258.852	28146
259.312	29555.81
259.773	36557.72
260.233	30962.11
260.694	26163.69
261.154	29769.08
261.614	23969.03
262.074	21500.66
262.534	22415.76
262.994	21191.19
263.455	28314.82
263.915	23920.93
264.374	22583.94
264.834	24703.46
265.294	27413.44
265.754	28448.54
266.214	26965.42
266.673	25311.07
267.133	32036.57
267.593	31885.74
268.052	39066.99
268.512	33999.73
268.971	41029.4
269.431	45079.18
269.89	40460.21
270.349	60798.57
270.809	67913.27
271.268	61119.43
271.727	137117.64
272.186	88758.68
272.645	66557.66
273.104	48079.12
273.563	69709.79
274.022	54944.19
274.481	46738.44
274.94	36023.76
275.399	26802.12
275.857	31230.63
276.316	42273.77
276.775	37701.87
277.233	37198.72
277.692	34864.52
278.15	39462.97
278.609	40599.71
279.067	37573.24
279.525	34943.41
279.984	45181.04
280.442	54299.55
280.9	53514.11
281.358	35244.29
281.816	32836.6
282.274	32136.66
282.732	33156.77
283.19	33322.14
283.648	28763.2
284.106	30632.13
284.564	31169.94
285.021	28908.95
285.479	21541.37
285.937	19603.74
286.394	17207.23
286.852	17730.9
287.309	18658.84
287.767	18068.51
288.224	17213.8
288.682	18930.97
289.139	20832.83
289.596	19088.91
290.053	19885.84
290.511	25179.91
290.968	30675.9
291.425	41790.02
291.882	34865.8
292.339	30448.1
292.796	30329.26
293.252	28678.21
293.709	22831.2
294.166	20485.65
294.623	22701.65
295.079	21807.4
295.536	21945.53
295.992	19938.05
296.449	19726.89
296.905	20521.45
297.362	19691.94
297.818	20705.1
298.274	21442.74
298.731	21867.64
299.187	21684.3
299.643	23303.96
300.099	28189.95
300.555	30912.83
301.011	25845.99
301.467	24894.02
301.923	29148.07
302.379	28482.8
302.835	27996.47
303.291	28077.55
303.746	32000.15
304.202	40418.1
304.658	40540.62
305.113	27305.28
305.569	26760.64
306.024	28506.67
306.479	27180.95
306.935	22909.13
307.39	25034.76
307.845	23111.45
308.301	23260.93
308.756	22648.61
309.211	21812.04
309.666	22346.27
310.121	27713.44
310.576	28127.84
311.031	27913.09
311.486	31938.27
311.94	31935.57
312.395	42632.49
312.85	80105.28
313.305	393358.15
313.759	2035150.23
314.214	147558.1
314.668	117041.76
315.123	98504.48
315.577	35357.47
316.032	31473.63
316.486	39450.32
316.94	31138.16
317.394	21732.38
317.849	16920.65
318.303	16049.8
318.757	15171.82
319.211	16784.4
319.665	14710.74
320.119	14920.92
320.572	21401.56
321.026	20005.4
321.48	16683.66
321.934	18217.24
322.387	18261.58
322.841	19729.23
323.295	17719.89
323.748	20417.14
324.202	20730.42
324.655	24871.89
325.108	34686.73
325.562	24541.2
326.015	29231.25
326.468	22090.13
326.921	24706.28
327.374	23047.97
327.827	24021.95
328.28	27239.88
328.733	18258.31
329.186	16052.83
329.639	15324.14
330.092	12925.6
330.545	12309.2
330.997	12395.23
331.45	13551.06
331.903	15876.33
332.355	27293.6
332.808	26541.57
333.26	21920.39
333.713	23805.73
334.165	23984.72
334.617	31999.8
335.069	25876.13
335.522	46745.83
335.974	51815.02
336.426	47373.8
336.878	32820.39
337.33	16665.75
337.782	16250.49
338.234	20340.66
338.686	24344.24
339.137	28879.72
339.589	27270.56
340.041	21380.89
340.493	18393.84
340.944	18847.01
341.396	20337.21
341.847	17137.99
342.299	20216.96
342.75	24719.81
343.201	21670.07
343.653	24931.11
344.104	30712.89
344.555	24193.75
345.006	37706.9
345.457	28938.33
345.908	23048.81
346.359	21684.87
346.81	17675.55
347.261	18686.53
347.712	18436.91
348.163	19733.9
348.613	20011.95
349.064	18690.91
349.515	16379.49
349.965	16808.26
350.416	20242.08
350.866	22231.96
351.317	25150.66
351.767	41669.63
352.217	52604.08
352.668	43660.11
353.118	40011.79
353.568	38585.43
354.018	30514.5
354.468	32138.67
354.918	23080.88
355.368	20198.16
355.818	28519.09
356.268	82025.33
356.718	343038.87
357.168	85435.49
357.617	42916.48
358.067	47733.33
358.517	44741.17
358.966	52437.56
359.416	58874.52
359.865	63552.37
360.315	75765.59
360.764	35411.7
361.213	19841.07
361.663	18857.17
362.112	23286.37
362.561	37589.91
363.01	28357.97
363.459	23893.31
363.908	25886.63
364.357	21987.34
364.806	37216.95
365.255	25594.82
365.703	23430.07
366.152	23493.56
366.601	19043.05
367.05	15451.61
367.498	14029.98
367.947	14685.21
368.395	15265.62
368.844	13513.95
369.292	16286.47
369.74	11247.93
370.189	17226.92
370.637	20191.78
371.085	17424.25
371.533	21211.99
371.981	20445.07
372.429	19454.92
372.877	20282.06
373.325	16977.04
373.773	17283.55
374.221	15367.93
374.669	19077.81
375.116	16483.84
375.564	16599.63
376.012	18540.86
376.459	15243.18
376.907	18175.18
377.354	21982.7
377.801	20453.01
378.249	23449.95
378.696	29936.57
379.143	36265.76
379.591	38596.29
380.038	65262.79
380.485	47118.09
380.932	50732.7
381.379	46331.04
381.826	34065.39
382.273	24224.58
382.72	21151.04
383.166	20611.45
383.613	13363.38
384.06	12033.21
384.506	13881.62
384.953	10174.94
385.4	10227.23
385.846	8950.86
386.292	8715.18
386.739	8528.28
387.185	8409.56
387.631	8389.34
388.078	8116.56
388.524	8669.68
388.97	7991.03
389.416	6657.29
389.862	7072.84
390.308	6685.39
390.754	6782.76
391.2	7339.95
391.645	7498.65
392.091	7166.89
392.537	6916.58
392.983	6907.98
393.428	6774.54
393.874	7243.2
394.319	7247.98
394.765	6850.21
395.21	7030.07
395.655	6587.75
396.101	6172.04
396.546	5558.81
396.991	5591.67
397.436	5183.93
397.881	5009.49
398.326	4733.39
398.771	4475.02
399.216	3909.65
399.661	3506.65
400.106	3489.11
400.551	3564.93
400.995	3184.15
401.44	3144.66
401.885	2955.07
402.329	2986.94
402.774	2862.33
403.218	2769.99
403.663	2665.59
404.107	2735.31
404.551	2756.57
404.995	2523.03
405.44	2425.53
405.884	2462.13
406.328	2379.42
406.772	2364.83
407.216	2151.59
407.66	2072.59
408.104	1962.2
408.547	1835.43
408.991	1778.01
409.435	1710.26
409.879	1688.24
410.322	1664.82
410.766	1605
411.209	1523.39
411.653	1459.71
412.096	1426.25
412.54	1427.19
412.983	1421.67
413.426	1422.79
413.869	1416.64
414.312	1388.03
414.756	1333.35
415.199	1269.55
415.642	1233.91
416.085	1233.99
416.527	1225.03
416.97	1241.43
417.413	1177.94
417.856	1162.11
418.298	1150.64
418.741	1144.11
419.184	1142.53
419.626	1188.59
420.069	1190.37
420.511	1195.96
420.953	1172.86
421.396	1161.57
421.838	1132.4
422.28	1157.47
422.722	1162.86
423.164	1176.76
423.606	1155.77
424.048	1150.81
424.49	1092.09
424.932	1081.71
425.374	1064.69
425.816	1080.54
426.258	1102.43
426.699	1115.22
427.141	1099.11
427.582	1113.51
428.024	1104.14
428.465	1095.42
428.907	1066.96
429.348	1054.78
429.789	1054.23
430.231	1030.86
430.672	1042.53
431.113	1014.1
431.554	994.7
431.995	964.57
432.436	927.9
432.877	905.99
433.318	888.3
433.759	879.57
434.2	875.68
434.64	864.78
435.081	865.28
435.522	817.23
435.962	785.27
436.403	767.53
436.843	775.02
437.284	756.46
437.724	732.72
438.164	732.37
438.604	716.48
439.045	689.84
439.485	660.02
439.925	644.06
440.365	625.84
440.805	616.03
441.245	607.38
441.685	584.2
442.125	577.09
442.564	580.25
443.004	565.01
443.444	562.52
443.883	561.67
444.323	553.82
444.762	550.97
445.202	556.78
445.641	566.2
446.081	560.48
446.52	565.35
446.959	559.68
447.398	545.5
447.837	538.07
448.276	527.95
448.716	531.37
449.154	535.6
449.593	525.22
450.032	522.87
450.471	511.13
450.91	510.7
451.349	507.72
451.787	505.5
452.226	513.42
452.664	513.02
453.103	512.21
453.541	510.51
453.98	511.38
454.418	514.02
454.856	507.67
455.295	507.76
455.733	512.04
456.171	515.16
456.609	513.66
457.047	512.54
457.485	519.75
457.923	521.61
458.361	514.66
458.798	514.8
459.236	512.9
459.674	514.58
460.111	515.76
460.549	509.69
460.987	506.2
461.424	506.38
461.862	503.51
462.299	496.4
462.736	495.77
463.173	496.92
463.611	493.75
464.048	492.01
464.485	496.17
464.922	491.44
465.359	487.52
465.796	486.62
466.233	482.26
466.67	477.99
467.106	476.78
467.543	471.45
467.98	465.21
468.416	452.05
468.853	448.43
469.29	434.66
469.726	429.32
470.162	418.44
470.599	408.09
471.035	404.21
471.471	394.46
471.907	391.12
472.344	388.2
472.78	389.05
473.216	392.91
473.652	388.03
474.088	387.12
474.523	386.95
474.959	391.25
475.395	389.27
475.831	387.63
476.266	390.08
476.702	390.16
477.138	387.19
477.573	385.91
478.008	384.93
478.444	388.04
478.879	392.77
479.314	394.89
479.75	394.82
480.185	396.73
480.62	399.83
481.055	402.69
481.49	405.86
481.925	411.95
482.36	421.64
482.795	433.01
483.229	444.45
483.664	453.37
484.099	455.57
484.534	463.18
484.968	467.69
485.403	469.55
485.837	468.33
486.271	466.89
486.706	466.75
487.14	460.35
487.574	453.48
488.009	449.21
488.443	445.37
488.877	450.45
489.311	451.29
489.745	456.63
490.179	460.86
490.613	470.4
491.046	474.67
491.48	478.04
491.914	478.3
492.348	481.81
492.781	484.8
493.215	485.45
493.648	484.49
494.082	488.12
494.515	487.53
494.948	491.99
495.382	493.76
495.815	495.75
496.248	499.15
496.681	507.38
497.114	513.93
497.547	520.17
497.98	528.55
498.413	533.64
498.846	539.66
499.279	544.52
499.711	546.9
500.144	547.4
500.577	554.72
501.009	561.39
501.442	567.6
501.874	568.17
502.306	567.43
502.739	573.73
503.171	582.11
503.603	583.51
504.036	589
504.468	592.2
504.9	598.88
505.332	601.68
505.764	603.61
506.196	606.91
506.627	614.76
507.059	622.54
507.491	624.25
507.923	620.98
508.354	628.15
508.786	632.69
509.217	641.61
509.649	648.92
510.08	658.07
510.512	665.96
510.943	672.31
511.374	676.72
511.805	686.1
512.237	694.8
512.668	711.29
513.099	723.39
513.53	736.49
513.961	745.93
514.391	760.83
514.822	777.79
515.253	794.18
515.684	805.61
516.114	819.21
516.545	827.94
516.975	839.7
517.406	845.47
517.836	844.05
518.267	844.56
518.697	850.94
519.127	849.13
519.558	848.6
519.988	847.67
520.418	848.82
520.848	854.74
521.278	855.88
521.708	869.13
522.138	872.86
522.567	886.64
522.997	896.72
523.427	901.55
523.857	908.67
524.286	911.11
524.716	916.38
525.145	924.32
525.575	927.53
526.004	932.5
526.433	917.72
526.863	916.02
527.292	908.78
527.721	909.47
528.15	910.61
528.579	908.72
529.008	911.7
529.437	921.66
529.866	926
530.295	933.05
530.724	938.07
531.152	951.65
531.581	957.81
532.01	965.27
532.438	968.49
532.867	974.79
533.295	983.69
533.723	986.87
534.152	984.87
534.58	983.84
535.008	974.54
535.436	974.75
535.865	977.43
536.293	982.49
536.721	989.83
537.149	1002.37
537.576	1003.43
538.004	1008.63
538.432	1011.17
538.86	1009.63
539.287	1012.91
539.715	1020.16
540.143	1020.96
540.57	1017.8
540.998	1015.75
541.425	1004.53
541.852	992.42
542.28	989.83
542.707	981.63
543.134	975.1
543.561	972.12
543.988	968.71
544.415	967.2
544.842	963.98
545.269	961.03
545.696	962.61
546.123	968.94
546.549	964.02
546.976	958.21
547.403	957.61
547.829	957.98
548.256	959.57
548.682	957.06
549.108	953.74
549.535	952.85
549.961	953.04
550.387	946.21
550.813	943.92
551.24	947.73
551.666	948.2
552.092	943.88
552.518	940.25
552.943	936.74
553.369	940.75
553.795	943.99
554.221	945.87
554.646	944.99
555.072	951.76
555.498	953.29
555.923	957.83
556.349	965.91
556.774	970.48
557.199	972.24
557.625	977.08
558.05	975.66
558.475	981.58
558.9	982.11
559.325	979.21
559.75	976.29
560.175	974.47
560.6	972.35
561.025	972.34
561.449	974.72
561.874	979.11
562.299	982.82
562.723	987.47
563.148	983.6
563.572	987.41
563.997	995.11
564.421	999.62
564.846	1001.28
565.27	1005.98
565.694	1006.75
566.118	1014.34
566.542	1021.06
566.966	1019.57
567.39	1019.75
567.814	1016.9
568.238	1018.78
568.662	1023.31
569.086	1027.44
569.509	1032.97
569.933	1027.32
570.357	1025.54
570.78	1014.95
571.204	1010.06
571.627	1005.55
572.05	1006.38
572.474	1007.99
572.897	1003.05
573.32	1001.24
573.743	997.45
574.166	990.82
574.589	991.86
575.012	989.45
575.435	991.88
575.858	988.48
576.281	984.73
576.704	978.3
577.126	972.95
577.549	968.02
577.972	962.73
578.394	959.51
578.817	958.44
579.239	948.86
579.661	943.18
580.084	936.6
580.506	930.36
580.928	929.3
581.35	923.27
581.772	922.52
582.194	916.49
582.616	911.12
583.038	902.75
583.46	895.87
583.882	895.89
584.303	898.06
584.725	896.16
585.147	900.19
585.568	907.73
585.99	916.34
586.411	920.74
586.833	930.82
587.254	932.41
587.675	942.53
588.096	951.53
588.518	949.17
588.939	941.41
589.36	940.37
589.781	932.52
590.202	917.48
590.623	912.89
591.043	912.23
591.464	904.26
591.885	904.09
592.305	900.5
592.726	892.27
593.147	893.88
593.567	890.87
593.987	887.11
594.408	884.3
594.828	881.89
595.248	879.3
595.669	869.97
596.089	866.84
596.509	862.29
596.929	853.91
597.349	855.35
597.769	848.98
598.189	846.08
598.608	847.84
599.028	849.3
599.448	849.97
599.867	842.7
600.287	840.25
600.706	838.95
601.126	833.93
601.545	834.61
601.965	834.28
602.384	831.99
602.803	833.59
603.222	831.48
603.641	828.34
604.061	826.56
604.48	825.12
604.898	830.03
605.317	832.94
605.736	834.87
606.155	834.39
606.574	830.1
606.992	834.84
607.411	834.27
607.829	835.19
608.248	834.98
608.666	835.28
609.085	836.49
609.503	833.01
609.921	831.17
610.339	833.67
610.758	834.25
611.176	832.28
611.594	827.8
612.012	827.18
612.43	825.82
612.847	830.49
613.265	832.36
613.683	835.13
614.101	837.57
614.518	835.05
614.936	829.54
615.353	821.78
615.771	820.71
616.188	822.66
616.606	821.16
617.023	817.66
617.44	810.18
617.857	806.51
618.274	802.41
618.691	799.34
619.108	794.79
619.525	792.04
619.942	796.63
620.359	799.51
620.776	795.77
621.192	794.32
621.609	793.21
622.026	797.97
622.442	802.48
622.859	804.59
623.275	800.2
623.691	803.94
624.108	812.18
624.524	822.34
624.94	821.59
625.356	828.42
625.772	836.25
626.188	842.83
626.604	843.6
627.02	841.03
627.436	841.15
627.852	846.27
628.268	854.3
628.683	847.42
629.099	841.56
629.514	839
629.93	840.85
630.345	843.92
630.761	842.29
631.176	845.12
631.591	843.05
632.007	838.91
632.422	836.84
632.837	829.39
633.252	829.17
633.667	822.48
634.082	816.5
634.497	809.87
634.911	798.63
635.326	796.62
635.741	785.25
636.155	777.51
636.57	779.7
636.984	781.25
637.399	783.99
637.813	784.98
638.228	785.63
638.642	789.63
639.056	784
639.47	784.69
639.884	780.21
640.298	778.49
640.712	779.78
641.126	771.66
641.54	767.04
641.954	764.08
642.368	756.7
642.781	754.31
643.195	744.38
643.609	746.12
644.022	743.47
644.436	741.62
644.849	734.55
645.262	727.65
645.676	730.05
646.089	727.7
646.502	719.66
646.915	716.36
647.328	705.92
647.741	705.43
648.154	697.57
648.567	697.75
648.98	690.35
649.393	691.61
649.805	691.5
650.218	687.68
650.631	677.3
651.043	674.32
651.456	671.83
651.868	671.83
652.28	684.05
652.693	694.88
653.105	697.98
653.517	705.93
653.929	707.32
654.341	710.86
654.753	704.1
655.165	710.07
655.577	707.95
655.989	705.91
656.401	701.21
656.813	678.72
657.224	664.3
657.636	646.43
658.047	634.76
658.459	621.85
658.87	615.44
659.282	606.63
659.693	593.48
660.104	585.02
660.515	576
660.926	576.15
661.338	573.81
661.749	569.4
662.159	563.79
662.57	560.14
662.981	556.69
663.392	552.49
663.803	556.11
664.213	553.71
664.624	551.79
665.035	553.8
665.445	544.1
665.855	539.81
666.266	535.97
666.676	533.61
667.086	527.27
667.497	527.16
667.907	522.46
668.317	514.8
668.727	513.99
669.137	511.49
669.547	509.99
669.956	510.45
670.366	509.93
670.776	509.5
671.186	511.34
671.595	513.37
672.005	515.03
672.414	513.67
672.824	513.56
673.233	513.14
673.642	515.04
674.052	516.19
674.461	516.77
674.87	519.31
675.279	517.65
675.688	516.43
676.097	517.27
676.506	513.68
676.915	522.68
677.323	523.55
677.732	522.15
678.141	521.51
678.549	513.11
678.958	511.07
679.366	509.72
679.775	511.25
680.183	519.84
680.592	523.17
681	526.09
681.408	521.59
681.816	525.18
682.224	530.15
682.632	537.11
683.04	557.47
683.448	575
683.856	596.07
684.264	619.55
684.671	639.12
685.079	663.76
685.487	692.13
685.894	731.88
686.302	763.92
686.709	790.21
687.116	820.05
687.524	842.97
687.931	861
688.338	874.6
688.745	885.06
689.152	899.81
689.559	919.98
689.966	939.91
690.373	942.76
690.78	958.25
691.187	986.37
691.593	1004.36
692	1017.59
692.407	1044.22
692.813	1080.18
693.22	1103.37
693.626	1124.82
694.032	1140.62
694.439	1168.86
694.845	1190.97
695.251	1221.43
695.657	1246.65
696.063	1287.15
696.469	1314.69
696.875	1337.99
697.281	1342.55
697.687	1354.36
698.093	1361.93
698.498	1389.95
698.904	1410.17
699.31	1443.79
699.715	1464.52
700.12	1498.06
700.526	1496.63
700.931	1519.86
701.337	1534.93
701.742	1542.27
702.147	1573.78
702.552	1580.05
702.957	1598.25
703.362	1597.05
703.767	1600.57
704.172	1608.67
704.577	1579.05
704.981	1592.27
705.386	1591.24
