Data from N_3_DIV_WI_4N_Splice17_12-57-33-613.txt Node
Date: Sat Mar 14 12:57:33 EDT 2020
User: sa697716
Spectrometer: FLMS03696
Trigger mode: 0
Integration Time (sec): 3.180400E-1
Scans to average: 20
Electric dark correction enabled: true
Nonlinearity correction enabled: true
Boxcar width: 5
XAxis mode: Wavelengths
Number of Pixels in Spectrum: 2048
>>>>>Begin Spectral Data<<<<<
187.83	-380426.82
188.298	2832.81
188.766	1531.11
189.233	1315.86
189.701	1857.55
190.169	2599.02
190.636	968.81
191.104	758.66
191.571	158.22
192.039	-1.14
192.506	49.05
192.974	604.25
193.441	-759.97
193.908	-40.24
194.375	0.52
194.842	69.57
195.31	208.87
195.777	177.97
196.244	343.85
196.711	267.35
197.177	269.82
197.644	298.24
198.111	457.65
198.578	584.11
199.045	434.8
199.511	619.16
199.978	669.16
200.445	589.41
200.911	621.2
201.378	596.6
201.844	575.99
202.31	947.91
202.777	962.78
203.243	554.48
203.709	540.49
204.176	648.5
204.642	567.4
205.108	534.97
205.574	416.55
206.04	350.25
206.506	328.52
206.972	288.99
207.438	281.82
207.903	317.38
208.369	304.24
208.835	323.44
209.301	355.12
209.766	336.3
210.232	335.33
210.697	418.79
211.163	494.57
211.628	724.96
212.094	621.99
212.559	864.03
213.024	563.08
213.49	710.23
213.955	671.83
214.42	615.92
214.885	593.97
215.35	592.99
215.815	658.22
216.28	746.52
216.745	614.96
217.21	708.17
217.675	625.41
218.14	735.25
218.604	817.91
219.069	975.05
219.534	1094.09
219.998	1290.01
220.463	1603.9
220.927	1943.6
221.392	1866.37
221.856	1950.62
222.32	2446.1
222.785	3106.85
223.249	3981.55
223.713	4527.09
224.177	4587.34
224.642	5885.02
225.106	7319.79
225.57	8053.98
226.034	6093.03
226.497	9376.74
226.961	8598.46
227.425	10160.35
227.889	11312.74
228.353	11347.19
228.816	23496.91
229.28	22643.07
229.744	19252.63
230.207	11844.7
230.671	11779.07
231.134	19550.96
231.597	22819.86
232.061	22942.29
232.524	22476.52
232.987	15646.32
233.45	14233.38
233.914	12909.85
234.377	13340.71
234.84	12326.17
235.303	14637.52
235.766	16447.99
236.229	17125.32
236.691	10840.98
237.154	12263.37
237.617	9327.29
238.08	9605.19
238.542	11326.02
239.005	8167.32
239.468	8168.78
239.93	7742.66
240.393	7094.89
240.855	6277.93
241.317	6483.53
241.78	7934.65
242.242	8267.12
242.704	9018.13
243.166	7927.14
243.629	7287.96
244.091	8454.97
244.553	9313.53
245.015	10090.92
245.477	13125.28
245.939	19378.75
246.4	20738.66
246.862	20289.99
247.324	19269.14
247.786	21696.91
248.247	28563.02
248.709	29559.46
249.17	22282.95
249.632	21248.58
250.093	24875.47
250.555	21677.09
251.016	13322.56
251.477	12705.06
251.939	13808.45
252.4	14597.21
252.861	17402.82
253.322	16315.83
253.783	19486.73
254.244	25333.15
254.705	20018.75
255.166	17830.17
255.627	17630.18
256.088	24929.39
256.549	26564.05
257.009	22987.86
257.47	27970.13
257.931	22879.01
258.391	17188.25
258.852	17799.31
259.312	18732.93
259.773	23227.58
260.233	19739.07
260.694	16703.64
261.154	19025.09
261.614	15351.58
262.074	13754.59
262.534	14320.45
262.994	13556.24
263.455	18131.11
263.915	15333.43
264.374	14473.79
264.834	15817.99
265.294	17572.74
265.754	18256.9
266.214	17329.4
266.673	16263.15
267.133	20560.68
267.593	20432.94
268.052	25050.84
268.512	21775.27
268.971	26325.11
269.431	28931.9
269.89	25946.18
270.349	38951.54
270.809	43440.15
271.268	39076.43
271.727	87589
272.186	56830.69
272.645	42651.83
273.104	30771.3
273.563	44672.05
274.022	35091.56
274.481	29884.39
274.94	23038.74
275.399	17127.47
275.857	19955.4
276.316	27016.64
276.775	24128.7
277.233	23783.39
277.692	22341.65
278.15	25309.85
278.609	26073.96
279.067	24181.32
279.525	22500.77
279.984	29094.54
280.442	34988.29
280.9	34572.8
281.358	22761.65
281.816	21205.77
282.274	20792.43
282.732	21448.19
283.19	21565.03
283.648	18603.15
284.106	19818.99
284.564	20174.88
285.021	18764.05
285.479	14003.41
285.937	12735.92
286.394	11217.55
286.852	11554.21
287.309	12165.93
287.767	11794.96
288.224	11253.93
288.682	12387.24
289.139	13669.81
289.596	12573.94
290.053	13114.24
290.511	16644.96
290.968	20299.24
291.425	27641.52
291.882	23187.06
292.339	20297.13
292.796	20254.4
293.252	19176.74
293.709	15317.63
294.166	13771.35
294.623	15257.55
295.079	14682.63
295.536	14784.53
295.992	13452.58
296.449	13333.86
296.905	13888.73
297.362	13339.03
297.818	14048.27
298.274	14606.78
298.731	14911.24
299.187	14787.92
299.643	15903.08
300.099	19262.66
300.555	21156.15
301.011	17711
301.467	17111.81
301.923	20014.26
302.379	19583.14
302.835	19272.17
303.291	19312.53
303.746	21999.78
304.202	27830.61
304.658	27995.93
305.113	18868.55
305.569	18503.65
306.024	19742.41
306.479	18785.42
306.935	15865.3
307.39	17346.12
307.845	16015.11
308.301	16141.04
308.756	15730.64
309.211	15186.15
309.666	15528.53
310.121	19283.63
310.576	19574.73
311.031	19407.49
311.486	22210.15
311.94	22169.77
312.395	29630.29
312.85	55683.99
313.305	273434.79
313.759	1417733.42
314.214	102624.48
314.668	81664.86
315.123	68767.79
315.577	24694.85
316.032	22033.49
316.486	27714.5
316.94	21951.31
317.394	15328.4
317.849	11948.58
318.303	11331.96
318.757	10714.37
319.211	11863.96
319.665	10397.84
320.119	10540.07
320.572	15139.31
321.026	14180.63
321.48	11807.94
321.934	12856.74
322.387	12883.93
322.841	13927.56
323.295	12542.11
323.748	14447.14
324.202	14684.71
324.655	17659.14
325.108	24720.02
325.562	17461.77
326.015	20734.55
326.468	15669.7
326.921	17556.05
327.374	16380.35
327.827	17083.8
328.28	19372.7
328.733	13008.56
329.186	11444.32
329.639	10903.16
330.092	9200.09
330.545	8768.55
330.997	8864.21
331.45	9724.28
331.903	11410.41
332.355	19638.91
332.808	19093.53
333.26	15721.86
333.713	17057.82
334.165	17185.94
334.617	22937.99
335.069	18470.54
335.522	33364.47
335.974	36892.19
336.426	33673.01
336.878	23335.07
337.33	11850.61
337.782	11563.45
338.234	14498.12
338.686	17338.81
339.137	20493.84
339.589	19289.1
340.041	15188.5
340.493	13098.35
340.944	13444.68
341.396	14498.58
341.847	12207.79
342.299	14429.86
342.75	17676.47
343.201	15476.92
343.653	17865.28
344.104	22069.15
344.555	17435.43
345.006	27107.88
345.457	20837.89
345.908	16558.74
346.359	15614.63
346.81	12746.85
347.261	13446.23
347.712	13239.98
348.163	14208.03
348.613	14410.08
349.064	13470.81
349.515	11786.99
349.965	12133.19
350.416	14619.88
350.866	16082.77
351.317	18191.8
351.767	30141.52
352.217	38114.85
352.668	31698.56
353.118	29085.9
353.568	28107.59
354.018	22257.15
354.468	23543.55
354.918	16886.56
355.368	14783.55
355.818	20923.1
356.268	60153.59
356.718	252243.61
357.168	62847.77
357.617	31560.61
358.067	35078.7
358.517	32834.8
358.966	38494.77
359.416	43097.84
359.865	46593.29
360.315	55495.78
360.764	25937.82
361.213	14572.53
361.663	13805.7
362.112	17047.13
362.561	27518.53
363.01	20798.29
363.459	17533.31
363.908	19008.78
364.357	16203.64
364.806	27382.3
365.255	18833.09
365.703	17266.17
366.152	17282.83
366.601	14010.68
367.05	11391.56
367.498	10353.93
367.947	10820.09
368.395	11229.1
368.844	9942.47
369.292	11984.92
369.74	8294.01
370.189	12676.3
370.637	14816.19
371.085	12796.21
371.533	15618.61
371.981	15052.38
372.429	14380.27
372.877	14982.64
373.325	12576
373.773	12803.07
374.221	11392.05
374.669	14127.64
375.116	12248.55
375.564	12337.47
376.012	13796.45
376.459	11358.4
376.907	13562.27
377.354	16376.66
377.801	15255.05
378.249	17458.21
378.696	22290.19
379.143	26949.61
379.591	28724.74
380.038	48543.92
380.485	35127.13
380.932	37775.58
381.379	34557.18
381.826	25375.62
382.273	18016.58
382.72	15726.87
383.166	15337.27
383.613	9931.26
384.06	8967.02
384.506	10368.91
384.953	7602.97
385.4	7635.5
385.846	6706.54
386.292	6506.45
386.739	6352.69
387.185	6253.2
387.631	6247.51
388.078	6058.74
388.524	6468.15
388.97	5948.34
389.416	4944.74
389.862	5240.85
390.308	4957.98
390.754	5016.98
391.2	5434.3
391.645	5552.89
392.091	5315.55
392.537	5130.13
392.983	5114.96
393.428	5022.22
393.874	5357.32
394.319	5372.14
394.765	5082.21
395.21	5206.5
395.655	4868.61
396.101	4544.48
396.546	4096.9
396.991	4116.39
397.436	3805.15
397.881	3664.73
398.326	3464.89
398.771	3272.33
399.216	2841.31
399.661	2551.91
400.106	2538.53
400.551	2595.09
400.995	2326.53
401.44	2301.53
401.885	2157.09
402.329	2178.67
402.774	2089.9
403.218	2024.76
403.663	1951.52
404.107	2006.92
404.551	2018
404.995	1846.42
405.44	1771.26
405.884	1792.7
406.328	1724.1
406.772	1718.32
407.216	1562.62
407.66	1501.29
408.104	1413.08
408.547	1318.43
408.991	1273.59
409.435	1224.29
409.879	1206.94
410.322	1189.24
410.766	1145.28
411.209	1086.42
411.653	1037.51
412.096	1017.83
412.54	1019.62
412.983	1014.59
413.426	1016.87
413.869	1011.54
414.312	990.89
414.756	949.35
415.199	904.29
415.642	880.03
416.085	881.71
416.527	875.21
416.97	882.79
417.413	836.41
417.856	824.87
418.298	814.97
418.741	808.83
419.184	806.09
419.626	839.04
420.069	839.62
420.511	844.13
420.953	826.6
421.396	818.76
421.838	797.92
422.28	814.45
422.722	817.85
423.164	826.51
423.606	811.92
424.048	807.41
424.49	768.11
424.932	762.79
425.374	747.61
425.816	755.48
426.258	769.44
426.699	776.7
427.141	769.49
427.582	780.28
428.024	777.87
428.465	771.15
428.907	752.21
429.348	739.55
429.789	738.22
430.231	723.91
430.672	730.89
431.113	709.17
431.554	697
431.995	671.22
432.436	646.68
432.877	629.1
433.318	617.88
433.759	610.92
434.2	607.97
434.64	597.02
435.081	595.47
435.522	563.92
435.962	542.51
436.403	530.26
436.843	534.43
437.284	519.51
437.724	499.78
438.164	495.95
438.604	484.52
439.045	466.66
439.485	448.67
439.925	437.21
440.365	425.04
440.805	418.31
441.245	411.98
441.685	396.37
442.125	390.32
442.564	392.59
443.004	384.16
443.444	380.45
443.883	380.21
444.323	373.7
444.762	369.86
445.202	373.44
445.641	380.06
446.081	374.79
446.52	377.68
446.959	374.5
447.398	365.06
447.837	357.67
448.276	349.98
448.716	350.97
449.154	352.12
449.593	345.01
450.032	343.35
450.471	332.78
450.91	330.3
451.349	328.55
451.787	324.14
452.226	328.23
452.664	328.11
453.103	328.45
453.541	325.75
453.98	326.51
454.418	328.88
454.856	324.26
455.295	324.59
455.733	328
456.171	329.06
456.609	329.36
457.047	329.37
457.485	335.7
457.923	337.93
458.361	333.24
458.798	333.3
459.236	331.46
459.674	330.66
460.111	331.69
460.549	328.57
460.987	326.31
461.424	325.89
461.862	325.25
462.299	319.52
462.736	318.07
463.173	319.48
463.611	318.17
464.048	318
464.485	321.8
464.922	318.38
465.359	315.34
465.796	318.03
466.233	316.61
466.67	313.85
467.106	313.98
467.543	309.25
467.98	305
468.416	295.07
468.853	291.46
469.29	282.75
469.726	280.21
470.162	273.78
470.599	265.02
471.035	261.26
471.471	254.22
471.907	250.84
472.344	249.99
472.78	251.61
473.216	253.46
473.652	249.75
474.088	248.14
474.523	247.35
474.959	248.31
475.395	246.17
475.831	244.86
476.266	245.19
476.702	244.86
477.138	242.5
477.573	241.26
478.008	240.98
478.444	244.52
478.879	248.29
479.314	249.75
479.75	250.09
480.185	250.42
480.62	253.24
481.055	255.7
481.49	257.45
481.925	261.45
482.36	267.68
482.795	274.99
483.229	280.19
483.664	285.98
484.099	286.43
484.534	291.54
484.968	294.87
485.403	294.78
485.837	292.83
486.271	292.23
486.706	291.17
487.14	285.72
487.574	281.59
488.009	279
488.443	275.36
488.877	278.77
489.311	278.62
489.745	281.58
490.179	283.71
490.613	290.38
491.046	291.28
491.48	293.09
491.914	293.05
492.348	292.85
492.781	294.42
493.215	294.1
493.648	292.46
494.082	292.99
494.515	292.13
494.948	294.9
495.382	293.99
495.815	294.78
496.248	295.9
496.681	299.42
497.114	302.45
497.547	304.35
497.98	308.79
498.413	310.5
498.846	312.97
499.279	313.53
499.711	312.73
500.144	310.81
500.577	313.9
501.009	315.29
501.442	317.39
501.874	315.96
502.306	313.78
502.739	316.21
503.171	318.05
503.603	316.88
504.036	317.45
504.468	316.13
504.9	317.6
505.332	316.26
505.764	315.02
506.196	313.54
506.627	315.59
507.059	317.55
507.491	313.83
507.923	310.63
508.354	311.79
508.786	311.93
509.217	314.77
509.649	316.18
510.08	317.49
510.512	320.01
510.943	321.2
511.374	321.07
511.805	322.58
512.237	323.97
512.668	328.92
513.099	332.3
513.53	336.14
513.961	337.6
514.391	342.62
514.822	349.92
515.253	355.13
515.684	357.46
516.114	360.84
516.545	363.16
516.975	366.82
517.406	367.48
517.836	363.94
518.267	361.79
518.697	363.84
519.127	360.38
519.558	356.86
519.988	353.8
520.418	353.25
520.848	353.62
521.278	351.5
521.708	385.66
522.138	386.43
522.567	390.45
522.997	393.91
523.427	393.14
523.857	395.22
524.286	395.39
524.716	396.32
525.145	398.8
525.575	400.22
526.004	401.34
526.433	364.56
526.863	361.38
527.292	359.33
527.721	359
528.15	358.99
528.579	357.42
529.008	358.36
529.437	360.87
529.866	361.18
530.295	362.42
530.724	364.94
531.152	369.31
531.581	371.99
532.01	373.72
532.438	373.82
532.867	375.66
533.295	378.82
533.723	379.04
534.152	378.51
534.58	377.89
535.008	374.11
535.436	374.18
535.865	375.46
536.293	377.08
536.721	379
537.149	383
537.576	383.32
538.004	385.44
538.432	385.4
538.86	385.85
539.287	386.73
539.715	389.28
540.143	387.98
540.57	386.16
540.998	384.85
541.425	382.09
541.852	378.7
542.28	377.76
542.707	373.43
543.134	371.24
543.561	369.41
543.988	368.25
544.415	367.63
544.842	366.7
545.269	365.48
545.696	366.45
546.123	368.31
546.549	365.56
546.976	362.97
547.403	363.3
547.829	362.62
548.256	362.14
548.682	361.5
549.108	361
549.535	360.66
549.961	360.52
550.387	356.89
550.813	356.7
551.24	357.81
551.666	357.6
552.092	355.47
552.518	355.31
552.943	354.96
553.369	355.93
553.795	356.91
554.221	357.69
554.646	357.5
555.072	361.92
555.498	361.17
555.923	363.4
556.349	367.08
556.774	369.6
557.199	369.63
557.625	370.87
558.05	370.79
558.475	373.33
558.9	373.19
559.325	372.36
559.75	371.02
560.175	370.58
560.6	369.41
561.025	369.85
561.449	371.16
561.874	372.71
562.299	374.86
562.723	376.36
563.148	374.34
563.572	375.71
563.997	379.28
564.421	380.34
564.846	381.24
565.27	383.94
565.694	384.49
566.118	388.1
566.542	392.4
566.966	391.99
567.39	393.01
567.814	393.19
568.238	394.99
568.662	396.09
569.086	398.81
569.509	401.22
569.933	400.62
570.357	400.5
570.78	397.01
571.204	396.75
571.627	395.96
572.05	396.86
572.474	398.84
572.897	397.45
573.32	398.66
573.743	396.97
574.166	395.51
574.589	395.29
575.012	395.06
575.435	396.05
575.858	394.32
576.281	393.42
576.704	391.26
577.126	388.45
577.549	387.28
577.972	385.37
578.394	385.4
578.817	387.22
579.239	383.76
579.661	382.43
580.084	381.15
580.506	379.5
580.928	378.97
581.35	377.49
581.772	377.83
582.194	375.31
582.616	372.94
583.038	369.12
583.46	365.26
583.882	366.17
584.303	366.32
584.725	365.11
585.147	370.7
585.568	375.21
585.99	379.12
586.411	382.13
586.833	386.95
587.254	387.86
587.675	392.11
588.096	395.96
588.518	394.8
588.939	392.54
589.36	392.16
589.781	384.37
590.202	380.39
590.623	378.71
591.043	377.2
591.464	374.75
591.885	375.83
592.305	375.04
592.726	372.02
593.147	373.58
593.567	373.28
593.987	371.61
594.408	371.19
594.828	367.87
595.248	367.52
595.669	364.34
596.089	362.89
596.509	360.66
596.929	357.3
597.349	358.35
597.769	355.89
598.189	354.2
598.608	355.55
599.028	356.56
599.448	356.86
599.867	353.49
600.287	352.46
600.706	352.25
601.126	350.69
601.545	352.24
601.965	351.95
602.384	350.73
602.803	351.43
603.222	350.76
603.641	349.41
604.061	350.07
604.48	349.25
604.898	351.85
605.317	353.88
605.736	354.91
606.155	354.62
606.574	352.54
606.992	355.48
607.411	356.1
607.829	355.16
608.248	355.12
608.666	354.06
609.085	355.89
609.503	355.04
609.921	354.73
610.339	356.54
610.758	357.43
611.176	357.66
611.594	356.5
612.012	356.19
612.43	358.13
612.847	360.94
613.265	363.63
613.683	365.1
614.101	366.82
614.518	366.4
614.936	364.66
615.353	362.3
615.771	363.21
616.188	364.27
616.606	364.08
617.023	362.77
617.44	359.68
617.857	357.57
618.274	356.17
618.691	354.95
619.108	352.92
619.525	351.93
619.942	354.09
620.359	355.21
620.776	353.9
621.192	354.19
621.609	354.47
622.026	357.41
622.442	359.76
622.859	360.29
623.275	358.51
623.691	360.69
624.108	364.27
624.524	367.82
624.94	367.9
625.356	370.77
625.772	373.59
626.188	376.07
626.604	376.86
627.02	376.82
627.436	377.88
627.852	381.44
628.268	384.77
628.683	382.09
629.099	380.34
629.514	377.99
629.93	379.48
630.345	381.87
630.761	381.34
631.176	381.4
631.591	381.59
632.007	380.29
632.422	378.43
632.837	374.6
633.252	375.48
633.667	373.51
634.082	372.84
634.497	370.36
634.911	367.07
635.326	367.49
635.741	364.58
636.155	360.88
636.57	363.49
636.984	364.47
637.399	369
637.813	368.81
638.228	369.35
638.642	371.86
639.056	369.99
639.47	370.16
639.884	369.94
640.298	369.94
640.712	372.48
641.126	369.11
641.54	368.35
641.954	366.14
642.368	366.16
642.781	368.44
643.195	365.35
643.609	367.85
644.022	368.79
644.436	367.73
644.849	364.57
645.262	361.22
645.676	363.26
646.089	364.37
646.502	362.84
646.915	361.73
647.328	356.41
647.741	357.15
648.154	354.13
648.567	356.91
648.98	355.96
649.393	357.79
649.805	359.47
650.218	358.78
650.631	354.52
651.043	353.74
651.456	353.1
651.868	353.85
652.28	359.89
652.693	365.28
653.105	366.43
653.517	369.42
653.929	371.22
654.341	373.57
654.753	370.27
655.165	374.31
655.577	374.67
655.989	374.59
656.401	372.64
656.813	362.84
657.224	357.64
657.636	347.21
658.047	343.89
658.459	339.06
658.87	336.54
659.282	333.01
659.693	327.95
660.104	324.33
660.515	320.23
660.926	322.88
661.338	323.5
661.749	322.19
662.159	322.44
662.57	321.06
662.981	320.55
663.392	319.76
663.803	324.33
664.213	323.91
664.624	323.14
665.035	326.16
665.445	319.42
665.855	318.6
666.266	317.25
666.676	315.85
667.086	312.71
667.497	312.91
667.907	311.52
668.317	307.39
668.727	309.58
669.137	310.11
669.547	309.48
669.956	311.16
670.366	310.71
670.776	312.26
671.186	313.69
671.595	315.8
672.005	317.19
672.414	316.59
672.824	316.48
673.233	314.73
673.642	315.38
674.052	317.17
674.461	318.46
674.87	320.12
675.279	318.98
675.688	318.75
676.097	319.69
676.506	318.12
676.915	322.72
677.323	323.09
677.732	321.47
678.141	319.8
678.549	313.24
678.958	311.39
679.366	309.29
679.775	308.03
680.183	312.82
680.592	313.03
681	313.96
681.408	309.4
681.816	310.34
682.224	312.11
682.632	316.05
683.04	325
683.448	331.35
683.856	340.75
684.264	351.56
684.671	357.93
685.079	367.89
685.487	378.78
685.894	396.73
686.302	408.62
686.709	416.14
687.116	425.48
687.524	433.64
687.931	438.61
688.338	440.59
688.745	439.82
689.152	440.17
689.559	443.95
689.966	446.98
690.373	443.06
690.78	444.6
691.187	451.92
691.593	454
692	452.08
692.407	457.28
692.813	467.29
693.22	472.54
693.626	476.12
694.032	478.38
694.439	485.8
694.845	489.06
695.251	495.47
695.657	502
696.063	512.01
696.469	518.17
696.875	523.61
697.281	521.39
697.687	521.71
698.093	521.61
698.498	527.87
698.904	529.54
699.31	538.06
699.715	545.04
700.12	553.34
700.526	550.45
700.931	557.03
701.337	560.22
701.742	559.48
702.147	567.87
702.552	569.01
702.957	572.09
703.362	571.51
703.767	570.78
704.172	570.04
704.577	555.66
704.981	558.63
705.386	557.81
705.791	550.68
706.195	557.44
706.6	555.06
707.004	560.94
707.408	552.11
707.813	553.77
708.217	550.47
708.621	547.51
709.025	560.69
709.43	559.49
709.834	565.97
710.237	574.92
