Data from N_3_DEC_OH_4N_Splice17_13-35-12-301.txt Node
Date: Sat Mar 14 13:35:12 EDT 2020
User: sa697716
Spectrometer: FLMS03696
Trigger mode: 0
Integration Time (sec): 3.180400E-1
Scans to average: 20
Electric dark correction enabled: true
Nonlinearity correction enabled: true
Boxcar width: 5
XAxis mode: Wavelengths
Number of Pixels in Spectrum: 2048
>>>>>Begin Spectral Data<<<<<
187.83	-416046.67
188.298	2894.13
188.766	1606.26
189.233	1440.32
189.701	2082.54
190.169	2939.43
190.636	1132.68
191.104	935.21
191.571	148.88
192.039	-68.28
192.506	-26.03
192.974	562.29
193.441	-1090.54
193.908	-224.24
194.375	-87.72
194.842	62.58
195.31	240.41
195.777	247.55
196.244	512.8
196.711	549.57
197.177	683.52
197.644	976.16
198.111	1666.09
198.578	2337.47
199.045	1856.67
199.511	3058.18
199.978	3512.93
200.445	2998.45
200.911	3301.27
201.378	3646.53
201.844	3311.98
202.31	5699.63
202.777	5921.3
203.243	3275.97
203.709	3101.96
204.176	3702.25
204.642	3027.9
205.108	2845.76
205.574	2292.78
206.04	2091.41
206.506	1974.6
206.972	1864.67
207.438	1791.35
207.903	2026.24
208.369	1781.74
208.835	1775.81
209.301	1867.18
209.766	1915.72
210.232	1900.64
210.697	2353.17
211.163	2907.57
211.628	4385.33
212.094	3692.54
212.559	4540.95
213.024	2826.58
213.49	3465.03
213.955	3379.26
214.42	3273.9
214.885	3059.74
215.35	2937.82
215.815	2875.9
216.28	3049.55
216.745	2490.99
217.21	2712.94
217.675	2515.26
218.14	2869.56
218.604	3249.01
219.069	3762.9
219.534	4025.68
219.998	4730.2
220.463	5788.49
220.927	7186.88
221.392	6841.29
221.856	6992.92
222.32	8870.6
222.785	11003.66
223.249	13916.29
223.713	15563.26
224.177	15665.01
224.642	20136.14
225.106	24852.92
225.57	27207.92
226.034	20277.73
226.497	30878.68
226.961	27912.39
227.425	32558.64
227.889	36189.01
228.353	36245.69
228.816	74936.21
229.28	71652.76
229.744	60404.19
230.207	36714.01
230.671	36126.97
231.134	59765.45
231.597	68956.94
232.061	69031.08
232.524	67332.77
232.987	46380.42
233.45	41723.68
233.914	37488.83
234.377	38404.77
234.84	35179.2
235.303	41506.03
235.766	46351.61
236.229	47896.63
236.691	30184.38
237.154	33884.42
237.617	25474.9
238.08	26106.45
238.542	30567.58
239.005	21832.85
239.468	21662.61
239.93	20419.77
240.393	18563.01
240.855	16299.47
241.317	16692.43
241.78	20308.57
242.242	21033.39
242.704	22719.93
243.166	19782.06
243.629	17975.45
244.091	20723.34
244.553	22733.15
245.015	24431.85
245.477	31575.82
245.939	46331.98
246.4	49199.8
246.862	47839.29
247.324	45098.19
247.786	50557.88
248.247	66331.74
248.709	68436.33
249.17	51173.93
249.632	48269.25
250.093	55984.49
250.555	48410.28
251.016	29507.63
251.477	27992.09
251.939	30224.98
252.4	31713.72
252.861	37688.21
253.322	35036.36
253.783	41784.25
254.244	54228.22
254.705	42755.17
255.166	38060.87
255.627	37514.51
256.088	52900.73
256.549	56263.49
257.009	48466.76
257.47	58791.68
257.931	47903.68
258.391	35934.22
258.852	37034.53
259.312	38834.82
259.773	48018.06
260.233	40589.51
260.694	34257.17
261.154	38970.59
261.614	31295.05
262.074	28021.52
262.534	29135.46
262.994	27488.3
263.455	36629.47
263.915	30866.2
264.374	29121.22
264.834	31826.93
265.294	35327.34
265.754	36622.71
266.214	34678.27
266.673	32522.33
267.133	41062.82
267.593	40809.41
268.052	49983.67
268.512	43512.66
268.971	52554.38
269.431	57662.4
269.89	51699.72
270.349	77544.16
270.809	86541.97
271.268	77861.16
271.727	174699.99
272.186	113256.68
272.645	84971.91
273.104	61320.96
273.563	88884.79
274.022	69979.09
274.481	59581.89
274.94	45876.3
275.399	34142.34
275.857	39801.97
276.316	53855.52
276.775	47951.8
277.233	47281.28
277.692	44290
278.15	50153.98
278.609	51616.2
279.067	47771.58
279.525	44372.08
279.984	57393.03
280.442	68941.97
280.9	67872.8
281.358	44671.89
281.816	41623.32
282.274	40746.43
282.732	42095.09
283.19	42319.45
283.648	36569.26
284.106	38947.11
284.564	39606.45
285.021	36701.53
285.479	27369.13
285.937	24918.37
286.394	21860.94
286.852	22531.78
287.309	23685.88
287.767	22904.73
288.224	21780.45
288.682	23884.65
289.139	26241.92
289.596	24020.22
290.053	24967.32
290.511	31499.12
290.968	38214.29
291.425	51878.59
291.882	43139.45
292.339	37563.31
292.796	37278.52
293.252	35130.13
293.709	27911.5
294.166	25002.31
294.623	27644.11
295.079	26543.54
295.536	26671.97
295.992	24225.8
296.449	23947.89
296.905	24892.81
297.362	23850.99
297.818	25093.36
298.274	26043.15
298.731	26540.05
299.187	26265
299.643	28207.09
300.099	34139.21
300.555	37449.81
301.011	31263.85
301.467	30151.07
301.923	35323.17
302.379	34507.43
302.835	33873.53
303.291	33902.1
303.746	38600.79
304.202	48778
304.658	48991.11
305.113	32913.9
305.569	32243.2
306.024	34393.29
306.479	32736.19
306.935	27592.39
307.39	30149.81
307.845	27839.52
308.301	28028.88
308.756	27294.52
309.211	26301.3
309.666	26927.44
310.121	33422.14
310.576	33924.88
311.031	33660.14
311.486	38529.24
311.94	38501.82
312.395	51498.3
312.85	96842.5
313.305	475319.71
313.759	2460610.45
314.214	178300.08
314.668	141318.16
315.123	118899.9
315.577	42608.28
316.032	37922.93
316.486	47607.54
316.94	37574.8
317.394	26141.09
317.849	20312.6
318.303	19250.19
318.757	18175.25
319.211	20090.11
319.665	17606.47
320.119	17831.43
320.572	25606.94
321.026	23926.29
321.48	19888.34
321.934	21680.48
322.387	21735.56
322.841	23477.33
323.295	21098.25
323.748	24311.2
324.202	24639.89
324.655	29547.57
325.108	41292.23
325.562	29135.63
326.015	34611.3
326.468	26172.08
326.921	29267.28
327.374	27285.84
327.827	28409.7
328.28	32160.71
328.733	21537.63
329.186	18949.58
329.639	18066
330.092	15204.96
330.545	14493.81
330.997	14605.11
331.45	15974.69
331.903	18720.2
332.355	32221.97
332.808	31317.09
333.26	25805.96
333.713	28013.67
334.165	28239.46
334.617	37713.25
335.069	30499.11
335.522	55085.24
335.974	61030.96
336.426	55654.19
336.878	38540.06
337.33	19521.44
337.782	19052.31
338.234	23869.71
338.686	28509.69
339.137	33745.1
339.589	31798.33
340.041	24913.33
340.493	21424.96
340.944	21947.7
341.396	23658.91
341.847	19888.53
342.299	23515.23
342.75	28680.03
343.201	25067.83
343.653	28843.51
344.104	35501.47
344.555	27947.36
345.006	43503.85
345.457	33298.37
345.908	26454.64
346.359	24905.86
346.81	20305.14
347.261	21364.56
347.712	21064.47
348.163	22608.51
348.613	22904.47
349.064	21376.54
349.515	18709.55
349.965	19205.04
350.416	23124
350.866	25379.79
351.317	28667.63
351.767	47460.14
352.217	60033.7
352.668	49798.1
353.118	45605.49
353.568	43987.5
354.018	34781.29
354.468	36696.43
354.918	26343.81
355.368	23084.55
355.818	32653.01
356.268	94081.77
356.718	393612.65
357.168	97885.65
357.617	49144.41
358.067	54671.35
358.517	51220.13
358.966	60061.65
359.416	67306.47
359.865	72622.57
360.315	86462.45
360.764	40333.05
361.213	22587.12
361.663	21391.25
362.112	26405.38
362.561	42639.41
363.01	32140.08
363.459	27100.05
363.908	29379.06
364.357	24978.71
364.806	42203.08
365.255	28978.24
365.703	26500.35
366.152	26513.08
366.601	21503.82
367.05	17451.41
367.498	15848.61
367.947	16545.33
368.395	17163.96
368.844	15154.09
369.292	18241.29
369.74	12601.12
370.189	19294.33
370.637	22601.01
371.085	19483.15
371.533	23702.62
371.981	22819.55
372.429	21741.33
372.877	22644.37
373.325	18930.52
373.773	19292.33
374.221	17188.54
374.669	21282.99
375.116	18408.99
375.564	18578.99
376.012	20786.01
376.459	17123.51
376.907	20431.27
377.354	24690.59
377.801	23032.91
378.249	26453.05
378.696	33768.99
379.143	40854.05
379.591	43509.19
380.038	73431.58
380.485	52908.07
380.932	57030.26
381.379	52139.43
381.826	38369.92
382.273	27309.69
382.72	23804.95
383.166	23188.65
383.613	15033.22
384.06	13521.5
384.506	15650.17
384.953	11498.7
385.4	11592.54
385.846	10152.15
386.292	9883.53
386.739	9669.18
387.185	9539.99
387.631	9544.66
388.078	9255.82
388.524	9892.75
388.97	9130.08
389.416	7605.88
389.862	8080.1
390.308	7645.2
390.754	7759.84
391.2	8424.54
391.645	8623.9
392.091	8256.14
392.537	7988.9
392.983	8008.06
393.428	7893.87
393.874	8467.46
394.319	8510.98
394.765	8081.9
395.21	8318.02
395.655	7796.92
396.101	7306.29
396.546	6604.06
396.991	6657.78
397.436	6184.79
397.881	5984.85
398.326	5658.85
398.771	5355.69
399.216	4678.44
399.661	4209.07
400.106	4204.89
400.551	4315.62
400.995	3874.44
401.44	3833.47
401.885	3602.78
402.329	3638.56
402.774	3482.9
403.218	3375.06
403.663	3252.01
404.107	3342.53
404.551	3367.08
404.995	3078.82
405.44	2959.56
405.884	3000.35
406.328	2902.78
406.772	2892.39
407.216	2635.18
407.66	2546.99
408.104	2415.29
408.547	2259.45
408.991	2185.51
409.435	2103.96
409.879	2073.33
410.322	2046.14
410.766	1976.28
411.209	1877.54
411.653	1802.83
412.096	1764.09
412.54	1765.31
412.983	1751.92
413.426	1757.33
413.869	1755.11
414.312	1719.87
414.756	1656.53
415.199	1578.77
415.642	1528.66
416.085	1528.37
416.527	1516.69
416.97	1538.95
417.413	1458.33
417.856	1444.15
418.298	1424.34
418.741	1411.58
419.184	1406.61
419.626	1463.12
420.069	1463.85
420.511	1475.07
420.953	1444.47
421.396	1429.52
421.838	1392.95
422.28	1423.44
422.722	1427.99
423.164	1448.89
423.606	1426.93
424.048	1424.28
424.49	1352.98
424.932	1342.61
425.374	1320.09
425.816	1340.18
426.258	1361.11
426.699	1373.41
427.141	1353.76
427.582	1374.64
428.024	1363.68
428.465	1352.9
428.907	1318.26
429.348	1299.13
429.789	1299.61
430.231	1274.64
430.672	1291.13
431.113	1261.61
431.554	1242.75
431.995	1206.89
432.436	1163.06
432.877	1138.39
433.318	1120.42
433.759	1114.01
434.2	1115.2
434.64	1100.63
435.081	1101.31
435.522	1041.24
435.962	1001.74
436.403	980.65
436.843	994.67
437.284	970.54
437.724	943.28
438.164	943.36
438.604	922.42
439.045	889.03
439.485	855.23
439.925	837.01
440.365	817.41
440.805	808.48
441.245	799.01
441.685	770.92
442.125	766.29
442.564	771.63
443.004	756.45
443.444	755.73
443.883	757.6
444.323	753.04
444.762	755.85
445.202	767.36
445.641	785.13
446.081	783.05
446.52	792.45
446.959	788.77
447.398	774.25
447.837	766.72
448.276	757.12
448.716	766.78
449.154	775.4
449.593	760.62
450.032	762.07
450.471	749.58
450.91	751.09
451.349	751.57
451.787	749.46
452.226	761.53
452.664	764.09
453.103	766.84
453.541	766.85
453.98	768.26
454.418	773.76
454.856	763.28
455.295	761.92
455.733	769.08
456.171	773.66
456.609	774.84
457.047	775.46
457.485	787.75
457.923	790.15
458.361	780.22
458.798	781.89
459.236	781.18
459.674	786.04
460.111	788.64
460.549	781.31
460.987	778.5
461.424	776.2
461.862	772.91
462.299	758.88
462.736	756.35
463.173	758.28
463.611	752.4
464.048	748.91
464.485	754.73
464.922	749.05
465.359	743.91
465.796	736.42
466.233	730.59
466.67	723.51
467.106	723.24
467.543	716.51
467.98	708.07
468.416	688.09
468.853	684.15
469.29	663.41
469.726	656.58
470.162	641.12
470.599	630.96
471.035	626.23
471.471	612.47
471.907	609.4
472.344	606.3
472.78	609.97
473.216	617.93
473.652	611.26
474.088	611.72
474.523	610.5
474.959	617.2
475.395	612.43
475.831	609.38
476.266	613.32
476.702	612.29
477.138	607.3
477.573	604.29
478.008	602.98
478.444	607.11
478.879	613.89
479.314	618.39
479.75	618.94
480.185	623.65
480.62	630.7
481.055	635.67
481.49	641.52
481.925	651.82
482.36	666.77
482.795	686.42
483.229	705.6
483.664	721.39
484.099	724.06
484.534	736.95
484.968	746.08
485.403	749.91
485.837	750.1
486.271	751.31
486.706	753.29
487.14	744.59
487.574	735.15
488.009	730.14
488.443	724.87
488.877	735.59
489.311	739.43
489.745	749.36
490.179	758.99
490.613	775.41
491.046	782.57
491.48	791.07
491.914	795.15
492.348	803.88
492.781	811.89
493.215	816.66
493.648	820.8
494.082	830.35
494.515	834.21
494.948	846.29
495.382	855.58
495.815	865.28
496.248	875.96
496.681	895.64
497.114	913.76
497.547	930.04
497.98	951.6
498.413	963.83
498.846	980.73
499.279	996.62
499.711	1006.8
500.144	1014.13
500.577	1032.28
501.009	1050.25
501.442	1067.87
501.874	1073.37
502.306	1081.5
502.739	1095.83
503.171	1119.85
503.603	1128.37
504.036	1145.18
504.468	1157.12
504.9	1176.94
505.332	1190.65
505.764	1201.48
506.196	1214
506.627	1238.17
507.059	1259.64
507.491	1274.78
507.923	1274.68
508.354	1298.49
508.786	1314.93
509.217	1341.63
509.649	1364.3
510.08	1391.65
510.512	1415.75
510.943	1438.17
511.374	1454.8
511.805	1483.25
512.237	1509.96
512.668	1555.8
513.099	1594.08
513.53	1632.04
513.961	1660.5
514.391	1702.97
514.822	1747.77
515.253	1794.03
515.684	1826.26
516.114	1864.3
516.545	1891.61
516.975	1924.94
517.406	1946.14
517.836	1945.58
518.267	1951.71
518.697	1972.17
519.127	1974.16
519.558	1980.48
519.988	1983.25
520.418	1995.74
520.848	2016.61
521.278	2023.51
521.708	2044.56
522.138	2057.17
522.567	2095.57
522.997	2126.26
523.427	2143.4
523.857	2161.38
524.286	2170.91
524.716	2187.87
525.145	2209.1
525.575	2219.97
526.004	2237.33
526.433	2223.97
526.863	2222.63
527.292	2206.51
527.721	2211.29
528.15	2216.59
528.579	2216.62
529.008	2229.75
529.437	2257.48
529.866	2272.85
530.295	2293.24
530.724	2307.1
531.152	2341.66
531.581	2356.84
532.01	2377.62
532.438	2386.43
532.867	2404.08
533.295	2426.6
533.723	2433.13
534.152	2428.87
534.58	2427.49
535.008	2405.48
535.436	2405.88
535.865	2413.86
536.293	2431.77
536.721	2452.51
537.149	2483.57
537.576	2484.59
538.004	2499.09
538.432	2506.22
538.86	2503.27
539.287	2511.2
539.715	2528.43
540.143	2530.9
540.57	2523.95
540.998	2518.21
541.425	2485.27
541.852	2458.26
542.28	2456.35
542.707	2433.98
543.134	2416.05
543.561	2409.13
543.988	2399.35
544.415	2396.48
544.842	2387.81
545.269	2377.66
545.696	2380.41
546.123	2398.01
546.549	2382.88
546.976	2364.73
547.403	2365.6
547.829	2368.31
548.256	2372.5
548.682	2367.59
549.108	2360.15
549.535	2361.64
549.961	2364.8
550.387	2347.73
550.813	2340.66
551.24	2348.86
551.666	2352.74
552.092	2341.25
552.518	2332.64
552.943	2324.56
553.369	2334.31
553.795	2340.62
554.221	2342.28
554.646	2340.55
555.072	2357.72
555.498	2366.55
555.923	2382.17
556.349	2404.37
556.774	2417.14
557.199	2421.89
557.625	2432.68
558.05	2427.98
558.475	2446.62
558.9	2448.83
559.325	2440.3
559.75	2432.66
560.175	2426.02
560.6	2420.18
561.025	2419.74
561.449	2423.34
561.874	2432.84
562.299	2440.67
562.723	2453
563.148	2440.5
563.572	2448.18
563.997	2464.66
564.421	2476.06
564.846	2480.95
565.27	2488.62
565.694	2487.35
566.118	2506.6
566.542	2520.88
566.966	2515.29
567.39	2512.33
567.814	2500.84
568.238	2505.01
568.662	2515.73
569.086	2522.76
569.509	2535.89
569.933	2517.98
570.357	2513.33
570.78	2488.34
571.204	2474.54
571.627	2463.03
572.05	2463.77
572.474	2467.2
572.897	2451.64
573.32	2443.72
573.743	2432.69
574.166	2410
574.589	2413.33
575.012	2405.23
575.435	2406.99
575.858	2395.88
576.281	2384.03
576.704	2366.06
577.126	2353.16
577.549	2341.53
577.972	2329.78
578.394	2318.54
578.817	2312.11
579.239	2289.01
579.661	2272.07
580.084	2251.84
580.506	2235.49
580.928	2233.06
581.35	2219.94
581.772	2216.3
582.194	2200.04
582.616	2186.22
583.038	2169.14
583.46	2157.19
583.882	2155.75
584.303	2164.05
584.725	2160.91
585.147	2166.63
585.568	2184.32
585.99	2203.98
586.411	2215.06
586.833	2238.42
587.254	2242.33
587.675	2263.2
588.096	2281.4
588.518	2274.42
588.939	2251.97
589.36	2250.62
589.781	2237.07
590.202	2196.11
590.623	2184.36
591.043	2181.84
591.464	2164.18
591.885	2159.15
592.305	2152.14
592.726	2133.6
593.147	2136.87
593.567	2129.69
593.987	2119.78
594.408	2111.42
594.828	2109.37
595.248	2100.54
595.669	2073.62
596.089	2064.43
596.509	2055.71
596.929	2036.1
597.349	2037.97
597.769	2023.44
598.189	2014.77
598.608	2016.93
599.028	2022.57
599.448	2023.13
599.867	2005.37
600.287	2000.25
600.706	1993.81
601.126	1980.25
601.545	1979.86
601.965	1978.22
602.384	1972.23
602.803	1977.64
603.222	1970.92
603.641	1962.42
604.061	1957.59
604.48	1952.91
604.898	1966.21
605.317	1976.08
605.736	1980.36
606.155	1977.51
606.574	1965.39
606.992	1973.76
607.411	1968.74
607.829	1959.21
608.248	1956.48
608.666	1956.34
609.085	1957.73
609.503	1947.06
609.921	1939.59
610.339	1945.35
610.758	1946.63
611.176	1942.39
611.594	1931.33
612.012	1927.88
612.43	1934.7
612.847	1945.22
613.265	1948.5
613.683	1956.91
614.101	1960.46
614.518	1956.05
614.936	1941.94
615.353	1921.64
615.771	1918.17
616.188	1919.29
616.606	1915.22
617.023	1905.39
617.44	1885.27
617.857	1876.05
618.274	1864.32
618.691	1855.46
619.108	1842.57
619.525	1835.05
619.942	1845.62
620.359	1850.26
620.776	1843.74
621.192	1838.49
621.609	1836.08
622.026	1846.07
622.442	1854.58
622.859	1859.35
623.275	1850.04
623.691	1857.6
624.108	1875.72
624.524	1895.86
624.94	1896.55
625.356	1911.26
625.772	1931.23
626.188	1948.55
626.604	1951.37
627.02	1946.15
627.436	1944.15
627.852	1953.26
628.268	1971.29
628.683	1955.3
629.099	1942.1
629.514	1934.65
629.93	1939.73
630.345	1945.98
630.761	1938.75
631.176	1944.06
631.591	1933.23
632.007	1921.96
632.422	1918.65
632.837	1902.39
633.252	1899.02
633.667	1884.27
634.082	1869.42
634.497	1850.57
634.911	1820.35
635.326	1815.54
635.741	1788.22
636.155	1772.55
636.57	1773.78
636.984	1772.39
637.399	1771.4
637.813	1769.7
638.228	1765.98
638.642	1770.45
639.056	1752.86
639.47	1750.88
639.884	1735.26
640.298	1724.29
640.712	1719.52
641.126	1699.69
641.54	1683.87
641.954	1674.54
642.368	1654.09
642.781	1638.75
643.195	1609.17
643.609	1606.25
644.022	1593.9
644.436	1584.37
644.849	1563.08
645.262	1544.41
645.676	1543.1
646.089	1533.65
646.502	1508.62
646.915	1497.5
647.328	1472.02
647.741	1467.94
648.154	1447.23
648.567	1441.02
648.98	1420.85
649.393	1420.21
649.805	1411.93
650.218	1399.52
650.631	1375.65
651.043	1367.13
651.456	1357.85
651.868	1358.56
652.28	1381.57
652.693	1399.59
653.105	1408.24
653.517	1420.48
653.929	1419.4
654.341	1427.86
654.753	1409.94
655.165	1418.72
655.577	1413.76
655.989	1405.34
656.401	1392.09
656.813	1340.47
657.224	1310.15
657.636	1268.76
658.047	1242.74
658.459	1213.86
658.87	1198.25
659.282	1179.87
659.693	1148.59
660.104	1125.39
660.515	1104.4
660.926	1096.75
661.338	1088.18
661.749	1076.65
662.159	1060.04
662.57	1048.9
662.981	1038.02
663.392	1023.96
663.803	1023.94
664.213	1014.12
664.624	1002.61
665.035	999.96
665.445	978.68
665.855	963.75
666.266	948.09
666.676	939.8
667.086	924.38
667.497	918.34
667.907	905.46
668.317	888.35
668.727	881.34
669.137	878.73
669.547	872.3
669.956	871.7
670.366	870.36
670.776	868.93
671.186	869.85
671.595	870.15
672.005	870.32
672.414	867.21
672.824	863.94
673.233	865.37
673.642	865.4
674.052	867.96
674.461	869.02
674.87	872.81
675.279	869.62
675.688	870.03
676.097	871.65
676.506	868.93
676.915	885.14
677.323	888.13
677.732	887.41
678.141	888.51
678.549	876.84
678.958	877.71
679.366	879.75
679.775	887.54
680.183	903.55
680.592	914.66
681	925.71
681.408	923.32
681.816	938.36
682.224	955.55
682.632	974.25
683.04	1018.73
683.448	1056.86
683.856	1105.07
684.264	1160.57
684.671	1213.43
685.079	1276.85
685.487	1347.52
685.894	1441.64
686.302	1523.41
686.709	1594.86
687.116	1676.74
687.524	1746.06
687.931	1808.53
688.338	1862.3
688.745	1907.82
689.152	1956.53
689.559	2020.01
689.966	2083.23
690.373	2114.26
690.78	2172.17
691.187	2255.9
691.593	2316.02
692	2367.21
692.407	2445.46
692.813	2539.63
693.22	2610.31
693.626	2684.99
694.032	2739.77
694.439	2827.62
694.845	2890.78
695.251	2972.75
