Data from N_3_DIV_WI_4N_Splice17_12-57-21-741.txt Node
Date: Sat Mar 14 12:57:21 EDT 2020
User: sa697716
Spectrometer: FLMS03696
Trigger mode: 0
Integration Time (sec): 3.180400E-1
Scans to average: 20
Electric dark correction enabled: true
Nonlinearity correction enabled: true
Boxcar width: 5
XAxis mode: Wavelengths
Number of Pixels in Spectrum: 2048
>>>>>Begin Spectral Data<<<<<
187.83	-347593.71
188.298	2647.38
188.766	1401.73
189.233	1241.93
189.701	1747.76
190.169	2398.46
190.636	899.15
191.104	679.34
191.571	87.21
192.039	-79.64
192.506	-120.82
192.974	462.99
193.441	-534.23
193.908	-126.29
194.375	-35.6
194.842	28.41
195.31	68.39
195.777	158.26
196.244	535.71
196.711	1044.57
197.177	1456.57
197.644	2250.62
198.111	3921.67
198.578	5499.72
199.045	4440.11
199.511	7282.5
199.978	8525.21
200.445	7119.74
200.911	7868.23
201.378	8832.18
201.844	7789.89
202.31	13109.08
202.777	13400.17
203.243	7339.15
203.709	6909.89
204.176	8123.94
204.642	6618.42
205.108	6122.96
205.574	4985.41
206.04	4574.31
206.506	4251.28
206.972	4027.71
207.438	3889.39
207.903	4392.79
208.369	3776.68
208.835	3708.68
209.301	3838.17
209.766	3899.57
210.232	3818.87
210.697	4672.79
211.163	5692.46
211.628	8515.98
212.094	6985.04
212.559	8360.33
213.024	5108.01
213.49	6153.18
213.955	5936.45
214.42	5773.53
214.885	5294.6
215.35	4989.59
215.815	4644.45
216.28	4797.66
216.745	3794.96
217.21	3939.19
217.675	3449.92
218.14	3637.73
218.604	3781.47
219.069	3979.76
219.534	3835.61
219.998	4105.63
220.463	4572.1
220.927	5165.77
221.392	4506.59
221.856	4265.91
222.32	5005.1
222.785	5829.62
223.249	6957.26
223.713	7419.79
224.177	7123.09
224.642	8780.02
225.106	10433.49
225.57	11039.88
226.034	8037.62
226.497	11878.67
226.961	10407.83
227.425	11899.79
227.889	12838.39
228.353	12524.16
228.816	25253.6
229.28	23554.58
229.744	19390.91
230.207	11630.48
230.671	11256.32
231.134	18176.02
231.597	20765.32
232.061	20479.44
232.524	19559.17
232.987	13288.08
233.45	11883.89
233.914	10515.87
234.377	10664.47
234.84	9641.19
235.303	11203.72
235.766	12386.02
236.229	12689.26
236.691	7921.79
237.154	8833.19
237.617	6643.72
238.08	6790.39
238.542	7901.95
239.005	5675.13
239.468	5638.97
239.93	5322.82
240.393	4850.86
240.855	4258.1
241.317	4361.53
241.78	5263.57
242.242	5450.75
242.704	5914.17
243.166	5150.27
243.629	4711.98
244.091	5394.62
244.553	5914.83
245.015	6358.29
245.477	8171.47
245.939	11913.73
246.4	12639.53
246.862	12279.49
247.324	11575
247.786	12851.73
248.247	16794.49
248.709	17132.57
249.17	12818.2
249.632	12094.5
250.093	14076.81
250.555	12175.45
251.016	7472.28
251.477	7086.44
251.939	7674.14
252.4	8030.76
252.861	9522.09
253.322	8869.18
253.783	10544.96
254.244	13708.98
254.705	10802.81
255.166	9586.6
255.627	9440.67
256.088	13345.8
256.549	14156.66
257.009	12147.54
257.47	14717.56
257.931	11955.2
258.391	8950.64
258.852	9205.28
259.312	9587.72
259.773	11757.72
260.233	9938.66
260.694	8375.64
261.154	9428.06
261.614	7588.66
262.074	6741.93
262.534	6971.87
262.994	6570.62
263.455	8685.78
263.915	7281.35
264.374	6827.65
264.834	7413.85
265.294	8118.85
265.754	8365.15
266.214	7860.75
266.673	7292.85
267.133	9164.83
267.593	9049.43
268.052	11053.46
268.512	9593.25
268.971	11587.54
269.431	12649.21
269.89	11287.52
270.349	16924.89
270.809	18880.38
271.268	16964.84
271.727	37958.84
272.186	24638.28
272.645	18501.57
273.104	13263.42
273.563	19158.86
274.022	15020.81
274.481	12859.13
274.94	9959.84
275.399	7396.54
275.857	8598.52
276.316	11650.95
276.775	10402.11
277.233	10276.43
277.692	9686.65
278.15	11050.36
278.609	11476.97
279.067	10694.76
279.525	10013.9
279.984	12992.48
280.442	15712.59
280.9	15671.5
281.358	10380.57
281.816	9747.07
282.274	9595.6
282.732	9934.34
283.19	10053.39
283.648	8747.69
284.106	9397.29
284.564	9601.08
285.021	8996.06
285.479	6759.71
285.937	6162.3
286.394	5471.48
286.852	5673.11
287.309	6018.97
287.767	5906.58
288.224	5672.82
288.682	6238.8
289.139	6881.18
289.596	6334.94
290.053	6592.51
290.511	8326.46
290.968	10135.75
291.425	13702.95
291.882	11470.48
292.339	9987.14
292.796	9833.78
293.252	9233.15
293.709	7365.99
294.166	6599.79
294.623	7279.48
295.079	6984.27
295.536	7041.59
295.992	6400.69
296.449	6341.74
296.905	6602.59
297.362	6341.43
297.818	6668.44
298.274	6952.74
298.731	7058.09
299.187	6984.94
299.643	7500.81
300.099	9088.4
300.555	9965.41
301.011	8337.29
301.467	8109.67
301.923	9436.09
302.379	9250.18
302.835	9152.67
303.291	9190.65
303.746	10533.73
304.202	13398.04
304.658	13534.76
305.113	9152.68
305.569	9044.79
306.024	9693.51
306.479	9251.44
306.935	7912.13
307.39	8694.8
307.845	8079.76
308.301	8186.54
308.756	8026.55
309.211	7776.27
309.666	8004.52
310.121	10030.49
310.576	10243.66
311.031	10245.05
311.486	11783.04
311.94	11799.07
312.395	15865.57
312.85	30000.91
313.305	147638
313.759	772343.26
314.214	56194.05
314.668	44885.94
315.123	37997.09
315.577	13751.49
316.032	12270.93
316.486	15403.97
316.94	12228.74
317.394	8538.39
317.849	6627.81
318.303	6265.45
318.757	5905.57
319.211	6525.51
319.665	5711.61
320.119	5769.27
320.572	8204.77
321.026	7667.15
321.48	6403.23
321.934	6958.77
322.387	6996.15
322.841	7595.54
323.295	6912.42
323.748	7949.31
324.202	8091.22
324.655	9759.74
325.108	13723.42
325.562	9763.14
326.015	11618.26
326.468	8791.8
326.921	9881
327.374	9241.86
327.827	9681.47
328.28	10949.14
328.733	7391.83
329.186	6540.97
329.639	6249.79
330.092	5285.51
330.545	5064.18
330.997	5157.75
331.45	5696.52
331.903	6725.7
332.355	11602.03
332.808	11307.31
333.26	9399.7
333.713	10273.83
334.165	10414.24
334.617	13995.2
335.069	11316.56
335.522	20518.93
335.974	22837.82
336.426	20940.82
336.878	14553.17
337.33	7444.63
337.782	7304.68
338.234	9204.16
338.686	11030.32
339.137	13107.86
339.589	12394.21
340.041	9792.47
340.493	8424
340.944	8639.93
341.396	9323.6
341.847	7870.78
342.299	9283.56
342.75	11371.54
343.201	9902
343.653	11394.54
344.104	13962.67
344.555	10961.93
345.006	16933.36
345.457	13041.43
345.908	10308.67
346.359	9715.36
346.81	7898.99
347.261	8298.15
347.712	8152.84
348.163	8737.9
348.613	8868.78
349.064	8309.7
349.515	7300.81
349.965	7533.95
350.416	9060.89
350.866	9986.3
351.317	11295.71
351.767	18750.32
352.217	23823.94
352.668	19770.02
353.118	18152.49
353.568	17510.68
354.018	13887.55
354.468	14694.95
354.918	10570.34
355.368	9297.21
355.818	13185.18
356.268	38020.64
356.718	160095.23
357.168	39979.69
357.617	20153.79
358.067	22507.09
358.517	21222.03
358.966	25037.31
359.416	28178.63
359.865	30634.08
360.315	36473.72
360.764	17084.9
361.213	9607.41
361.663	9074.16
362.112	11230.95
362.561	18236.24
363.01	13812.79
363.459	11633.56
363.908	12577.66
364.357	10736.57
364.806	18119.43
365.255	12503.87
365.703	11520.84
366.152	11596.45
366.601	9480.06
367.05	7737.03
367.498	7041.64
367.947	7368.51
368.395	7669.27
368.844	6831.59
369.292	8239.95
369.74	5727.17
370.189	8796.64
370.637	10318.21
371.085	8916.8
371.533	10868.14
371.981	10476.64
372.429	10023.31
372.877	10471.4
373.325	8805.15
373.773	8977.46
374.221	8004.61
374.669	9925
375.116	8607.61
375.564	8685.21
376.012	9686.66
376.459	7994.08
376.907	9545.17
377.354	11548.87
377.801	10827.21
378.249	12461.11
378.696	15969.24
379.143	19393.5
379.591	20684.26
380.038	35006.07
380.485	25402.96
380.932	27590.01
381.379	25409.95
381.826	18876.95
382.273	13451.96
382.72	11773.58
383.166	11529.33
383.613	7512.79
384.06	6789.19
384.506	7907.53
384.953	5824.47
385.4	5862.65
385.846	5161.53
386.292	5043.03
386.739	4956.98
387.185	4950.68
387.631	5015.72
388.078	4946.35
388.524	5358.52
388.97	5020.49
389.416	4246.01
389.862	4576.1
390.308	4411.25
390.754	4557.4
391.2	5085.22
391.645	5402.45
392.091	5403.41
392.537	5453.02
392.983	5684.28
393.428	5840.93
393.874	6582.59
394.319	7082.95
394.765	7369.19
395.21	8423.69
395.655	8866.22
396.101	9349.99
396.546	9511.07
396.991	10868.59
397.436	11436.63
397.881	12582.19
398.326	13619.15
398.771	14603.65
399.216	14460.73
399.661	14605.64
400.106	16174.3
400.551	18296.97
400.995	18019.96
401.44	19425.65
401.885	19739.23
402.329	21448.97
402.774	21954.38
403.218	22542.99
403.663	23171.75
404.107	25301.73
404.551	27098.88
404.995	26491.06
405.44	27245.52
405.884	29425.06
406.328	30139.41
406.772	31605.55
407.216	30242.48
407.66	30846.36
408.104	31122.41
408.547	30694.14
408.991	31123.94
409.435	31235.76
409.879	31848.73
410.322	32437.62
410.766	32269.57
411.209	31668.25
411.653	31487.43
412.096	31823.51
412.54	32826.84
412.983	33429.93
413.426	34209.25
413.869	34999.62
414.312	35031.27
414.756	34575.97
415.199	33730.81
415.642	33395.55
416.085	34039.67
416.527	34388.05
416.97	35529.34
417.413	34086.28
417.856	34129
418.298	34069.65
418.741	34046.08
419.184	34182.2
419.626	35855.29
420.069	35984.52
420.511	36352.13
420.953	35746.74
421.396	35662.69
421.838	35072.04
422.28	36148.48
422.722	36624.94
423.164	37732.45
423.606	37615.95
424.048	38170.06
424.49	36634.04
424.932	36951.1
425.374	36900.59
425.816	37887.26
426.258	38595.6
426.699	38686.6
427.141	37495.5
427.582	37643.43
428.024	37173.48
428.465	37075.7
428.907	36435.24
429.348	36483.45
429.789	36804.56
430.231	36284.66
430.672	37060.62
431.113	36716.17
431.554	37022.24
431.995	37403.68
432.436	37035.95
432.877	37081.61
433.318	36955.98
433.759	37320.07
434.2	37696.41
434.64	37726.42
435.081	38242.7
435.522	36758.14
435.962	35976.11
436.403	35684.73
436.843	36710.74
437.284	36456.36
437.724	35947.16
438.164	36542.77
438.604	36023.62
439.045	34780.26
439.485	33431.26
439.925	33020.5
440.365	32446.5
440.805	32229.62
441.245	31814.5
441.685	30694.43
442.125	30539.31
442.564	30748.03
443.004	29958.22
443.444	29896.25
443.883	29960.56
444.323	29954.78
444.762	30248.59
445.202	30730.9
445.641	31201.41
446.081	31269.57
446.52	31442.46
446.959	31117.16
447.398	30346.22
447.837	30032.15
448.276	29532.94
448.716	29801.64
449.154	30067.04
449.593	29150.72
450.032	28879.14
450.471	28308.62
450.91	28152.2
451.349	27841.14
451.787	27570.7
452.226	27753.93
452.664	27532.13
453.103	27332.45
453.541	27054.97
453.98	26544.72
454.418	26411.38
454.856	25618.32
455.295	25308.96
455.733	25130.8
456.171	25022.34
456.609	24734.26
457.047	24380.63
457.485	24412.46
457.923	24195.03
458.361	23718.73
458.798	23735.46
459.236	23587.42
459.674	23807.93
460.111	23840.29
460.549	23642.61
460.987	23646.26
461.424	23610.71
461.862	23599.26
462.299	23302.01
462.736	23270.63
463.173	23434.78
463.611	23120.32
464.048	23126.46
464.485	23356.56
464.922	23259.01
465.359	23269.12
465.796	22642.31
466.233	22596.4
466.67	22410.75
467.106	22423.38
467.543	22384.61
467.98	22195.96
468.416	21829.37
468.853	21769.89
469.29	21186.94
469.726	21006.57
470.162	20468.68
470.599	20504.8
471.035	20324.28
471.471	19837.84
471.907	19758.33
472.344	19583.68
472.78	19496.3
473.216	19632.93
473.652	19242.75
474.088	19064.29
474.523	18763.32
474.959	18746.37
475.395	18378.33
475.831	18022.13
476.266	17908.41
476.702	17639.34
477.138	17185.4
477.573	16897.05
478.008	16560.36
478.444	16325.3
478.879	16151.54
479.314	15972.87
479.75	15699.52
480.185	15543.81
480.62	15438.12
481.055	15281.49
481.49	15115.73
481.925	15077.11
482.36	15016.68
482.795	15205.73
483.229	15419.45
483.664	15506.86
484.099	15331.68
484.534	15304.97
484.968	15214.21
485.403	15042.92
485.837	14842.06
486.271	14620.56
486.706	14439.17
487.14	14161.44
487.574	13758.18
488.009	13467.56
488.443	13207.55
488.877	13169.13
489.311	13087.03
489.745	13092.91
490.179	13071.95
490.613	13119.23
491.046	13109.93
491.48	13093.66
491.914	12981.68
492.348	12967.71
492.781	12932.37
493.215	12870.02
493.648	12826.6
494.082	12829.42
494.515	12744.69
494.948	12777.88
495.382	12807.87
495.815	12782.74
496.248	12774.78
496.681	12907.24
497.114	13016.57
497.547	13074.44
497.98	13158.83
498.413	13110.64
498.846	13140.5
499.279	13162.41
499.711	13118.91
500.144	13025.62
500.577	13047.39
501.009	13096.56
501.442	13092.3
501.874	12943.84
502.306	12852.63
502.739	12780.15
503.171	12890.66
503.603	12791.13
504.036	12778.43
504.468	12706.01
504.9	12715.91
505.332	12661.49
505.764	12554.07
506.196	12496.97
506.627	12535.42
507.059	12541.74
507.491	12537.46
507.923	12307.1
508.354	12319.14
508.786	12276.89
509.217	12314.39
509.649	12315.89
510.08	12369.94
510.512	12380.85
510.943	12383.38
511.374	12342.14
511.805	12390.12
512.237	12433.66
512.668	12635.56
513.099	12767.6
513.53	12879.03
513.961	12907.11
514.391	13044.44
514.822	13159.08
515.253	13318.47
515.684	13358.09
516.114	13433.03
516.545	13409.98
516.975	13431.46
517.406	13366.94
517.836	13167.28
518.267	13002.6
518.697	12939.25
519.127	12764.63
519.558	12631.93
519.988	12467.78
520.418	12368.31
520.848	12326.87
521.278	12223.54
521.708	11859.26
522.138	11807.3
522.567	11897.19
522.997	11942.1
523.427	11923.18
523.857	11908.03
524.286	11858.9
524.716	11843.33
525.145	11850.47
525.575	11816.09
526.004	11817.53
526.433	11960.94
526.863	11868.1
527.292	11694.79
527.721	11643.68
528.15	11608.09
528.579	11536.71
529.008	11542.8
529.437	11636.63
529.866	11670.27
530.295	11726.1
530.724	11739.03
531.152	11856.42
531.581	11883.26
532.01	11950.44
532.438	11957.93
532.867	12008.59
533.295	12086.45
533.723	12084.25
534.152	12028.45
534.58	11986.71
535.008	11849.81
535.436	11829.26
535.865	11854.03
536.293	11928.98
536.721	12011.52
537.149	12152.56
537.576	12153.05
538.004	12230.18
538.432	12276.59
538.86	12259.59
539.287	12307.01
539.715	12394.35
540.143	12430.73
540.57	12421.52
540.998	12417.48
541.425	12266.41
541.852	12159.91
542.28	12170.43
542.707	12093.39
543.134	12024.06
543.561	12017.57
543.988	11992.31
544.415	12022.03
544.842	12014.56
545.269	11988.16
545.696	12018.41
546.123	12149.76
546.549	12104.38
546.976	12039.98
547.403	12053.95
547.829	12095.54
548.256	12142.21
548.682	12141.03
549.108	12109.71
549.535	12133.77
549.961	12172.18
550.387	12107.26
550.813	12080.97
551.24	12146.69
551.666	12176.7
552.092	12131.21
552.518	12111.97
552.943	12082.23
553.369	12164.19
553.795	12229.53
554.221	12248.52
554.646	12248.06
555.072	12320.15
555.498	12378.05
555.923	12458.19
556.349	12574.99
556.774	12650.9
557.199	12669.11
557.625	12742.01
558.05	12703.45
558.475	12784.79
558.9	12786.9
559.325	12734.22
559.75	12710.63
560.175	12678.09
560.6	12648.31
561.025	12639.86
561.449	12654.65
561.874	12697.1
562.299	12714.4
562.723	12773.53
563.148	12697.72
563.572	12723.06
563.997	12792.35
564.421	12827.05
564.846	12823.32
565.27	12827.51
565.694	12804.28
566.118	12858.64
566.542	12885.74
566.966	12823.53
567.39	12760.79
567.814	12666.17
568.238	12652.77
568.662	12679.55
569.086	12689.78
569.509	12751.25
569.933	12651.18
570.357	12628.51
570.78	12519.46
571.204	12462.63
571.627	12445.24
572.05	12502.7
572.474	12571.75
572.897	12573.99
573.32	12608.36
573.743	12651.54
574.166	12611.87
574.589	12732.54
575.012	12786.59
575.435	12907.95
575.858	12966.96
576.281	13012.05
576.704	13021.46
577.126	13062.16
577.549	13094.72
577.972	13151.73
578.394	13184.08
578.817	13229.09
579.239	13200.21
579.661	13203.18
580.084	13162.95
580.506	13172.71
580.928	13255.58
581.35	13277.53
581.772	13344.98
582.194	13336.57
582.616	13323.51
583.038	13315.23
583.46	13342.85
583.882	13406.79
584.303	13548.94
584.725	13628.21
585.147	13680.71
585.568	13850.87
585.99	14024.89
586.411	14158.63
586.833	14363.18
587.254	14445.7
587.675	14642.66
588.096	14830.36
588.518	14845.92
588.939	14745.28
589.36	14777.29
589.781	14794.78
590.202	14531.46
590.623	14498.77
591.043	14513.72
591.464	14416.4
591.885	14396.25
592.305	14357.41
592.726	14228.86
593.147	14226.88
593.567	14161.2
593.987	14062.89
594.408	13986.29
594.828	13973.98
595.248	13857.3
595.669	13610.49
596.089	13481.62
596.509	13365.94
596.929	13158.16
597.349	13087.61
597.769	12921.22
598.189	12779.16
598.608	12717.97
599.028	12653.32
599.448	12581.33
599.867	12406.79
600.287	12323.59
600.706	12219.83
601.126	12069.22
601.545	12005.35
601.965	11958.88
602.384	11884.91
602.803	11891.58
603.222	11824.71
603.641	11762.39
604.061	11722.27
604.48	11699.83
604.898	11787.52
605.317	11865.14
605.736	11920.71
606.155	11933.75
606.574	11896.93
606.992	11995.9
607.411	12004.17
607.829	12006.83
608.248	12050.07
608.666	12104.54
609.085	12165.96
609.503	12152.41
609.921	12164.26
610.339	12258.05
610.758	12338.05
611.176	12377.55
611.594	12367.98
612.012	12418.43
612.43	12512.8
612.847	12650.68
613.265	12721.08
613.683	12846.74
614.101	12945.06
614.518	13000.81
614.936	12982.75
615.353	12909.72
615.771	12946.95
616.188	13023.7
616.606	13060.41
617.023	13067.95
617.44	12990.63
617.857	13005.07
618.274	12986.38
618.691	12977.44
619.108	12941.82
619.525	12940.65
619.942	13058.15
620.359	13135.52
620.776	13133.52
621.192	13125.56
621.609	13142.78
622.026	13243.89
622.442	13344.1
622.859	13416.73
623.275	13381.61
623.691	13469.35
624.108	13621.37
624.524	13814.89
624.94	13849.86
625.356	13986.72
625.772	14172.04
626.188	14337.31
626.604	14387.6
627.02	14373.03
627.436	14371.47
627.852	14463.78
628.268	14616.1
628.683	14557.93
629.099	14499.83
629.514	14491.32
629.93	14570.54
630.345	14662.35
630.761	14665
631.176	14753.31
631.591	14711.6
632.007	14699.38
632.422	14758.51
632.837	14706.19
633.252	14730.56
633.667	14688.73
634.082	14654.33
634.497	14586.72
634.911	14425.99
635.326	14472.73
635.741	14368.52
636.155	14375.2
636.57	14489.3
636.984	14600.16
637.399	14723.69
637.813	14862.78
638.228	14978.1
638.642	15185.65
639.056	15210.15
639.47	15388.04
639.884	15441.41
640.298	15526.8
640.712	15671.3
641.126	15681.3
641.54	15748.53
641.954	15885.51
642.368	15885.11
642.781	15914.51
643.195	15843.78
643.609	16024.83
644.022	16121.28
644.436	16240.02
644.849	16256.99
645.262	16263.44
645.676	16475.49
646.089	16557.72
646.502	16460.4
646.915	16539.52
647.328	16467.15
647.741	16566.38
648.154	16496.22
648.567	16519.34
648.98	16412.16
649.393	16522.12
649.805	16571.35
650.218	16552.59
650.631	16367.4
651.043	16366.47
651.456	16342.65
651.868	16436.15
652.28	16800.38
652.693	17081.42
653.105	17248.01
653.517	17435.06
653.929	17451.6
654.341	17579.41
654.753	17408.13
655.165	17608.34
655.577	17660.86
655.989	17705.8
656.401	17710.4
656.813	17187.6
657.224	17000.62
657.636	16723.83
658.047	16594.3
658.459	16455.12
658.87	16518.19
659.282	16516.59
659.693	16293.03
660.104	16182.37
660.515	16094.59
660.926	16226.49
661.338	16364.67
661.749	16421.72
662.159	16376.74
662.57	16484.33
662.981	16556.67
663.392	16550.69
663.803	16775.58
664.213	16899.7
664.624	16976.83
665.035	17192.98
665.445	17044.03
665.855	16995.91
666.266	16914.54
666.676	16985.72
667.086	16891.62
667.497	16948.15
667.907	16897.54
668.317	16772.91
668.727	16673.5
669.137	16757.81
669.547	16744.99
669.956	16853.25
670.366	16935.32
670.776	17001.27
671.186	17119.18
671.595	17193.09
672.005	17302.79
672.414	17265.08
672.824	17204.17
673.233	17385.1
673.642	17409.48
674.052	17437.18
674.461	17428.24
674.87	17518.24
675.279	17410.79
675.688	17440.88
676.097	17407.98
676.506	17290.81
676.915	17592.95
677.323	17618.89
677.732	17539.59
678.141	17493.67
678.549	17235.38
678.958	17191.81
