Data from N_3_DEC_OH_4N_Splice17_13-26-41-788.txt Node
Date: Sat Mar 14 13:26:41 EDT 2020
User: sa697716
Spectrometer: FLMS03696
Trigger mode: 0
Integration Time (sec): 3.180400E-1
Scans to average: 20
Electric dark correction enabled: true
Nonlinearity correction enabled: true
Boxcar width: 5
XAxis mode: Wavelengths
Number of Pixels in Spectrum: 2048
>>>>>Begin Spectral Data<<<<<
187.83	-422262.42
188.298	3053.89
188.766	1612.09
189.233	1443.1
189.701	2020.52
190.169	2802.11
190.636	1114.59
191.104	939.83
191.571	231.5
192.039	3.53
192.506	-2.58
192.974	471.05
193.441	-597.44
193.908	-49.66
194.375	-42.16
194.842	68.52
195.31	186.86
195.777	186.9
196.244	430.48
196.711	541.3
197.177	670.06
197.644	950.72
198.111	1639.24
198.578	2260.31
199.045	1810.25
199.511	2980.1
199.978	3416.05
200.445	2876.04
200.911	3187.12
201.378	3510.09
201.844	3138.26
202.31	5278.15
202.777	5465.31
203.243	2981.77
203.709	2826.41
204.176	3312.78
204.642	2679.62
205.108	2499.67
205.574	2020.43
206.04	1814.98
206.506	1695.17
206.972	1593.28
207.438	1534.29
207.903	1724.6
208.369	1501.38
208.835	1490.36
209.301	1559.25
209.766	1602.62
210.232	1571.55
210.697	1918.79
211.163	2336.09
211.628	3483.18
212.094	2891.05
212.559	3553.67
213.024	2186.19
213.49	2664.03
213.955	2559.9
214.42	2467.06
214.885	2254.83
215.35	2129.55
215.815	2058.59
216.28	2167.53
216.745	1724.63
217.21	1803.43
217.675	1563.28
218.14	1671.42
218.604	1749.35
219.069	1867.4
219.534	1853.27
219.998	2004.87
220.463	2261.19
220.927	2539.57
221.392	2239.09
221.856	2171.82
222.32	2572.91
222.785	3069.36
223.249	3692.95
223.713	3969
224.177	3852.58
224.642	4734.5
225.106	5666.89
225.57	6064.21
226.034	4510.21
226.497	6785.08
226.961	6032.65
227.425	6953.3
227.889	7477.45
228.353	7404.03
228.816	15012.55
229.28	14254.22
229.744	11909.44
230.207	7258.08
230.671	7095.76
231.134	11421.99
231.597	13115.6
232.061	12854.87
232.524	12362.55
232.987	8541.96
233.45	7658.09
233.914	6858.6
234.377	6949.54
234.84	6338.11
235.303	7390.34
235.766	8211.99
236.229	8434.19
236.691	5256.56
237.154	5908.54
237.617	4482.66
238.08	4554.71
238.542	5318.85
239.005	3817.96
239.468	3805.71
239.93	3581.54
240.393	3264.75
240.855	2869.06
241.317	2938.5
241.78	3551.73
242.242	3694.7
242.704	4010.58
243.166	3505.93
243.629	3225.48
244.091	3698.49
244.553	4024.52
245.015	4341.02
245.477	5576.22
245.939	8134.35
246.4	8650.92
246.862	8417.29
247.324	7925.04
247.786	8791.64
248.247	11489.2
248.709	11672.36
249.17	8747.21
249.632	8373.02
250.093	9792.51
250.555	8490.43
251.016	5216.78
251.477	4960.16
251.939	5385.3
252.4	5646.53
252.861	6676.88
253.322	6245.1
253.783	7419.34
254.244	9623.07
254.705	7517.01
255.166	6622.85
255.627	6520.68
256.088	9231.22
256.549	9821.56
257.009	8418.47
257.47	10187.11
257.931	8322.57
258.391	6241.32
258.852	6432.29
259.312	6723.49
259.773	8286.28
260.233	7058.8
260.694	5993.53
261.154	6751.04
261.614	5461.66
262.074	4871.47
262.534	5078.2
262.994	4789.12
263.455	6336.96
263.915	5357.04
264.374	5041.56
264.834	5496.86
265.294	6043.1
265.754	6255.15
266.214	5908.3
266.673	5514.13
267.133	6933.75
267.593	6830.8
268.052	8375.7
268.512	7293.99
268.971	8865.4
269.431	9724.2
269.89	8701.54
270.349	13046.99
270.809	14569.81
271.268	13123.66
271.727	29270.12
272.186	19076.73
272.645	14381.71
273.104	10289.2
273.563	14856
274.022	11569.68
274.481	9905.63
274.94	7677.92
275.399	5704.37
275.857	6605.02
276.316	8915.55
276.775	7928.19
277.233	7797.32
277.692	7328.13
278.15	8386.32
278.609	8712.83
279.067	8102.14
279.525	7559.97
279.984	9752.38
280.442	11776.91
280.9	11719.48
281.358	7770.86
281.816	7312.26
282.274	7185.06
282.732	7405.37
283.19	7428.13
283.648	6418.61
284.106	6861.49
284.564	6966.31
285.021	6477.21
285.479	4823.71
285.937	4356.78
286.394	3846.11
286.852	3940.16
287.309	4147.61
287.767	4062.58
288.224	3889.71
288.682	4269.31
289.139	4699.15
289.596	4324.28
290.053	4497.95
290.511	5678.94
290.968	6923.97
291.425	9340.95
291.882	7852.73
292.339	6859.27
292.796	6754.65
293.252	6339.83
293.709	5075.22
294.166	4550.49
294.623	5007.42
295.079	4791.94
295.536	4838.71
295.992	4404.09
296.449	4371.23
296.905	4556.77
297.362	4394.21
297.818	4602.43
298.274	4800.44
298.731	4860.33
299.187	4800.14
299.643	5145.29
300.099	6245.2
300.555	6850.2
301.011	5708.75
301.467	5570.16
301.923	6447.72
302.379	6306.91
302.835	6210.23
303.291	6206.77
303.746	7062.1
304.202	8951.91
304.658	9009.49
305.113	6066.04
305.569	5969.05
306.024	6366.43
306.479	5983.88
306.935	5090.07
307.39	5531.1
307.845	5156.72
308.301	5226.63
308.756	5108.03
309.211	4933.8
309.666	5077.76
310.121	6360.72
310.576	6425.85
311.031	6373.57
311.486	7270.49
311.94	7246.31
312.395	9716.43
312.85	18174.76
313.305	88477.12
313.759	465109.52
314.214	33565.49
314.668	26603.73
315.123	22506.72
315.577	8166.32
316.032	7305.05
316.486	9219.55
316.94	7348.76
317.394	5139.27
317.849	4003.21
318.303	3797.66
318.757	3566.26
319.211	3959.73
319.665	3469.59
320.119	3507.32
320.572	4992.23
321.026	4681.55
321.48	3900.58
321.934	4207.29
322.387	4199.21
322.841	4547.05
323.295	4160.8
323.748	4767.59
324.202	4843.34
324.655	5834.55
325.108	8215.59
325.562	5824.57
326.015	6886.28
326.468	5222.88
326.921	5877.29
327.374	5539.06
327.827	5807.86
328.28	6547.88
328.733	4418.7
329.186	3903.88
329.639	3728.11
330.092	3135.97
330.545	3004.17
330.997	3054.26
331.45	3362.97
331.903	3989.6
332.355	6810.05
332.808	6590.48
333.26	5428.63
333.713	5911.19
334.165	5931.87
334.617	7923.79
335.069	6308.43
335.522	11329.92
335.974	12572.28
336.426	11433.17
336.878	7807.08
337.33	3980.39
337.782	3888.33
338.234	4909.88
338.686	5845.78
339.137	6945.29
339.589	6563.67
340.041	5200.35
340.493	4462.4
340.944	4593.04
341.396	4950.18
341.847	4209.76
342.299	5014.08
342.75	6182.05
343.201	5341.67
343.653	6135.48
344.104	7535.1
344.555	5914.7
345.006	9135.48
345.457	7138.78
345.908	5628.64
346.359	5308.5
346.81	4311.96
347.261	4506.24
347.712	4414.63
348.163	4737.47
348.613	4859.89
349.064	4532.01
349.515	3970.68
349.965	4116.91
350.416	4913.49
350.866	5379.39
351.317	6050.15
351.767	10048.19
352.217	12743.53
352.668	10589.45
353.118	9723.53
353.568	9270.12
354.018	7422.06
354.468	7859.01
354.918	5632.53
355.368	4926.23
355.818	6986.8
356.268	20146.53
356.718	85275.17
357.168	21283.56
357.617	10691.4
358.067	11858.16
358.517	11129.41
358.966	13135.87
359.416	14884.58
359.865	16062.15
360.315	19112.37
360.764	8971.33
361.213	5041.34
361.663	4709.83
362.112	5806.65
362.561	9405.86
363.01	7175.13
363.459	6072.59
363.908	6509.2
364.357	5547.27
364.806	9357.73
365.255	6435.53
365.703	5936.97
366.152	5980.62
366.601	4866.24
367.05	3983.54
367.498	3625.83
367.947	3766.17
368.395	3910.24
368.844	3489.43
369.292	4151.41
369.74	2895.43
370.189	4448.78
370.637	5184.37
371.085	4447.91
371.533	5430.61
371.981	5191.34
372.429	5005.68
372.877	5216.51
373.325	4389.99
373.773	4460.19
374.221	3957.71
374.669	4910.96
375.116	4241.06
375.564	4290.79
376.012	4818.09
376.459	3982.18
376.907	4765.49
377.354	5706.78
377.801	5370.58
378.249	6187.68
378.696	7885.78
379.143	9635.63
379.591	10211.31
380.038	17366.05
380.485	12566.29
380.932	13570.13
381.379	12568.74
381.826	9374.02
382.273	6709.25
382.72	5837.15
383.166	5749.8
383.613	3770.72
384.06	3418.64
384.506	4007
384.953	2970.08
385.4	3008.36
385.846	2680.55
386.292	2614.97
386.739	2576.27
387.185	2582.11
387.631	2658.78
388.078	2651.1
388.524	2895.64
388.97	2738.25
389.416	2334.39
389.862	2510.69
390.308	2429.71
390.754	2518.92
391.2	2816.3
391.645	2986.13
392.091	3008.34
392.537	3019.01
392.983	3105.48
393.428	3174.4
393.874	3527.1
394.319	3748.14
394.765	3844.86
395.21	4272.22
395.655	4363.29
396.101	4464.46
396.546	4393.84
396.991	4841.94
397.436	4938.51
397.881	5267.78
398.326	5529.4
398.771	5794.94
399.216	5589.08
399.661	5516.6
400.106	5993.76
400.551	6672.85
400.995	6471.94
401.44	6889.99
401.885	6910.78
402.329	7438.48
402.774	7555.53
403.218	7716.09
403.663	7868.91
404.107	8543.05
404.551	9114.32
404.995	8877.91
405.44	9100.63
405.884	9806
406.328	10022.25
406.772	10503.35
407.216	10040.54
407.66	10239.2
408.104	10331.96
408.547	10217.34
408.991	10385.99
409.435	10446.94
409.879	10686.06
410.322	10911.52
410.766	10896.2
411.209	10737.65
411.653	10720.5
412.096	10883.21
412.54	11274.9
412.983	11533.99
413.426	11854.69
413.869	12184.41
414.312	12243.26
414.756	12123.48
415.199	11869.9
415.642	11791.48
416.085	12053.74
416.527	12202.41
416.97	12638.08
417.413	12162.28
417.856	12226.89
418.298	12259.65
418.741	12289.23
419.184	12374.41
419.626	13006.71
420.069	13091.52
420.511	13261.98
420.953	13093.41
421.396	13112.75
421.838	12931.21
422.28	13365.62
422.722	13555.7
423.164	13984.57
423.606	13962.05
424.048	14195.14
424.49	13655.86
424.932	13799.76
425.374	13807.19
425.816	14167.81
426.258	14409.88
426.699	14414.5
427.141	13920.39
427.582	13925.07
428.024	13722.75
428.465	13700.09
428.907	13522.16
429.348	13621.56
429.789	13815.72
430.231	13662.92
430.672	14022.83
431.113	13960.09
431.554	14184.89
431.995	14452.9
432.436	14462.02
432.877	14606.09
433.318	14659.08
433.759	14864.89
434.2	15048.85
434.64	15078.03
435.081	15323.01
435.522	14747.46
435.962	14483.25
436.403	14377.79
436.843	14809.85
437.284	14719.52
437.724	14513.06
438.164	14758.91
438.604	14558.8
439.045	14102.56
439.485	13628.19
439.925	13524.74
440.365	13364.73
440.805	13323.26
441.245	13232.33
441.685	12807.66
442.125	12782.21
442.564	12898.84
443.004	12596.99
443.444	12598.61
443.883	12656.46
444.323	12677.98
444.762	12829.61
445.202	13063.45
445.641	13303.02
446.081	13348.61
446.52	13486.93
446.959	13395.86
447.398	13123.17
447.837	13054.52
448.276	12901.31
448.716	13062.21
449.154	13202.54
449.593	12812.87
450.032	12717.39
450.471	12489.89
450.91	12453.41
451.349	12335.96
451.787	12235.19
452.226	12342.02
452.664	12262.27
453.103	12196.91
453.541	12111.1
453.98	11933.61
454.418	11939.53
454.856	11634.19
455.295	11530.58
455.733	11493.59
456.171	11478.68
456.609	11376.27
457.047	11258.14
457.485	11300.36
457.923	11225.61
458.361	11023
458.798	11046.19
459.236	10993.81
459.674	11103.64
460.111	11144.01
460.549	11055.2
460.987	11063.21
461.424	11063.21
461.862	11055.01
462.299	10923.86
462.736	10916.88
463.173	10989.02
463.611	10838.14
464.048	10835.15
464.485	10946.3
464.922	10905.62
465.359	10921.77
465.796	10651.88
466.233	10634.97
466.67	10556.77
467.106	10569.98
467.543	10559.57
467.98	10488.97
468.416	10337.88
468.853	10337.74
469.29	10091.63
469.726	10024.71
470.162	9789.82
470.599	9829.24
471.035	9774.26
471.471	9576.8
471.907	9574.43
472.344	9521.02
472.78	9512.07
473.216	9608.89
473.652	9445.06
474.088	9383.84
474.523	9276.4
474.959	9306.74
475.395	9155.88
475.831	9010.23
476.266	8983.53
476.702	8878.36
477.138	8686.87
477.573	8574.67
478.008	8442.07
478.444	8362.56
478.879	8309.83
479.314	8245.77
479.75	8134.07
480.185	8080.7
480.62	8054.03
481.055	7993.62
481.49	7930.19
481.925	7925.51
482.36	7900.29
482.795	7990.43
483.229	8082.98
483.664	8115.57
484.099	8022.84
484.534	8012.53
484.968	7970.87
485.403	7890.59
485.837	7795.34
486.271	7694.9
486.706	7625.45
487.14	7510.55
487.574	7340.74
488.009	7230.41
488.443	7124.98
488.877	7128.07
489.311	7102.43
489.745	7125.02
490.179	7131.6
490.613	7178.12
491.046	7187.43
491.48	7191.35
491.914	7142.63
492.348	7143.97
492.781	7136.34
493.215	7117.65
493.648	7111.98
494.082	7131.37
494.515	7096.11
494.948	7124.6
495.382	7146.57
495.815	7141.28
496.248	7139.2
496.681	7215.49
497.114	7278.48
497.547	7312.15
497.98	7358.47
498.413	7329.54
498.846	7343.43
499.279	7359.57
499.711	7341.48
500.144	7299.95
500.577	7316.3
501.009	7350.24
501.442	7356.74
501.874	7290.57
502.306	7256.43
502.739	7241.49
503.171	7325.03
503.603	7293.49
504.036	7306.07
504.468	7279.18
504.9	7297.65
505.332	7286.42
505.764	7245.12
506.196	7233.29
506.627	7271
507.059	7288.35
507.491	7297.48
507.923	7184.12
508.354	7208.12
508.786	7201.57
509.217	7245.12
509.649	7264.21
510.08	7309.08
510.512	7325.12
510.943	7332.28
511.374	7314.64
511.805	7354.55
512.237	7389.55
512.668	7511.71
513.099	7586.72
513.53	7640.68
513.961	7642.45
514.391	7711.99
514.822	7774.96
515.253	7867.56
515.684	7895.01
516.114	7949.7
516.545	7952.71
516.975	7985.92
517.406	7973.1
517.836	7886.49
518.267	7833.56
518.697	7848.14
519.127	7793.86
519.558	7759.3
519.988	7702.01
520.418	7683.47
520.848	7699.73
521.278	7671.34
521.708	7505.75
522.138	7501.1
522.567	7582.89
522.997	7626.68
523.427	7618.64
523.857	7610.65
524.286	7582.92
524.716	7584.15
525.145	7602.39
525.575	7590.84
526.004	7604.61
526.433	7676.19
526.863	7626.68
527.292	7530.75
527.721	7520.04
528.15	7526.93
528.579	7510.58
529.008	7534.84
529.437	7605.28
529.866	7629.97
530.295	7665.28
530.724	7670.99
531.152	7745.61
531.581	7763.25
532.01	7807.63
532.438	7815.39
532.867	7846.38
533.295	7893.26
533.723	7891.27
534.152	7857.98
534.58	7835.65
535.008	7754.1
535.436	7743.21
535.865	7760.12
536.293	7804.77
536.721	7847.54
537.149	7920.67
537.576	7900.16
538.004	7934.41
538.432	7954.28
538.86	7937.17
539.287	7961.7
539.715	8008.17
540.143	8023.5
540.57	8011.78
540.998	8008.06
541.425	7917.27
541.852	7852.24
542.28	7870.24
542.707	7827.6
543.134	7789.23
543.561	7788.86
543.988	7774.43
544.415	7790.8
544.842	7784.1
545.269	7766.52
545.696	7784.73
546.123	7863.33
546.549	7834.88
546.976	7792.35
547.403	7801.3
547.829	7825.43
548.256	7854.69
548.682	7854.97
549.108	7838.23
549.535	7854.17
549.961	7878.73
550.387	7834.77
550.813	7818.25
551.24	7860.34
551.666	7881.19
552.092	7853.57
552.518	7840.26
552.943	7818.6
553.369	7863.85
553.795	7896.47
554.221	7902.54
554.646	7894.93
555.072	7935.57
555.498	7960.59
555.923	7994.94
556.349	8050.88
556.774	8081.52
557.199	8079.91
557.625	8114.17
558.05	8084.11
558.475	8132.37
558.9	8128.17
559.325	8090.78
559.75	8072.54
560.175	8051.81
560.6	8035.31
561.025	8034.87
561.449	8047.04
561.874	8075.85
562.299	8083.7
562.723	8112.79
563.148	8059.7
563.572	8074.28
563.997	8115.69
564.421	8136.32
564.846	8130.78
565.27	8131.85
565.694	8109.79
566.118	8143.75
566.542	8160.29
566.966	8121.15
567.39	8084.46
567.814	8024.3
568.238	8012.63
568.662	8030.98
569.086	8041.56
569.509	8084
569.933	8025.15
570.357	8016.59
570.78	7949.14
571.204	7915.34
571.627	7903.28
572.05	7934.82
572.474	7975.27
572.897	7967.57
573.32	7977.6
573.743	7985.59
574.166	7943.96
574.589	7999.35
575.012	8011.33
575.435	8061.27
575.858	8072.37
576.281	8077.54
576.704	8065.36
577.126	8072.87
577.549	8079.08
577.972	8096.16
578.394	8100.98
578.817	8114.51
579.239	8083.11
579.661	8073.55
580.084	8042.52
580.506	8036.59
580.928	8076.86
581.35	8076.44
581.772	8102.23
582.194	8080.23
582.616	8053.85
583.038	8025.56
583.46	8020.85
583.882	8038.91
584.303	8102.1
584.725	8122.07
585.147	8127.47
585.568	8189.05
585.99	8247.05
586.411	8276.47
586.833	8350.38
587.254	8362.26
587.675	8445.73
588.096	8521.94
588.518	8499.97
588.939	8414.04
589.36	8408.25
589.781	8399.65
590.202	8250.28
590.623	8235.55
591.043	8253.62
591.464	8205.66
591.885	8196.89
592.305	8174.7
592.726	8103.93
593.147	8109.61
593.567	8076.5
593.987	8028.96
594.408	7989.79
594.828	7985.99
595.248	7928.93
595.669	7801.09
596.089	7741.95
596.509	7688.36
596.929	7585.38
597.349	7559.44
597.769	7474.6
598.189	7406.8
598.608	7379.75
599.028	7355.14
599.448	7324.64
599.867	7234.4
600.287	7195.79
600.706	7148.66
601.126	7073.62
601.545	7047.24
601.965	7027.41
602.384	6991.23
602.803	6999.58
603.222	6967.76
603.641	6934.35
604.061	6911.99
604.48	6896.86
604.898	6941.62
605.317	6975.66
605.736	6997.12
606.155	6991.26
606.574	6954.9
606.992	6995.99
607.411	6984.61
607.829	6967.1
608.248	6972.49
608.666	6985.43
609.085	7002.65
609.503	6978.69
609.921	6968.35
610.339	7003.24
610.758	7029.51
611.176	7033.29
611.594	7010.89
612.012	7023.17
612.43	7060.5
612.847	7119.96
613.265	7140.77
613.683	7190.23
614.101	7226.41
614.518	7239.39
614.936	7216.03
615.353	7163.15
615.771	7174.54
616.188	7206.37
616.606	7216.03
617.023	7209.95
617.44	7159.93
617.857	7163.2
618.274	7147.1
618.691	7134.61
619.108	7105.45
619.525	7092.25
619.942	7146.43
620.359	7175.93
620.776	7161.35
621.192	7143.57
621.609	7137.32
622.026	7177.98
622.442	7212.6
622.859	7237.47
623.275	7204.38
623.691	7241.32
624.108	7310.21
624.524	7399.88
624.94	7403.26
625.356	7461.33
625.772	7547.26
626.188	7622.34
626.604	7635.79
627.02	7617.76
627.436	7605.08
627.852	7644.55
628.268	7713.13
628.683	7667.98
629.099	7626.26
629.514	7614.03
629.93	7649.92
630.345	7687.82
630.761	7681.97
631.176	7720.91
631.591	7695.3
632.007	7681.97
632.422	7702.6
632.837	7666.17
633.252	7674.1
633.667	7643.56
634.082	7617.95
634.497	7572.83
634.911	7483.69
635.326	7500.23
635.741	7438.26
636.155	7429.15
636.57	7476.53
636.984	7519.52
637.399	7569.66
637.813	7622.41
638.228	7666.41
638.642	7752.99
639.056	7748.72
639.47	7816.93
639.884	7824.51
640.298	7847.25
640.712	7901.11
641.126	7888.13
641.54	7905.04
641.954	7957.37
642.368	7943.51
642.781	7940.99
643.195	7885.39
643.609	7952.08
644.022	7979.7
644.436	8013.48
644.849	7995.51
645.262	7974.86
645.676	8052.44
646.089	8065.99
646.502	7991.28
646.915	8007.38
647.328	7952.47
647.741	7988.54
648.154	7942.89
648.567	7943.53
648.98	7882.44
649.393	7928.58
649.805	7943.25
650.218	7928.09
650.631	7839.87
651.043	7838.24
651.456	7822.1
651.868	7857.02
652.28	8013.69
652.693	8123.34
653.105	8172.31
653.517	8225.5
653.929	8202.78
654.341	8239.24
654.753	8141.78
655.165	8217.04
655.577	8226.25
655.989	8233.58
656.401	8226.6
656.813	7982.47
657.224	7904.3
657.636	7786.49
658.047	7745.73
658.459	7694.64
658.87	7731.21
659.282	7731.5
659.693	7625.56
660.104	7569.94
660.515	7523.66
660.926	7573.78
661.338	7629.14
661.749	7644.15
662.159	7614.17
662.57	7651.07
662.981	7671.34
663.392	7652.95
663.803	7741.58
664.213	7782.53
664.624	7800.07
665.035	7882.76
665.445	7804.76
665.855	7768.42
666.266	7718.05
666.676	7735.99
667.086	7678.65
667.497	7691.45
667.907	7655.76
668.317	7585.94
668.727	7529.97
669.137	7556.74
669.547	7538.7
669.956	7574.73
670.366	7599.68
670.776	7616.24
671.186	7655.85
671.595	7678.83
672.005	7714.8
672.414	7689.73
672.824	7653.24
673.233	7722.2
673.642	7724.49
674.052	7726.32
674.461	7711.05
674.87	7738.88
675.279	7681.11
675.688	7683.57
676.097	7659.67
676.506	7599.39
676.915	7719.65
677.323	7721.12
677.732	7674.28
678.141	7641.42
678.549	7519.17
678.958	7490.86
679.366	7456.01
679.775	7484.31
680.183	7508.63
680.592	7525.6
681	7525.34
681.408	7400.55
681.816	7410.77
682.224	7426.72
682.632	7419.94
683.04	7586.91
683.448	7668.43
683.856	7745.31
684.264	7814.95
684.671	7868.11
685.079	7955.02
685.487	8061.88
685.894	8281.93
686.302	8392.06
686.709	8399.54
687.116	8458.02
687.524	8433.79
687.931	8395.11
688.338	8363.29
688.745	8334.2
689.152	8312.5
689.559	8330.94
689.966	8311.66
690.373	8156.51
690.78	8095.53
691.187	8149.14
691.593	8101.53
692	8023.62
692.407	8034.85
692.813	8090
693.22	8083.18
693.626	8101.08
694.032	8065.1
694.439	8146.1
694.845	8166.66
