Data from N_3_DIV_IL_4N_Splice17_13-20-45-610.txt Node
Date: Sat Mar 14 13:20:45 EDT 2020
User: sa697716
Spectrometer: FLMS03696
Trigger mode: 0
Integration Time (sec): 3.180400E-1
Scans to average: 20
Electric dark correction enabled: true
Nonlinearity correction enabled: true
Boxcar width: 5
XAxis mode: Wavelengths
Number of Pixels in Spectrum: 2048
>>>>>Begin Spectral Data<<<<<
187.83	-352198.91
188.298	2677.29
188.766	1412.41
189.233	1251.4
189.701	1758.31
190.169	2354.76
190.636	905.67
191.104	734.29
191.571	143.29
192.039	-52.65
192.506	-49.49
192.974	515.95
193.441	-755.56
193.908	-159.01
194.375	-13.89
194.842	44.71
195.31	74.3
195.777	177.37
196.244	413.07
196.711	461.94
197.177	565.97
197.644	764.95
198.111	1305.38
198.578	1825
199.045	1457.93
199.511	2343.12
199.978	2684.97
200.445	2299.74
200.911	2517.12
201.378	2756.99
201.844	2528.3
202.31	4321.37
202.777	4477.69
203.243	2502.14
203.709	2383.88
204.176	2823.66
204.642	2346.7
205.108	2204.4
205.574	1794.42
206.04	1626.94
206.506	1543.72
206.972	1424.61
207.438	1362.93
207.903	1549.02
208.369	1356.82
208.835	1363.82
209.301	1425.25
209.766	1429.9
210.232	1415.6
210.697	1731.88
211.163	2129.65
211.628	3151.09
212.094	2659
212.559	3273.31
213.024	2044.34
213.49	2480.27
213.955	2397.84
214.42	2317.97
214.885	2168.95
215.35	2076.03
215.815	2024.7
216.28	2133.98
216.745	1724.57
217.21	1840.09
217.675	1645.6
218.14	1809.85
218.604	1977.36
219.069	2190.94
219.534	2271.73
219.998	2572.77
220.463	3047.93
220.927	3615.62
221.392	3352.29
221.856	3359.49
222.32	4156.62
222.785	5095.6
223.249	6351.67
223.713	6996.03
224.177	6962.92
224.642	8797.74
225.106	10786.43
225.57	11708.49
226.034	8726.5
226.497	13284.93
226.961	11981.4
227.425	13971.8
227.889	15409.94
228.353	15318.33
228.816	31640.09
229.28	30283.17
229.744	25595.99
230.207	15533.63
230.671	15290.42
231.134	25169.87
231.597	28952.02
232.061	28873.18
232.524	28079.27
232.987	19334.28
233.45	17484.99
233.914	15638.04
234.377	15957.34
234.84	14569.88
235.303	17152.84
235.766	19116.1
236.229	19821.13
236.691	12482.17
237.154	14015.47
237.617	10554.24
238.08	10818.68
238.542	12653.15
239.005	9072.65
239.468	9023.47
239.93	8519.52
240.393	7760.96
240.855	6833.03
241.317	6959.84
241.78	8454.86
242.242	8761.2
242.704	9492.88
243.166	8288.96
243.629	7558.05
244.091	8725.51
244.553	9575.77
245.015	10307.64
245.477	13355.47
245.939	19585.39
246.4	20867.97
246.862	20317.17
247.324	19214.23
247.786	21512.14
248.247	28188.57
248.709	29052.63
249.17	21762.66
249.632	20596.29
250.093	23965.6
250.555	20678.08
251.016	12636.74
251.477	11994.95
251.939	12967.22
252.4	13578.95
252.861	16133.81
253.322	15034.27
253.783	17870.72
254.244	23108.98
254.705	18166.34
255.166	16107.93
255.627	15872.46
256.088	22409.62
256.549	23849.94
257.009	20525.11
257.47	24900.34
257.931	20287.85
258.391	15183.13
258.852	15654.39
259.312	16452.91
259.773	20341.93
260.233	17243.53
260.694	14562.17
261.154	16493.74
261.614	13221.79
262.074	11817.36
262.534	12278.25
262.994	11570.53
263.455	15402.02
263.915	12970.69
264.374	12206.53
264.834	13296.71
265.294	14710.24
265.754	15211.5
266.214	14388.84
266.673	13484.17
267.133	16972.17
267.593	16793.83
268.052	20517.54
268.512	17816.35
268.971	21527.2
269.431	23576
269.89	21096.35
270.349	31571.93
270.809	35222.25
271.268	31634.78
271.727	70846.27
272.186	45921.59
272.645	34428.74
273.104	24804.62
273.563	35914.94
274.022	28136.9
274.481	23946.22
274.94	18470.11
275.399	13716.22
275.857	15931.74
276.316	21523.21
276.775	19136.55
277.233	18863.53
277.692	17724.73
278.15	20060.37
278.609	20688.82
279.067	19163.75
279.525	17826.97
279.984	22997.8
280.442	27637.21
280.9	27365.28
281.358	18024.08
281.816	16842.32
282.274	16490.75
282.732	17009.1
283.19	17117.83
283.648	14759.76
284.106	15728.89
284.564	15973.83
285.021	14839.82
285.479	11063.47
285.937	10033.06
286.394	8824.41
286.852	9080.21
287.309	9548.31
287.767	9260.12
288.224	8826.9
288.682	9694.03
289.139	10681.44
289.596	9801.43
290.053	10189.07
290.511	12879.12
290.968	15653.22
291.425	21235.23
291.882	17718.78
292.339	15432.74
292.796	15291.4
293.252	14402.72
293.709	11488.42
294.166	10275.78
294.623	11338.38
295.079	10886.43
295.536	10956.39
295.992	9956.41
296.449	9859.61
296.905	10214.59
297.362	9826.56
297.818	10337.12
298.274	10744.84
298.731	10900.98
299.187	10790.69
299.643	11588.52
300.099	14027.29
300.555	15372.81
301.011	12827.92
301.467	12409.93
301.923	14546.05
302.379	14186.11
302.835	13927.38
303.291	13919.02
303.746	15887.31
304.202	20105.75
304.658	20192.74
305.113	13592.56
305.569	13337.26
306.024	14259.27
306.479	13538.99
306.935	11437.98
307.39	12504.63
307.845	11560.44
308.301	11673.59
308.756	11350.21
309.211	10942.16
309.666	11241.69
310.121	13983.66
310.576	14205.16
311.031	14072.72
311.486	16085.23
311.94	16088.09
312.395	21518.65
312.85	40474.63
313.305	198469.26
313.759	1035922.01
314.214	75261.87
314.668	59803.98
315.123	50353.29
315.577	18132.41
316.032	16192.16
316.486	20349.76
316.94	16067.06
317.394	11232.06
317.849	8749.45
318.303	8302.54
318.757	7830.57
319.211	8645.28
319.665	7561.67
320.119	7657.99
320.572	10943.31
321.026	10234.75
321.48	8522.28
321.934	9298.99
322.387	9307.49
322.841	10064.99
323.295	9099.26
323.748	10446.67
324.202	10638.09
324.655	12820.58
325.108	18002.53
325.562	12775.45
326.015	15156.71
326.468	11486.3
326.921	12888.13
327.374	12036.96
327.827	12565.61
328.28	14206.82
328.733	9554.46
329.186	8397.15
329.639	7983.21
330.092	6717.2
330.545	6401.55
330.997	6501.11
331.45	7138.69
331.903	8395.38
332.355	14458.29
332.808	14046.01
333.26	11573.17
333.713	12595.33
334.165	12700.42
334.617	17043.15
335.069	13748.1
335.522	24891.8
335.974	27426.45
336.426	24934.28
336.878	17198.79
337.33	8737.21
337.782	8531.92
338.234	10702.86
338.686	12777.98
339.137	15138.88
339.589	14230.24
340.041	11197.32
340.493	9609.97
340.944	9866.06
341.396	10668.67
341.847	9003.71
342.299	10657.19
342.75	13052.65
343.201	11425.32
343.653	13139.63
344.104	16166.56
344.555	12742.07
345.006	19741.47
345.457	15167.17
345.908	12063.19
346.359	11371.67
346.81	9256.2
347.261	9711.37
347.712	9541.89
348.163	10203.88
348.613	10378.26
349.064	9696.42
349.515	8466.37
349.965	8725.25
350.416	10524.44
350.866	11542.02
351.317	12973.06
351.767	21529.23
352.217	27208.14
352.668	22598.12
353.118	20717.37
353.568	19943.47
354.018	15759.93
354.468	16659.91
354.918	11924.36
355.368	10374.07
355.818	14662.71
356.268	42371.83
356.718	177120.32
357.168	44164.95
357.617	22142.26
358.067	24639.81
358.517	23026.88
358.966	27027.85
359.416	30394.81
359.865	32829.13
360.315	39297.28
360.764	18366.59
361.213	10282.11
361.663	9722.45
362.112	11991.66
362.561	19392.63
363.01	14626.73
363.459	12332.39
363.908	13336.12
364.357	11342.2
364.806	19175.45
365.255	13159.73
365.703	12057.14
366.152	12092.58
366.601	9813.16
367.05	7986.32
367.498	7273.92
367.947	7573.47
368.395	7854.29
368.844	6970.37
369.292	8348.39
369.74	5780.39
370.189	8837.25
370.637	10364.09
371.085	8924.97
371.533	10840.03
371.981	10415.38
372.429	9960.93
372.877	10381.29
373.325	8716.53
373.773	8860.92
374.221	7896.57
374.669	9764.27
375.116	8432.44
375.564	8469.31
376.012	9445.73
376.459	7802.39
376.907	9304.82
377.354	11211.28
377.801	10477.9
378.249	12027.98
378.696	15331.6
379.143	18556.17
379.591	19750.85
380.038	33359.01
380.485	24118.95
380.932	26099.25
381.379	23896.52
381.826	17661.09
382.273	12463.06
382.72	10850.71
383.166	10588.59
383.613	6874.83
384.06	6179.48
384.506	7147.83
384.953	5238.58
385.4	5261.69
385.846	4572.13
386.292	4429.69
386.739	4306.6
387.185	4247.75
387.631	4249.39
388.078	4109.93
388.524	4374.11
388.97	4033.42
389.416	3358.93
389.862	3568.43
390.308	3374.67
390.754	3435.87
391.2	3714.49
391.645	3789.29
392.091	3647.69
392.537	3524.14
392.983	3519.37
393.428	3483.76
393.874	3723.2
394.319	3746.18
394.765	3554.37
395.21	3647.82
395.655	3410.03
396.101	3200.15
396.546	2899.82
396.991	2909.75
397.436	2699.54
397.881	2602.92
398.326	2449.71
398.771	2325.65
399.216	2022.03
399.661	1817.97
400.106	1819.99
400.551	1874.63
400.995	1681.7
401.44	1659.14
401.885	1563.41
402.329	1587.27
402.774	1531.54
403.218	1498.2
403.663	1446.5
404.107	1493.39
404.551	1510.89
404.995	1382.78
405.44	1333.63
405.884	1356.42
406.328	1310.27
406.772	1307.66
407.216	1191.24
407.66	1151.11
408.104	1087.21
408.547	1020.77
408.991	990.26
409.435	955.58
409.879	949.14
410.322	937.49
410.766	908.77
411.209	870.35
411.653	836.14
412.096	823.33
412.54	824.89
412.983	825.5
413.426	830.93
413.869	833.82
414.312	819.55
414.756	790.89
415.199	755.78
415.642	737.54
416.085	743.91
416.527	744.22
416.97	758.34
417.413	722.41
417.856	712.3
418.298	707.25
418.741	700.61
419.184	702.67
419.626	727.74
420.069	729.28
420.511	736.49
420.953	722.96
421.396	717.36
421.838	696.04
422.28	710.79
422.722	719.11
423.164	728.43
423.606	719.45
424.048	716.73
424.49	683.94
424.932	681.68
425.374	669.42
425.816	678.43
426.258	691.04
426.699	701.95
427.141	697.26
427.582	705.86
428.024	700.79
428.465	695.15
428.907	678.53
429.348	671.7
429.789	674.32
430.231	663.47
430.672	671.54
431.113	655.65
431.554	646.55
431.995	626.41
432.436	606.49
432.877	594.12
433.318	587.64
433.759	584.54
434.2	584.83
434.64	575.24
435.081	574.75
435.522	546.53
435.962	527.04
436.403	516.3
436.843	521.99
437.284	508.04
437.724	492.42
438.164	491.9
438.604	481.23
439.045	464.7
439.485	449.94
439.925	440.63
440.365	428.66
440.805	423.08
441.245	418.96
441.685	406.56
442.125	404.58
442.564	407.92
443.004	398.35
443.444	397.41
443.883	397.96
444.323	393.19
444.762	392.1
445.202	398.73
445.641	407.97
446.081	404.13
446.52	407.64
446.959	404.69
447.398	399.01
447.837	395.85
448.276	389.46
448.716	393.73
449.154	397.35
449.593	391.01
450.032	390.09
450.471	382.36
450.91	383
451.349	383.4
451.787	382.07
452.226	387.05
452.664	387.81
453.103	390.72
453.541	390.51
453.98	392.64
454.418	394.83
454.856	391.13
455.295	390.6
455.733	395.05
456.171	397.12
456.609	398.17
457.047	398.28
457.485	404.49
457.923	405.69
458.361	399.85
458.798	400.24
459.236	399.85
459.674	400.93
460.111	402.01
460.549	397.03
460.987	394.2
461.424	391.7
461.862	388.84
462.299	382.15
462.736	381.75
463.173	382.6
463.611	380.52
464.048	379.43
464.485	383.25
464.922	380.86
465.359	378.96
465.796	381.69
466.233	380.56
466.67	379.15
467.106	378.56
467.543	373.23
467.98	368.67
468.416	357.2
468.853	354.1
469.29	341.95
469.726	337.68
470.162	328.97
470.599	319.35
471.035	315.43
471.471	307.55
471.907	305.08
472.344	303.51
472.78	305.28
473.216	308.86
473.652	305.01
474.088	304.72
474.523	305.13
474.959	308.28
475.395	306.08
475.831	304.78
476.266	307.72
476.702	307.73
477.138	304.95
477.573	303.76
478.008	303.04
478.444	306.24
478.879	310.51
479.314	311.92
479.75	312.81
480.185	313.98
480.62	317.23
481.055	318.17
481.49	321.04
481.925	326.44
482.36	334.45
482.795	343.25
483.229	353.37
483.664	361.04
484.099	361.82
484.534	367.8
484.968	372.26
485.403	373.59
485.837	372.95
486.271	372.61
486.706	372.81
487.14	367.24
487.574	362.24
488.009	358.28
488.443	355.53
488.877	361.29
489.311	362.75
489.745	368.28
490.179	372.88
490.613	382.87
491.046	387.41
491.48	392.32
491.914	395.42
492.348	400.75
492.781	405.72
493.215	409.05
493.648	411.72
494.082	417.48
494.515	420.03
494.948	428.93
495.382	433.35
495.815	439.2
496.248	446.27
496.681	456.66
497.114	466.46
497.547	476.05
497.98	488.34
498.413	496.38
498.846	506.89
499.279	516.77
499.711	523.18
500.144	529.15
500.577	541.62
501.009	553.35
501.442	566.17
501.874	573.62
502.306	580.22
502.739	592.43
503.171	607.92
503.603	615.6
504.036	627.75
504.468	637.84
504.9	652.39
505.332	662.63
505.764	671.01
506.196	681.85
506.627	698.48
507.059	714.59
507.491	725.79
507.923	730.31
508.354	747.93
508.786	761.81
509.217	781.03
509.649	798.58
510.08	818.87
510.512	839.5
510.943	856.93
511.374	871.29
511.805	892.59
512.237	913.63
512.668	944.81
513.099	972.49
513.53	1000.19
513.961	1023.17
514.391	1054.38
514.822	1088.3
515.253	1121.81
515.684	1148.64
516.114	1179.07
516.545	1203.31
516.975	1230.66
517.406	1251.15
517.836	1256.83
518.267	1267.23
518.697	1286.44
519.127	1293.74
519.558	1303.51
519.988	1310.79
520.418	1322.35
520.848	1340.42
521.278	1350.97
521.708	1381.95
522.138	1396.78
522.567	1428.35
522.997	1454.01
523.427	1469.59
523.857	1488.42
524.286	1498.73
524.716	1514.62
525.145	1534.34
525.575	1546.34
526.004	1560.68
526.433	1544.46
526.863	1546.03
527.292	1538.12
527.721	1544.31
528.15	1552.07
528.579	1553.63
529.008	1565.13
529.437	1587.52
529.866	1601.17
530.295	1618.71
530.724	1631.94
531.152	1657.38
531.581	1670.66
532.01	1686.91
532.438	1696.35
532.867	1710.89
533.295	1728.5
533.723	1735.32
534.152	1734.35
534.58	1735.77
535.008	1720.42
535.436	1723.01
535.865	1731.49
536.293	1745.83
536.721	1761.85
537.149	1785.29
537.576	1787.72
538.004	1799.21
538.432	1806.95
538.86	1804.2
539.287	1809.62
539.715	1822.13
540.143	1823.38
540.57	1818.23
540.998	1814.29
541.425	1793.85
541.852	1773.08
542.28	1771.24
542.707	1754.79
543.134	1741.38
543.561	1737.8
543.988	1730.84
544.415	1731.67
544.842	1727.42
545.269	1722.07
545.696	1725
546.123	1736.83
546.549	1728.44
546.976	1717.58
547.403	1718.76
547.829	1720.75
548.256	1723.12
548.682	1720.51
549.108	1713.91
549.535	1714.11
549.961	1717.36
550.387	1705.15
550.813	1700.38
551.24	1707.25
551.666	1708.08
552.092	1700.26
552.518	1694.17
552.943	1690
553.369	1696.93
553.795	1703.56
554.221	1705.07
554.646	1702.23
555.072	1713.28
555.498	1718.17
555.923	1727.83
556.349	1742.69
556.774	1751.32
557.199	1754.07
557.625	1759.62
558.05	1755.4
558.475	1764.49
558.9	1765.02
559.325	1758.06
559.75	1752.96
560.175	1747.24
560.6	1741.74
561.025	1739.65
561.449	1740.12
561.874	1746.15
562.299	1750.66
562.723	1757.56
563.148	1749
563.572	1751.97
563.997	1761.03
564.421	1764.45
564.846	1763.67
565.27	1765.86
565.694	1763.26
566.118	1774.79
566.542	1780.9
566.966	1774.23
567.39	1768.24
567.814	1757.12
568.238	1756.32
568.662	1761.11
569.086	1763.25
569.509	1770.93
569.933	1756.21
570.357	1749.23
570.78	1728.57
571.204	1715.47
571.627	1704.8
572.05	1703.79
572.474	1703.56
572.897	1690.57
573.32	1682.85
573.743	1675.09
574.166	1658.13
574.589	1657.67
575.012	1649.89
575.435	1649.36
575.858	1641.98
576.281	1631.7
576.704	1616.48
577.126	1604.63
577.549	1596.17
577.972	1586.71
578.394	1575.03
578.817	1569.18
579.239	1551.7
579.661	1539.89
580.084	1524.85
580.506	1511.83
580.928	1508.67
581.35	1498.74
581.772	1494.81
582.194	1481.46
582.616	1468.82
583.038	1455.47
583.46	1444.06
583.882	1440.59
584.303	1444.73
584.725	1439.5
585.147	1443.41
585.568	1452.66
585.99	1463.65
586.411	1468.95
586.833	1482.51
587.254	1484.1
587.675	1497.42
588.096	1509.71
588.518	1504.27
588.939	1486.64
589.36	1484.44
589.781	1471.3
590.202	1444.07
590.623	1435.78
591.043	1432.82
591.464	1419.83
591.885	1416.62
592.305	1410.21
592.726	1395.94
593.147	1396.79
593.567	1390.94
593.987	1383.9
594.408	1377.9
594.828	1375.88
595.248	1370.84
595.669	1354.17
596.089	1347.6
596.509	1340.67
596.929	1328.66
597.349	1328.85
597.769	1319.1
598.189	1314
598.608	1316
599.028	1318.51
599.448	1318.3
599.867	1304.87
600.287	1301.09
600.706	1296.29
601.126	1287.1
601.545	1285.02
601.965	1283.51
602.384	1278.8
602.803	1281.03
603.222	1275.69
603.641	1269.35
604.061	1265.75
604.48	1261.42
604.898	1267.13
605.317	1271.93
605.736	1273.38
606.155	1270.62
606.574	1261.77
606.992	1265.64
607.411	1260.57
607.829	1251.95
608.248	1247.45
608.666	1244.35
609.085	1243.08
609.503	1235.29
609.921	1228.37
610.339	1228.53
610.758	1227.48
611.176	1222.35
611.594	1212.93
612.012	1208.31
612.43	1210.87
612.847	1216.69
613.265	1216.35
613.683	1219.64
614.101	1219.64
614.518	1214.03
614.936	1204.69
615.353	1189.61
615.771	1186
616.188	1186.16
616.606	1182.56
617.023	1175.23
617.44	1160.89
617.857	1154.01
618.274	1145.52
618.691	1138.8
619.108	1130.09
619.525	1123.89
619.942	1129.3
620.359	1130.31
620.776	1124.49
621.192	1120.21
621.609	1116.74
622.026	1122.88
622.442	1127.49
622.859	1130.43
623.275	1122.85
623.691	1128.06
624.108	1137.47
624.524	1150.15
624.94	1150.59
625.356	1159
625.772	1170.76
626.188	1182.3
626.604	1183.03
627.02	1178.55
627.436	1176.63
627.852	1183.95
628.268	1193.92
628.683	1185.02
629.099	1177.3
629.514	1171.75
629.93	1174.62
630.345	1177.95
630.761	1173.15
631.176	1176.11
631.591	1170.76
632.007	1163.4
632.422	1159.71
632.837	1149.48
633.252	1146.49
633.667	1136.21
634.082	1127.49
634.497	1114.15
634.911	1096.11
635.326	1090.63
635.741	1072.5
636.155	1061.01
636.57	1060.4
636.984	1058.17
637.399	1056.12
637.813	1052.97
638.228	1047.93
638.642	1047.61
639.056	1035.55
639.47	1031.22
639.884	1020.51
640.298	1011.61
640.712	1007.03
641.126	991.69
641.54	980.05
641.954	970.31
642.368	956.1
642.781	947.6
643.195	928.96
643.609	925.52
644.022	916.21
644.436	908.8
644.849	894.53
645.262	881.01
645.676	878.47
646.089	870.09
646.502	856.29
646.915	848.55
647.328	830.94
647.741	826.3
648.154	813.12
648.567	809.85
648.98	798.64
649.393	797.1
649.805	792.81
650.218	785.75
650.631	772.05
651.043	766.37
651.456	760.97
651.868	759.5
652.28	771.06
652.693	779.77
653.105	781.68
653.517	784.55
653.929	783.7
654.341	785.88
654.753	774.9
655.165	777.58
655.577	772.53
655.989	765.66
656.401	756.8
656.813	727.74
657.224	709.79
657.636	685.01
658.047	670.16
658.459	651.8
658.87	641.17
659.282	627.88
659.693	610.09
660.104	595.84
660.515	582.37
660.926	575.35
661.338	568.27
661.749	559.7
662.159	549.9
662.57	541.98
662.981	534.1
663.392	525
663.803	524.25
664.213	518.38
664.624	510.51
665.035	506.81
665.445	494.46
665.855	487.76
666.266	479.86
666.676	475.02
667.086	465.31
667.497	462.64
667.907	455.7
668.317	446.83
668.727	443.02
669.137	441.18
669.547	438.1
669.956	437.78
670.366	436.58
670.776	435.03
671.186	434.34
671.595	435.55
672.005	434.58
672.414	433.56
672.824	431.8
673.233	431.57
673.642	432.31
674.052	434.52
674.461	436.5
674.87	437.42
675.279	436.63
675.688	436.99
676.097	439.15
676.506	439.1
676.915	447.22
677.323	449.18
677.732	450.31
678.141	451.26
678.549	445.82
678.958	446.25
679.366	448.24
679.775	452.92
680.183	464.82
680.592	470.64
681	477.68
681.408	477.98
681.816	487.19
682.224	496.07
682.632	508.6
683.04	533.18
683.448	554.5
683.856	581.19
684.264	612.35
684.671	640.26
685.079	676.72
685.487	716.92
685.894	771.1
686.302	819.02
686.709	862.84
687.116	911.97
687.524	957.93
687.931	1000.14
688.338	1038.68
688.745	1072.95
689.152	1109.46
689.559	1155.88
689.966	1202.32
690.373	1230.6
690.78	1276.5
691.187	1340.21
691.593	1390.63
692	1432.76
692.407	1493.15
692.813	1566.12
693.22	1624.67
693.626	1684.32
694.032	1733.2
694.439	1805.55
694.845	1863.01
695.251	1929.58
695.657	1990.34
696.063	2079.91
696.469	2149.31
696.875	2213.39
697.281	2249.69
697.687	2292.65
698.093	2331.44
698.498	2399.61
698.904	2448.95
699.31	2526.47
699.715	2584.79
700.12	2666.86
700.526	2682.48
700.931	2744.62
701.337	2790.07
