Data from N_3_DIV_WI_4N_Splice17_12-58-00-181.txt Node
Date: Sat Mar 14 12:58:00 EDT 2020
User: sa697716
Spectrometer: FLMS03696
Trigger mode: 0
Integration Time (sec): 3.180400E-1
Scans to average: 20
Electric dark correction enabled: true
Nonlinearity correction enabled: true
Boxcar width: 5
XAxis mode: Wavelengths
Number of Pixels in Spectrum: 2048
>>>>>Begin Spectral Data<<<<<
187.83	-325009.55
188.298	2481.88
188.766	1299.44
189.233	1106.33
189.701	1561.74
190.169	2183.68
190.636	796.95
191.104	617.1
191.571	54.53
192.039	-111.4
192.506	-176.94
192.974	392.72
193.441	-687.41
193.908	-277.03
194.375	-92.69
194.842	-60.67
195.31	-20.78
195.777	106.77
196.244	321.21
196.711	332.79
197.177	414.77
197.644	553.41
198.111	986.56
198.578	1413.19
199.045	1152.53
199.511	1818.44
199.978	2132.74
200.445	1845.75
200.911	2060.4
201.378	2250.39
201.844	2055.52
202.31	3474.89
202.777	3651.27
203.243	2042.86
203.709	1945.59
204.176	2316.23
204.642	1934.74
205.108	1811
205.574	1466.81
206.04	1319.18
206.506	1251.54
206.972	1181.15
207.438	1147.68
207.903	1302.55
208.369	1141.2
208.835	1147.6
209.301	1195.35
209.766	1229.3
210.232	1237.14
210.697	1539.22
211.163	1905.47
211.628	2872.22
212.094	2472.87
212.559	3120.65
213.024	1965.89
213.49	2424.5
213.955	2386.39
214.42	2364.5
214.885	2233.81
215.35	2156.86
215.815	2140.48
216.28	2329.53
216.745	1943.93
217.21	2146.84
217.675	2019.25
218.14	2374.59
218.604	2763.49
219.069	3294.53
219.534	3586.83
219.998	4299.82
220.463	5365.3
220.927	6780.48
221.392	6503.5
221.856	6697.68
222.32	8567.45
222.785	10694.94
223.249	13610.56
223.713	15316.61
224.177	15438.29
224.642	19919.34
225.106	24690.37
225.57	27160.32
226.034	20311.78
226.497	31096.58
226.961	28235.35
227.425	33085.59
227.889	36872.12
228.353	37034.15
228.816	76769.7
229.28	73526.96
229.744	62274.05
230.207	37916.6
230.671	37387.28
231.134	62064.98
231.597	71682.46
232.061	71787.91
232.524	70083.46
232.987	48431.07
233.45	43665.94
233.914	39264.66
234.377	40372.76
234.84	37025.38
235.303	43779.75
235.766	49005.27
236.229	50676.43
236.691	31996.1
237.154	36028.79
237.617	27173.72
238.08	27865.07
238.542	32688.06
239.005	23402.76
239.468	23282.68
239.93	21982.46
240.393	19981.47
240.855	17537.48
241.317	18005.94
241.78	21940.31
242.242	22707.91
242.704	24534.05
243.166	21403.88
243.629	19448.09
244.091	22440.12
244.553	24646.94
245.015	26528.32
245.477	34436.53
245.939	50597.33
246.4	53779.63
246.862	52442.67
247.324	49587.86
247.786	55656.27
248.247	73110.43
248.709	75734.67
249.17	56795.05
249.632	53578.69
250.093	62244.26
250.555	53869.71
251.016	32950.02
251.477	31323.13
251.939	33872.15
252.4	35615.88
252.861	42447.93
253.322	39567.6
253.783	47221.46
254.244	61347.2
254.705	48517
255.166	43252.47
255.627	42673.82
256.088	60269.72
256.549	64162.72
257.009	55364.47
257.47	67299.58
257.931	54890.02
258.391	41225.92
258.852	42534.55
259.312	44744.33
259.773	55355.46
260.233	46839.58
260.694	39553.93
261.154	44996.47
261.614	36163.01
262.074	32412.41
262.534	33750.64
262.994	31879.92
263.455	42601.84
263.915	35954.45
264.374	33927.3
264.834	37123.11
265.294	41273.55
265.754	42852.38
266.214	40603.47
266.673	38106.01
267.133	48169.43
267.593	47881.16
268.052	58660.5
268.512	51050.16
268.971	61584.65
269.431	67508.17
269.89	60516.93
270.349	90781.05
270.809	101176.48
271.268	91019.04
271.727	204475.47
272.186	132490.36
272.645	99342.76
273.104	71759.04
273.563	103939.54
274.022	81882.64
274.481	69666.9
274.94	53637.79
275.399	39868.04
275.857	46484.8
276.316	62947.99
276.775	56007.81
277.233	55135.1
277.692	51625.12
278.15	58349.72
278.609	60009.77
279.067	55557.62
279.525	51637.98
279.984	66705.07
280.442	80116.47
280.9	78920.26
281.358	51861.68
281.816	48276.19
282.274	47245.76
282.732	48795.45
283.19	49017.64
283.648	42276.84
284.106	44984.87
284.564	45724.33
285.021	42394.23
285.479	31587.61
285.937	28753.33
286.394	25219.56
286.852	25980.98
287.309	27318.88
287.767	26386.86
288.224	25127.13
288.682	27609.81
289.139	30315.85
289.596	27772.99
290.053	28913.28
290.511	36572.92
290.968	44433.8
291.425	60436.05
291.882	50334.76
292.339	43905.38
292.796	43666.49
293.252	41201.47
293.709	32732.88
294.166	29394.42
294.623	32517.42
295.079	31207.34
295.536	31339.6
295.992	28443.48
296.449	28130.33
296.905	29225.63
297.362	28000.73
297.818	29458.66
298.274	30551.12
298.731	31141.33
299.187	30836.09
299.643	33114.15
300.099	40073.66
300.555	43928.02
301.011	36697.29
301.467	35332.9
301.923	41421.08
302.379	40447.68
302.835	39721.93
303.291	39757.1
303.746	45280.91
304.202	57155.25
304.658	57387.38
305.113	38559.52
305.569	37791.84
306.024	40282.84
306.479	38369.79
306.935	32279.83
307.39	35256.66
307.845	32524.35
308.301	32699.16
308.756	31846.9
309.211	30641.32
309.666	31381.55
310.121	38884.87
310.576	39471.52
311.031	39174.92
311.486	44832.72
311.94	44848.43
312.395	59891.05
312.85	112467.68
313.305	552967.47
313.759	2856061.11
314.214	206922.48
314.668	163970.55
315.123	137951.84
315.577	49404.58
316.032	43893.04
316.486	55070.97
316.94	43409.46
317.394	30241.01
317.849	23516.87
318.303	22296.53
318.757	21086.26
319.211	23350.18
319.665	20454.07
320.119	20738.22
320.572	29785
321.026	27852.51
321.48	23179.18
321.934	25325.83
322.387	25400.13
322.841	27471.91
323.295	24639.11
323.748	28399.08
324.202	28759.98
324.655	34513.45
325.108	48134.04
325.562	34007.77
326.015	40423.01
326.468	30574.73
326.921	34179.81
327.374	31860.58
327.827	33167.13
328.28	37574.09
328.733	25148.22
329.186	22140.1
329.639	21096.52
330.092	17789.68
330.545	16934.73
330.997	17078.42
331.45	18631.84
331.903	21807.45
332.355	37514.57
332.808	36424.42
333.26	30050.34
333.713	32594.11
334.165	32825.47
334.617	43820.77
335.069	35475.24
335.522	64096.12
335.974	70919.62
336.426	64812.75
336.878	44930.28
337.33	22762.86
337.782	22226.77
338.234	27823.26
338.686	33340.61
339.137	39478.01
339.589	37220.65
340.041	29168.19
340.493	25114.27
340.944	25740.66
341.396	27731.36
341.847	23317.42
342.299	27566.11
342.75	33676.81
343.201	29495.34
343.653	33976.05
344.104	41856.44
344.555	32985.4
345.006	51437.43
345.457	39373.94
345.908	31336.34
346.359	29503.34
346.81	24062.83
347.261	25402.89
347.712	25036.02
348.163	26854.18
348.613	27154.03
349.064	25361.83
349.515	22213.45
349.965	22763.49
350.416	27448.04
350.866	30111.52
351.317	34085.21
351.767	56471.96
352.217	71351.93
352.668	59238.17
353.118	54312.94
353.568	52433.36
354.018	41453.62
354.468	43665.22
354.918	31348.27
355.368	27401.21
355.818	38764.95
356.268	111629.03
356.718	466275.39
357.168	115856.96
357.617	58187.48
358.067	64766.3
358.517	60633.87
358.966	71017.29
359.416	79613.03
359.865	86131.65
360.315	102774.83
360.764	47947.68
361.213	26834.35
361.663	25479.67
362.112	31499.79
362.561	50869.59
363.01	38312.87
363.459	32289.57
363.908	34962.11
364.357	29668.51
364.806	50079.79
365.255	34388.1
365.703	31490.55
366.152	31561.36
366.601	25581.58
367.05	20735.07
367.498	18808.23
367.947	19654.55
368.395	20434.04
368.844	18084.79
369.292	21852.44
369.74	15086.09
370.189	23088.05
370.637	27059.59
371.085	23342.27
371.533	28413.13
371.981	27448.79
372.429	26116.3
372.877	27206.45
373.325	22747.51
373.773	23190.37
374.221	20648.3
374.669	25585.23
375.116	22143.01
375.564	22295.35
376.012	24907.86
376.459	20503.96
376.907	24444.07
377.354	29604.81
377.801	27565.04
378.249	31658.37
378.696	40440.84
379.143	48858.66
379.591	52065.51
380.038	87950.11
380.485	63506.31
380.932	68472.3
381.379	62534.73
381.826	45915.31
382.273	32596.4
382.72	28463.94
383.166	27701.23
383.613	17925.14
384.06	16158.53
384.506	18658.63
384.953	13688.61
385.4	13768.03
385.846	12048.22
386.292	11731.21
386.739	11474.03
387.185	11334.36
387.631	11318.29
388.078	10947.81
388.524	11692.7
388.97	10761.38
389.416	8966.65
389.862	9520.06
390.308	8996.92
390.754	9107.37
391.2	9860.55
391.645	10080.81
392.091	9600.21
392.537	9258.68
392.983	9261.89
393.428	9070.74
393.874	9708.1
394.319	9704.99
394.765	9155.07
395.21	9390.81
395.655	8797.56
396.101	8222.63
396.546	7405.95
396.991	7467.79
397.436	6928.47
397.881	6686.05
398.326	6333.8
398.771	5984.89
399.216	5230.85
399.661	4710.84
400.106	4687.24
400.551	4787.28
400.995	4295.8
401.44	4250.2
401.885	3991.18
402.329	4029.99
402.774	3860.12
403.218	3731.07
403.663	3591.75
404.107	3684.1
404.551	3709.5
404.995	3398.97
405.44	3272.17
405.884	3320.13
406.328	3206.48
406.772	3193.91
407.216	2899.82
407.66	2799.3
408.104	2655.58
408.547	2479.38
408.991	2400.29
409.435	2307.59
409.879	2270.78
410.322	2239.24
410.766	2157.76
411.209	2047.62
411.653	1962.28
412.096	1920.27
412.54	1918.02
412.983	1901.04
413.426	1905.43
413.869	1901.24
414.312	1860.32
414.756	1792.9
415.199	1707.99
415.642	1657.12
416.085	1657.54
416.527	1645.17
416.97	1670.92
417.413	1585.74
417.856	1571.76
418.298	1558.02
418.741	1549.17
419.184	1547.16
419.626	1612.81
420.069	1613.9
420.511	1619.46
420.953	1583.71
421.396	1569.49
421.838	1528.94
422.28	1562.97
422.722	1568.63
423.164	1587.21
423.606	1558.37
424.048	1556.04
424.49	1477.16
424.932	1469.42
425.374	1449.26
425.816	1475.06
426.258	1504.63
426.699	1522.71
427.141	1500.97
427.582	1525.57
428.024	1515.35
428.465	1501.62
428.907	1459.56
429.348	1439.52
429.789	1433.03
430.231	1401.26
430.672	1418.35
431.113	1379.45
431.554	1350.94
431.995	1311.56
432.436	1258.26
432.877	1227.45
433.318	1203.91
433.759	1196.22
434.2	1194.54
434.64	1181.14
435.081	1181.78
435.522	1117.65
435.962	1076.13
436.403	1054.04
436.843	1067.05
437.284	1044.51
437.724	1016.61
438.164	1020.52
438.604	999.03
439.045	958.42
439.485	916.26
439.925	895.92
440.365	871.44
440.805	857.9
441.245	846.7
441.685	816.71
442.125	809.61
442.564	813.46
443.004	792.29
443.444	789.58
443.883	791.5
444.323	786.71
444.762	787.03
445.202	795.8
445.641	809.14
446.081	803.63
446.52	808.23
446.959	799.73
447.398	779.13
447.837	770.41
448.276	756.63
448.716	762.2
449.154	768.27
449.593	750.98
450.032	749.25
450.471	734.94
450.91	734.72
451.349	732.55
451.787	729.38
452.226	740.12
452.664	741.17
453.103	742.13
453.541	740.31
453.98	742.31
454.418	747.56
454.856	736.68
455.295	735.87
455.733	741.79
456.171	746.61
456.609	746.19
457.047	747.29
457.485	758.11
457.923	760.05
458.361	749.17
458.798	749.08
459.236	746.9
459.674	750.4
460.111	754.04
460.549	745.45
460.987	742.53
461.424	740.27
461.862	735.48
462.299	722.93
462.736	720.83
463.173	723.55
463.611	714.83
464.048	712.92
464.485	718.14
464.922	711.1
465.359	707.56
465.796	697.89
466.233	692.57
466.67	685.85
467.106	684.2
467.543	677.23
467.98	669.22
468.416	653.44
468.853	647.43
469.29	628.71
469.726	621.98
470.162	606.88
470.599	599.47
471.035	593.53
471.471	580
471.907	576.19
472.344	573
472.78	575.43
473.216	583.33
473.652	577.25
474.088	576.37
474.523	574.98
474.959	580.27
475.395	575.04
475.831	573.69
476.266	576.33
476.702	574.96
477.138	568.36
477.573	565.94
478.008	562.72
478.444	565.28
478.879	570.61
479.314	573.51
479.75	573.38
480.185	575.8
480.62	581.2
481.055	585.37
481.49	590.62
481.925	600.73
482.36	611.71
482.795	629.94
483.229	646.99
483.664	660.6
484.099	663.03
484.534	673.15
484.968	680.35
485.403	681.4
485.837	680.18
486.271	678.77
486.706	679.83
487.14	673.06
487.574	662.41
488.009	658.24
488.443	653.35
488.877	660.83
489.311	663.89
489.745	671.66
490.179	678.15
490.613	691.08
491.046	697.06
491.48	702.58
491.914	703.12
492.348	708.01
492.781	710.68
493.215	712.33
493.648	712.85
494.082	717.3
494.515	717.28
494.948	725.64
495.382	730.25
495.815	735.47
496.248	740.99
496.681	754.14
497.114	766.1
497.547	777.13
497.98	790.44
498.413	797.55
498.846	809.37
499.279	818.77
499.711	823.85
500.144	827.68
500.577	838.22
501.009	848.3
501.442	858.23
501.874	859.89
502.306	861.19
502.739	869.02
503.171	884
503.603	886.09
504.036	896.2
504.468	901.25
504.9	911.72
505.332	917.75
505.764	921.38
506.196	927.62
506.627	941.57
507.059	955.58
507.491	963.26
507.923	958.85
508.354	972.81
508.786	982.13
509.217	998.85
509.649	1011.81
510.08	1029.33
510.512	1044.64
510.943	1056.94
511.374	1064.86
511.805	1081.61
512.237	1097.78
512.668	1127.74
513.099	1149.82
513.53	1172.68
513.961	1187.75
514.391	1213.82
514.822	1241.52
515.253	1272.62
515.684	1292.91
516.114	1317.38
516.545	1332.42
516.975	1353.13
517.406	1365.99
517.836	1365.29
518.267	1367.18
518.697	1381.49
519.127	1382.31
519.558	1384.29
519.988	1381.71
520.418	1387.67
520.848	1399.41
521.278	1403.9
521.708	1407.48
522.138	1414.19
522.567	1438.05
522.997	1456.65
523.427	1465.53
523.857	1476.95
524.286	1482.73
524.716	1493.29
525.145	1506.49
525.575	1512.36
526.004	1521.19
526.433	1518.58
526.863	1515.35
527.292	1503.52
527.721	1505.29
528.15	1508.92
528.579	1506.67
529.008	1513.28
529.437	1530.41
529.866	1540.71
530.295	1553.57
530.724	1563.67
531.152	1584.68
531.581	1595.21
532.01	1608.38
532.438	1613.91
532.867	1623.45
533.295	1637.87
533.723	1641.88
534.152	1639.54
534.58	1637.45
535.008	1622.86
535.436	1622.69
535.865	1629.15
536.293	1641.45
536.721	1654.91
537.149	1676.71
537.576	1679.27
538.004	1688.99
538.432	1694.28
538.86	1691.05
539.287	1696.13
539.715	1707.6
540.143	1708.85
540.57	1705.13
540.998	1700.1
541.425	1679
541.852	1659.94
542.28	1657.32
542.707	1641.99
543.134	1629.4
543.561	1625.16
543.988	1618.34
544.415	1616.68
544.842	1611.1
545.269	1604.04
545.696	1606.25
546.123	1617.08
546.549	1607.82
546.976	1595.52
547.403	1596.28
547.829	1598.56
548.256	1600.99
548.682	1597.08
549.108	1591.24
549.535	1591.32
549.961	1593.05
550.387	1581.58
550.813	1577.82
551.24	1583.53
551.666	1585.06
552.092	1576.03
552.518	1569.98
552.943	1564.47
553.369	1572.03
553.795	1577.76
554.221	1579.22
554.646	1577.39
555.072	1587.48
555.498	1591.9
555.923	1600.06
556.349	1614.05
556.774	1623.63
557.199	1626.22
557.625	1632.81
558.05	1629.47
558.475	1639.23
558.9	1639.89
559.325	1634.43
559.75	1631.3
560.175	1626.55
560.6	1623.07
561.025	1622.43
561.449	1624.13
561.874	1629.95
562.299	1636.09
562.723	1643.74
563.148	1638.38
563.572	1644.69
563.997	1655.38
564.421	1661.99
564.846	1665.14
565.27	1670.47
565.694	1672.48
566.118	1686.57
566.542	1697.78
566.966	1695.01
567.39	1693.21
567.814	1683.81
568.238	1684.53
568.662	1692.69
569.086	1697.54
569.509	1706.96
569.933	1695.47
570.357	1690.75
570.78	1673.17
571.204	1663.04
571.627	1655.46
572.05	1657.36
572.474	1661
572.897	1652.38
573.32	1647.52
573.743	1641.03
574.166	1626.61
574.589	1629.87
575.012	1625.37
575.435	1627.6
575.858	1621.69
576.281	1614.54
576.704	1601.36
577.126	1591.89
577.549	1584.45
577.972	1577.31
578.394	1569.16
578.817	1565.12
579.239	1549.07
579.661	1538.36
580.084	1525.43
580.506	1516.06
580.928	1514.41
581.35	1505.7
581.772	1504
582.194	1492.69
582.616	1481.61
583.038	1469.18
583.46	1461.31
583.882	1459.34
584.303	1464.82
584.725	1462.12
585.147	1463.83
585.568	1474.38
585.99	1487.53
586.411	1493.2
586.833	1508.35
587.254	1510.69
587.675	1526.27
588.096	1539.2
588.518	1535.39
588.939	1520.46
589.36	1519.02
589.781	1510.28
590.202	1483.9
590.623	1476.17
591.043	1475.25
591.464	1464.2
591.885	1462.04
592.305	1457.13
592.726	1443.45
593.147	1447.05
593.567	1442.29
593.987	1435.3
594.408	1431.06
594.828	1429.55
595.248	1425.1
595.669	1408.68
596.089	1401.87
596.509	1396.15
596.929	1383.88
597.349	1385.86
597.769	1375.79
598.189	1371.06
598.608	1374.23
599.028	1376.99
599.448	1377.95
599.867	1365.64
600.287	1362.55
600.706	1359.08
601.126	1350.41
601.545	1350.54
601.965	1349.35
602.384	1345.07
602.803	1348.55
603.222	1344.11
603.641	1337.6
604.061	1334.6
604.48	1331.89
604.898	1340.11
605.317	1346.72
605.736	1349.27
606.155	1347.13
606.574	1339.68
606.992	1346.5
607.411	1343.2
607.829	1341.44
608.248	1341
608.666	1339.52
609.085	1340.59
609.503	1333.7
609.921	1329.37
610.339	1333.65
610.758	1334.13
611.176	1331.12
611.594	1323.08
612.012	1320.78
612.43	1320.17
612.847	1327.2
613.265	1329.84
613.683	1335.64
614.101	1339.37
614.518	1336.44
614.936	1327.63
615.353	1314.52
615.771	1312.17
616.188	1313.6
616.606	1310.1
617.023	1304.47
617.44	1291.57
617.857	1285.99
618.274	1277.26
618.691	1271.16
619.108	1262.48
619.525	1257.07
619.942	1264.24
620.359	1268
620.776	1263.63
621.192	1261.82
621.609	1260.15
622.026	1267.15
622.442	1273.61
622.859	1277.89
623.275	1269.93
623.691	1276.5
624.108	1288.36
624.524	1302.64
624.94	1302.9
625.356	1312.89
625.772	1325.59
626.188	1337.38
626.604	1338.94
627.02	1335.1
627.436	1332.9
627.852	1340.38
628.268	1351.59
628.683	1342.48
629.099	1333.58
629.514	1328.49
629.93	1331.97
630.345	1336.51
630.761	1332.92
631.176	1335.77
631.591	1330.37
632.007	1325.2
632.422	1323.93
632.837	1312.48
633.252	1310.13
633.667	1300.14
634.082	1292.08
634.497	1280.06
634.911	1260.39
635.326	1257.18
635.741	1241.61
636.155	1230.67
636.57	1232.8
636.984	1233.03
637.399	1236.36
637.813	1235.46
638.228	1235.67
638.642	1240.5
639.056	1230.55
639.47	1231.65
639.884	1224.06
640.298	1218.46
640.712	1218.28
641.126	1205.29
641.54	1196.45
641.954	1191.3
642.368	1180.95
642.781	1172.57
643.195	1153.97
643.609	1155.87
644.022	1150.22
644.436	1145.47
644.849	1133.11
645.262	1120.72
645.676	1124.11
646.089	1119.55
646.502	1104.97
646.915	1100.4
647.328	1085.83
647.741	1085.11
648.154	1072.14
648.567	1071.57
648.98	1058.96
649.393	1059.07
649.805	1058.44
650.218	1049.27
650.631	1033.84
651.043	1027.83
651.456	1021.89
651.868	1021.43
652.28	1040.22
652.693	1054.52
653.105	1060.65
653.517	1070.29
653.929	1072.78
654.341	1078.62
654.753	1067.56
655.165	1075.65
655.577	1073.04
655.989	1068.78
656.401	1062.24
656.813	1024.3
657.224	1003.15
657.636	974.17
658.047	957.05
658.459	936
658.87	927.27
659.282	916.37
659.693	893.88
660.104	878.82
660.515	865.02
660.926	863.06
661.338	860.94
661.749	854.18
662.159	844.33
662.57	839.05
662.981	835.64
663.392	826.01
663.803	828.18
664.213	826.41
664.624	821.92
665.035	824.43
665.445	808.89
665.855	800.52
666.266	792.49
666.676	789.19
667.086	778.63
667.497	775.49
667.907	769.26
668.317	759.31
668.727	755.13
669.137	754.62
669.547	751.09
669.956	752.84
670.366	752.99
670.776	753.08
671.186	755.59
671.595	757.59
672.005	758.91
672.414	756.68
672.824	754.3
673.233	757.19
673.642	759.4
674.052	760.36
674.461	761.1
674.87	763.97
675.279	760.51
675.688	761.62
676.097	763.32
676.506	760.49
676.915	773.6
677.323	775.86
677.732	772.51
678.141	770.64
678.549	759.89
678.958	759.59
679.366	759.64
679.775	764.62
680.183	773.8
680.592	779.35
681	785.7
681.408	780.16
681.816	788.06
682.224	797.51
682.632	808.35
683.04	839.27
683.448	864.37
683.856	895.43
684.264	931.89
684.671	966.54
685.079	1007.4
685.487	1053.02
685.894	1116.03
686.302	1167.98
686.709	1210.73
687.116	1259.74
687.524	1298.93
687.931	1332.3
688.338	1360.36
688.745	1382.1
689.152	1406.64
689.559	1442.85
689.966	1476.34
690.373	1488.75
690.78	1518.26
691.187	1568.35
691.593	1602.65
692	1630.43
692.407	1675.98
692.813	1733.73
693.22	1776.26
693.626	1819.83
694.032	1850.27
694.439	1905.15
694.845	1941.97
695.251	1995.03
695.657	2041.26
696.063	2113.93
