Data from N_3_DIV_PA_2N_Splice17_13-16-58-718.txt Node
Date: Sat Mar 14 13:16:58 EDT 2020
User: sa697716
Spectrometer: FLMS03696
Trigger mode: 0
Integration Time (sec): 3.180400E-1
Scans to average: 20
Electric dark correction enabled: true
Nonlinearity correction enabled: true
Boxcar width: 5
XAxis mode: Wavelengths
Number of Pixels in Spectrum: 2048
>>>>>Begin Spectral Data<<<<<
187.83	-298531.02
188.298	2283.84
188.766	1246.16
189.233	1166.61
189.701	1634.53
190.169	2237.65
190.636	878.18
191.104	751.28
191.571	120.72
192.039	-14.08
192.506	48.63
192.974	746.42
193.441	-825.12
193.908	-139.93
194.375	-7.94
194.842	63.49
195.31	157.9
195.777	228.22
196.244	421.2
196.711	277.15
197.177	263.4
197.644	261.72
198.111	409.89
198.578	471.48
199.045	338.21
199.511	498.05
199.978	490.39
200.445	436.42
200.911	417.92
201.378	341.41
201.844	332.52
202.31	546.94
202.777	628.78
203.243	321.42
203.709	311.55
204.176	358.13
204.642	315.75
205.108	310.97
205.574	228.37
206.04	164.8
206.506	175.49
206.972	144.12
207.438	136.27
207.903	131.39
208.369	161.37
208.835	165.49
209.301	194.82
209.766	180.08
210.232	173.16
210.697	207.74
211.163	247.59
211.628	299.66
212.094	282.22
212.559	483.31
213.024	330.99
213.49	417.24
213.955	407.79
214.42	342.24
214.885	334.31
215.35	370.73
215.815	465.54
216.28	522.83
216.745	439.03
217.21	518.33
217.675	431.36
218.14	505.24
218.604	543.37
219.069	644.99
219.534	753.18
219.998	882.69
220.463	1056.76
220.927	1236.39
221.392	1200.9
221.856	1250.04
222.32	1544.91
222.785	1955.68
223.249	2475.73
223.713	2809.48
224.177	2860.32
224.642	3612.95
225.106	4478.05
225.57	4964.57
226.034	3825.06
226.497	5877.16
226.961	5434.16
227.425	6431.02
227.889	7193.08
228.353	7256.48
228.816	15133.43
229.28	14670.45
229.744	12509.06
230.207	7745.54
230.671	7663.53
231.134	12534.81
231.597	14671.84
232.061	14653.98
232.524	14310.45
232.987	9929.32
233.45	9033.89
233.914	8099.42
234.377	8255.13
234.84	7598.9
235.303	8907.97
235.766	9959.72
236.229	10315.84
236.691	6467.78
237.154	7249.37
237.617	5487.51
238.08	5610.8
238.542	6536.47
239.005	4714.94
239.468	4710.32
239.93	4436.71
240.393	4056.7
240.855	3580.08
241.317	3672.3
241.78	4456.68
242.242	4653.27
242.704	5078.08
243.166	4451.79
243.629	4113.16
244.091	4753.06
244.553	5230.78
245.015	5657.23
245.477	7328.37
245.939	10770.58
246.4	11515.47
246.862	11256.64
247.324	10663.49
247.786	11945.86
248.247	15659.58
248.709	16030.03
249.17	12037.36
249.632	11472.94
250.093	13434.07
250.555	11637.1
251.016	7151.29
251.477	6803.66
251.939	7392.01
252.4	7770.07
252.861	9208.3
253.322	8632.35
253.783	10323.52
254.244	13420.06
254.705	10548.22
255.166	9361.33
255.627	9254.59
256.088	13100.8
256.549	13971.5
257.009	12048.43
257.47	14643.94
257.931	11977.14
258.391	9010.63
258.852	9325.68
259.312	9779.29
259.773	12108.95
260.233	10298.03
260.694	8757.44
261.154	9947.41
261.614	8044.93
262.074	7203.08
262.534	7525.01
262.994	7113.53
263.455	9478.59
263.915	8009.74
264.374	7571.56
264.834	8288.42
265.294	9182.98
265.754	9524.09
266.214	9038.28
266.673	8471.06
267.133	10700.01
267.593	10631.88
268.052	13077.98
268.512	11389.57
268.971	13847.78
269.431	15233.81
269.89	13678.56
270.349	20586.76
270.809	23011.28
271.268	20698.13
271.727	46326.62
272.186	30076.15
272.645	22560.54
273.104	16244.42
273.563	23597.82
274.022	18460.43
274.481	15804.06
274.94	12220.46
275.399	9084.3
275.857	10595.67
276.316	14387.15
276.775	12885.57
277.233	12772.93
277.692	12024.95
278.15	13683.11
278.609	14142.48
279.067	13137.49
279.525	12221.97
279.984	15788.51
280.442	19031.16
280.9	18894.33
281.358	12457.12
281.816	11635.07
282.274	11390.8
282.732	11761.08
283.19	11814.74
283.648	10172.96
284.106	10842.28
284.564	11006
285.021	10229.1
285.479	7630.18
285.937	6911.62
286.394	6094.93
286.852	6280.89
287.309	6618.39
287.767	6451.24
288.224	6165.42
288.682	6805.4
289.139	7553.99
289.596	6977.79
290.053	7307.76
290.511	9285.12
290.968	11330.17
291.425	15452.07
291.882	12979.39
292.339	11384.76
292.796	11304.66
293.252	10681.57
293.709	8556.61
294.166	7681.79
294.623	8506.7
295.079	8161.96
295.536	8223.76
295.992	7482.07
296.449	7405.27
296.905	7710.93
297.362	7413.93
297.818	7811.51
298.274	8161.46
298.731	8290.88
299.187	8194.22
299.643	8799.1
300.099	10677.89
300.555	11686.4
301.011	9788.16
301.467	9487.56
301.923	11061.49
302.379	10816.61
302.835	10632.36
303.291	10614.56
303.746	12129.95
304.202	15341.27
304.658	15422.77
305.113	10351.12
305.569	10195.94
306.024	10833.9
306.479	10251.15
306.935	8673.64
307.39	9437.67
307.845	8725.01
308.301	8817.34
308.756	8561.37
309.211	8232.57
309.666	8412.79
310.121	10473.52
310.576	10559.38
311.031	10468.77
311.486	11943.84
311.94	11913.37
312.395	15925.72
312.85	29860.33
313.305	145366.04
313.759	756189.2
314.214	54816.03
314.668	43566.93
315.123	36748.83
315.577	13248.47
316.032	11823.76
316.486	14862.83
316.94	11751.19
317.394	8208.53
317.849	6380.53
318.303	6048.69
318.757	5714.51
319.211	6342.74
319.665	5542.43
320.119	5609.52
320.572	8027.99
321.026	7517.26
321.48	6277.18
321.934	6808.03
322.387	6819.88
322.841	7395.69
323.295	6691.5
323.748	7694.38
324.202	7805.89
324.655	9396.96
325.108	13184.24
325.562	9346.9
326.015	11077.66
326.468	8371.43
326.921	9374.67
327.374	8756.96
327.827	9143.39
328.28	10378.92
328.733	6955.54
329.186	6123.42
329.639	5835.7
330.092	4898.06
330.545	4656.56
330.997	4708.97
331.45	5184.7
331.903	6111.32
332.355	10438.98
332.808	10085.05
333.26	8267.96
333.713	8980.3
334.165	8989.31
334.617	11959.43
335.069	9595.33
335.522	17298.98
335.974	19169.34
336.426	17311.38
336.878	11910.78
337.33	6059.7
337.782	5924.84
338.234	7481.7
338.686	8901.45
339.137	10591.08
339.589	9996.29
340.041	7875.58
340.493	6802.52
340.944	6963.85
341.396	7580.67
341.847	6438.59
342.299	7658.45
342.75	9415.38
343.201	8230.29
343.653	9527.4
344.104	11724.9
344.555	9256.88
345.006	14398.9
345.457	11134.95
345.908	8860.12
346.359	8330.07
346.81	6799.6
347.261	7163.76
347.712	7062.64
348.163	7550.2
348.613	7700.52
349.064	7216.29
349.515	6340.99
349.965	6523.56
350.416	7813.62
350.866	8596.92
351.317	9711.42
351.767	16103.93
352.217	20365.35
352.668	16888.2
353.118	15508.89
353.568	14834.32
354.018	11778.8
354.468	12406.86
354.918	8962.17
355.368	7849.81
355.818	11096.69
356.268	32009.02
356.718	134230.62
357.168	33541.02
357.617	16875.81
358.067	18746.57
358.517	17614.45
358.966	20583.02
359.416	23227.27
359.865	25038.03
360.315	29804.74
360.764	13925.92
361.213	7813.32
361.663	7347.36
362.112	9023.24
362.561	14526.68
363.01	10971.71
363.459	9259.22
363.908	10041.03
364.357	8542.62
364.806	14398.96
365.255	9915.61
365.703	9172.6
366.152	9190.32
366.601	7483.87
367.05	6137.31
367.498	5594.08
367.947	5816.67
368.395	6011.75
368.844	5339.45
369.292	6386.42
369.74	4429.86
370.189	6785.75
370.637	7890.02
371.085	6791.05
371.533	8255.7
371.981	7922.37
372.429	7577.25
372.877	7906.55
373.325	6638.53
373.773	6705.23
374.221	5944.93
374.669	7320.15
375.116	6304.22
375.564	6344.49
376.012	7091.72
376.459	5835.78
376.907	6936.48
377.354	8320.98
377.801	7802.44
378.249	8973.1
378.696	11511.82
379.143	13960.54
379.591	14892.06
380.038	25250.78
380.485	18277.56
380.932	19711.9
381.379	18171.33
381.826	13446.33
382.273	9586.21
382.72	8320.26
383.166	8122.64
383.613	5270.14
384.06	4765.01
384.506	5524.72
384.953	4033.36
385.4	4054.16
385.846	3532.46
386.292	3410.36
386.739	3303.81
387.185	3234.8
387.631	3243.12
388.078	3159.04
388.524	3352.1
388.97	3086.14
389.416	2574.62
389.862	2736.59
390.308	2573.28
390.754	2616.93
391.2	2831.96
391.645	2878.26
392.091	2774.45
392.537	2669.21
392.983	2630.75
393.428	2609.96
393.874	2776.07
394.319	2784.52
394.765	2651.2
395.21	2707
395.655	2520.1
396.101	2352.47
396.546	2120.73
396.991	2109.37
397.436	1952.54
397.881	1878.85
398.326	1753.04
398.771	1652.84
399.216	1421.3
399.661	1259.2
400.106	1259.34
400.551	1287.43
400.995	1148.09
401.44	1136.16
401.885	1064.86
402.329	1071.4
402.774	1030.87
403.218	1011.38
403.663	975.06
404.107	1006.51
404.551	1017.9
404.995	925.9
405.44	885.82
405.884	890.92
406.328	856
406.772	852.36
407.216	771.63
407.66	738.16
408.104	685.68
408.547	638.17
408.991	615.22
409.435	589.24
409.879	582.37
410.322	571.63
410.766	554.71
411.209	527.69
411.653	503.57
412.096	497.39
412.54	496.8
412.983	496.07
413.426	498.6
413.869	494.24
414.312	483.54
414.756	461.44
415.199	439.45
415.642	424.54
416.085	424.66
416.527	418.57
416.97	420.32
417.413	398.75
417.856	389.82
418.298	384.19
418.741	376.08
419.184	370.79
419.626	378.61
420.069	378.49
420.511	383.38
420.953	374.21
421.396	373.49
421.838	362.03
422.28	367.67
422.722	371.99
423.164	371.83
423.606	369.59
424.048	367.96
424.49	354.08
424.932	350.61
425.374	339.2
425.816	341.93
426.258	346.69
426.699	351.76
427.141	352.93
427.582	353.9
428.024	351.94
428.465	345.75
428.907	338.5
429.348	334.35
429.789	336.26
430.231	334.9
430.672	342.15
431.113	333.41
431.554	323.42
431.995	309.36
432.436	301.25
432.877	298.88
433.318	296.68
433.759	291.83
434.2	289.86
434.64	284.6
435.081	281.83
435.522	263.93
435.962	253.45
436.403	250.61
436.843	250.58
437.284	242.07
437.724	228.55
438.164	223.39
438.604	217.83
439.045	211.72
439.485	204.92
439.925	199.2
440.365	193.5
440.805	189.66
441.245	186.26
441.685	180.37
442.125	176.77
442.564	176.78
443.004	173.9
443.444	173.17
443.883	171.48
444.323	165.48
444.762	160.68
445.202	160.51
445.641	161.37
446.081	157.68
446.52	158.38
446.959	158.19
447.398	156.03
447.837	153.76
448.276	149.21
448.716	149.25
449.154	148.66
449.593	147.05
450.032	148.05
450.471	144.95
450.91	142.58
451.349	142.1
451.787	138.33
452.226	138.52
452.664	137.41
453.103	138.38
453.541	136.62
453.98	140.51
454.418	140.99
454.856	140.11
455.295	140.28
455.733	142.82
456.171	144.06
456.609	145.55
457.047	146.51
457.485	150.8
457.923	151.87
458.361	151.28
458.798	149.47
459.236	149.73
459.674	148.57
460.111	148.93
460.549	149.33
460.987	146.36
461.424	144.81
461.862	143.76
462.299	140.79
462.736	141.48
463.173	141.7
463.611	144.17
464.048	143.72
464.485	145.23
464.922	142.54
465.359	139.19
465.796	148.86
466.233	149.94
466.67	151.7
467.106	152.18
467.543	147.83
467.98	144.23
468.416	136.74
468.853	135.02
469.29	130.43
469.726	129.04
470.162	125.79
470.599	113.88
471.035	111
471.471	107.19
471.907	104.19
472.344	103.86
472.78	104.88
473.216	105.15
473.652	103.55
474.088	102.11
474.523	103.47
474.959	104.57
475.395	104.16
475.831	104.2
476.266	103.17
476.702	102.86
477.138	102.21
477.573	101.34
478.008	101.43
478.444	102.65
478.879	105.43
479.314	106.2
479.75	106.74
480.185	107.03
480.62	108.22
481.055	108.73
481.49	110.47
481.925	112.71
482.36	117.41
482.795	120.17
483.229	122.32
483.664	124.38
484.099	123.82
484.534	125.81
484.968	126.99
485.403	125.68
485.837	124.55
486.271	123.84
486.706	122.7
487.14	118.71
487.574	117
488.009	115.43
488.443	113.51
488.877	115.13
489.311	114.22
489.745	115.39
490.179	116.63
490.613	120.95
491.046	120.02
491.48	120.44
491.914	120.13
492.348	120.32
492.781	121.24
493.215	120.28
493.648	118.12
494.082	118.23
494.515	118.29
494.948	119.15
495.382	116.95
495.815	117.2
496.248	116.95
496.681	117.65
497.114	117.42
497.547	117.7
497.98	120.07
498.413	121.77
498.846	122.45
499.279	120.9
499.711	119.33
500.144	117.66
500.577	118.77
501.009	118.72
501.442	119.45
501.874	119.1
502.306	116.9
502.739	119.09
503.171	118.65
503.603	117.28
504.036	116.74
504.468	116.2
504.9	116.17
505.332	114.29
505.764	113.41
506.196	112.2
506.627	111.69
507.059	111.85
507.491	106.52
507.923	104.22
508.354	104.49
508.786	104.17
509.217	104.24
509.649	104.16
510.08	104
510.512	104.02
510.943	103.46
511.374	102.78
511.805	102.36
512.237	102.1
512.668	102
513.099	101.14
513.53	100.82
513.961	100.41
514.391	100.74
514.822	103.69
515.253	105.22
515.684	105.11
516.114	105.74
516.545	106.72
516.975	106.97
517.406	106.49
517.836	104.59
518.267	104.11
518.697	104.71
519.127	103.06
519.558	100.03
519.988	96.87
520.418	95.71
520.848	93.96
521.278	91.52
521.708	120.81
522.138	121.32
522.567	121.41
522.997	121.75
523.427	120.22
523.857	120.18
524.286	119.35
524.716	120.65
525.145	120.9
525.575	121.84
526.004	121.53
526.433	91.08
526.863	88.42
527.292	88.66
527.721	88.73
528.15	88.22
528.579	87.73
529.008	88
529.437	87.12
529.866	86.67
530.295	85.37
530.724	86.98
531.152	87.54
531.581	89.29
532.01	89
532.438	87.81
532.867	87.6
533.295	88.28
533.723	88.29
534.152	88.21
534.58	88.46
535.008	87.95
535.436	88.38
535.865	88.58
536.293	87.67
536.721	87.4
537.149	88.39
537.576	89.72
538.004	90.51
538.432	89.36
538.86	89.87
539.287	89.55
539.715	90.44
540.143	88.5
540.57	88.04
540.998	87.93
541.425	89.05
541.852	88.12
542.28	87.06
542.707	85.32
543.134	85.31
543.561	84.72
543.988	84.9
544.415	84.03
544.842	83.47
545.269	83.25
545.696	84.25
546.123	84.11
546.549	83.66
546.976	83.18
547.403	83.31
547.829	82.5
548.256	81.36
548.682	80.68
549.108	82.26
549.535	82.37
549.961	81.81
550.387	80.87
550.813	81.63
551.24	81.67
551.666	81.19
552.092	80.75
552.518	80.86
552.943	82.39
553.369	82.6
553.795	81.89
554.221	82.22
554.646	82.19
555.072	84.03
555.498	82.22
555.923	82.12
556.349	83.33
556.774	83.6
557.199	83.93
557.625	82.96
558.05	83.16
558.475	83.72
558.9	84.06
559.325	84.75
559.75	84.73
560.175	84.85
560.6	84.92
561.025	84.08
561.449	84.4
561.874	84.75
562.299	86.24
562.723	86.07
563.148	85.56
563.572	85.67
563.997	86.32
564.421	84.72
564.846	84.64
565.27	85.63
565.694	86.44
566.118	87.54
566.542	89.96
566.966	90.12
567.39	91.38
567.814	91.86
568.238	92.88
568.662	92.54
569.086	94.17
569.509	94.79
569.933	95.78
570.357	96.03
570.78	95.27
571.204	95.87
571.627	95.52
572.05	95.84
572.474	97.39
572.897	97.02
573.32	99.11
573.743	98.34
574.166	98.91
574.589	98.02
575.012	97.86
575.435	98.4
575.858	97.35
576.281	96.43
576.704	95.43
577.126	93.51
577.549	92.65
577.972	91.17
578.394	91.86
578.817	95.1
579.239	94.47
579.661	95.29
580.084	96.48
580.506	95.93
580.928	95.83
581.35	95.92
581.772	96.61
582.194	96.91
582.616	96.63
583.038	94.93
583.46	91.33
583.882	92.07
584.303	90.38
584.725	89
585.147	95.07
585.568	96.89
585.99	98.94
586.411	100.67
586.833	102.44
587.254	103.2
587.675	105.03
588.096	106.49
588.518	105.98
588.939	106.39
589.36	106.62
589.781	98.82
590.202	101.31
590.623	100.39
591.043	98.67
591.464	97.69
591.885	97.88
592.305	97.52
592.726	96.42
593.147	97.46
593.567	97.41
593.987	96.89
594.408	96.31
594.828	91.36
595.248	91.74
595.669	92.4
596.089	91.91
596.509	91.07
596.929	90.38
597.349	91
597.769	89.92
598.189	89.51
598.608	90.22
599.028	91.49
599.448	92.31
599.867	90.55
600.287	89.44
600.706	90.27
601.126	90.31
601.545	91.4
601.965	91.32
602.384	91
602.803	90.99
603.222	91.8
603.641	91.55
604.061	92.52
604.48	92.91
604.898	93.49
605.317	93.48
605.736	94.12
606.155	95.12
606.574	94.98
606.992	96.16
607.411	97.31
607.829	94.71
608.248	94.53
608.666	93.63
609.085	94.22
609.503	94.76
609.921	95.91
610.339	96.01
610.758	94.58
611.176	95.01
611.594	95.23
612.012	95.15
612.43	97.89
612.847	98.85
613.265	100.79
613.683	101.51
614.101	102.28
614.518	100.77
614.936	100.73
615.353	101.51
615.771	101.76
616.188	101.99
616.606	102.28
617.023	102.23
617.44	102.12
617.857	100.38
618.274	99.9
618.691	100.35
619.108	100.64
619.525	99.94
619.942	99.84
620.359	100.52
620.776	100.04
621.192	100.93
621.609	101.09
622.026	102.02
622.442	103.7
622.859	103.66
623.275	102.11
623.691	102.5
624.108	104.03
624.524	105.4
624.94	104.89
625.356	105.81
625.772	105.36
626.188	104.97
626.604	105.17
627.02	104.53
627.436	105.99
627.852	108.64
628.268	110.08
628.683	108.81
629.099	108.25
629.514	107.73
629.93	108.12
630.345	109.16
630.761	109.17
631.176	109.62
631.591	112.02
632.007	111.32
632.422	108.6
632.837	107.32
633.252	108.63
633.667	108.22
634.082	107.99
634.497	108.65
634.911	109.68
635.326	110.16
635.741	109.39
636.155	107.13
636.57	109.04
636.984	111.08
637.399	114.25
637.813	114.06
638.228	114.89
638.642	115.81
639.056	114.88
639.47	114.66
639.884	114.88
640.298	114.84
640.712	116.57
641.126	115.62
641.54	114.68
641.954	111.61
642.368	112.35
642.781	115.64
643.195	115.74
643.609	117.28
644.022	117.35
644.436	118.12
644.849	117.37
645.262	115.76
645.676	115.83
646.089	117.47
646.502	119.51
646.915	119.32
647.328	116.79
647.741	117.67
648.154	116.96
648.567	120.43
648.98	119.99
649.393	121.07
649.805	122.48
650.218	122.06
650.631	120.87
651.043	120.58
651.456	120.97
651.868	120.38
652.28	122.1
652.693	123.2
653.105	121.79
653.517	123.7
653.929	125.21
654.341	126.54
654.753	126.61
655.165	128.33
655.577	129.14
655.989	128.92
656.401	128.1
656.813	126.16
657.224	124.59
657.636	120.97
658.047	120.25
658.459	118.79
658.87	117.22
659.282	116.89
659.693	115.66
660.104	115.14
660.515	114.78
660.926	115.48
661.338	115.02
661.749	115.08
662.159	116.79
662.57	116.41
662.981	117.51
663.392	117.69
663.803	120.04
664.213	120.31
664.624	119.66
665.035	120.43
665.445	119.35
665.855	120.25
666.266	121.38
666.676	120.63
667.086	118.95
667.497	119.26
667.907	118.94
668.317	117.27
668.727	121.28
669.137	121.03
669.547	120.51
669.956	121
670.366	121.03
670.776	121.77
671.186	123.08
671.595	124.45
672.005	123.93
672.414	125.36
672.824	126.27
673.233	122.24
673.642	122.92
674.052	125.35
674.461	126.96
674.87	127.03
675.279	127.14
675.688	125.09
676.097	126.66
676.506	126.48
676.915	127.67
677.323	127.11
677.732	126.07
678.141	124.4
678.549	120.6
678.958	118.13
679.366	116.95
679.775	114.56
680.183	118.81
680.592	118.23
681	118.06
681.408	115.43
681.816	114.74
682.224	114.85
682.632	117.79
683.04	120.28
683.448	122.13
683.856	125.41
684.264	129.82
684.671	129.32
685.079	130.09
685.487	131.88
685.894	136.31
686.302	137.25
686.709	139.04
687.116	139.52
687.524	143.58
687.931	144.92
688.338	144.22
688.745	139.86
689.152	137.96
689.559	138.15
689.966	140.05
690.373	137.72
690.78	138
691.187	138.92
691.593	137.38
692	132.31
692.407	132.12
692.813	135.68
693.22	137.71
693.626	135.52
694.032	135.62
694.439	134.66
694.845	133.85
695.251	132.73
695.657	131.99
696.063	131.64
696.469	131.67
696.875	131.12
697.281	125.28
697.687	122.48
698.093	121.66
698.498	121.21
698.904	118.61
699.31	118.97
699.715	122.33
700.12	123.04
700.526	123.5
700.931	123.91
701.337	124.39
701.742	125.22
702.147	126.03
702.552	125.52
702.957	123.65
703.362	122.86
703.767	120.86
704.172	117.58
704.577	113.25
704.981	111.6
705.386	111.68
705.791	109.13
706.195	107.51
706.6	106.95
707.004	106.39
707.408	103.56
707.813	105.08
708.217	105.39
708.621	104.16
709.025	106.54
709.43	107.62
709.834	108.41
710.237	108.88
710.641	108.1
711.045	107.77
711.449	109.03
711.853	116.42
712.256	115.22
712.66	114.3
713.064	116.48
713.467	118.37
713.87	119.82
714.274	119.92
714.677	123.29
715.08	128.79
715.484	132.89
715.887	140.97
716.29	138.39
716.693	144.36
717.096	151.04
717.499	153.39
717.901	151.53
718.304	151.8
718.707	150.74
719.109	146.67
719.512	142.05
719.915	141.11
720.317	135.78
