Data from N_3_DIV_PA_2N_Splice17_13-17-17-854.txt Node
Date: Sat Mar 14 13:17:17 EDT 2020
User: sa697716
Spectrometer: FLMS03696
Trigger mode: 0
Integration Time (sec): 3.180400E-1
Scans to average: 20
Electric dark correction enabled: true
Nonlinearity correction enabled: true
Boxcar width: 5
XAxis mode: Wavelengths
Number of Pixels in Spectrum: 2048
>>>>>Begin Spectral Data<<<<<
187.83	-420527.68
188.298	2942.8
188.766	1571.15
189.233	1450.47
189.701	2055.71
190.169	2667.52
190.636	985.98
191.104	746.83
191.571	94.98
192.039	-56.22
192.506	-134.08
192.974	312.11
193.441	-550.8
193.908	-109.58
194.375	-25.95
194.842	53.58
195.31	113.53
195.777	207.63
196.244	365.24
196.711	228.92
197.177	191.34
197.644	151.06
198.111	240.54
198.578	306.23
199.045	241.71
199.511	373.74
199.978	357.99
200.445	320.22
200.911	296.91
201.378	253.63
201.844	289.77
202.31	502.47
202.777	570.63
203.243	308.5
203.709	282.89
204.176	310.46
204.642	244.24
205.108	244.55
205.574	189.79
206.04	121.94
206.506	123.49
206.972	78
207.438	74.72
207.903	67.63
208.369	75.08
208.835	92.9
209.301	126.39
209.766	125.18
210.232	112.65
210.697	108.94
211.163	117.83
211.628	133.71
212.094	163.87
212.559	323.29
213.024	237.95
213.49	341.63
213.955	312.05
214.42	237.65
214.885	245.32
215.35	277.39
215.815	398.14
216.28	476.56
216.745	392.63
217.21	466.32
217.675	396.87
218.14	471.54
218.604	509.13
219.069	619
219.534	727.38
219.998	822.27
220.463	1004.94
220.927	1142.51
221.392	1095.88
221.856	1160.59
222.32	1425.58
222.785	1829.13
223.249	2300.61
223.713	2617.81
224.177	2669.47
224.642	3393.53
225.106	4202.25
225.57	4625.31
226.034	3559.95
226.497	5453.79
226.961	4987.04
227.425	5910.07
227.889	6558.73
228.353	6578.83
228.816	13588.29
229.28	13090.71
229.744	11091.76
230.207	6909.83
230.671	6877.89
231.134	11277.23
231.597	13169.18
232.061	13199.9
232.524	12891.15
232.987	8935.5
233.45	8173.2
233.914	7411.37
234.377	7598.89
234.84	7002.53
235.303	8239.04
235.766	9244.8
236.229	9633.65
236.691	6061.69
237.154	6818.37
237.617	5162.57
238.08	5286.29
238.542	6179.45
239.005	4430.08
239.468	4429.11
239.93	4184.72
240.393	3813.58
240.855	3349.16
241.317	3415.79
241.78	4155.65
242.242	4309.96
242.704	4709.36
243.166	4126.95
243.629	3792.14
244.091	4392.75
244.553	4830.7
245.015	5226.4
245.477	6784.78
245.939	9967.43
246.4	10650.98
246.862	10414.56
247.324	9883.97
247.786	11071.94
248.247	14539.64
248.709	14922.23
249.17	11213.71
249.632	10675.25
250.093	12491.79
250.555	10866.21
251.016	6697.59
251.477	6382.06
251.939	6931.42
252.4	7271.59
252.861	8634.55
253.322	8091.99
253.783	9667.12
254.244	12543.36
254.705	9884.64
255.166	8774.07
255.627	8646.55
256.088	12246.92
256.549	13068.07
257.009	11257.01
257.47	13654.84
257.931	11125.06
258.391	8359.38
258.852	8655.61
259.312	9088.99
259.773	11254.47
260.233	9602.28
260.694	8145.02
261.154	9238.11
261.614	7476.08
262.074	6698.05
262.534	7025.6
262.994	6663.93
263.455	8873.53
263.915	7511.84
264.374	7106.05
264.834	7780.71
265.294	8612.41
265.754	8957.02
266.214	8492.69
266.673	7974.38
267.133	10082.66
267.593	10011.31
268.052	12319.25
268.512	10747.47
268.971	13040.86
269.431	14321.91
269.89	12847.57
270.349	19304.54
270.809	21583.28
271.268	19464.53
271.727	43578.25
272.186	28309.44
272.645	21262.41
273.104	15312.06
273.563	22228.78
274.022	17400.34
274.481	14917.65
274.94	11516.93
275.399	8572.88
275.857	9990.64
276.316	13536.91
276.775	12101.45
277.233	11965.28
277.692	11282.48
278.15	12832.41
278.609	13278.79
279.067	12356.59
279.525	11522.03
279.984	14924.84
280.442	17975.49
280.9	17826.21
281.358	11742.75
281.816	10954.54
282.274	10737.06
282.732	11069.56
283.19	11113
283.648	9595.12
284.106	10217.96
284.564	10367.9
285.021	9654.33
285.479	7209.05
285.937	6530.52
286.394	5769.29
286.852	5965.55
287.309	6287.3
287.767	6121.34
288.224	5863.44
288.682	6448.49
289.139	7153.42
289.596	6588.01
290.053	6875.95
290.511	8711.98
290.968	10665.28
291.425	14524.26
291.882	12184.14
292.339	10678.66
292.796	10629.15
293.252	10037.4
293.709	8054.96
294.166	7233.14
294.623	8025.81
295.079	7702.2
295.536	7790.72
295.992	7087.25
296.449	7019.04
296.905	7313.26
297.362	7048.29
297.818	7417.17
298.274	7730.96
298.731	7859.2
299.187	7780.22
299.643	8340.68
300.099	10128.56
300.555	11112.66
301.011	9305.02
301.467	9043.24
301.923	10561.66
302.379	10307.79
302.835	10139.94
303.291	10172.71
303.746	11553.35
304.202	14610.99
304.658	14703.33
305.113	9888.06
305.569	9685.42
306.024	10286.02
306.479	9721.71
306.935	8191.29
307.39	8920.77
307.845	8259.77
308.301	8313.37
308.756	8106.01
309.211	7792.99
309.666	7963.84
310.121	9888.15
310.576	9997.79
311.031	9916.22
311.486	11296.66
311.94	11268.91
312.395	15073.49
312.85	28181.42
313.305	136932.62
313.759	712518.33
314.214	51482.5
314.668	40896.25
315.123	34421.03
315.577	12381.47
316.032	11048.92
316.486	13892.93
316.94	11000.38
317.394	7669.86
317.849	5964.19
318.303	5667.74
318.757	5366.02
319.211	5960.47
319.665	5211.53
320.119	5280.35
320.572	7570.63
321.026	7083.24
321.48	5922.13
321.934	6439.57
322.387	6453.81
322.841	6989.76
323.295	6334.38
323.748	7237.77
324.202	7341.17
324.655	8823.84
325.108	12429.97
325.562	8752.06
326.015	10391.57
326.468	7852.29
326.921	8830.95
327.374	8251.68
327.827	8631.85
328.28	9782.35
328.733	6602.44
329.186	5821.42
329.639	5563.99
330.092	4660.88
330.545	4462.2
330.997	4510.89
331.45	4939.98
331.903	5797.99
332.355	9942.28
332.808	9625.24
333.26	7891.19
333.713	8560.68
334.165	8573.37
334.617	11376.19
335.069	9130.77
335.522	16476.77
335.974	18262.28
336.426	16594.55
336.878	11404.85
337.33	5798.57
337.782	5641.14
338.234	7112.66
338.686	8482.57
339.137	10114.42
339.589	9544
340.041	7524.91
340.493	6483.52
340.944	6627.28
341.396	7175.99
341.847	6095.32
342.299	7243.9
342.75	8936.34
343.201	7808.35
343.653	8988.65
344.104	11040.55
344.555	8758.15
345.006	13609.51
345.457	10559.44
345.908	8408.78
346.359	7961.74
346.81	6473.18
347.261	6813.15
347.712	6693.75
348.163	7167.85
348.613	7335.37
349.064	6858.18
349.515	6002.07
349.965	6175.41
350.416	7381.26
350.866	8132.01
351.317	9157.1
351.767	15166.56
352.217	19184.25
352.668	15962.48
353.118	14661.96
353.568	14041.29
354.018	11149.48
354.468	11816.84
354.918	8515.82
355.368	7465.76
355.818	10513.35
356.268	30316.49
356.718	127356.12
357.168	31864.01
357.617	15991.42
358.067	17803.77
358.517	16738.67
358.966	19716.33
359.416	22218.51
359.865	23976.21
360.315	28526.91
360.764	13411.51
361.213	7519.9
361.663	7119.04
362.112	8751.64
362.561	14160.77
363.01	10693.1
363.459	8963.71
363.908	9668.12
364.357	8189.5
364.806	13809.76
365.255	9510.01
365.703	8728.79
366.152	8730.31
366.601	7070.92
367.05	5756.43
367.498	5246.02
367.947	5465.34
368.395	5717.48
368.844	5089.26
369.292	6093.42
369.74	4216.67
370.189	6434.8
370.637	7513.59
371.085	6494.77
371.533	7907.21
371.981	7593.93
372.429	7261.39
372.877	7581.75
373.325	6327.38
373.773	6410.04
374.221	5711.6
374.669	7095.56
375.116	6131.82
375.564	6176.34
376.012	6879.19
376.459	5664.17
376.907	6750.96
377.354	8079.89
377.801	7524.3
378.249	8622.11
378.696	10999.7
379.143	13333.01
379.591	14117.54
380.038	23985.14
380.485	17351.11
380.932	18784.84
381.379	17325.96
381.826	12867.54
382.273	9147.79
382.72	7974.49
383.166	7811.67
383.613	5081.01
384.06	4562.13
384.506	5285.46
384.953	3874.32
385.4	3881
385.846	3384.8
386.292	3267.54
386.739	3160.46
387.185	3101.23
387.631	3098.89
388.078	2999.97
388.524	3182.79
388.97	2933.95
389.416	2459.86
389.862	2616.82
390.308	2474.12
390.754	2503.01
391.2	2705.45
391.645	2751.87
392.091	2662.13
392.537	2566.21
392.983	2544.91
393.428	2526.56
393.874	2683.02
394.319	2673.67
394.765	2524.92
395.21	2581.8
395.655	2418.58
396.101	2256.99
396.546	2035.72
396.991	2025.51
397.436	1864.52
397.881	1796.14
398.326	1672.4
398.771	1586.46
399.216	1372.34
399.661	1221.49
400.106	1217.47
400.551	1247.8
400.995	1114.26
401.44	1100.2
401.885	1027.07
402.329	1039.7
402.774	999.46
403.218	977.39
403.663	942.18
404.107	970.92
404.551	980.29
404.995	891.8
405.44	845.05
405.884	850.16
406.328	816.84
406.772	812.63
407.216	736.7
407.66	703.68
408.104	655.16
408.547	605.78
408.991	581.76
409.435	554.15
409.879	548.1
410.322	542.42
410.766	527.92
411.209	501.39
411.653	478.15
412.096	470.29
412.54	467.53
412.983	465.75
413.426	469.65
413.869	465.9
414.312	458.82
414.756	439.06
415.199	416.3
415.642	402.41
416.085	401.89
416.527	398.51
416.97	400.47
417.413	379.1
417.856	370.68
418.298	362
418.741	358.3
419.184	353.55
419.626	362.37
420.069	361.4
420.511	364.23
420.953	357.95
421.396	353
421.838	341.95
422.28	349.84
422.722	355.16
423.164	360.05
423.606	354.32
424.048	351.43
424.49	336.23
424.932	332.97
425.374	322.78
425.816	323.79
426.258	331.86
426.699	336.44
427.141	336.02
427.582	337.42
428.024	333.47
428.465	328.12
428.907	319.87
429.348	313.3
429.789	316.47
430.231	314.66
430.672	319.09
431.113	309.04
431.554	301.8
431.995	290.19
432.436	283.93
432.877	279.97
433.318	281.13
433.759	278.18
434.2	276.89
434.64	269.99
435.081	267.08
435.522	254.04
435.962	244.53
436.403	241.84
436.843	240.41
437.284	231.81
437.724	221.25
438.164	213.55
438.604	208.72
439.045	202.11
439.485	196.3
439.925	192.86
440.365	187.55
440.805	183.56
441.245	181.43
441.685	176.02
442.125	171.56
442.564	172.22
443.004	169.08
443.444	168.61
443.883	170.09
444.323	164.98
444.762	157.61
445.202	156.98
445.641	160.26
446.081	154.3
446.52	155.53
446.959	154.12
447.398	150.47
447.837	148.75
448.276	142.79
448.716	141.89
449.154	140.23
449.593	140.54
450.032	139.49
450.471	133.86
450.91	132.01
451.349	132.55
451.787	130.81
452.226	132.05
452.664	130.78
453.103	131.29
453.541	129.37
453.98	134.32
454.418	135.15
454.856	136.12
455.295	137.42
455.733	141.48
456.171	140.59
456.609	141.86
457.047	143.29
457.485	147.93
457.923	150.07
458.361	147.73
458.798	146.48
459.236	145.15
459.674	143.36
460.111	143.07
460.549	141.12
460.987	138.94
461.424	137.31
461.862	134.67
462.299	131.01
462.736	131.9
463.173	133.03
463.611	134.88
464.048	136.28
464.485	138.06
464.922	136.86
465.359	134.82
465.796	144.12
466.233	144.19
466.67	146.43
467.106	148.1
467.543	144.79
467.98	141.9
468.416	134.14
468.853	131.33
469.29	126.78
469.726	125.36
470.162	122.07
470.599	112.07
471.035	109.71
471.471	106.17
471.907	102.65
472.344	101.18
472.78	102.51
473.216	103.47
473.652	102.65
474.088	100.8
474.523	100.87
474.959	101.39
475.395	100.02
475.831	100.15
476.266	99.65
476.702	99.07
477.138	98.21
477.573	96.79
478.008	96.9
478.444	97.84
478.879	100.71
479.314	101.79
479.75	102.19
480.185	102.49
480.62	102.45
481.055	103
481.49	104
481.925	105.97
482.36	110.98
482.795	113.27
483.229	115.45
483.664	117.3
484.099	116.68
484.534	118.1
484.968	119.61
485.403	119.86
485.837	118.02
486.271	117.65
486.706	116.73
487.14	112.38
487.574	110.46
488.009	109.04
488.443	107.16
488.877	109.2
489.311	109.04
489.745	109.49
490.179	110.76
490.613	114.76
491.046	114.65
491.48	115.01
491.914	115.21
492.348	115.9
492.781	116.09
493.215	115.47
493.648	112.93
494.082	113.18
494.515	113.18
494.948	113.74
495.382	111.41
495.815	111.36
496.248	111.63
496.681	112.06
497.114	110.89
497.547	111.6
497.98	113.37
498.413	115.21
498.846	115.71
499.279	114.67
499.711	112.36
500.144	111.13
500.577	112.72
501.009	112.71
501.442	113.77
501.874	114.1
502.306	111.89
502.739	114.37
503.171	113.42
503.603	111.84
504.036	110.97
504.468	110.68
504.9	110.64
505.332	108.81
505.764	108.13
506.196	106.16
506.627	105.84
507.059	105.58
507.491	100.36
507.923	98.45
508.354	98.64
508.786	98.47
509.217	98.75
509.649	98.57
510.08	98.23
510.512	98.83
510.943	99.06
511.374	97.93
511.805	98.13
512.237	98.21
512.668	98.33
513.099	97.66
513.53	97.5
513.961	97.63
514.391	98.28
514.822	101.24
515.253	101.43
515.684	100.76
516.114	101.73
516.545	102.37
516.975	102.39
517.406	102.54
517.836	100.72
518.267	100.5
518.697	101.08
519.127	99.72
519.558	96.46
519.988	93.86
520.418	92.75
520.848	91.04
521.278	89.3
521.708	118.26
522.138	117.44
522.567	117.46
522.997	116.79
523.427	114.77
523.857	114.55
524.286	113.38
524.716	114.01
525.145	114.97
525.575	115.8
526.004	115.06
526.433	84.8
526.863	83.59
527.292	84.14
527.721	84.94
528.15	84.83
528.579	84.64
529.008	85.02
529.437	84.19
529.866	83.41
530.295	82.56
530.724	84.04
531.152	85.16
531.581	86.64
532.01	86.39
532.438	84.75
532.867	84.41
533.295	84.75
533.723	85.02
534.152	85.13
534.58	85.35
535.008	84.92
535.436	85.55
535.865	85.15
536.293	84.31
536.721	83.94
537.149	85.59
537.576	86.76
538.004	87.21
538.432	86.31
538.86	86.82
539.287	85.96
539.715	86.52
540.143	84.83
540.57	84.74
540.998	84.48
541.425	85.64
541.852	84.44
542.28	83.16
542.707	82.07
543.134	81.84
543.561	81.38
543.988	81.48
544.415	80.56
544.842	80
545.269	80.1
545.696	80.78
546.123	80.5
546.549	79.52
546.976	79.79
547.403	79.67
547.829	79.27
548.256	78.51
548.682	78.55
549.108	80.03
549.535	79.85
549.961	78.86
550.387	77.74
550.813	78.64
551.24	79.03
551.666	78.24
552.092	77.92
552.518	77.47
552.943	78.73
553.369	79.14
553.795	78.86
554.221	78.99
554.646	79.2
555.072	81.65
555.498	79.49
555.923	79.65
556.349	80.79
556.774	80.57
557.199	81.25
557.625	80.61
558.05	80.07
558.475	79.93
558.9	80.64
559.325	81.2
559.75	80.61
560.175	80.75
560.6	80.61
561.025	79.55
561.449	79.9
561.874	79.41
562.299	80.53
562.723	80.81
563.148	80.71
563.572	80.48
563.997	80.45
564.421	78.94
564.846	79.17
565.27	80.33
565.694	81.56
566.118	82.58
566.542	85
566.966	84.51
567.39	85.49
567.814	85.73
568.238	86.66
568.662	86.83
569.086	88.62
569.509	89.77
569.933	91.53
570.357	91.35
570.78	91.1
571.204	92.14
571.627	92.36
572.05	92.52
572.474	94.32
572.897	94.14
573.32	95.99
573.743	95.73
574.166	95.78
574.589	94.59
575.012	94.84
575.435	95.44
575.858	94.48
576.281	94.13
576.704	93.51
577.126	91.96
577.549	91.19
577.972	89.74
578.394	89.67
578.817	92.82
579.239	92.28
579.661	92.37
580.084	93.88
580.506	93.62
580.928	93.49
581.35	93.34
581.772	93.7
582.194	93.93
582.616	93.77
583.038	92.79
583.46	89.51
583.882	89.72
584.303	89.08
584.725	86.75
585.147	92.56
585.568	94.45
585.99	96.47
586.411	98.08
586.833	99.72
587.254	100.6
587.675	101.12
588.096	102.28
588.518	102.05
588.939	102.51
589.36	103.4
589.781	95.76
590.202	97.13
590.623	96.05
591.043	94.56
591.464	94.18
591.885	94.64
592.305	94.78
592.726	93.67
593.147	94.46
593.567	94.04
593.987	93.06
594.408	93.16
594.828	89.57
595.248	90.66
595.669	91.38
596.089	90.42
596.509	88.83
596.929	87.9
597.349	89.09
597.769	87.74
598.189	88.01
598.608	88.48
599.028	89.48
599.448	89.43
599.867	87.51
600.287	86.2
600.706	87.12
601.126	87.6
601.545	89.14
601.965	89.12
602.384	89.57
602.803	89.8
603.222	90.55
603.641	89.64
604.061	91.09
604.48	91.18
604.898	91.98
605.317	92.23
605.736	92.08
606.155	92.69
606.574	91.81
606.992	92.32
607.411	92.16
607.829	90.85
608.248	91.18
608.666	89.85
609.085	90.63
609.503	90.68
609.921	90.88
610.339	92.34
610.758	91.31
611.176	91.16
611.594	91.27
612.012	91.69
612.43	93.64
612.847	94.24
613.265	96.31
613.683	96.68
614.101	97.37
614.518	96.88
614.936	96.48
615.353	96.92
615.771	98.15
616.188	98.93
616.606	99.07
617.023	98.76
617.44	98.35
617.857	96.04
618.274	95.68
618.691	96.59
619.108	96.59
619.525	96.33
619.942	97.2
620.359	97.42
620.776	96.72
621.192	97.64
621.609	97.79
622.026	98.96
622.442	100.82
622.859	100.54
623.275	98.99
623.691	99.16
624.108	100.21
624.524	100.55
624.94	100.38
625.356	101.26
625.772	100.9
626.188	101.85
626.604	102.48
627.02	102.1
627.436	103.46
627.852	106.25
628.268	107.46
628.683	106.02
629.099	106.01
629.514	105.16
629.93	105.65
630.345	107.17
630.761	105.74
631.176	105.7
631.591	107.62
632.007	107.91
632.422	105.64
632.837	104.18
633.252	106.11
633.667	105.59
634.082	105.8
634.497	106.41
634.911	106.25
635.326	106.78
635.741	105.77
636.155	104.06
636.57	105.15
636.984	105.75
637.399	109.68
637.813	108.05
638.228	108.19
638.642	108.79
639.056	107.1
639.47	107.57
639.884	107.76
640.298	108.87
640.712	110.42
641.126	109.99
641.54	109.32
641.954	106.11
642.368	107.37
642.781	111.51
643.195	110.38
643.609	112.48
644.022	111.97
644.436	112.84
644.849	111
645.262	109.54
645.676	108.58
646.089	109.82
646.502	111.43
646.915	111.27
647.328	108.23
647.741	110.09
648.154	109.07
648.567	112.9
648.98	112.93
649.393	114.56
649.805	116.13
650.218	117.73
650.631	116.77
651.043	116.3
651.456	116.31
651.868	115.75
652.28	116.87
652.693	118.29
653.105	116.94
653.517	117.85
653.929	118.68
654.341	119.78
654.753	118.98
655.165	120.28
655.577	121.18
655.989	122.08
656.401	120.47
656.813	119.99
657.224	118.64
657.636	115.1
658.047	115.18
658.459	114.56
658.87	113.27
659.282	112.8
659.693	113.11
660.104	112.89
660.515	111.26
660.926	111.91
661.338	111.62
661.749	111.41
662.159	112.37
662.57	111.08
662.981	110.71
663.392	110.79
663.803	112.04
664.213	111.7
664.624	110.56
665.035	111.57
665.445	111.21
665.855	111.67
666.266	112.91
666.676	112.79
667.086	112.05
667.497	113.57
667.907	113.65
668.317	112.35
668.727	115.88
669.137	115.75
669.547	116.35
669.956	116.97
670.366	117.11
670.776	118.55
671.186	119.49
671.595	121.21
672.005	120.76
672.414	122.02
672.824	122.6
673.233	118.87
673.642	119.04
674.052	120.48
674.461	122.72
674.87	123.32
675.279	122.47
675.688	120.43
676.097	121.07
676.506	120.32
676.915	120.56
677.323	120.17
677.732	119.48
678.141	119.58
678.549	116.34
678.958	113.83
679.366	111.3
679.775	108.98
680.183	113.15
680.592	112.6
681	112.14
681.408	110.01
681.816	109.19
682.224	108.35
682.632	110.48
683.04	113.36
683.448	115.49
683.856	119.27
684.264	124.06
684.671	124
685.079	125.57
685.487	128.18
685.894	131.75
686.302	133.65
686.709	136.65
687.116	137.23
687.524	139.09
687.931	139.97
688.338	139.13
688.745	136.24
689.152	134.2
689.559	134.06
689.966	135.69
690.373	134.8
690.78	134.42
691.187	133.63
691.593	132.02
692	128.16
692.407	127.38
692.813	130.81
693.22	129.75
693.626	127.54
694.032	126.28
694.439	126.05
694.845	124.22
695.251	123.87
695.657	124.59
696.063	124.85
696.469	124.55
696.875	124.65
697.281	119.36
697.687	117.97
698.093	118.14
698.498	119.36
698.904	116.36
699.31	116.86
699.715	120.86
700.12	122.01
700.526	121.51
700.931	121.66
701.337	121.81
701.742	121.56
702.147	121.96
702.552	120.18
702.957	117.88
703.362	117.31
703.767	116.48
704.172	112.49
704.577	108.51
704.981	107.22
705.386	107.43
705.791	104.89
706.195	103.67
706.6	103.28
707.004	103
707.408	101.06
707.813	102.32
708.217	101.38
708.621	100.29
709.025	102.04
709.43	103.89
709.834	104.22
710.237	104.87
710.641	105.22
711.045	105.18
711.449	107.13
711.853	112.58
712.256	111.08
712.66	110.69
713.064	111.49
713.467	113.28
713.87	113.31
714.274	114.63
714.677	117.04
715.08	120.67
715.484	126.15
715.887	133.63
716.29	131.52
716.693	138.71
717.096	145.09
717.499	148.56
717.901	145.36
718.304	146.29
718.707	145.11
719.109	141.38
719.512	138.44
719.915	137.18
720.317	131.39
720.719	132.41
721.122	128.73
721.524	127.32
