Data from N_3_DIV_PA_2N_Splice17_13-17-05-078.txt Node
Date: Sat Mar 14 13:17:05 EDT 2020
User: sa697716
Spectrometer: FLMS03696
Trigger mode: 0
Integration Time (sec): 3.180400E-1
Scans to average: 20
Electric dark correction enabled: true
Nonlinearity correction enabled: true
Boxcar width: 5
XAxis mode: Wavelengths
Number of Pixels in Spectrum: 2048
>>>>>Begin Spectral Data<<<<<
187.83	-367768.31
188.298	2662.83
188.766	1437.12
189.233	1288.34
189.701	1775.16
190.169	2454.94
190.636	958.88
191.104	794.19
191.571	164.46
192.039	-43.95
192.506	-17.62
192.974	513.96
193.441	-817.13
193.908	-219.61
194.375	-48.96
194.842	51.57
195.31	163.69
195.777	200.56
196.244	369.76
196.711	223.79
197.177	188.56
197.644	178.49
198.111	277.06
198.578	350.34
199.045	262.22
199.511	365.87
199.978	321.24
200.445	323.52
200.911	330.86
201.378	262.75
201.844	292.73
202.31	470.4
202.777	508.75
203.243	311.86
203.709	280.87
204.176	348.17
204.642	309.24
205.108	296.2
205.574	189.32
206.04	126.16
206.506	138.7
206.972	101.95
207.438	100.5
207.903	97.98
208.369	89.07
208.835	106.34
209.301	119.68
209.766	98.38
210.232	107.44
210.697	148.34
211.163	206.85
211.628	266.7
212.094	317.29
212.559	487.14
213.024	337.47
213.49	442.95
213.955	433.16
214.42	378.78
214.885	390.02
215.35	398.45
215.815	482.25
216.28	528.48
216.745	437.48
217.21	498.93
217.675	426.76
218.14	499.59
218.604	556.21
219.069	668.04
219.534	766.83
219.998	889.69
220.463	1086.49
220.927	1262.29
221.392	1209.37
221.856	1262.02
222.32	1544.47
222.785	1954.57
223.249	2467.55
223.713	2791.78
224.177	2838.11
224.642	3611.46
225.106	4456.03
225.57	4930.81
226.034	3797.41
226.497	5873.2
226.961	5437.04
227.425	6467.85
227.889	7224.99
228.353	7255.99
228.816	15079.91
229.28	14514.09
229.744	12298.79
230.207	7602.7
230.671	7520.41
231.134	12328.61
231.597	14307.63
232.061	14262.16
232.524	13918.06
232.987	9643.49
233.45	8789.43
233.914	7914.87
234.377	8094.21
234.84	7444.38
235.303	8765.64
235.766	9787.19
236.229	10150.15
236.691	6367.98
237.154	7146.87
237.617	5396.92
238.08	5521.37
238.542	6450.82
239.005	4631.73
239.468	4630.53
239.93	4373.46
240.393	3984.55
240.855	3519.53
241.317	3603.11
241.78	4395.01
242.242	4573.59
242.704	4993.8
243.166	4375.06
243.629	4020.13
244.091	4650.86
244.553	5110.76
245.015	5541.1
245.477	7197.49
245.939	10548.93
246.4	11270.96
246.862	10974.07
247.324	10385.08
247.786	11609.57
248.247	15281.06
248.709	15746.45
249.17	11849.75
249.632	11307.23
250.093	13213.57
250.555	11464.57
251.016	7056.65
251.477	6728.31
251.939	7329.1
252.4	7728.68
252.861	9192.02
253.322	8600.38
253.783	10245.68
254.244	13294.02
254.705	10472.36
255.166	9285.79
255.627	9188.41
256.088	13001.59
256.549	13813.42
257.009	11877.87
257.47	14409.47
257.931	11787
258.391	8838.15
258.852	9130.33
259.312	9584.7
259.773	11870.5
260.233	10108.19
260.694	8561.9
261.154	9737.09
261.614	7897.06
262.074	7095.86
262.534	7408.74
262.994	7021.89
263.455	9377.45
263.915	7952.91
264.374	7520.57
264.834	8227.13
265.294	9127.17
265.754	9474.84
266.214	8982.59
266.673	8431.78
267.133	10656.56
267.593	10590.64
268.052	12997.15
268.512	11330.59
268.971	13741.39
269.431	15121.4
269.89	13541.16
270.349	20369.48
270.809	22764.09
271.268	20527.04
271.727	45921.6
272.186	29862.63
272.645	22429.12
273.104	16143.45
273.563	23437.55
274.022	18381.93
274.481	15708.67
274.94	12159.39
275.399	9040.92
275.857	10535.57
276.316	14280.76
276.775	12775.41
277.233	12613.58
277.692	11879.72
278.15	13506.1
278.609	13987.59
279.067	12997.23
279.525	12099.59
279.984	15663.16
280.442	18831.41
280.9	18681.24
281.358	12304.99
281.816	11478.57
282.274	11242.21
282.732	11591.03
283.19	11653.28
283.648	10035.15
284.106	10689.65
284.564	10876.89
285.021	10116.26
285.479	7570.48
285.937	6864.57
286.394	6054.51
286.852	6243.22
287.309	6565.67
287.767	6389.62
288.224	6116.86
288.682	6743.07
289.139	7464.65
289.596	6879.93
290.053	7163.87
290.511	9078.77
290.968	11094.29
291.425	15145.28
291.882	12735.2
292.339	11176.9
292.796	11098.25
293.252	10488.38
293.709	8406.89
294.166	7566.6
294.623	8373.44
295.079	8062.58
295.536	8153.78
295.992	7428.61
296.449	7345.5
296.905	7659.29
297.362	7391.01
297.818	7813.04
298.274	8138.64
298.731	8268.97
299.187	8177.96
299.643	8798.06
300.099	10651.92
300.555	11643.96
301.011	9732.05
301.467	9458.11
301.923	11037.48
302.379	10773.6
302.835	10584.17
303.291	10615.23
303.746	12067.53
304.202	15218.89
304.658	15267.4
305.113	10284.59
305.569	10097.89
306.024	10765.13
306.479	10186.35
306.935	8587.87
307.39	9337.07
307.845	8625.63
308.301	8685.94
308.756	8466.11
309.211	8177.98
309.666	8362.13
310.121	10380.2
310.576	10498.69
311.031	10391.42
311.486	11850.41
311.94	11811.22
312.395	15769.52
312.85	29459.91
313.305	143550.2
313.759	745449.52
314.214	53902.71
314.668	42930.81
315.123	36163.42
315.577	13031.54
316.032	11617.5
316.486	14609.2
316.94	11601.09
317.394	8129.37
317.849	6350.54
318.303	6025.02
318.757	5699.76
319.211	6329.61
319.665	5524.94
320.119	5605.33
320.572	8021.15
321.026	7508.92
321.48	6244.95
321.934	6760.05
322.387	6750.5
322.841	7288.42
323.295	6619.34
323.748	7588.95
324.202	7677.59
324.655	9261.15
325.108	12993.97
325.562	9198.49
326.015	10906.25
326.468	8261.71
326.921	9293.06
327.374	8702.44
327.827	9094.85
328.28	10252.96
328.733	6883.7
329.186	6058.43
329.639	5759.64
330.092	4840.96
330.545	4613.01
330.997	4663.17
331.45	5116.97
331.903	5989.82
332.355	10247.92
332.808	9958.65
333.26	8176.31
333.713	8879.48
334.165	8913.63
334.617	11875.59
335.069	9539.05
335.522	17167.58
335.974	19033.7
336.426	17282.81
336.878	11896.42
337.33	6063.85
337.782	5920.83
338.234	7475.63
338.686	8928.17
339.137	10577.86
339.589	9978.41
340.041	7857.48
340.493	6777.64
340.944	6926.04
341.396	7483.94
341.847	6359.44
342.299	7541.68
342.75	9250.24
343.201	8056.65
343.653	9295.18
344.104	11487.06
344.555	9079.17
345.006	14091.75
345.457	10902.24
345.908	8694.05
346.359	8235.87
346.81	6706.91
347.261	7047.96
347.712	6923.81
348.163	7434.12
348.613	7590.14
349.064	7118.89
349.515	6235.53
349.965	6421.46
350.416	7734.7
350.866	8503.31
351.317	9564.21
351.767	15882.78
352.217	20092.45
352.668	16732.1
353.118	15341.58
353.568	14706.46
354.018	11641.64
354.468	12307.03
354.918	8840.43
355.368	7705.96
355.818	10870.58
356.268	31371.96
356.718	132339.22
357.168	33050.28
357.617	16561.87
358.067	18357.18
358.517	17261.73
358.966	20296.31
359.416	22806.41
359.865	24622.69
360.315	29356.79
360.764	13784.22
361.213	7736.74
361.663	7268.47
362.112	8963.26
362.561	14534.75
363.01	11038.42
363.459	9267.53
363.908	10010.08
364.357	8550.96
364.806	14381.37
365.255	9878.56
365.703	9073.17
366.152	9109.94
366.601	7403.75
367.05	6046.55
367.498	5479.96
367.947	5709.06
368.395	5942.3
368.844	5274.94
369.292	6327.15
369.74	4415.27
370.189	6736.12
370.637	7872.16
371.085	6767.32
371.533	8217.69
371.981	7897.6
372.429	7566.03
372.877	7891.69
373.325	6617.86
373.773	6694.24
374.221	5928.93
374.669	7344.91
375.116	6347.95
375.564	6395.3
376.012	7143.15
376.459	5907.78
376.907	7013.23
377.354	8416.32
377.801	7871.99
378.249	9033.32
378.696	11569.38
379.143	14033.28
379.591	14904.28
380.038	25264.94
380.485	18263.6
380.932	19695.49
381.379	18039.5
381.826	13322.01
382.273	9471.59
382.72	8229.73
383.166	8021.36
383.613	5202.64
384.06	4685.98
384.506	5417.11
384.953	3988.44
385.4	3988.13
385.846	3481.3
386.292	3363.44
386.739	3279.58
387.185	3229.55
387.631	3222.95
388.078	3129.56
388.524	3327.89
388.97	3055.33
389.416	2543.42
389.862	2694.07
390.308	2551.19
390.754	2586.99
391.2	2798.27
391.645	2845.93
392.091	2746.1
392.537	2646.8
392.983	2619.19
393.428	2596.66
393.874	2768.99
394.319	2781.93
394.765	2637.11
395.21	2697.81
395.655	2513.94
396.101	2343.96
396.546	2109.92
396.991	2093.32
397.436	1937.96
397.881	1869.66
398.326	1743.52
398.771	1648.39
399.216	1424.62
399.661	1271.62
400.106	1264.45
400.551	1303.02
400.995	1164.34
401.44	1147.09
401.885	1071.5
402.329	1078.53
402.774	1034.3
403.218	1014.3
403.663	971.06
404.107	1000.02
404.551	1006.69
404.995	914.55
405.44	865.9
405.884	872.79
406.328	836.63
406.772	833.54
407.216	754.94
407.66	723.98
408.104	670.86
408.547	627.22
408.991	604.95
409.435	576.65
409.879	572.39
410.322	568.32
410.766	552.35
411.209	526.42
411.653	502.13
412.096	493.77
412.54	491.22
412.983	490.44
413.426	493.11
413.869	487.44
414.312	480.43
414.756	456.59
415.199	431.43
415.642	417.01
416.085	416.49
416.527	412.68
416.97	416.16
417.413	392.88
417.856	386.43
418.298	379.84
418.741	374.07
419.184	370.66
419.626	382.83
420.069	384.56
420.511	388.96
420.953	381.4
421.396	379.47
421.838	367.04
422.28	376.52
422.722	377.9
423.164	380.49
423.606	377.64
424.048	372.96
424.49	358.64
424.932	354.3
425.374	343.3
425.816	346.99
426.258	350.63
426.699	355.19
427.141	353.2
427.582	355.73
428.024	354.19
428.465	345.33
428.907	337.7
429.348	331.09
429.789	331.77
430.231	329.55
430.672	334.31
431.113	327.46
431.554	321.52
431.995	309.3
432.436	300.94
432.877	293.68
433.318	294.32
433.759	291.17
434.2	288.56
434.64	282.39
435.081	281.5
435.522	267.19
435.962	254.18
436.403	249.08
436.843	248.38
437.284	240.04
437.724	230.53
438.164	224.54
438.604	219.32
439.045	213.92
439.485	208.03
439.925	202.12
440.365	194.3
440.805	191.16
441.245	189.33
441.685	183.81
442.125	179.72
442.564	179.7
443.004	177.27
443.444	176.38
443.883	176.68
444.323	171.29
444.762	166.29
445.202	166.7
445.641	168.22
446.081	162.92
446.52	162.51
446.959	162.54
447.398	160.31
447.837	156.64
448.276	151.64
448.716	150.05
449.154	147.72
449.593	146.44
450.032	145.83
450.471	142.19
450.91	140.98
451.349	141.81
451.787	139.27
452.226	139.57
452.664	138.8
453.103	138.45
453.541	135.7
453.98	139.61
454.418	139.74
454.856	139.96
455.295	139.85
455.733	142.26
456.171	141.97
456.609	141.94
457.047	142.3
457.485	146.27
457.923	149.19
458.361	148.19
458.798	148
459.236	147.67
459.674	145.96
460.111	148.35
460.549	147.65
460.987	146.59
461.424	146.42
461.862	145.17
462.299	141.41
462.736	140.65
463.173	139.77
463.611	141.22
464.048	141.25
464.485	143.63
464.922	140.22
465.359	138.27
465.796	146.45
466.233	146.41
466.67	147.6
467.106	149.47
467.543	146.61
467.98	144.63
468.416	137.93
468.853	135.18
469.29	129.92
469.726	129.04
470.162	124.96
470.599	114.84
471.035	112.19
471.471	108.49
471.907	105.9
472.344	104.64
472.78	105.97
473.216	106.39
473.652	106.25
474.088	105.35
474.523	105.7
474.959	106.02
475.395	104.38
475.831	104.46
476.266	103.7
476.702	102.3
477.138	101.49
477.573	100.84
478.008	100.7
478.444	101.8
478.879	104.87
479.314	105.24
479.75	106.04
480.185	107.24
480.62	107.75
481.055	109.04
481.49	110.31
481.925	112.18
482.36	116.67
482.795	119.9
483.229	122.03
483.664	123.17
484.099	122.73
484.534	124.89
484.968	126.83
485.403	127.13
485.837	125.14
486.271	125.27
486.706	124.76
487.14	120.63
487.574	118.48
488.009	116.52
488.443	114.9
488.877	116.97
489.311	116.42
489.745	116.65
490.179	117.36
490.613	121.68
491.046	121.22
491.48	121.75
491.914	121.17
492.348	120.82
492.781	121.27
493.215	120.55
493.648	118.33
494.082	118.11
494.515	117.22
494.948	117.97
495.382	115.8
495.815	115.27
496.248	114.71
496.681	115.89
497.114	116.24
497.547	116.87
497.98	119.06
498.413	120.09
498.846	120.79
499.279	119.86
499.711	118.07
500.144	116.64
500.577	118.41
501.009	117.96
501.442	118.86
501.874	118.21
502.306	116.62
502.739	119.06
503.171	119.13
503.603	117.49
504.036	117.14
504.468	116.4
504.9	116.32
505.332	114.65
505.764	113.71
506.196	112.08
506.627	111.2
507.059	110.37
507.491	104.63
507.923	102.5
508.354	102.97
508.786	102.33
509.217	102.42
509.649	102.26
510.08	101.33
510.512	101.77
510.943	101.43
511.374	101.21
511.805	100.74
512.237	100.82
512.668	100.54
513.099	99.43
513.53	99.42
513.961	99.56
514.391	100.31
514.822	103.92
515.253	105.36
515.684	104.94
516.114	105.56
516.545	106.13
516.975	106.31
517.406	106.22
517.836	104.51
518.267	103.88
518.697	104.22
519.127	102.17
519.558	98.6
519.988	95.95
520.418	94.14
520.848	92.49
521.278	90.98
521.708	119.75
522.138	119.8
522.567	119.75
522.997	119.69
523.427	117.8
523.857	117.95
524.286	116.99
524.716	117.03
525.145	117.94
525.575	118.44
526.004	117.93
526.433	87.53
526.863	85.78
527.292	86.53
527.721	86.9
528.15	86.88
528.579	86.54
529.008	87.28
529.437	86.72
529.866	86.06
530.295	85.2
530.724	86.49
531.152	87.5
531.581	88.62
532.01	88.1
532.438	86.78
532.867	85.88
533.295	86.59
533.723	86.19
534.152	86.57
534.58	87.17
535.008	86.44
535.436	87.06
535.865	86.67
536.293	85.73
536.721	85.75
537.149	87.26
537.576	89.03
538.004	89.5
538.432	88.36
538.86	88.79
539.287	88.16
539.715	88.73
540.143	87.05
540.57	87.2
540.998	87.46
541.425	88.51
541.852	87.19
542.28	86.37
542.707	84.58
543.134	84.58
543.561	84.33
543.988	84.19
544.415	84.04
544.842	83.44
545.269	83.45
545.696	84.41
546.123	83.86
546.549	83.25
546.976	82.56
547.403	82.86
547.829	82.2
548.256	81.21
548.682	81.29
549.108	81.83
549.535	81.84
549.961	80.64
550.387	79.42
550.813	80.51
551.24	80.56
551.666	80.22
552.092	79.9
552.518	80.25
552.943	81.28
553.369	80.65
553.795	80.57
554.221	81.08
554.646	81.31
555.072	83.28
555.498	81.3
555.923	81.58
556.349	82.51
556.774	82.63
557.199	82.41
557.625	81.21
558.05	82.12
558.475	82.02
558.9	82.56
559.325	83.31
559.75	82.62
560.175	82.46
560.6	82
561.025	81.31
561.449	81.95
561.874	82.35
562.299	84
562.723	83.61
563.148	83.94
563.572	83.68
563.997	83.9
564.421	82.78
564.846	83.27
565.27	84.52
565.694	85.03
566.118	85.36
566.542	86.85
566.966	86.99
567.39	88.39
567.814	88.92
568.238	89.73
568.662	90.24
569.086	92.31
569.509	92.49
569.933	93.64
570.357	93.93
570.78	93.14
571.204	94.73
571.627	94.18
572.05	94.59
572.474	95.93
572.897	96.3
573.32	97.88
573.743	97.08
574.166	98.35
574.589	97.76
575.012	98.1
575.435	98.44
575.858	97.52
576.281	97.61
576.704	96.05
577.126	94.27
577.549	93.34
577.972	91.9
578.394	92.34
578.817	94.67
579.239	93.99
579.661	94.31
580.084	96.09
580.506	96.19
580.928	96.13
581.35	96.35
581.772	97.5
582.194	97.18
582.616	96.68
583.038	94.83
583.46	91.51
583.882	92.25
584.303	91.66
584.725	89.96
585.147	95.65
585.568	97.63
585.99	99.34
586.411	100.58
586.833	102.65
587.254	102.85
587.675	104.24
588.096	105.98
588.518	105.77
588.939	105.67
589.36	106.76
589.781	99.05
590.202	101.25
590.623	101.03
591.043	98.88
591.464	97.74
591.885	99.19
592.305	98.93
592.726	97.69
593.147	98.12
593.567	97.43
593.987	96.33
594.408	96.12
594.828	91.08
595.248	91.5
595.669	92.39
596.089	92.18
596.509	90.93
596.929	90.33
597.349	91.05
597.769	89.89
598.189	90.39
598.608	90.81
599.028	91.94
599.448	92.34
599.867	90.53
600.287	89.15
600.706	89.74
601.126	89.3
601.545	90.82
601.965	90.4
602.384	90.48
602.803	90.32
603.222	91.72
603.641	91.04
604.061	92.22
604.48	92.77
604.898	93.82
605.317	94.36
605.736	95.28
606.155	95.61
606.574	95.58
606.992	96.01
607.411	96.27
607.829	94.38
608.248	94.77
608.666	93.72
609.085	94.44
609.503	93.97
609.921	94.51
610.339	95.36
610.758	94.98
611.176	94.82
611.594	95.43
612.012	95.85
612.43	97.96
612.847	98.22
613.265	100.71
613.683	100.94
614.101	102.06
614.518	100.76
614.936	100.22
615.353	100.05
615.771	101.11
616.188	102.12
616.606	102.37
617.023	101.95
617.44	101.74
617.857	99.48
618.274	99.11
618.691	100.37
619.108	100.23
619.525	99.67
619.942	100.79
620.359	101.22
620.776	100.32
621.192	101.21
621.609	101.14
622.026	102.22
622.442	104.37
622.859	104.57
623.275	102.76
623.691	103.67
624.108	105.03
624.524	105.2
624.94	105.09
625.356	105.66
625.772	105.59
626.188	106.23
626.604	107.24
627.02	105.95
627.436	106.56
627.852	108.76
628.268	109.86
628.683	108.93
629.099	108.92
629.514	107.63
629.93	108.18
630.345	109.03
630.761	108.26
631.176	107.75
631.591	110.06
632.007	110.5
632.422	108.77
632.837	107.5
633.252	109.58
633.667	109.09
634.082	109.73
634.497	109.92
634.911	111.23
635.326	112.1
635.741	111.42
636.155	109.09
636.57	111.13
636.984	112.64
637.399	115.83
637.813	114.58
638.228	115.76
638.642	116.07
639.056	115.64
639.47	114.66
639.884	114.93
640.298	115.61
640.712	117.31
641.126	115.2
641.54	114.29
641.954	111.18
642.368	112.36
642.781	114.85
643.195	114.93
643.609	116.41
644.022	116.24
644.436	116.03
644.849	114.54
645.262	113.73
645.676	114.33
646.089	115
646.502	117.29
646.915	116.41
647.328	113.75
647.741	114.85
648.154	114.1
648.567	118.13
648.98	118.46
649.393	119.63
649.805	120.8
650.218	121.22
650.631	120.86
651.043	120.37
651.456	121.77
651.868	121.74
652.28	123.55
652.693	124.94
653.105	123.42
653.517	124.32
653.929	125.56
654.341	126.77
654.753	126.03
655.165	127.09
655.577	127.18
655.989	125.6
656.401	123.76
656.813	121.5
657.224	119.82
657.636	116.13
658.047	116.67
658.459	116.04
658.87	114.32
659.282	113.62
659.693	113.33
660.104	113.34
660.515	112.35
660.926	114.22
661.338	114.22
661.749	113.94
662.159	115.64
662.57	114.03
662.981	113.77
663.392	114.7
663.803	116.52
664.213	116.3
664.624	115.3
665.035	116.81
665.445	116.09
665.855	116.39
666.266	118.3
666.676	118.02
667.086	117.6
667.497	118.46
667.907	117.21
668.317	116.31
668.727	119.98
669.137	119.87
669.547	120.66
669.956	121.03
670.366	122.3
670.776	122.24
671.186	122.06
671.595	123.97
672.005	123.46
672.414	125.64
672.824	126.3
673.233	123.46
673.642	124.57
674.052	125.65
674.461	126.94
674.87	126.47
675.279	127
675.688	126.54
676.097	127.08
676.506	127.09
676.915	126.74
677.323	125.92
677.732	124.81
678.141	123.59
678.549	120.2
678.958	118.25
679.366	116.98
679.775	114.63
680.183	118.58
680.592	117.31
681	117.19
681.408	116.54
681.816	115.75
682.224	115.19
682.632	118.34
683.04	121.14
683.448	122.68
683.856	126.03
684.264	131.06
684.671	129.72
685.079	131.96
685.487	133.69
685.894	136.89
686.302	138.75
686.709	140.63
687.116	140.3
687.524	142.44
687.931	144.56
688.338	143.45
688.745	139.22
689.152	138.15
689.559	137.93
689.966	139.08
690.373	136.26
690.78	136.68
691.187	136.85
691.593	135.81
692	132.21
692.407	130.37
692.813	134.43
693.22	134.41
693.626	132.81
694.032	132.27
694.439	132.45
694.845	131.61
695.251	131.2
695.657	131.2
696.063	130.39
696.469	129.97
696.875	129.99
697.281	124.05
697.687	122.46
698.093	121.56
698.498	121.38
698.904	118.2
699.31	118.03
699.715	121.64
700.12	122.86
700.526	123.38
700.931	123.41
701.337	123.23
701.742	124.12
702.147	125.17
702.552	124.11
702.957	123.12
703.362	123.03
703.767	122.42
704.172	117.85
704.577	113.16
704.981	110.87
705.386	111.46
705.791	109.72
706.195	108.17
706.6	107.72
707.004	107.65
707.408	104.79
707.813	106.41
708.217	106.13
708.621	105.27
709.025	107.94
709.43	110.28
709.834	110.76
710.237	110.57
710.641	109.39
711.045	109.46
711.449	110.46
711.853	117.44
712.256	116.02
712.66	115.64
713.064	117.41
713.467	118.67
713.87	119.61
714.274	120.46
714.677	124.53
715.08	129.46
715.484	133.37
715.887	142.23
716.29	138.92
716.693	144.94
717.096	150.78
717.499	153.25
717.901	151.48
718.304	150.16
718.707	149.89
719.109	144.84
719.512	142.22
719.915	141.5
