Data from N_3_DIV_WI_4N_Splice17_12-57-34-739.txt Node
Date: Sat Mar 14 12:57:34 EDT 2020
User: sa697716
Spectrometer: FLMS03696
Trigger mode: 0
Integration Time (sec): 3.180400E-1
Scans to average: 20
Electric dark correction enabled: true
Nonlinearity correction enabled: true
Boxcar width: 5
XAxis mode: Wavelengths
Number of Pixels in Spectrum: 2048
>>>>>Begin Spectral Data<<<<<
187.83	-305955.68
188.298	2135.41
188.766	1193.04
189.233	1068.99
189.701	1515.37
190.169	2066.34
190.636	772.24
191.104	612.96
191.571	81.85
192.039	-88.05
192.506	-90.71
192.974	383.49
193.441	-883.14
193.908	-238.7
194.375	-38.1
194.842	24.17
195.31	84.37
195.777	180.75
196.244	368.01
196.711	276.18
197.177	291.76
197.644	347.56
198.111	573.1
198.578	765.82
199.045	587.16
199.511	912.27
199.978	987.2
200.445	851.47
200.911	888.02
201.378	893.23
201.844	845.43
202.31	1419.83
202.777	1476.82
203.243	818.63
203.709	804.22
204.176	953.75
204.642	783.51
205.108	776.51
205.574	623.3
206.04	537.86
206.506	511.52
206.972	460.58
207.438	450.82
207.903	518.41
208.369	483.61
208.835	479.23
209.301	525.76
209.766	528.83
210.232	520.06
210.697	632.69
211.163	785.76
211.628	1168.35
212.094	1047.04
212.559	1349.98
213.024	861.16
213.49	1061.49
213.955	1051.4
214.42	990.5
214.885	944.7
215.35	924.8
215.815	983.92
216.28	1080.54
216.745	916.8
217.21	1033.8
217.675	961.97
218.14	1121.19
218.604	1302.87
219.069	1561.6
219.534	1746.09
219.998	2114.06
220.463	2641.4
220.927	3298.41
221.392	3195.4
221.856	3316.75
222.32	4224.36
222.785	5321.42
223.249	6823.2
223.713	7700.31
224.177	7820.58
224.642	10132.8
225.106	12560.5
225.57	13845.4
226.034	10456.08
226.497	16003.93
226.961	14554.5
227.425	17144.04
227.889	19155.59
228.353	19286.88
228.816	40084.88
229.28	38502.39
229.744	32569.62
230.207	19970.4
230.671	19771.31
231.134	32747.6
231.597	38053.02
232.061	38208.92
232.524	37418.79
232.987	25903.01
233.45	23476.55
233.914	21142.43
234.377	21784.6
234.84	20074.46
235.303	23734.39
235.766	26608.6
236.229	27634.71
236.691	17489.76
237.154	19746.3
237.617	14916.58
238.08	15337.92
238.542	18011.06
239.005	12943.77
239.468	12912.43
239.93	12217.93
240.393	11156.93
240.855	9842.38
241.317	10114.46
241.78	12348.62
242.242	12844.24
242.704	13957.55
243.166	12222.61
243.629	11164.86
244.091	12944.82
244.553	14239.87
245.015	15358.97
245.477	19976.34
245.939	29453.55
246.4	31415.1
246.862	30696.43
247.324	29050.77
247.786	32664.52
248.247	43025.06
248.709	44531.52
249.17	33451.52
249.632	31699.97
250.093	36974.32
250.555	32066.22
251.016	19646.14
251.477	18745.57
251.939	20340.38
252.4	21445.51
252.861	25578.37
253.322	23886.55
253.783	28545.99
254.244	37146.15
254.705	29402.05
255.166	26241.09
255.627	25959.46
256.088	36691.1
256.549	39071.13
257.009	33698.17
257.47	40934.19
257.931	33424.1
258.391	25107.22
258.852	25964.01
259.312	27282.74
259.773	33797
260.233	28627.44
260.694	24196.58
261.154	27533.88
261.614	22162.45
262.074	19899.59
262.534	20758.39
262.994	19630.37
263.455	26249.55
263.915	22206.07
264.374	20992.51
264.834	22985.44
265.294	25538.3
265.754	26516.08
266.214	25176.3
266.673	23638.09
267.133	29873.43
267.593	29701.75
268.052	36441.03
268.512	31745.53
268.971	38343.25
269.431	42089.03
269.89	37708.58
270.349	56580.12
270.809	63158.42
271.268	56813.31
271.727	127571.02
272.186	82662.62
272.645	62028.22
273.104	44750.17
273.563	64806.6
274.022	50948.3
274.481	43425.72
274.94	33489.89
275.399	24933.66
275.857	29063.06
276.316	39326.91
276.775	35031.87
277.233	34578.58
277.692	32403.76
278.15	36664.69
278.609	37766.62
279.067	35000.94
279.525	32504.78
279.984	42032.98
280.442	50521.09
280.9	49786.64
281.358	32778.15
281.816	30562.5
282.274	29886.72
282.732	30892.2
283.19	31062.2
283.648	26799.95
284.106	28548.59
284.564	29039.76
285.021	26912.07
285.479	20068.41
285.937	18257.56
286.394	16044.67
286.852	16520.74
287.309	17381.77
287.767	16820.29
288.224	16016.92
288.682	17596.05
289.139	19344.47
289.596	17757.47
290.053	18531.13
290.511	23460.91
290.968	28610.53
291.425	38950.96
291.882	32580.87
292.339	28502.65
292.796	28377.71
293.252	26873.45
293.709	21444.65
294.166	19290.57
294.623	21363
295.079	20520.31
295.536	20651
295.992	18746.97
296.449	18569.23
296.905	19324.73
297.362	18545.5
297.818	19524.97
298.274	20286.42
298.731	20676.98
299.187	20461.38
299.643	21990.61
300.099	26637.68
300.555	29259.11
301.011	24517
301.467	23667.24
301.923	27716.75
302.379	27094.06
302.835	26664.79
303.291	26677.9
303.746	30363.64
304.202	38402.78
304.658	38598.13
305.113	25979.78
305.569	25461.86
306.024	27110.13
306.479	25793.89
306.935	21753.58
307.39	23715.75
307.845	21892.6
308.301	22034.72
308.756	21488.76
309.211	20689.85
309.666	21191.6
310.121	26269.25
310.576	26651.43
311.031	26454.65
311.486	30282.42
311.94	30227.74
312.395	40469.38
312.85	75998.46
313.305	373653.57
313.759	1935118.19
314.214	140454.2
314.668	111193.87
315.123	93746.09
315.577	33654.59
316.032	29965.98
316.486	37579.81
316.94	29719.16
317.394	20728.87
317.849	16129.71
318.303	15277.76
318.757	14447.28
319.211	15996.45
319.665	14070.43
320.119	14247.46
320.572	20449.33
321.026	19125.72
321.48	15950.24
321.934	17410.55
322.387	17470.77
322.841	18907.33
323.295	17012.01
323.748	19611.7
324.202	19879.72
324.655	23841.88
325.108	33339.47
325.562	23615.2
326.015	28098.48
326.468	21248.25
326.921	23763.18
327.374	22173.18
327.827	23062.82
328.28	26151.1
328.733	17522.42
329.186	15453.19
329.639	14730.03
330.092	12418.64
330.545	11809.02
330.997	11911.16
331.45	13015.74
331.903	15248.65
332.355	26254.32
332.808	25520.85
333.26	21016.68
333.713	22795.81
334.165	22914.75
334.617	30598.38
335.069	24719.02
335.522	44688.44
335.974	49476.21
336.426	45204.8
336.878	31297.33
337.33	15842.25
337.782	15481.29
338.234	19413.16
338.686	23256.65
339.137	27553.63
339.589	25957.69
340.041	20389.99
340.493	17563.36
340.944	18011.75
341.396	19437.49
341.847	16377.99
342.299	19386.52
342.75	23728.18
343.201	20791.43
343.653	23955.27
344.104	29547.15
344.555	23316.31
345.006	36349.14
345.457	27891.77
345.908	22205.76
346.359	20922.9
346.81	17060.58
347.261	17980.81
347.712	17698.8
348.163	18982.76
348.613	19242.36
349.064	18019.13
349.515	15776.5
349.965	16202.44
350.416	19503.58
350.866	21411.27
351.317	24253.31
351.767	40261.24
352.217	50960.27
352.668	42379.78
353.118	38883.25
353.568	37509.64
354.018	29644.54
354.468	31308.21
354.918	22465.85
355.368	19658.86
355.818	27781.43
356.268	79696.09
356.718	333079.53
357.168	82868.74
357.617	41584.79
358.067	46254.9
358.517	43326.15
358.966	50777.98
359.416	56944.3
359.865	61511.41
360.315	73272.54
360.764	34200.55
361.213	19186.95
361.663	18208.56
362.112	22485.13
362.561	36292.04
363.01	27406.05
363.459	23089.48
363.908	24960.54
364.357	21188.96
364.806	35784.32
365.255	24628.17
365.703	22601.74
366.152	22669.87
366.601	18370.12
367.05	14919.58
367.498	13564.53
367.947	14142.18
368.395	14712.34
368.844	13028.89
369.292	15721.99
369.74	10871.49
370.189	16636.12
370.637	19457.79
371.085	16767.38
371.533	20404.86
371.981	19642.34
372.429	18725.53
372.877	19505.68
373.325	16302.28
373.773	16641.82
374.221	14799.56
374.669	18324.84
375.116	15858.42
375.564	15985.12
376.012	17861.65
376.459	14723.38
376.907	17594.78
377.354	21260.01
377.801	19815.25
378.249	22751.9
378.696	29010.46
379.143	35112.32
379.591	37425.99
380.038	63157.22
380.485	45578.6
380.932	49179.4
381.379	44956.66
381.826	33109.98
382.273	23489.83
382.72	20520.31
383.166	19994.39
383.613	12951.77
384.06	11660.48
384.506	13477
384.953	9896.61
385.4	9968.98
385.846	8724.3
386.292	8486.55
386.739	8275.54
387.185	8158.8
387.631	8136.15
388.078	7871.46
388.524	8408.32
388.97	7740.95
389.416	6443.18
389.862	6847.01
390.308	6471.05
390.754	6564.92
391.2	7098.19
391.645	7252.02
392.091	6940.07
392.537	6693.78
392.983	6694.14
393.428	6567.89
393.874	7028.62
394.319	7034.23
394.765	6639.47
395.21	6810.26
395.655	6371.05
396.101	5957.9
396.546	5355.49
396.991	5392.08
397.436	5003.5
397.881	4829.09
398.326	4563.77
398.771	4310.79
399.216	3757.98
399.661	3377.46
400.106	3355.77
400.551	3430.88
400.995	3078.14
401.44	3054.98
401.885	2869.69
402.329	2902.17
402.774	2780.79
403.218	2690.39
403.663	2594.29
404.107	2667.88
404.551	2687.54
404.995	2464.71
405.44	2368.62
405.884	2405
406.328	2321.47
406.772	2307.13
407.216	2093.2
407.66	2017.44
408.104	1913.03
408.547	1789.23
408.991	1731.65
409.435	1665.36
409.879	1642.28
410.322	1620.45
410.766	1560.85
411.209	1481.79
411.653	1422.96
412.096	1394.73
412.54	1395.79
412.983	1384.03
413.426	1381.95
413.869	1376.29
414.312	1346.15
414.756	1293.68
415.199	1231.66
415.642	1196.54
416.085	1197.02
416.527	1182.86
416.97	1202.09
417.413	1139.37
417.856	1129.65
418.298	1120.45
418.741	1114.1
419.184	1113.91
419.626	1161.34
420.069	1163.42
420.511	1170.54
420.953	1146.22
421.396	1139.31
421.838	1107.41
422.28	1132.99
422.722	1138.99
423.164	1155.19
423.606	1136.15
424.048	1132.81
424.49	1073.92
424.932	1067.39
425.374	1049.43
425.816	1066.17
426.258	1086.53
426.699	1100.27
427.141	1085.34
427.582	1098.77
428.024	1089.43
428.465	1078.87
428.907	1047.43
429.348	1033.63
429.789	1029.98
430.231	1007.17
430.672	1016.47
431.113	988.27
431.554	967.5
431.995	936.54
432.436	899.39
432.877	877.62
433.318	860.8
433.759	855.2
434.2	852.45
434.64	839.93
435.081	837.98
435.522	790.73
435.962	758.74
436.403	739.99
436.843	748.11
437.284	729.28
437.724	706.06
438.164	705.51
438.604	687.98
439.045	660.56
439.485	634.96
439.925	622.02
440.365	606.47
440.805	596.51
441.245	588.52
441.685	565.96
442.125	561.19
442.564	563.04
443.004	548.85
443.444	546.81
443.883	544.6
444.323	536.45
444.762	532.7
445.202	537.74
445.641	548.89
446.081	544.56
446.52	547.78
446.959	540.26
447.398	528.05
447.837	520.71
448.276	509.8
448.716	514.07
449.154	516.59
449.593	503.39
450.032	500.22
450.471	487.88
450.91	486.46
451.349	484.12
451.787	482.35
452.226	488.38
452.664	487.61
453.103	487.23
453.541	485.7
453.98	487.76
454.418	491.4
454.856	485.05
455.295	485.54
455.733	489.38
456.171	491.92
456.609	491.74
457.047	490.9
457.485	499.32
457.923	501.73
458.361	495.31
458.798	495.16
459.236	494.59
459.674	496.96
460.111	498.01
460.549	492.91
460.987	490.26
461.424	488.61
461.862	486
462.299	476.66
462.736	476.3
463.173	477.57
463.611	473.1
464.048	471.94
464.485	475.47
464.922	471.31
465.359	468.65
465.796	467.74
466.233	463.62
466.67	459.78
467.106	459.79
467.543	454.05
467.98	447.8
468.416	435.06
468.853	429.67
469.29	416.66
469.726	412
470.162	401.49
470.599	391.73
471.035	388.11
471.471	379.31
471.907	375.96
472.344	373.93
472.78	375.8
473.216	380.43
473.652	377.58
474.088	377.1
474.523	377.2
474.959	380.9
475.395	378.2
475.831	377.76
476.266	379.01
476.702	378.79
477.138	375.52
477.573	374.49
478.008	373.15
478.444	375.28
478.879	380.05
479.314	381.73
479.75	381.23
480.185	382.56
480.62	384.89
481.055	387.7
481.49	390.83
481.925	396.56
482.36	404.27
482.795	415.47
483.229	425.89
483.664	433.94
484.099	435.69
484.534	443.17
484.968	448.63
485.403	449.51
485.837	448.45
486.271	448.2
486.706	448.85
487.14	442.47
487.574	435.32
488.009	432.04
488.443	428.44
488.877	432.98
489.311	433.66
489.745	438.16
490.179	442.82
490.613	451.94
491.046	454.63
491.48	457.06
491.914	457.8
492.348	460.86
492.781	462.73
493.215	463.08
493.648	462.22
494.082	465.4
494.515	465.23
494.948	469.86
495.382	471.11
495.815	473.34
496.248	476.11
496.681	483.67
497.114	490.07
497.547	495.94
497.98	504.14
498.413	507.7
498.846	513.29
499.279	517.25
499.711	518.38
500.144	518.27
500.577	524.54
501.009	530.22
501.442	534.92
501.874	534.62
502.306	533.58
502.739	538.34
503.171	546.28
503.603	546.3
504.036	550.08
504.468	551.33
504.9	557.11
505.332	558.54
505.764	559.43
506.196	561.28
506.627	568.01
507.059	574.07
507.491	573.82
507.923	570
508.354	576.38
508.786	580.72
509.217	589.36
509.649	594.62
510.08	601.34
510.512	607.24
510.943	612.46
511.374	615.39
511.805	623.65
512.237	631.27
512.668	644.7
513.099	654.82
513.53	665.44
513.961	672.34
514.391	685.79
514.822	701.91
515.253	716.26
515.684	725.53
516.114	736.86
516.545	743.56
516.975	753.22
517.406	757.91
517.836	755.1
518.267	754.65
518.697	760.14
519.127	757.96
519.558	755.38
519.988	753.73
520.418	754.93
520.848	759.22
521.278	759.3
521.708	786.37
522.138	790.09
522.567	801.48
522.997	809.61
523.427	812.28
523.857	817.48
524.286	819.63
524.716	823.69
525.145	830.05
525.575	833.13
526.004	836.16
526.433	807.01
526.863	803.4
527.292	797.14
527.721	798.58
528.15	800.11
528.579	798.18
529.008	801.59
529.437	809.88
529.866	813.71
530.295	819.66
530.724	824.89
531.152	836.58
531.581	842.45
532.01	848.87
532.438	850.03
532.867	854.22
533.295	861.94
533.723	863.17
534.152	861.53
534.58	861.4
535.008	852.31
535.436	853.3
535.865	855.6
536.293	860.64
536.721	866.62
537.149	878.04
537.576	879.07
538.004	883.52
538.432	885.75
538.86	884.33
539.287	886.23
539.715	893.58
540.143	893.48
540.57	890.55
540.998	888.88
541.425	879.05
541.852	869.16
542.28	868.4
542.707	860.72
543.134	854.73
543.561	852.63
543.988	849.34
544.415	847.12
544.842	842.85
545.269	839.91
545.696	840.55
546.123	845.89
546.549	841.17
546.976	835.1
547.403	834.81
547.829	835.06
548.256	835.26
548.682	832.77
549.108	830.48
549.535	830.96
549.961	832.13
550.387	825.61
550.813	824.39
551.24	826.59
551.666	826.63
552.092	822.73
552.518	819.84
552.943	818.27
553.369	822.33
553.795	825.09
554.221	826.5
554.646	826.18
555.072	832.29
555.498	833.41
555.923	838.41
556.349	846
556.774	850.01
557.199	851.88
557.625	855.4
558.05	854.2
558.475	859.4
558.9	859.7
559.325	856.66
559.75	855.4
560.175	853.46
560.6	851.5
561.025	851.77
561.449	854.08
561.874	857.01
562.299	860.78
562.723	864.47
563.148	861.17
563.572	864.29
563.997	869.57
564.421	873.26
564.846	875.49
565.27	879.16
565.694	879.37
566.118	885.86
566.542	892.62
566.966	890.82
567.39	891.17
567.814	888.13
568.238	890.45
568.662	894.64
569.086	896.82
569.509	902.24
569.933	897.68
570.357	896.51
570.78	888.91
571.204	885.17
571.627	881.9
572.05	882.92
572.474	885.84
572.897	880.8
573.32	879.96
573.743	877.75
574.166	871.25
574.589	872.63
575.012	871.11
575.435	872.14
575.858	869.23
576.281	865.62
576.704	859.3
577.126	853.73
577.549	850.5
577.972	847.73
578.394	843.97
578.817	843
579.239	835.08
579.661	830.96
580.084	825.61
580.506	819.84
580.928	819.43
581.35	815.36
581.772	815.38
582.194	810
582.616	803.46
583.038	797.14
583.46	791.59
583.882	791.52
584.303	793.94
584.725	792.26
585.147	797.55
585.568	804.85
585.99	813.39
586.411	817.55
586.833	827.06
587.254	828.93
587.675	837.15
588.096	844.88
588.518	842.39
588.939	834.02
589.36	833.8
589.781	825.84
590.202	813.17
590.623	808.5
591.043	807.59
591.464	801.2
591.885	800.42
592.305	798.57
592.726	792.12
593.147	794.07
593.567	792.43
593.987	788.47
594.408	786.45
594.828	783.42
595.248	781.54
595.669	773.36
596.089	769.43
596.509	765.18
596.929	758.81
597.349	760.24
597.769	754.31
598.189	752.41
598.608	753.9
599.028	755.67
599.448	757
599.867	749.87
600.287	747.54
600.706	746.9
601.126	744.23
601.545	744.56
601.965	743.59
602.384	742
602.803	742.51
603.222	740.72
603.641	737.38
604.061	736.48
604.48	735.39
604.898	740.29
605.317	743.42
605.736	744.6
606.155	743.82
606.574	740.86
606.992	745.08
607.411	744.13
607.829	744.09
608.248	744
608.666	742.63
609.085	743.04
609.503	740.22
609.921	738.59
610.339	741.11
610.758	742.01
611.176	740.53
611.594	736.87
612.012	736.21
612.43	736.36
612.847	740.55
613.265	743.45
613.683	747.98
614.101	749.3
614.518	747.88
614.936	744.4
615.353	736.97
615.771	736.45
616.188	737.79
616.606	737.01
617.023	734.14
617.44	727.58
617.857	724.8
618.274	721.59
618.691	720.56
619.108	716.2
619.525	712.64
619.942	718.04
620.359	720.28
620.776	717.86
621.192	716.74
621.609	716.05
622.026	721.22
622.442	725.12
622.859	726.58
623.275	721.24
623.691	725.22
624.108	731.96
624.524	740.18
624.94	740.31
625.356	746.22
625.772	753.64
626.188	760.1
626.604	760.72
627.02	757.59
627.436	757.3
627.852	763.05
628.268	769.62
628.683	763.79
629.099	759.28
629.514	755.93
629.93	757.59
630.345	759.42
630.761	756.37
631.176	758.37
631.591	756.36
632.007	752.58
632.422	751.18
632.837	744.87
633.252	745.44
633.667	739.74
634.082	735.35
634.497	729.92
634.911	721.26
635.326	721.76
635.741	712.55
636.155	706.87
636.57	709.75
636.984	710.61
637.399	713.66
637.813	713.63
638.228	714.29
638.642	717.84
639.056	712.51
639.47	712.97
639.884	707.86
640.298	705.92
640.712	707.1
641.126	699.72
641.54	695.68
641.954	692.29
642.368	687.25
642.781	686.54
643.195	677.82
643.609	680.04
644.022	678.4
644.436	678.03
644.849	672.04
645.262	665.98
645.676	668.12
646.089	666.85
646.502	660.72
646.915	658.91
647.328	648.47
647.741	649.17
648.154	642.13
648.567	643.42
648.98	636.92
649.393	638.28
649.805	638.24
650.218	635.3
650.631	627.14
651.043	624.53
651.456	621.71
651.868	622.47
652.28	634.3
652.693	642.96
653.105	645.45
653.517	651.8
653.929	652.88
654.341	657.04
654.753	650.51
655.165	653.8
655.577	653.11
655.989	651.06
656.401	646.85
656.813	624.76
657.224	614.46
657.636	597.85
658.047	587.7
658.459	576.43
658.87	570.47
659.282	564.01
659.693	553.06
660.104	544.92
660.515	538.36
660.926	539.38
661.338	538.41
661.749	533.76
662.159	529.82
662.57	527.59
662.981	526.17
663.392	522.27
663.803	524.95
664.213	522.96
664.624	519.68
665.035	520.57
665.445	510.58
665.855	506.07
666.266	502.97
666.676	501.55
667.086	495.73
667.497	494.51
667.907	490.85
668.317	484.89
668.727	484.65
669.137	484.59
669.547	483.34
669.956	484.35
670.366	485.53
670.776	485.85
671.186	486.89
671.595	488.86
672.005	490.56
672.414	490.07
672.824	488.92
673.233	489.68
673.642	490.68
674.052	491.82
674.461	492.24
674.87	492.96
675.279	490.64
675.688	489.72
676.097	489.78
676.506	486.23
676.915	493.91
677.323	495.26
677.732	492.38
678.141	491.4
678.549	483.43
678.958	481.4
679.366	481.61
679.775	483.57
680.183	491.49
680.592	494.62
681	498.65
681.408	494.14
681.816	497.58
682.224	503.61
682.632	510.73
683.04	528.72
683.448	544.03
683.856	561.4
684.264	581.05
684.671	597.79
685.079	620.41
685.487	645.44
685.894	680.51
686.302	707.21
686.709	729.76
687.116	753.44
687.524	773.04
687.931	788.71
688.338	800.45
688.745	808.28
689.152	818.65
689.559	835
689.966	849.18
690.373	850.16
690.78	863.94
691.187	886.62
691.593	901.51
692	910.64
692.407	931.4
692.813	960.85
693.22	979.67
693.626	997.14
694.032	1009.76
694.439	1034.86
694.845	1051.3
695.251	1072.74
695.657	1090.7
696.063	1123.75
696.469	1147.58
696.875	1165.75
697.281	1169.49
697.687	1180.49
698.093	1188.11
698.498	1209.94
698.904	1224.2
699.31	1252.04
699.715	1270.81
700.12	1300.37
700.526	1298.13
700.931	1316.45
701.337	1329.52
701.742	1333.22
702.147	1357.53
702.552	1360.25
702.957	1373.77
703.362	1372.89
703.767	1376.69
704.172	1383.65
704.577	1355.12
704.981	1366.22
705.386	1364.55
705.791	1353.6
706.195	1374.34
706.6	1371.8
707.004	1395.86
707.408	1378.77
707.813	1383.46
