Data from N_3_DIV_PA_2N_Splice17_13-17-14-886.txt Node
Date: Sat Mar 14 13:17:14 EDT 2020
User: sa697716
Spectrometer: FLMS03696
Trigger mode: 0
Integration Time (sec): 3.180400E-1
Scans to average: 20
Electric dark correction enabled: true
Nonlinearity correction enabled: true
Boxcar width: 5
XAxis mode: Wavelengths
Number of Pixels in Spectrum: 2048
>>>>>Begin Spectral Data<<<<<
187.83	-325139.29
188.298	2490.77
188.766	1379.39
189.233	1294.16
189.701	1797.14
190.169	2482.8
190.636	938.99
191.104	739.2
191.571	137.58
192.039	-57.05
192.506	-49.92
192.974	402.98
193.441	-508.46
193.908	36.41
194.375	51.01
194.842	150.43
195.31	274.7
195.777	235.65
196.244	321.49
196.711	199.39
197.177	184.4
197.644	201.57
198.111	311.09
198.578	414.33
199.045	321.69
199.511	455.7
199.978	427
200.445	389.19
200.911	378.19
201.378	351.6
201.844	332.38
202.31	493.41
202.777	444.12
203.243	221.52
203.709	187.47
204.176	223.56
204.642	209.37
205.108	195.2
205.574	132.09
206.04	63.9
206.506	71.99
206.972	48.05
207.438	52.73
207.903	70.41
208.369	98.8
208.835	127.04
209.301	139.05
209.766	122.84
210.232	130.98
210.697	153.94
211.163	206.29
211.628	300.24
212.094	318.3
212.559	467.76
213.024	307.12
213.49	360.78
213.955	336.73
214.42	272
214.885	274.6
215.35	294.56
215.815	404.32
216.28	462.91
216.745	383.87
217.21	444.18
217.675	389.85
218.14	452.42
218.604	513.4
219.069	615.51
219.534	726.35
219.998	844.19
220.463	1030.68
220.927	1176.26
221.392	1116.66
221.856	1175.4
222.32	1455.04
222.785	1863.28
223.249	2385.14
223.713	2711.23
224.177	2743.19
224.642	3466.29
225.106	4306.3
225.57	4749.47
226.034	3670.01
226.497	5711.79
226.961	5242.38
227.425	6215.38
227.889	6910.75
228.353	6980.85
228.816	14553.27
229.28	14067.33
229.744	11964.47
230.207	7397.97
230.671	7347.84
231.134	12057.7
231.597	14044.77
232.061	13989.5
232.524	13620.72
232.987	9456.32
233.45	8574.64
233.914	7716.89
234.377	7877.4
234.84	7245.12
235.303	8527.35
235.766	9527.86
236.229	9890.81
236.691	6210.43
237.154	6996.63
237.617	5308.37
238.08	5424.97
238.542	6359.74
239.005	4569.53
239.468	4572.65
239.93	4312.75
240.393	3945.62
240.855	3478.77
241.317	3551.03
241.78	4319.08
242.242	4502.51
242.704	4916.99
243.166	4305.9
243.629	3953.06
244.091	4582.68
244.553	5043.28
245.015	5475.89
245.477	7091.2
245.939	10417.67
246.4	11162.13
246.862	10888.46
247.324	10319.74
247.786	11505.74
248.247	15154.12
248.709	15556.56
249.17	11688.4
249.632	11148.14
250.093	13051.72
250.555	11327.82
251.016	6968.06
251.477	6653.72
251.939	7221.53
252.4	7586.07
252.861	9025.79
253.322	8431.03
253.783	10055.8
254.244	13046.65
254.705	10243.78
255.166	9065.12
255.627	8979.72
256.088	12741.01
256.549	13544.02
257.009	11709.92
257.47	14237.08
257.931	11643.3
258.391	8754.02
258.852	9056.13
259.312	9495.35
259.773	11760.7
260.233	10034.48
260.694	8478.26
261.154	9609.93
261.614	7768.46
262.074	6950.93
262.534	7257.55
262.994	6880.19
263.455	9161.2
263.915	7767.64
264.374	7343.64
264.834	8047.07
265.294	8912.33
265.754	9275.55
266.214	8807.9
266.673	8272.87
267.133	10450.69
267.593	10387.01
268.052	12744.11
268.512	11132.42
268.971	13526.01
269.431	14900.83
269.89	13360.43
270.349	20105.28
270.809	22447.82
271.268	20211.78
271.727	45231.7
272.186	29417.13
272.645	22068.6
273.104	15907.46
273.563	23074.98
274.022	18060.57
274.481	15446.68
274.94	11935.78
275.399	8869.58
275.857	10341.54
276.316	14027.38
276.775	12549.93
277.233	12419.29
277.692	11693.83
278.15	13305.02
278.609	13778.29
279.067	12778.53
279.525	11891.27
279.984	15415.26
280.442	18587.34
280.9	18447.25
281.358	12151.33
281.816	11356.16
282.274	11097.64
282.732	11460.82
283.19	11536.85
283.648	9942.78
284.106	10605.99
284.564	10770.71
285.021	9996.31
285.479	7446.35
285.937	6759.52
286.394	5960.52
286.852	6136.59
287.309	6476.25
287.767	6315.45
288.224	6033.53
288.682	6640.3
289.139	7364.77
289.596	6777.09
290.053	7085.01
290.511	8981.29
290.968	10957.95
291.425	14930.52
291.882	12562.29
292.339	10987.28
292.796	10925.74
293.252	10337.95
293.709	8293.45
294.166	7435.7
294.623	8247.18
295.079	7908.49
295.536	8003.25
295.992	7281.46
296.449	7233.28
296.905	7535.3
297.362	7266.06
297.818	7653.86
298.274	7959.61
298.731	8083.31
299.187	8030.29
299.643	8641.55
300.099	10503.7
300.555	11503.65
301.011	9631.14
301.467	9335.17
301.923	10881.79
302.379	10630.38
302.835	10439.37
303.291	10462.21
303.746	11936
304.202	15068.5
304.658	15110.14
305.113	10158.02
305.569	9963.3
306.024	10607.01
306.479	10019.57
306.935	8485.97
307.39	9237.86
307.845	8534
308.301	8602.33
308.756	8347.94
309.211	8042.63
309.666	8244.29
310.121	10253.19
310.576	10390.3
311.031	10284.8
311.486	11779.14
311.94	11699.87
312.395	15648.09
312.85	29327.45
313.305	143021.39
313.759	745268.64
314.214	53825.73
314.668	42575.62
315.123	35847.95
315.577	12865.12
316.032	11469.74
316.486	14320.76
316.94	11354.72
317.394	7917.28
317.849	6169.42
318.303	5852.17
318.757	5546.22
319.211	6139.24
319.665	5398.53
320.119	5468.08
320.572	7831.14
321.026	7340.84
321.48	6144.8
321.934	6668.85
322.387	6674.66
322.841	7224.8
323.295	6557.53
323.748	7512.36
324.202	7644.59
324.655	9174.59
325.108	12872.28
325.562	9129.82
326.015	10819.11
326.468	8167.56
326.921	9150.82
327.374	8571.43
327.827	8957.86
328.28	10080.09
328.733	6749.97
329.186	5930.31
329.639	5652.29
330.092	4745.2
330.545	4510.22
330.997	4556.78
331.45	4999.95
331.903	5883.85
332.355	10061.54
332.808	9721.07
333.26	8010.54
333.713	8709.97
334.165	8773.06
334.617	11670.68
335.069	9390.26
335.522	16961.98
335.974	18834.35
336.426	17123.41
336.878	11769.49
337.33	6015.38
337.782	5871.91
338.234	7409.34
338.686	8832.77
339.137	10451.54
339.589	9871.25
340.041	7762.27
340.493	6674.06
340.944	6823.72
341.396	7371.41
341.847	6248.98
342.299	7400.66
342.75	9126.88
343.201	7944.39
343.653	9192.35
344.104	11352.65
344.555	8972.1
345.006	13934.77
345.457	10819.65
345.908	8605.35
346.359	8143.58
346.81	6643.9
347.261	6990.98
347.712	6858.37
348.163	7363.99
348.613	7523.47
349.064	7012.47
349.515	6133.89
349.965	6315.41
350.416	7583.2
350.866	8349.54
351.317	9416.79
351.767	15602.44
352.217	19686.17
352.668	16326.91
353.118	15001.14
353.568	14347.19
354.018	11435.73
354.468	12115.23
354.918	8747.59
355.368	7617.41
355.818	10751.36
356.268	30916.68
356.718	130234.12
357.168	32643.4
357.617	16480.44
358.067	18302.39
358.517	17201.72
358.966	20205.11
359.416	22729.48
359.865	24473.58
360.315	29163.71
360.764	13640.83
361.213	7693.83
361.663	7262.09
362.112	8955.16
362.561	14454.53
363.01	10919.19
363.459	9201.3
363.908	9926.27
364.357	8436.91
364.806	14261.9
365.255	9837.89
365.703	9029.65
366.152	9020.48
366.601	7302.56
367.05	5939.63
367.498	5391.55
367.947	5624.94
368.395	5830.34
368.844	5156.81
369.292	6174.91
369.74	4283.06
370.189	6521.08
370.637	7628.98
371.085	6554.79
371.533	7975.88
371.981	7677.97
372.429	7368.9
372.877	7687.44
373.325	6449.46
373.773	6579.07
374.221	5871.51
374.669	7240.65
375.116	6274.9
375.564	6342.96
376.012	7113.6
376.459	5896.95
376.907	7031.89
377.354	8453.59
377.801	7913.52
378.249	9080.09
378.696	11565.35
379.143	14021.12
379.591	14960.06
380.038	25355.35
380.485	18334.21
380.932	19736.23
381.379	18086.49
381.826	13294.51
382.273	9421.19
382.72	8157.63
383.166	7944.48
383.613	5169.57
384.06	4642.7
384.506	5376.07
384.953	3943.66
385.4	3933.51
385.846	3440.55
386.292	3311.89
386.739	3219.47
387.185	3156.79
387.631	3155
388.078	3066.39
388.524	3266.31
388.97	3018.5
389.416	2509.25
389.862	2654.89
390.308	2509.99
390.754	2547.51
391.2	2749.61
391.645	2800.78
392.091	2709.11
392.537	2614.25
392.983	2586.85
393.428	2549.57
393.874	2710.05
394.319	2715.33
394.765	2583.6
395.21	2650.59
395.655	2465.51
396.101	2295.53
396.546	2075.97
396.991	2061.2
397.436	1901.99
397.881	1835.59
398.326	1726.13
398.771	1628.25
399.216	1410.67
399.661	1249.39
400.106	1241.2
400.551	1274.98
400.995	1148.54
401.44	1129.85
401.885	1060.76
402.329	1072.72
402.774	1029.93
403.218	998.77
403.663	958.19
404.107	984.57
404.551	996.56
404.995	908.67
405.44	870.44
405.884	875.16
406.328	839.37
406.772	829.99
407.216	751.63
407.66	718.1
408.104	670.07
408.547	623.25
408.991	601.67
409.435	572.36
409.879	567.19
410.322	557.49
410.766	540.28
411.209	515.46
411.653	493.8
412.096	485.24
412.54	483.4
412.983	479.62
413.426	483.75
413.869	478.45
414.312	472.14
414.756	449.61
415.199	425.94
415.642	412.77
416.085	412.77
416.527	409.63
416.97	413.27
417.413	392.59
417.856	385.03
418.298	378.95
418.741	374.9
419.184	369.97
419.626	381.66
420.069	380.57
420.511	381.79
420.953	372.3
421.396	368.35
421.838	355.42
422.28	364.9
422.722	369.05
423.164	368.73
423.606	361.57
424.048	358.35
424.49	341.24
424.932	338.5
425.374	332.12
425.816	336.01
426.258	340.67
426.699	345.58
427.141	341.59
427.582	344.31
428.024	343.55
428.465	338.88
428.907	331.53
429.348	327.33
429.789	327.63
430.231	324.64
430.672	329.94
431.113	322.8
431.554	316.27
431.995	304.43
432.436	297.07
432.877	292.11
433.318	291.32
433.759	287.15
434.2	283.87
434.64	279.52
435.081	277.26
435.522	260.29
435.962	249.25
436.403	244.68
436.843	244.07
437.284	235.67
437.724	225.18
438.164	218.74
438.604	213.84
439.045	210.29
439.485	203.34
439.925	195.95
440.365	189.43
440.805	185.73
441.245	184.62
441.685	178.19
442.125	175.39
442.564	175.06
443.004	172.75
443.444	171.47
443.883	169.35
444.323	163
444.762	159.19
445.202	160.47
445.641	161.51
446.081	155.54
446.52	155.84
446.959	154.42
447.398	151.75
447.837	148.97
448.276	145.3
448.716	145.21
449.154	143.71
449.593	142.06
450.032	142.35
450.471	138.88
450.91	136.73
451.349	137.32
451.787	134.92
452.226	135.95
452.664	135
453.103	135.34
453.541	133.5
453.98	138.2
454.418	138.54
454.856	138.57
455.295	138.54
455.733	142.75
456.171	143.08
456.609	142.69
457.047	142.7
457.485	146.96
457.923	148.44
458.361	146.85
458.798	145.48
459.236	146.21
459.674	143.66
460.111	144.13
460.549	141.64
460.987	140.4
461.424	140
461.862	139.34
462.299	136.08
462.736	136.51
463.173	136.64
463.611	139.31
464.048	139.73
464.485	142.72
464.922	141.5
465.359	139.31
465.796	147.37
466.233	147.51
466.67	148.67
467.106	149.71
467.543	146.42
467.98	143.94
468.416	136.07
468.853	132.33
469.29	127.06
469.726	125.07
470.162	121.93
470.599	110.8
471.035	108.17
471.471	104.73
471.907	101.71
472.344	99.93
472.78	100.92
473.216	101.09
473.652	100.35
474.088	98.93
474.523	99.35
474.959	100.23
475.395	100.69
475.831	100.47
476.266	100.3
476.702	99.06
477.138	99.08
477.573	98.19
478.008	99.2
478.444	101.1
478.879	104.66
479.314	105.64
479.75	105.97
480.185	105.47
480.62	106.15
481.055	106.37
481.49	108.84
481.925	110.65
482.36	115.66
482.795	117.62
483.229	119.54
483.664	120.71
484.099	120.3
484.534	122.65
484.968	124.12
485.403	123.64
485.837	122.24
486.271	120.44
486.706	119.25
487.14	115.01
487.574	113.47
488.009	112.5
488.443	110.95
488.877	112.83
489.311	111.72
489.745	112.34
490.179	113.9
490.613	117.43
491.046	117.78
491.48	118.26
491.914	118.15
492.348	117.76
492.781	117.7
493.215	116.6
493.648	114.61
494.082	114.95
494.515	114.48
494.948	116.23
495.382	114.78
495.815	114.44
496.248	115.07
496.681	115.46
497.114	115.91
497.547	116.39
497.98	118.48
498.413	120.11
498.846	121.02
499.279	120.81
499.711	118.12
500.144	116.58
500.577	117.96
501.009	117.37
501.442	118.99
501.874	118.42
502.306	116.17
502.739	118.64
503.171	117.9
503.603	116.57
504.036	115.37
504.468	114.44
504.9	114.16
505.332	112.89
505.764	111.89
506.196	110.06
506.627	109.47
507.059	109.62
507.491	104.42
507.923	102.58
508.354	102.22
508.786	101.75
509.217	101.75
509.649	101.8
510.08	100.88
510.512	101.41
510.943	100.6
511.374	99.98
511.805	99.59
512.237	99.38
512.668	99.19
513.099	98.39
513.53	98.7
513.961	98.77
514.391	98.97
514.822	102.38
515.253	103.35
515.684	103.01
516.114	102.88
516.545	103.91
516.975	104.28
517.406	103.9
517.836	101.89
518.267	101.63
518.697	102.21
519.127	101.03
519.558	97.66
519.988	95.12
520.418	93.7
520.848	92.37
521.278	90.04
521.708	118.95
522.138	118.86
522.567	119.52
522.997	119.47
523.427	117.88
523.857	117.69
524.286	116.98
524.716	117.19
525.145	118.06
525.575	119.08
526.004	118.28
526.433	88.2
526.863	86.67
527.292	86.86
527.721	86.66
528.15	86.03
528.579	85.49
529.008	85.63
529.437	85.02
529.866	84.35
530.295	83.6
530.724	85.05
531.152	85.96
531.581	87.48
532.01	86.7
532.438	85.41
532.867	85.5
533.295	86.17
533.723	85.71
534.152	85.67
534.58	85.82
535.008	84.97
535.436	86.18
535.865	85.36
536.293	83.96
536.721	84.49
537.149	86.4
537.576	87.43
538.004	88.34
538.432	87.84
538.86	88.32
539.287	88.35
539.715	89.54
540.143	87.55
540.57	86.91
540.998	86.63
541.425	87.48
541.852	85.59
542.28	84.77
542.707	82.91
543.134	82.95
543.561	82.52
543.988	82.28
544.415	81.18
544.842	80.36
545.269	81.15
545.696	82.51
546.123	82.31
546.549	81.8
546.976	81.53
547.403	81.91
547.829	81.34
548.256	80.41
548.682	80.35
549.108	81.74
549.535	82.1
549.961	81.16
550.387	79.73
550.813	80.69
551.24	81.1
551.666	80.19
552.092	79.67
552.518	79.47
552.943	80.63
553.369	80.2
553.795	79.9
554.221	79.82
554.646	80.18
555.072	82.17
555.498	79.88
555.923	80.02
556.349	81.26
556.774	81.38
557.199	81.53
557.625	80.76
558.05	81.52
558.475	81.5
558.9	82.33
559.325	82.75
559.75	82.56
560.175	82.68
560.6	82.35
561.025	81.72
561.449	82.5
561.874	82.89
562.299	84.21
562.723	83.77
563.148	83.68
563.572	83.31
563.997	83.86
564.421	82.69
564.846	83.21
565.27	84.96
565.694	85.43
566.118	85.96
566.542	88.03
566.966	88.19
567.39	89.68
567.814	90.65
568.238	91.66
568.662	91.49
569.086	92.86
569.509	93.04
569.933	94.13
570.357	94.18
570.78	93.55
571.204	94.47
571.627	94.07
572.05	94.26
572.474	95.26
572.897	95.27
573.32	96.62
573.743	96.1
574.166	96.69
574.589	95.09
575.012	95.41
575.435	95.66
575.858	94.83
576.281	94.83
576.704	93.73
577.126	91.82
577.549	91.01
577.972	89.31
578.394	89.47
578.817	92.27
579.239	92.05
579.661	92.83
580.084	94.03
580.506	93.9
580.928	93.8
581.35	94.22
581.772	94.68
582.194	94.63
582.616	94.98
583.038	93.96
583.46	90.83
583.882	91.05
584.303	90.19
584.725	88.64
585.147	94.83
585.568	96.38
585.99	97.93
586.411	99.92
586.833	102.15
587.254	102.85
587.675	103.94
588.096	104.86
588.518	105.15
588.939	104.7
589.36	105.02
589.781	97.15
590.202	99.28
590.623	98.46
591.043	96.64
591.464	95.07
591.885	95.38
592.305	95.44
592.726	95.17
593.147	95.52
593.567	95.73
593.987	95.16
594.408	94.89
594.828	90.41
595.248	90.99
595.669	91.87
596.089	91.93
596.509	90.92
596.929	90.18
597.349	89.92
597.769	89.28
598.189	88.83
598.608	89.61
599.028	90.09
599.448	90.07
599.867	88.38
600.287	87.15
600.706	87.61
601.126	88.13
601.545	89.1
601.965	89.64
602.384	89.58
602.803	89.67
603.222	90.33
603.641	89.94
604.061	91.45
604.48	91.84
604.898	92.63
605.317	92.88
605.736	92.83
606.155	93.78
606.574	93.04
606.992	93.06
607.411	93.66
607.829	91.94
608.248	92.76
608.666	91.87
609.085	92.83
609.503	92.53
609.921	92.95
610.339	93.63
610.758	92.9
611.176	93.29
611.594	94.19
612.012	94.54
612.43	96.63
612.847	96.93
613.265	98.84
613.683	98.54
614.101	99.52
614.518	98.55
614.936	98.56
615.353	98.4
615.771	99.51
616.188	100.02
616.606	100.29
617.023	99.89
617.44	99.25
617.857	97.07
618.274	96.76
618.691	97.32
619.108	97.2
619.525	96.8
619.942	98.01
620.359	98.44
620.776	97.61
621.192	98.52
621.609	99.06
622.026	100.42
622.442	102.36
622.859	102.7
623.275	101.86
623.691	102.6
624.108	104.22
624.524	105.13
624.94	105.06
625.356	105.94
625.772	105.62
626.188	106.29
626.604	106.5
627.02	105.51
627.436	106.69
627.852	108.12
628.268	109.31
628.683	108.09
629.099	106.81
629.514	105.47
629.93	105.7
630.345	106.93
630.761	105.58
631.176	105.72
631.591	108.37
632.007	107.85
632.422	106.78
632.837	105.46
633.252	106.35
633.667	105.67
634.082	106.27
634.497	106.65
634.911	107.55
635.326	108.5
635.741	108
636.155	105.85
636.57	107.36
636.984	107.84
637.399	111.85
637.813	111.68
638.228	112.92
638.642	113.35
639.056	111.88
639.47	111.09
639.884	111.24
640.298	111.63
640.712	112.91
641.126	112.64
641.54	112.85
641.954	109.45
642.368	109.81
642.781	113.12
643.195	112.7
643.609	115.62
644.022	116.05
644.436	116.27
644.849	115.1
645.262	114.1
645.676	113.96
646.089	114.15
646.502	115.75
646.915	115.67
647.328	112.54
647.741	113.53
648.154	112.94
648.567	116.27
648.98	116.78
649.393	117.73
649.805	118.8
650.218	118.34
650.631	118.23
651.043	117.65
651.456	118.27
651.868	118.26
652.28	119.89
652.693	120.42
653.105	118.66
653.517	119.64
653.929	120.54
654.341	121.84
654.753	122.19
655.165	123.3
655.577	123.95
655.989	123.51
656.401	123.05
656.813	121.65
657.224	120.68
657.636	117.36
658.047	117.57
658.459	116.29
658.87	115.22
659.282	114.38
659.693	113.95
660.104	113.2
660.515	112.23
660.926	112.56
661.338	111.98
661.749	111.33
662.159	112.41
662.57	110.75
662.981	111.29
663.392	111.76
663.803	113.26
664.213	112.99
664.624	113.05
665.035	113.76
665.445	113.05
665.855	114.05
666.266	115.59
666.676	116.07
667.086	115.36
667.497	116.32
667.907	115.62
668.317	114.31
668.727	118.25
669.137	117.89
669.547	118.41
669.956	118.72
670.366	119.09
670.776	119.27
671.186	120.4
671.595	121.45
672.005	121
672.414	122.35
672.824	123.8
673.233	120.15
673.642	120.65
674.052	123.51
674.461	124.92
674.87	124.99
675.279	125.64
675.688	123.13
676.097	124.56
676.506	124.33
676.915	124.74
677.323	123.75
677.732	123.15
678.141	122.83
678.549	118.5
678.958	116.53
679.366	114.96
679.775	112.47
680.183	116.55
680.592	115.86
681	115.36
681.408	113.21
681.816	113.69
682.224	113.6
682.632	115.51
683.04	118.36
683.448	120.35
683.856	123.38
684.264	126.93
684.671	125.37
685.079	126.12
685.487	129.36
685.894	134.21
686.302	134.46
686.709	136.72
687.116	137.22
687.524	138.64
687.931	139.86
688.338	139.5
688.745	136.53
689.152	136.42
689.559	137.07
689.966	137.94
690.373	136.07
690.78	136.64
691.187	137
691.593	136.33
692	132.92
692.407	132.91
692.813	136.03
693.22	136.75
693.626	134.21
694.032	134
694.439	133.12
694.845	130.12
695.251	129.11
695.657	128.4
696.063	127.12
696.469	127.46
696.875	126
697.281	120.51
697.687	117.98
698.093	117.67
698.498	117.61
698.904	114.29
699.31	115.59
699.715	118.71
700.12	118.98
700.526	118.8
700.931	118.44
701.337	118.35
701.742	118.9
702.147	119.82
702.552	119.4
702.957	117.84
703.362	118.05
703.767	117.84
704.172	115.01
704.577	110.7
704.981	109.17
705.386	109.08
705.791	108.35
706.195	107.75
706.6	107.69
707.004	106.58
707.408	103.99
707.813	105.31
708.217	103.88
708.621	102.29
709.025	103.96
709.43	106.26
709.834	107.48
710.237	107.81
710.641	106.76
711.045	107.26
711.449	108.97
711.853	114.63
712.256	113.34
712.66	113.6
713.064	115.1
713.467	116.98
713.87	117.79
714.274	117.87
714.677	121.01
715.08	125.01
715.484	127.95
715.887	136.13
716.29	134.6
716.693	141.37
717.096	147.56
717.499	149.94
717.901	149.69
718.304	149.16
718.707	148.51
719.109	143.36
719.512	140.41
719.915	140.13
720.317	134.98
720.719	135.26
721.122	132.06
721.524	129.34
721.926	134.11
