Data from N_3_DEC_OH_4N_Splice17_13-26-53-663.txt Node
Date: Sat Mar 14 13:26:53 EDT 2020
User: sa697716
Spectrometer: FLMS03696
Trigger mode: 0
Integration Time (sec): 3.180400E-1
Scans to average: 20
Electric dark correction enabled: true
Nonlinearity correction enabled: true
Boxcar width: 5
XAxis mode: Wavelengths
Number of Pixels in Spectrum: 2048
>>>>>Begin Spectral Data<<<<<
187.83	-387139.75
188.298	2610.51
188.766	1385.1
189.233	1279.7
189.701	1903.16
190.169	2560.24
190.636	1017.1
191.104	747.28
191.571	98.5
192.039	-71.67
192.506	-137.92
192.974	324.73
193.441	-995.11
193.908	-342.45
194.375	-87.63
194.842	23.07
195.31	55.39
195.777	188.92
196.244	378.1
196.711	444.19
197.177	534.23
197.644	726.81
198.111	1257.92
198.578	1802.12
199.045	1453.08
199.511	2366.74
199.978	2780.79
200.445	2410.25
200.911	2647.99
201.378	2981.11
201.844	2717.3
202.31	4712.79
202.777	4955.43
203.243	2756.34
203.709	2623.67
204.176	3140.8
204.642	2597.23
205.108	2424.72
205.574	1943.4
206.04	1785.12
206.506	1667.54
206.972	1566.04
207.438	1504.8
207.903	1711.54
208.369	1513.44
208.835	1519.16
209.301	1586.65
209.766	1637.09
210.232	1627.64
210.697	2026.19
211.163	2483.37
211.628	3755.95
212.094	3148.93
212.559	3910.32
213.024	2433.03
213.49	2960.08
213.955	2898.67
214.42	2842.89
214.885	2638.35
215.35	2532.79
215.815	2450.56
216.28	2591.63
216.745	2109.37
217.21	2302.81
217.675	2111.33
218.14	2388.03
218.604	2681.41
219.069	3073.15
219.534	3246.76
219.998	3777.66
220.463	4583.47
220.927	5645.63
221.392	5351.56
221.856	5437.09
222.32	6850.91
222.785	8478.62
223.249	10678.91
223.713	11897.25
224.177	11900.83
224.642	15234.28
225.106	18749.64
225.57	20485.41
226.034	15279.24
226.497	23319.32
226.961	21087.29
227.425	24574.55
227.889	27200.69
228.353	27198.34
228.816	56178.99
229.28	53798.2
229.744	45405.58
230.207	27619.4
230.671	27186.24
231.134	44916.63
231.597	51676.18
232.061	51592.1
232.524	50240.97
232.987	34578.6
233.45	31118.31
233.914	27926.61
234.377	28564.33
234.84	26154.65
235.303	30852.87
235.766	34421.33
236.229	35536.64
236.691	22365.39
237.154	25092.08
237.617	18873.9
238.08	19339.6
238.542	22591.15
239.005	16136.08
239.468	16006.9
239.93	15041.92
240.393	13661.35
240.855	11997.85
241.317	12287.02
241.78	14946.96
242.242	15456.09
242.704	16715.16
243.166	14551.61
243.629	13238.49
244.091	15241.61
244.553	16686.77
245.015	17939.32
245.477	23196.24
245.939	33988.73
246.4	36066.11
246.862	35048.42
247.324	33081.68
247.786	36970.38
248.247	48430.11
248.709	49937.86
249.17	37370.81
249.632	35269.01
250.093	40921.55
250.555	35333.55
251.016	21547.14
251.477	20432.32
251.939	22048.92
252.4	23098.46
252.861	27425.06
253.322	25513.57
253.783	30327.14
254.244	39309.72
254.705	30967.39
255.166	27524.9
255.627	27070.01
256.088	38129.42
256.549	40481.58
257.009	34847.13
257.47	42252.04
257.931	34391.95
258.391	25780.35
258.852	26582.36
259.312	27880.97
259.773	34411.52
260.233	29073.88
260.694	24509.15
261.154	27793.76
261.614	22318.42
262.074	19948.15
262.534	20719.1
262.994	19536.62
263.455	26001.03
263.915	21902.2
264.374	20590.61
264.834	22470.41
265.294	24901.23
265.754	25772
266.214	24361.78
266.673	22781.4
267.133	28722.07
267.593	28475.02
268.052	34825.84
268.512	30230.2
268.971	36417.22
269.431	39899.4
269.89	35709.85
270.349	53466.4
270.809	59655.22
271.268	53645.43
271.727	120261.57
272.186	77822.19
272.645	58302.44
273.104	42006.08
273.563	60795.72
274.022	47824.67
274.481	40723.47
274.94	31370.32
275.399	23295.92
275.857	27095.36
276.316	36593.81
276.775	32547.63
277.233	32055
277.692	30025.71
278.15	34000.34
278.609	35023.71
279.067	32382.06
279.525	30057.59
279.984	38755.04
280.442	46566.26
280.9	45934.28
281.358	30236.8
281.816	28192.68
282.274	27588.27
282.732	28495.59
283.19	28584.88
283.648	24650.05
284.106	26275.79
284.564	26702.53
285.021	24792.9
285.479	18476.58
285.937	16781.76
286.394	14734.22
286.852	15151.21
287.309	15933.05
287.767	15390.87
288.224	14640.04
288.682	16068.19
289.139	17616.46
289.596	16133.8
290.053	16769.69
290.511	21155.09
290.968	25659.39
291.425	34757.68
291.882	28939.76
292.339	25181.89
292.796	24981.27
293.252	23516.65
293.709	18674.47
294.166	16735.06
294.623	18484.5
295.079	17714.74
295.536	17804.13
295.992	16164.85
296.449	15993.57
296.905	16616.16
297.362	15932.49
297.818	16755.35
298.274	17410.11
298.731	17730.22
299.187	17546.16
299.643	18840.34
300.099	22787.66
300.555	24977.07
301.011	20857.33
301.467	20125.87
301.923	23547.75
302.379	23008.83
302.835	22615.56
303.291	22617.88
303.746	25761.78
304.202	32539.21
304.658	32654.55
305.113	21985.2
305.569	21562.24
306.024	22983.26
306.479	21863.42
306.935	18458
307.39	20133.96
307.845	18599.94
308.301	18746.52
308.756	18254.03
309.211	17575.29
309.666	18013.7
310.121	22346.58
310.576	22632.55
311.031	22466.04
311.486	25718.01
311.94	25646.29
312.395	34309.2
312.85	64371.55
313.305	315772.01
313.759	1636558.4
314.214	118535.97
314.668	94033.89
315.123	79125.47
315.577	28424.04
316.032	25303.92
316.486	31683.86
316.94	25019.25
317.394	17396.03
317.849	13511.43
318.303	12785.03
318.757	12046.83
319.211	13312.42
319.665	11632.76
320.119	11770.1
320.572	16878.33
321.026	15751.37
321.48	13119.26
321.934	14297.42
322.387	14347.84
322.841	15497.68
323.295	13951.62
323.748	16055.13
324.202	16301.72
324.655	19592.81
325.108	27424.17
325.562	19336.7
326.015	22983.99
326.468	17360.25
326.921	19444.95
327.374	18138.99
327.827	18920.44
328.28	21399.3
328.733	14338.15
329.186	12602.1
329.639	11986.65
330.092	10080.38
330.545	9620.71
330.997	9705.57
331.45	10622.26
331.903	12428.37
332.355	21336.39
332.808	20706.55
333.26	17068.65
333.713	18559.53
334.165	18704.62
334.617	25003.19
335.069	20177.37
335.522	36446.15
335.974	40360.2
336.426	36798.11
336.878	25465.62
337.33	12922.54
337.782	12624.59
338.234	15855.84
338.686	18954.63
339.137	22482.33
339.589	21163.34
340.041	16603.32
340.493	14260.45
340.944	14598.27
341.396	15738.55
341.847	13270.89
342.299	15689.57
342.75	19137.98
343.201	16683.05
343.653	19183.34
344.104	23556.94
344.555	18543.47
345.006	28783.46
345.457	22086.35
345.908	17511.79
346.359	16474.41
346.81	13425.84
347.261	14102.81
347.712	13860.94
348.163	14849.21
348.613	15036.48
349.064	14031.92
349.515	12277.62
349.965	12635.86
350.416	15191.61
350.866	16693.13
351.317	18852.45
351.767	31166.71
352.217	39427.68
352.668	32763.74
353.118	30060.7
353.568	28997.62
354.018	22938.58
354.468	24189.9
354.918	17341.31
355.368	15152.03
355.818	21408.29
356.268	61545.43
356.718	257420.68
357.168	64096.19
357.617	32174.97
358.067	35711.84
358.517	33418.79
358.966	39106.66
359.416	43789.87
359.865	47203.47
360.315	56256.55
360.764	26253.63
361.213	14720.14
361.663	13929.83
362.112	17196.98
362.561	27791
363.01	20971.74
363.459	17637.82
363.908	19124.84
364.357	16282.99
364.806	27541.98
365.255	18953.07
365.703	17384.52
366.152	17412.32
366.601	14141.1
367.05	11460.62
367.498	10402.72
367.947	10847.76
368.395	11290.42
368.844	10001.78
369.292	12032.38
369.74	8308.8
370.189	12682.85
370.637	14843.77
371.085	12824.32
371.533	15581.78
371.981	15006.93
372.429	14304.38
372.877	14878.22
373.325	12409.5
373.773	12631.99
374.221	11225.34
374.669	13915
375.116	12034.23
375.564	12112.59
376.012	13484.38
376.459	11113.92
376.907	13266.62
377.354	16005.65
377.801	14950.56
378.249	17195.7
378.696	21896.53
379.143	26549.7
379.591	28206.45
380.038	47696.47
380.485	34356.43
380.932	37026.31
381.379	33827.38
381.826	24888.91
382.273	17697.36
382.72	15428.83
383.166	14989.25
383.613	9737.87
384.06	8742.77
384.506	10105.57
384.953	7387.97
385.4	7432.9
385.846	6500.79
386.292	6305.91
386.739	6145.72
387.185	6058.13
387.631	6049.62
388.078	5883.19
388.524	6256.98
388.97	5784.98
389.416	4819.53
389.862	5135.74
390.308	4866.28
390.754	4947.22
391.2	5375.88
391.645	5507.6
392.091	5282.34
392.537	5117.33
392.983	5122.93
393.428	5067.45
393.874	5434.51
394.319	5476.33
394.765	5195.52
395.21	5357.77
395.655	5027.13
396.101	4724.17
396.546	4279.84
396.991	4321.3
397.436	4030.69
397.881	3909.46
398.326	3707.42
398.771	3519.62
399.216	3088.26
399.661	2793.65
400.106	2801.93
400.551	2899.4
400.995	2615.9
401.44	2599.74
401.885	2457.42
402.329	2489.17
402.774	2398.61
403.218	2345.85
403.663	2273.5
404.107	2354.51
404.551	2392.9
404.995	2203.94
405.44	2130.58
405.884	2171.47
406.328	2115.59
406.772	2122.25
407.216	1949.29
407.66	1897.88
408.104	1811.89
408.547	1708.89
408.991	1659.66
409.435	1602.64
409.879	1590.65
410.322	1578.83
410.766	1535.22
411.209	1469.06
411.653	1416.21
412.096	1394.57
412.54	1401.22
412.983	1397.24
413.426	1408.84
413.869	1415.88
414.312	1397.6
414.756	1350.98
415.199	1292.07
415.642	1260.84
416.085	1268.7
416.527	1267.73
416.97	1293.59
417.413	1231.79
417.856	1222
418.298	1212.53
418.741	1204.9
419.184	1204.8
419.626	1256.06
420.069	1261.23
420.511	1271.9
420.953	1245.81
421.396	1234.07
421.838	1204.05
422.28	1234.56
422.722	1242.58
423.164	1260.94
423.606	1243.85
424.048	1244.57
424.49	1188.25
424.932	1183.33
425.374	1166.48
425.816	1187.44
426.258	1211.19
426.699	1226.5
427.141	1205.74
427.582	1222.29
428.024	1215.08
428.465	1208.93
428.907	1176.9
429.348	1162.49
429.789	1164.23
430.231	1140.41
430.672	1155.75
431.113	1127.73
431.554	1108.49
431.995	1082.19
432.436	1046.4
432.877	1025.92
433.318	1010.36
433.759	1007.88
434.2	1005.95
434.64	994.71
435.081	998.58
435.522	949.02
435.962	917.34
436.403	899.98
436.843	913.59
437.284	897.33
437.724	873.7
438.164	874.64
438.604	858.03
439.045	829.6
439.485	796.53
439.925	783.23
440.365	764.94
440.805	756.6
441.245	750.36
441.685	727.23
442.125	724.41
442.564	732.63
443.004	721.85
443.444	723.77
443.883	729.48
444.323	730.01
444.762	735.54
445.202	752.21
445.641	772.04
446.081	774.69
446.52	786.71
446.959	784.42
447.398	771.12
447.837	766.8
448.276	759.45
448.716	771.68
449.154	784.4
449.593	772.13
450.032	774.49
450.471	764.81
450.91	767.93
451.349	770.4
451.787	772.06
452.226	788.85
452.664	791.86
453.103	796.15
453.541	799.84
453.98	801.87
454.418	809.41
454.856	797.32
455.295	798.68
455.733	808.37
456.171	813.52
456.609	813.8
457.047	813.45
457.485	827.21
457.923	830.42
458.361	818.16
458.798	819.39
459.236	816.72
459.674	822.65
460.111	825.19
460.549	814.48
460.987	811.33
461.424	809.29
461.862	806.21
462.299	791.53
462.736	788.74
463.173	791.23
463.611	783.97
464.048	781.16
464.485	786.4
464.922	778.16
465.359	773.75
465.796	763.71
466.233	757.35
466.67	748.65
467.106	747.15
467.543	738.84
467.98	727.85
468.416	707.73
468.853	701.39
469.29	680.31
469.726	675.05
470.162	658.92
470.599	651.22
471.035	646.94
471.471	631.69
471.907	629.17
472.344	625.55
472.78	629.8
473.216	639.88
473.652	634.94
474.088	635.97
474.523	634.46
474.959	642.95
475.395	638.21
475.831	635.34
476.266	640.7
476.702	640.87
477.138	636.11
477.573	635.38
478.008	633.64
478.444	637.83
478.879	644.95
479.314	649.36
479.75	649.46
480.185	653.47
480.62	660.78
481.055	665.47
481.49	671.3
481.925	681.83
482.36	694.79
482.795	716
483.229	736.57
483.664	753.32
484.099	757.79
484.534	771.19
484.968	780.63
485.403	784.02
485.837	785.2
486.271	786.69
486.706	789.99
487.14	783.09
487.574	772.33
488.009	767.22
488.443	761.99
488.877	771.94
489.311	776.73
489.745	788.74
490.179	798.54
490.613	816.4
491.046	824.77
491.48	833.98
491.914	838.42
492.348	847.85
492.781	856.44
493.215	862.54
493.648	867.17
494.082	877.62
494.515	881.87
494.948	896.2
495.382	906.79
495.815	917.55
496.248	930.07
496.681	951.89
497.114	972.84
497.547	992.36
497.98	1015.45
498.413	1029.98
498.846	1048.15
499.279	1065.53
499.711	1077.33
500.144	1085.95
500.577	1105.74
501.009	1126.61
501.442	1144.94
501.874	1151.08
502.306	1159.56
502.739	1174.4
503.171	1199.94
503.603	1209.44
504.036	1227.49
504.468	1240.29
504.9	1260.66
505.332	1274.34
505.764	1283.51
506.196	1296.52
506.627	1320.23
507.059	1341.33
507.491	1357.06
507.923	1356.9
508.354	1380.01
508.786	1396.09
509.217	1422.1
509.649	1444.02
510.08	1471.62
510.512	1495.34
510.943	1516.91
511.374	1533.12
511.805	1560.49
512.237	1586.64
512.668	1630.64
513.099	1668.88
513.53	1705.47
513.961	1732.23
514.391	1774.25
514.822	1817.03
515.253	1864.29
515.684	1896.24
516.114	1933.81
516.545	1959.08
516.975	1990.93
517.406	2011.23
517.836	2008.11
518.267	2012
518.697	2031.15
519.127	2031.01
519.558	2036.42
519.988	2035.44
520.418	2044.13
520.848	2062.78
521.278	2069.26
521.708	2082.18
522.138	2093.62
522.567	2131.86
522.997	2161.06
523.427	2177.25
523.857	2195.99
524.286	2203.82
524.716	2219.47
525.145	2240.07
525.575	2249.37
526.004	2264.37
526.433	2255.54
526.863	2252.79
527.292	2234.04
527.721	2236.71
528.15	2239.95
528.579	2236.67
529.008	2247.39
529.437	2272.89
529.866	2288.05
530.295	2306.69
530.724	2319.26
531.152	2350.74
531.581	2364.04
532.01	2383.4
532.438	2390.7
532.867	2405.9
533.295	2426.69
533.723	2432.52
534.152	2426.77
534.58	2423.06
535.008	2399.83
535.436	2399
535.865	2406.96
536.293	2424.9
536.721	2445.23
537.149	2477.41
537.576	2479.95
538.004	2495.08
538.432	2503.1
538.86	2500.14
539.287	2507.95
539.715	2525.91
540.143	2529
540.57	2521.74
540.998	2514.75
541.425	2481.05
541.852	2451.69
542.28	2448.02
542.707	2423.12
543.134	2404.29
543.561	2397.81
543.988	2386.98
544.415	2384.28
544.842	2376.43
545.269	2366.67
545.696	2368.94
546.123	2385.66
546.549	2372.5
546.976	2356.12
547.403	2357.26
547.829	2359.08
548.256	2361.62
548.682	2356.69
549.108	2346.58
549.535	2347.32
549.961	2351.88
550.387	2335
550.813	2329.19
551.24	2337.83
551.666	2338.8
552.092	2327.33
552.518	2320.97
552.943	2313.73
553.369	2325.67
553.795	2334.28
554.221	2335.19
554.646	2331.75
555.072	2348.04
555.498	2357.17
555.923	2372.96
556.349	2396.94
556.774	2409.97
557.199	2414
557.625	2425.27
558.05	2419.9
558.475	2436.91
558.9	2439.19
559.325	2430.89
559.75	2424.6
560.175	2417.96
560.6	2411.61
561.025	2411.34
561.449	2418.14
561.874	2428.54
562.299	2439.14
562.723	2452.92
563.148	2444.14
563.572	2454.12
563.997	2473.04
564.421	2485.84
564.846	2490.99
565.27	2500.97
565.694	2502.61
566.118	2522.36
566.542	2538.1
566.966	2534
567.39	2531.55
567.814	2522.04
568.238	2526.49
568.662	2538.3
569.086	2546.19
569.509	2562.5
569.933	2545.25
570.357	2540.54
570.78	2515.83
571.204	2502.9
571.627	2492.44
572.05	2495.02
572.474	2499.75
572.897	2486.43
573.32	2481.3
573.743	2473.85
574.166	2451.13
574.589	2457.3
575.012	2451.62
575.435	2456.62
575.858	2448.47
576.281	2438.4
576.704	2421.24
577.126	2408.16
577.549	2397.7
577.972	2387.43
578.394	2376.55
578.817	2372.24
579.239	2349.61
579.661	2333.73
580.084	2313.35
580.506	2297.58
580.928	2295.37
581.35	2283.08
581.772	2280.46
582.194	2266.02
582.616	2252.05
583.038	2234.95
583.46	2223.45
583.882	2221.61
584.303	2232.91
584.725	2229.73
585.147	2234.09
585.568	2252.06
585.99	2273.4
586.411	2285.79
586.833	2309.77
587.254	2313.67
587.675	2336.37
588.096	2356.13
588.518	2350.94
588.939	2326.46
589.36	2326.46
589.781	2314.35
590.202	2273.17
590.623	2260.97
591.043	2259.38
591.464	2241.1
591.885	2237.11
592.305	2230.54
592.726	2211.97
593.147	2215.07
593.567	2208.7
593.987	2198.61
594.408	2192.63
594.828	2192.02
595.248	2184.05
595.669	2156.91
596.089	2148.06
596.509	2138.98
596.929	2119.92
597.349	2122.01
597.769	2107.92
598.189	2099.57
598.608	2101.46
599.028	2105.84
599.448	2106.88
599.867	2089.8
600.287	2085.11
600.706	2079.82
601.126	2066.68
601.545	2065.43
601.965	2063.79
602.384	2057.11
602.803	2062.53
603.222	2058.17
603.641	2049.95
604.061	2045.78
604.48	2041.73
604.898	2055.59
605.317	2063.66
605.736	2070.02
606.155	2068.32
606.574	2057.35
606.992	2068.24
607.411	2064.47
607.829	2054.99
608.248	2052.39
608.666	2052.45
609.085	2054.94
609.503	2045.58
609.921	2040.53
610.339	2045.68
610.758	2048.16
611.176	2044.92
611.594	2035.39
612.012	2033.03
612.43	2041.38
612.847	2054.83
613.265	2059.25
613.683	2068.54
614.101	2074.31
614.518	2072.27
614.936	2060.17
615.353	2041.36
615.771	2039.69
616.188	2041.79
616.606	2038.96
617.023	2030.25
617.44	2010.72
617.857	2002.83
618.274	1991.86
618.691	1983.28
619.108	1970.51
619.525	1963.04
619.942	1974.98
620.359	1981.93
620.776	1975.97
621.192	1970.4
621.609	1968.94
622.026	1980.47
622.442	1991.43
622.859	1998.41
623.275	1988.55
623.691	1999.36
624.108	2018.58
624.524	2041.42
624.94	2042.33
625.356	2058.41
625.772	2080.53
626.188	2099.64
626.604	2103.13
627.02	2096.45
627.436	2092.93
627.852	2104.22
628.268	2121.92
628.683	2108.33
629.099	2095.05
629.514	2086.21
629.93	2092.53
630.345	2098.8
630.761	2091.61
631.176	2097.22
631.591	2086.5
632.007	2077.48
632.422	2073.16
632.837	2056.87
633.252	2050.7
633.667	2034.44
634.082	2020.06
634.497	1998.93
634.911	1967.02
635.326	1961.88
635.741	1933.06
636.155	1916.83
636.57	1918.32
636.984	1917.29
637.399	1916.36
637.813	1916.62
638.228	1912.59
638.642	1917.74
639.056	1900.2
639.47	1901.19
639.884	1885.39
640.298	1875.41
640.712	1871.49
641.126	1849.23
641.54	1834.93
641.954	1825.61
642.368	1803.57
642.781	1788.82
643.195	1758.87
643.609	1757.69
644.022	1746.23
644.436	1737.93
644.849	1716.31
645.262	1698.01
645.676	1698.08
646.089	1688.22
646.502	1663.25
646.915	1653
647.328	1625.97
647.741	1621.63
648.154	1599.58
648.567	1593.23
648.98	1572.23
649.393	1571.71
649.805	1564.54
650.218	1553.05
650.631	1526.81
651.043	1516.94
651.456	1509.11
651.868	1509.84
652.28	1537.45
652.693	1558.21
653.105	1566.63
653.517	1580.05
653.929	1581.47
654.341	1588.56
654.753	1569.57
655.165	1580.59
655.577	1577.16
655.989	1568.96
656.401	1556.43
656.813	1498.29
657.224	1466.39
657.636	1423.82
658.047	1396.22
658.459	1363.87
658.87	1349.78
659.282	1329.67
659.693	1295.85
660.104	1270.08
660.515	1246.63
660.926	1238.72
661.338	1230.24
661.749	1217.3
662.159	1196.85
662.57	1184.27
662.981	1172.19
663.392	1155.55
663.803	1154.63
664.213	1143.47
664.624	1130.39
665.035	1127.49
665.445	1103.11
665.855	1086.41
666.266	1068.42
666.676	1059.57
667.086	1041.04
667.497	1033.03
667.907	1017.91
668.317	998.58
668.727	988.2
669.137	982.89
669.547	973.12
669.956	969.94
670.366	966.42
670.776	961.83
671.186	961.35
671.595	960.18
672.005	960.3
672.414	955.58
672.824	950.8
673.233	952.58
673.642	952.6
674.052	953.89
674.461	955.2
674.87	959.01
675.279	954.07
675.688	954.58
676.097	954.93
676.506	949.81
676.915	966.42
677.323	969.84
677.732	967.71
678.141	967.71
678.549	955.46
678.958	956.28
679.366	957.47
679.775	967.49
680.183	983.81
680.592	997.73
681	1011.36
681.408	1010.81
681.816	1030.12
682.224	1052.54
682.632	1078.77
683.04	1131.24
683.448	1178.79
683.856	1238.72
684.264	1304.09
684.671	1370.67
685.079	1446.53
685.487	1531.22
685.894	1642.91
686.302	1738.96
686.709	1821.12
687.116	1914.63
687.524	1994.61
687.931	2061.3
688.338	2118.86
688.745	2169.08
689.152	2220.42
689.559	2287.67
689.966	2350.93
690.373	2376.45
690.78	2428.32
691.187	2515.66
691.593	2572.47
692	2620.23
692.407	2695
692.813	2786.11
693.22	2851.97
693.626	2918.6
694.032	2962.93
694.439	3045.72
694.845	3101.94
695.251	3180.57
695.657	3242.58
