Data from N_3_DEC_ON_6N_Splice17_13-37-22-899.txt Node
Date: Sat Mar 14 13:37:22 EDT 2020
User: sa697716
Spectrometer: FLMS03696
Trigger mode: 0
Integration Time (sec): 3.180400E-1
Scans to average: 20
Electric dark correction enabled: true
Nonlinearity correction enabled: true
Boxcar width: 5
XAxis mode: Wavelengths
Number of Pixels in Spectrum: 2048
>>>>>Begin Spectral Data<<<<<
187.83	-364090.28
188.298	2644.61
188.766	1397.25
189.233	1254.16
189.701	1744.93
190.169	2386.73
190.636	891.5
191.104	637.98
191.571	25.75
192.039	-113.44
192.506	-75.93
192.974	694.67
193.441	-1157.06
193.908	-383.98
194.375	-118.61
194.842	-70.49
195.31	6.63
195.777	181.07
196.244	432.99
196.711	482.92
197.177	620.73
197.644	856.52
198.111	1473.31
198.578	2030.9
199.045	1602.88
199.511	2587.85
199.978	2987.63
200.445	2550.4
200.911	2820.15
201.378	3071.35
201.844	2794.04
202.31	4765.74
202.777	4999.84
203.243	2738.4
203.709	2601.92
204.176	3087.12
204.642	2531.96
205.108	2361.31
205.574	1892.77
206.04	1691.38
206.506	1590.55
206.972	1478.66
207.438	1423.69
207.903	1594.72
208.369	1420.81
208.835	1413.32
209.301	1487.63
209.766	1506.35
210.232	1494.87
210.697	1860.28
211.163	2270.97
211.628	3403.11
212.094	2856.28
212.559	3528.15
213.024	2218.8
213.49	2732.73
213.955	2676.96
214.42	2563.29
214.885	2383.94
215.35	2284.59
215.815	2225.42
216.28	2370.8
216.745	1919.26
217.21	2062.3
217.675	1825.95
218.14	2014.67
218.604	2167.24
219.069	2411.95
219.534	2515.4
219.998	2874.18
220.463	3400.95
220.927	4048.14
221.392	3750.57
221.856	3761.24
222.32	4645.73
222.785	5748.84
223.249	7195.85
223.713	7986
224.177	7935.34
224.642	10106.87
225.106	12438.15
225.57	13552.69
226.034	10123.92
226.497	15363.49
226.961	13888.41
227.425	16214
227.889	17879.65
228.353	17825.41
228.816	36756.1
229.28	35203.05
229.744	29556.9
230.207	17936.46
230.671	17654.96
231.134	29000.94
231.597	33508.51
232.061	33425.25
232.524	32479.2
232.987	22360.32
233.45	20128.97
233.914	18070.2
234.377	18479.39
234.84	16924.33
235.303	19922.76
235.766	22208.47
236.229	22913.34
236.691	14379.75
237.154	16127.27
237.617	12166.83
238.08	12455.27
238.542	14560.81
239.005	10404.44
239.468	10334.44
239.93	9738.27
240.393	8838.41
240.855	7765.34
241.317	7959.65
241.78	9694.13
242.242	10041.46
242.704	10854.39
243.166	9454.12
243.629	8620.56
244.091	9948.5
244.553	10909.45
245.015	11765.08
245.477	15235.1
245.939	22315.81
246.4	23730.08
246.862	23052.19
247.324	21738.99
247.786	24298.08
248.247	31886.23
248.709	32815.42
249.17	24562.49
249.632	23257.7
250.093	27002.28
250.555	23363.78
251.016	14280.61
251.477	13553.92
251.939	14665.48
252.4	15410.92
252.861	18323.1
253.322	17083.47
253.783	20313.92
254.244	26341.51
254.705	20711.5
255.166	18415.81
255.627	18122.88
256.088	25605.14
256.549	27205.97
257.009	23392.34
257.47	28316.16
257.931	23074.57
258.391	17277.98
258.852	17815.49
259.312	18662.28
259.773	23070.94
260.233	19516.47
260.694	16517.65
261.154	18736.52
261.614	15096.47
262.074	13513.71
262.534	14084.98
262.994	13325.56
263.455	17756.79
263.915	14999.95
264.374	14134.72
264.834	15436.2
265.294	17106.31
265.754	17713.09
266.214	16769.58
266.673	15711.52
267.133	19851.29
267.593	19667.02
268.052	24064.79
268.512	20949.72
268.971	25346.8
269.431	27835.33
269.89	24930.7
270.349	37402.48
270.809	41705.18
271.268	37560.17
271.727	84235.99
272.186	54657.76
272.645	41109.81
273.104	29649.44
273.563	42966.22
274.022	33729.5
274.481	28778.21
274.94	22201.88
275.399	16504.57
275.857	19234.91
276.316	26003.58
276.775	23156.75
277.233	22822.04
277.692	21402.51
278.15	24250.8
278.609	24993.95
279.067	23153.53
279.525	21517.5
279.984	27770.28
280.442	33401.3
280.9	33067.16
281.358	21779.38
281.816	20328.68
282.274	19905.97
282.732	20559.22
283.19	20653.73
283.648	17824.25
284.106	18999.88
284.564	19316.27
285.021	17961.86
285.479	13402.97
285.937	12160.39
286.394	10714.34
286.852	11022.21
287.309	11605.23
287.767	11243.61
288.224	10704.81
288.682	11738.54
289.139	12932.45
289.596	11864.53
290.053	12345.68
290.511	15595.27
290.968	18950.68
291.425	25672.31
291.882	21448.62
292.339	18685.34
292.796	18504.11
293.252	17420.59
293.709	13881.31
294.166	12441.62
294.623	13758.89
295.079	13211.5
295.536	13288.38
295.992	12083.92
296.449	11949.67
296.905	12420.2
297.362	11921.11
297.818	12553.67
298.274	13071.48
298.731	13301.21
299.187	13130.3
299.643	14078.04
300.099	17009.84
300.555	18665.38
301.011	15599.61
301.467	15102.99
301.923	17649.86
302.379	17260.51
302.835	16952.3
303.291	16975.95
303.746	19383.92
304.202	24543.39
304.658	24692.62
305.113	16639.28
305.569	16296.19
306.024	17375.01
306.479	16497.56
306.935	13928.59
307.39	15206.55
307.845	14053.21
308.301	14170.41
308.756	13795.57
309.211	13313.47
309.666	13619.77
310.121	16959.46
310.576	17213.6
311.031	17070.36
311.486	19515.7
311.94	19507.32
312.395	26049.83
312.85	49002.06
313.305	240201.61
313.759	1250203.23
314.214	90568.22
314.668	72099.59
315.123	60609.11
315.577	21817.09
316.032	19421.29
316.486	24427.48
316.94	19320.86
317.394	13496.18
317.849	10510.43
318.303	9945.77
318.757	9355.26
319.211	10363.51
319.665	9061.14
320.119	9187.87
320.572	13168.11
321.026	12336.33
321.48	10284.12
321.934	11189.84
322.387	11209.28
322.841	12106.58
323.295	10959.86
323.748	12597.73
324.202	12773.32
324.655	15347.24
325.108	21503.36
325.562	15217.49
326.015	18067.52
326.468	13646.5
326.921	15296.15
327.374	14300.28
327.827	14934.58
328.28	16861.03
328.733	11358.33
329.186	9999.16
329.639	9539.14
330.092	8030.74
330.545	7650.65
330.997	7729.34
331.45	8468.5
331.903	9939.36
332.355	17040.76
332.808	16561.55
333.26	13666.71
333.713	14845.23
334.165	14942.54
334.617	19947.6
335.069	16039.88
335.522	28881.54
335.974	31976.14
336.426	29150.33
336.878	20157.06
337.33	10251.65
337.782	9992.2
338.234	12569.72
338.686	15035.51
339.137	17867.77
339.589	16862.12
340.041	13290.87
340.493	11487.85
340.944	11770.61
341.396	12692.43
341.847	10719.12
342.299	12703.81
342.75	15564.76
343.201	13523.13
343.653	15507.98
344.104	19014.54
344.555	14953.56
345.006	23194.14
345.457	17818.12
345.908	14155.24
346.359	13372.77
346.81	10867.58
347.261	11426.27
347.712	11230.47
348.163	12056.96
348.613	12281.04
349.064	11492.38
349.515	10058.25
349.965	10342.42
350.416	12429.67
350.866	13634.71
351.317	15358.65
351.767	25462.75
352.217	32204.36
352.668	26759.73
353.118	24513.3
353.568	23577.85
354.018	18702.53
354.468	19778.75
354.918	14204.52
355.368	12431.58
355.818	17609.46
356.268	50722.08
356.718	212420.72
357.168	52865.03
357.617	26520.2
358.067	29553.95
358.517	27708.85
358.966	32538.08
359.416	36571.58
359.865	39572.17
360.315	47198.92
360.764	22072.67
361.213	12389.16
361.663	11759.39
362.112	14529.58
362.561	23528.46
363.01	17784.48
363.459	14987.11
363.908	16229.39
364.357	13835.73
364.806	23389.98
365.255	16120.94
365.703	14826.47
366.152	14918.18
366.601	12150.31
367.05	9925
367.498	9062.98
367.947	9506.91
368.395	9921.08
368.844	8837.55
369.292	10671.39
369.74	7441.49
370.189	11468.12
370.637	13532.79
371.085	11724.78
371.533	14345.18
371.981	13927.56
372.429	13391.67
372.877	14083.04
373.325	11921.31
373.773	12254.41
374.221	11030.53
374.669	13822.49
375.116	12073.52
375.564	12285.51
376.012	13926.69
376.459	11653.23
376.907	14057.2
377.354	17158.42
377.801	16233.01
378.249	18940.26
378.696	24540.95
379.143	30150.73
379.591	32584.79
380.038	55921.38
380.485	41092.73
380.932	45009.66
381.379	41797.3
381.826	31277.12
382.273	22624.11
382.72	20067.97
383.166	19852.68
383.613	13096.68
384.06	11996.43
384.506	14107.28
384.953	10533.73
385.4	10771.9
385.846	9582.1
386.292	9482.2
386.739	9426.47
387.185	9465
387.631	9607.72
388.078	9455.11
388.524	10247.19
388.97	9593.35
389.416	8116.16
389.862	8756.72
390.308	8400.85
390.754	8640.8
391.2	9486.75
391.645	9821.43
392.091	9477.12
392.537	9254.04
392.983	9374.17
393.428	9307.97
393.874	10074.72
394.319	10203.17
394.765	9758.59
395.21	10139.39
395.655	9598.19
396.101	9078.61
396.546	8269.66
396.991	8432.14
397.436	7891.95
397.881	7682.78
398.326	7341.37
398.771	6989.54
399.216	6161.84
399.661	5587.05
400.106	5605.16
400.551	5770.23
400.995	5208.95
401.44	5184.58
401.885	4900.5
402.329	4982.08
402.774	4802.01
403.218	4661.55
403.663	4516.34
404.107	4663.41
404.551	4715.55
404.995	4337.83
405.44	4200.35
405.884	4278.04
406.328	4154.2
406.772	4153.93
407.216	3791.37
407.66	3674.29
408.104	3503.44
408.547	3288.84
408.991	3189.79
409.435	3084.38
409.879	3048.75
410.322	3017.76
410.766	2920.18
411.209	2779.13
411.653	2673.22
412.096	2622.22
412.54	2632.11
412.983	2621.33
413.426	2631.95
413.869	2634.5
414.312	2583.36
414.756	2493.25
415.199	2379.61
415.642	2311.09
416.085	2318.16
416.527	2305.3
416.97	2349.19
417.413	2227.61
417.856	2207.08
418.298	2188.63
418.741	2176.59
419.184	2176.7
419.626	2271.72
420.069	2277.68
420.511	2293.4
420.953	2246.54
421.396	2231.73
421.838	2174.9
422.28	2229.17
422.722	2241.61
423.164	2276.93
423.606	2240.71
424.048	2237.89
424.49	2127.28
424.932	2116.17
425.374	2089.05
425.816	2125.8
426.258	2158.97
426.699	2177.33
427.141	2133.22
427.582	2159.23
428.024	2141.11
428.465	2125.1
428.907	2073.82
429.348	2048.04
429.789	2045.26
430.231	2000.95
430.672	2027.53
431.113	1980.1
431.554	1955.37
431.995	1916.66
432.436	1853.21
432.877	1818.03
433.318	1790.95
433.759	1785.96
434.2	1788.5
434.64	1773.87
435.081	1779.77
435.522	1687.58
435.962	1631.37
436.403	1600
436.843	1625.85
437.284	1596.83
437.724	1559.72
438.164	1569.11
438.604	1538.36
439.045	1484.39
439.485	1427.38
439.925	1406.26
440.365	1379.31
440.805	1368.31
441.245	1357.59
441.685	1312.14
442.125	1309.29
442.564	1321.04
443.004	1295.14
443.444	1296.53
443.883	1304.06
444.323	1302.49
444.762	1311.74
445.202	1335.84
445.641	1365.15
446.081	1366.96
446.52	1384.72
446.959	1379.59
447.398	1352.83
447.837	1344.08
448.276	1327.89
448.716	1345.54
449.154	1362.59
449.593	1334.7
450.032	1335.63
450.471	1315.08
450.91	1317.04
451.349	1316.86
451.787	1311.55
452.226	1333.98
452.664	1337.58
453.103	1342.88
453.541	1345.62
453.98	1344.71
454.418	1356.43
454.856	1335.14
455.295	1333.96
455.733	1347.25
456.171	1357.03
456.609	1358.04
457.047	1358.51
457.485	1376.97
457.923	1377.06
458.361	1359.45
458.798	1365.88
459.236	1363.61
459.674	1375.72
460.111	1383.68
460.549	1369.37
460.987	1367.78
461.424	1366.86
461.862	1362.46
462.299	1342.66
462.736	1341.82
463.173	1347.64
463.611	1331.14
464.048	1326.11
464.485	1337.83
464.922	1327.76
465.359	1323.61
465.796	1300.29
466.233	1291.84
466.67	1280.38
467.106	1279.88
467.543	1271.15
467.98	1256.98
468.416	1229.15
468.853	1223.75
469.29	1189.92
469.726	1181.62
470.162	1154.74
470.599	1150.03
471.035	1144.8
471.471	1122.56
471.907	1121.82
472.344	1118.96
472.78	1125.92
473.216	1144.07
473.652	1134.18
474.088	1136.63
474.523	1136.24
474.959	1150.61
475.395	1143.65
475.831	1139.2
476.266	1148.73
476.702	1146.66
477.138	1137.32
477.573	1136.17
478.008	1134.25
478.444	1141.13
478.879	1151.61
479.314	1157.45
479.75	1156.13
480.185	1160.96
480.62	1171.18
481.055	1176.3
481.49	1184.03
481.925	1199.45
482.36	1215.62
482.795	1245.49
483.229	1274.12
483.664	1294.05
484.099	1294.96
484.534	1312.57
484.968	1322.97
485.403	1326.08
485.837	1323.2
486.271	1320.73
486.706	1323.25
487.14	1312.13
487.574	1294.69
488.009	1287.86
488.443	1281.96
488.877	1296.52
489.311	1302.66
489.745	1319.61
490.179	1333.23
490.613	1358.9
491.046	1371.25
491.48	1383.02
491.914	1386.09
492.348	1398.43
492.781	1408.44
493.215	1413.49
493.648	1418.85
494.082	1433.18
494.515	1436.83
494.948	1453.46
495.382	1465.45
495.815	1476.4
496.248	1488.2
496.681	1515.93
497.114	1539.54
497.547	1559.36
497.98	1583.5
498.413	1593.86
498.846	1610.19
499.279	1626.67
499.711	1634.46
500.144	1638.89
500.577	1658.44
501.009	1679.03
501.442	1694.97
501.874	1695.17
502.306	1698.88
502.739	1712.77
503.171	1742.64
503.603	1749.03
504.036	1765.38
504.468	1773.72
504.9	1791.4
505.332	1802.26
505.764	1806.09
506.196	1815.87
506.627	1839.92
507.059	1860.13
507.491	1873.13
507.923	1862.46
508.354	1884.26
508.786	1897.24
509.217	1923.31
509.649	1943.44
510.08	1969.47
510.512	1990.86
510.943	2007.84
511.374	2017.1
511.805	2043.11
512.237	2066.71
512.668	2113.3
513.099	2147.27
513.53	2178.64
513.961	2196.33
514.391	2234.14
514.822	2273.43
515.253	2317.78
515.684	2344.21
516.114	2376.91
516.545	2397.8
516.975	2427
517.406	2443.61
517.836	2435.87
518.267	2438.02
518.697	2460.87
519.127	2460.45
519.558	2463.59
519.988	2460.5
520.418	2470.26
520.848	2491.89
521.278	2497.33
521.708	2504.92
522.138	2515.33
522.567	2557.14
522.997	2585.29
523.427	2596.12
523.857	2608.25
524.286	2609.97
524.716	2621.39
525.145	2639.72
525.575	2646.73
526.004	2659.52
526.433	2648.74
526.863	2641.82
527.292	2618.21
527.721	2623.46
528.15	2631.08
528.579	2630.89
529.008	2646.3
529.437	2678.09
529.866	2692.63
530.295	2711.11
530.724	2721.31
531.152	2754.23
531.581	2767.6
532.01	2788.41
532.438	2795.49
532.867	2812.24
533.295	2834.18
533.723	2837.98
534.152	2830.91
534.58	2827.13
535.008	2801.67
535.436	2802.88
535.865	2812.6
536.293	2830.76
536.721	2849.72
537.149	2880.68
537.576	2875.78
538.004	2889.61
538.432	2898.24
538.86	2891.23
539.287	2901.25
539.715	2918.14
540.143	2921.07
540.57	2913.36
540.998	2908.27
541.425	2874.34
541.852	2845.54
542.28	2847.88
542.707	2826.85
543.134	2809.1
543.561	2808.24
543.988	2798.91
544.415	2801.47
544.842	2793.61
545.269	2785.86
545.696	2791.39
546.123	2813.76
546.549	2800.95
546.976	2784.06
547.403	2786.64
547.829	2792.39
548.256	2797.33
548.682	2794.38
549.108	2787.03
549.535	2791.78
549.961	2798.14
550.387	2780.91
550.813	2775.27
551.24	2788.89
551.666	2793.04
552.092	2781.48
552.518	2775.18
552.943	2768.36
553.369	2782.29
553.795	2790.48
554.221	2791.72
554.646	2787.9
555.072	2805.08
555.498	2813.2
555.923	2825.84
556.349	2849.27
556.774	2861.29
557.199	2861.78
557.625	2872.32
558.05	2865.07
558.475	2885.89
558.9	2888.3
559.325	2878.17
559.75	2871.32
560.175	2866.61
560.6	2860.78
561.025	2862.15
561.449	2868.52
561.874	2881.84
562.299	2891.66
562.723	2904.83
563.148	2889.17
563.572	2898.09
563.997	2917.98
564.421	2930.59
564.846	2933.86
565.27	2944.05
565.694	2942.34
566.118	2962.92
566.542	2977.16
566.966	2970.78
567.39	2966.57
567.814	2953.05
568.238	2956.66
568.662	2968.82
569.086	2979.64
569.509	2999.38
569.933	2980.52
570.357	2979.96
570.78	2957.25
571.204	2944.74
571.627	2937.37
572.05	2944.46
572.474	2956.57
572.897	2946.3
573.32	2942.91
573.743	2934.9
574.166	2911.65
574.589	2921.92
575.012	2915.8
575.435	2920.26
575.858	2913.01
576.281	2901.09
576.704	2884.17
577.126	2872.03
577.549	2861.95
577.972	2855.58
578.394	2847.21
578.817	2843.55
579.239	2819.04
579.661	2803.23
580.084	2784.64
580.506	2770.42
580.928	2773.82
581.35	2762.99
581.772	2762.77
582.194	2745.16
582.616	2727.45
583.038	2705.58
583.46	2691.62
583.882	2690.24
584.303	2701.56
584.725	2697.32
585.147	2699.89
585.568	2714.97
585.99	2729.92
586.411	2734.57
586.833	2755.07
587.254	2754.3
587.675	2778.13
588.096	2798.38
588.518	2787.37
588.939	2756.7
589.36	2752.71
589.781	2738.13
590.202	2690.28
590.623	2681.79
591.043	2684.99
591.464	2670.04
591.885	2667.24
592.305	2659.81
592.726	2637.72
593.147	2642.94
593.567	2636.21
593.987	2624.17
594.408	2616.09
594.828	2616.22
595.248	2606.3
595.669	2573.83
596.089	2561.85
596.509	2551.78
596.929	2529.39
597.349	2531.94
597.769	2513.35
598.189	2501.14
598.608	2504.08
599.028	2508.24
599.448	2508.92
599.867	2487.53
600.287	2482
600.706	2475.67
601.126	2460.62
601.545	2460.36
601.965	2459.19
602.384	2451.46
602.803	2460.76
603.222	2454.34
603.641	2445.2
604.061	2440.02
604.48	2435.58
604.898	2451.41
605.317	2461.54
605.736	2467.02
606.155	2462.53
606.574	2447.72
606.992	2459.22
607.411	2452.1
607.829	2438.57
608.248	2434.91
608.666	2434.54
609.085	2435.59
609.503	2422.9
609.921	2415.4
610.339	2421.51
610.758	2422.78
611.176	2417.98
611.594	2405.21
612.012	2401.79
612.43	2411.5
612.847	2426.07
613.265	2428.21
613.683	2439.61
614.101	2446.1
614.518	2442.16
614.936	2427.97
615.353	2406.43
615.771	2405.72
616.188	2410.02
616.606	2409.16
617.023	2401.85
617.44	2380.7
617.857	2374.98
618.274	2363.43
618.691	2355.1
619.108	2341.8
619.525	2334.05
619.942	2348.54
620.359	2355.01
620.776	2347.67
621.192	2339.72
621.609	2333.8
622.026	2347.02
622.442	2356.08
622.859	2362.55
623.275	2348.35
623.691	2358.97
624.108	2379.44
624.524	2404.75
624.94	2404.04
625.356	2421.03
625.772	2445.89
626.188	2468.96
626.604	2469.97
627.02	2463.3
627.436	2458.06
627.852	2470.29
628.268	2490.81
628.683	2472.67
629.099	2456.69
629.514	2448.87
629.93	2456.76
630.345	2464.71
630.761	2458.15
631.176	2465.61
631.591	2452.66
632.007	2444.2
632.422	2442.86
632.837	2423.59
633.252	2421.67
633.667	2405.98
634.082	2389.97
634.497	2366.99
634.911	2333.37
635.326	2329.38
635.741	2301.06
636.155	2288.18
636.57	2291.47
636.984	2293.89
637.399	2299.96
637.813	2302.16
638.228	2303.87
638.642	2315.51
639.056	2302.85
639.47	2307.23
639.884	2295.39
640.298	2287.43
640.712	2289.52
641.126	2271.16
641.54	2258.99
641.954	2256.06
642.368	2236.53
642.781	2224.56
643.195	2195.25
643.609	2198.39
644.022	2189.97
644.436	2183.62
644.849	2161.77
645.262	2140.69
645.676	2145.56
646.089	2138.47
646.502	2108.01
646.915	2100.34
647.328	2069.76
647.741	2068.25
648.154	2045.2
648.567	2040.82
648.98	2016.88
649.393	2020.92
649.805	2017.16
650.218	2005.25
650.631	1977.38
651.043	1969.61
651.456	1960.58
651.868	1963.7
652.28	1997.86
652.693	2026.12
653.105	2038.82
653.517	2057.29
653.929	2057.13
654.341	2067.36
654.753	2044.54
655.165	2058.49
655.577	2053.74
655.989	2046.92
656.401	2036.68
656.813	1968.66
657.224	1934.43
657.636	1883.94
658.047	1854.26
658.459	1821.89
658.87	1810.81
659.282	1791.75
659.693	1753.2
660.104	1727.94
660.515	1704.62
660.926	1701.19
661.338	1696.22
661.749	1683.67
662.159	1663.93
662.57	1656
662.981	1645.92
663.392	1629.15
663.803	1635.08
664.213	1630.2
664.624	1618.83
665.035	1620.04
665.445	1590.66
665.855	1572.25
666.266	1551.6
666.676	1543.7
667.086	1522.18
667.497	1514.87
667.907	1498.23
668.317	1475.6
668.727	1459.7
669.137	1456.52
669.547	1447.11
669.956	1446.6
670.366	1445.67
670.776	1443.35
671.186	1445.86
671.595	1446.1
672.005	1448.17
672.414	1441.59
672.824	1432.89
673.233	1438.2
673.642	1437.25
674.052	1438.09
674.461	1435.2
674.87	1439.85
675.279	1430.15
675.688	1428.49
676.097	1426.26
676.506	1417.42
676.915	1439.94
677.323	1441.64
677.732	1434.69
678.141	1430.63
678.549	1409.63
678.958	1408.66
679.366	1407.58
679.775	1417.96
680.183	1437.71
680.592	1451.66
681	1464.18
681.408	1455.92
681.816	1475.38
682.224	1497.72
682.632	1521.49
683.04	1583.9
683.448	1635.61
683.856	1696.83
684.264	1764.75
684.671	1828.36
685.079	1905.58
685.487	1989.71
685.894	2106.91
686.302	2199.19
686.709	2274.38
687.116	2359.73
687.524	2422.79
687.931	2474.44
688.338	2513.87
688.745	2545.63
689.152	2580.9
689.559	2629.31
689.966	2674.29
690.373	2673.79
690.78	2707.26
691.187	2773.87
