Data from N_3_DEC_OH_4N_Splice17_13-35-12-731.txt Node
Date: Sat Mar 14 13:35:12 EDT 2020
User: sa697716
Spectrometer: FLMS03696
Trigger mode: 0
Integration Time (sec): 3.180400E-1
Scans to average: 20
Electric dark correction enabled: true
Nonlinearity correction enabled: true
Boxcar width: 5
XAxis mode: Wavelengths
Number of Pixels in Spectrum: 2048
>>>>>Begin Spectral Data<<<<<
187.83	-451040.77
188.298	3213.04
188.766	1709.77
189.233	1479.89
189.701	2050.85
190.169	2790.67
190.636	1013.74
191.104	730.62
191.571	57.52
192.039	-159.95
192.506	-187.89
192.974	477.79
193.441	-837.54
193.908	-153.45
194.375	-70.67
194.842	-95.55
195.31	-63.31
195.777	127.41
196.244	391.91
196.711	495.52
197.177	630.1
197.644	920.82
198.111	1597.41
198.578	2262.72
199.045	1786.66
199.511	2893.17
199.978	3432.07
200.445	2916.37
200.911	3199.26
201.378	3555.94
201.844	3232.28
202.31	5522.79
202.777	5729.46
203.243	3189.57
203.709	3032.76
204.176	3652.93
204.642	3017.42
205.108	2796.6
205.574	2289.55
206.04	2087.46
206.506	1950.92
206.972	1833.58
207.438	1784.4
207.903	2028.46
208.369	1777.16
208.835	1765.14
209.301	1850.62
209.766	1897.59
210.232	1871.96
210.697	2309.6
211.163	2867.2
211.628	4350.76
212.094	3663.07
212.559	4523.44
213.024	2802.42
213.49	3434.66
213.955	3384.79
214.42	3298.97
214.885	3076.42
215.35	2983.33
215.815	2891.9
216.28	3075.72
216.745	2506.43
217.21	2731.03
217.675	2506.67
218.14	2864.3
218.604	3207.3
219.069	3695.69
219.534	3933.41
219.998	4617.54
220.463	5638.66
220.927	6995.27
221.392	6622.04
221.856	6753.74
222.32	8559.87
222.785	10624.04
223.249	13415.79
223.713	15077.28
224.177	15110.16
224.642	19380.87
225.106	23937.72
225.57	26261.58
226.034	19555.62
226.497	29826.44
226.961	26976.66
227.425	31438.54
227.889	34937.26
228.353	34938.81
228.816	72221.14
229.28	69132.4
229.744	58299.46
230.207	35457.73
230.671	34797.52
231.134	57621.53
231.597	66607.37
232.061	66527.65
232.524	64865.62
232.987	44680.9
233.45	40265.15
233.914	36107.1
234.377	37014.88
234.84	33942.89
235.303	40009.24
235.766	44728.97
236.229	46220.99
236.691	29103.97
237.154	32752.4
237.617	24684.57
238.08	25288.64
238.542	29617.65
239.005	21176.01
239.468	21024.17
239.93	19819.92
240.393	18013
240.855	15830.54
241.317	16225.02
241.78	19742.48
242.242	20407.37
242.704	22016.98
243.166	19165.77
243.629	17405.94
244.091	20059.71
244.553	21986.65
245.015	23643.06
245.477	30605.64
245.939	44857.13
246.4	47604.65
246.862	46270.18
247.324	43642.2
247.786	48887.23
248.247	64165.25
248.709	66243.18
249.17	49572.05
249.632	46751.92
250.093	54215.36
250.555	46829.1
251.016	28578.61
251.477	27169.05
251.939	29334.21
252.4	30801.15
252.861	36625.74
253.322	34069.61
253.783	40575.81
254.244	52657.59
254.705	41516.79
255.166	36959.67
255.627	36418.22
256.088	51381.93
256.549	54488.66
257.009	46964.44
257.47	57060.29
257.931	46515.8
258.391	34875.74
258.852	35993.11
259.312	37775.16
259.773	46764.59
260.233	39539.89
260.694	33390.27
261.154	37941.16
261.614	30498.78
262.074	27278.27
262.534	28343.26
262.994	26733.93
263.455	35631.37
263.915	29993.75
264.374	28284.41
264.834	30882.5
265.294	34265.04
265.754	35522.4
266.214	33644.35
266.673	31545.24
267.133	39879.3
267.593	39562.59
268.052	48471.6
268.512	42249.82
268.971	51051.52
269.431	56025.23
269.89	50224.05
270.349	75372.61
270.809	84123.31
271.268	75695.92
271.727	170040.72
272.186	110266.51
272.645	82887.33
273.104	59835.04
273.563	86696.96
274.022	68254.16
274.481	58120.89
274.94	44845.98
275.399	33353.18
275.857	38853.5
276.316	52552.09
276.775	46781.32
277.233	46112.48
277.692	43188.54
278.15	48877.78
278.609	50317.99
279.067	46611.53
279.525	43321.66
279.984	55928.04
280.442	67237.66
280.9	66318.67
281.358	43690.76
281.816	40720.4
282.274	39879.53
282.732	41214.8
283.19	41461.47
283.648	35794.66
284.106	38158.97
284.564	38817
285.021	36012.84
285.479	26833.99
285.937	24429.1
286.394	21427.54
286.852	22091.22
287.309	23223.99
287.767	22462.46
288.224	21358.46
288.682	23449.88
289.139	25722.1
289.596	23549.62
290.053	24501.83
290.511	30937.86
290.968	37551.93
291.425	51001.76
291.882	42432.06
292.339	36931.73
292.796	36645.47
293.252	34553.92
293.709	27428.29
294.166	24611.6
294.623	27234.34
295.079	26117.01
295.536	26261.11
295.992	23850.38
296.449	23604.76
296.905	24541.31
297.362	23547.73
297.818	24774.04
298.274	25718.27
298.731	26233.51
299.187	25975.58
299.643	27881.55
300.099	33755.3
300.555	37029.07
301.011	30954.93
301.467	29813.99
301.923	34894.1
302.379	34083.27
302.835	33497.06
303.291	33555.07
303.746	38193.94
304.202	48255.32
304.658	48462.96
305.113	32592.97
305.569	31956.52
306.024	34062.69
306.479	32454.56
306.935	27388.24
307.39	29938.65
307.845	27642.2
308.301	27822.32
308.756	27143.68
309.211	26168.44
309.666	26794.41
310.121	33257.48
310.576	33761.84
311.031	33510.7
311.486	38370.44
311.94	38364.81
312.395	51367.96
312.85	96620.58
313.305	475039.54
313.759	2457631.85
314.214	177955.66
314.668	141243.98
315.123	118870.19
315.577	42657.07
316.032	37929.71
316.486	47606.71
316.94	37514.81
317.394	26067.16
317.849	20264.91
318.303	19169.02
318.757	18094.78
319.211	20031.1
319.665	17529.5
320.119	17756.76
320.572	25436.87
321.026	23779.73
321.48	19791.35
321.934	21596.39
322.387	21674.21
322.841	23404.53
323.295	21058.28
323.748	24281.98
324.202	24632.87
324.655	29543.02
325.108	41250.05
325.562	29153.79
326.015	34648.52
326.468	26188.34
326.921	29320.69
327.374	27322.13
327.827	28459.71
328.28	32162.91
328.733	21530.49
329.186	18933.56
329.639	18079.05
330.092	15251.06
330.545	14531.1
330.997	14665.73
331.45	16035.62
331.903	18787.84
332.355	32316.6
332.808	31373.05
333.26	25908.64
333.713	28145.18
334.165	28324.29
334.617	37761.11
335.069	30487.23
335.522	55149.52
335.974	61004.4
336.426	55690.27
336.878	38584.82
337.33	19579.16
337.782	19138.1
338.234	23981.45
338.686	28675.21
339.137	33978.27
339.589	32052.73
340.041	25139.87
340.493	21597.54
340.944	22134.28
341.396	23875.58
341.847	20056.58
342.299	23678.81
342.75	28939.32
343.201	25317.29
343.653	29145.71
344.104	35865.46
344.555	28221.96
345.006	43992.81
345.457	33715.94
345.908	26778.26
346.359	25200.11
346.81	20551.45
347.261	21641.75
347.712	21302.09
348.163	22824.45
348.613	23127.28
349.064	21600.45
349.515	18905.17
349.965	19371.95
350.416	23337.43
350.866	25641.73
351.317	28985.02
351.767	47980.17
352.217	60673.37
352.668	50382.86
353.118	46189.37
353.568	44504.81
354.018	35174.03
354.468	37185.94
354.918	26670.98
355.368	23337.03
355.818	32950.93
356.268	94952.38
356.718	396938.5
357.168	98843.2
357.617	49533.54
358.067	55070.69
358.517	51611.15
358.966	60565.61
359.416	67861.86
359.865	73408.41
360.315	87488.01
360.764	40837.54
361.213	22847.88
361.663	21678.01
362.112	26749.41
362.561	43283.89
363.01	32690.7
363.459	27511.96
363.908	29756.67
364.357	25273.5
364.806	42668.62
365.255	29292.84
365.703	26883.23
366.152	26936.04
366.601	21815.36
367.05	17691.91
367.498	16060.53
367.947	16769.82
368.395	17433.85
368.844	15418.2
369.292	18531.18
369.74	12797.43
370.189	19589.44
370.637	22923.47
371.085	19755.46
371.533	24078.93
371.981	23223.75
372.429	22138.84
372.877	23020.33
373.325	19258.73
373.773	19626.5
374.221	17513.37
374.669	21708.56
375.116	18768.63
375.564	18898.76
376.012	21127.61
376.459	17411.7
376.907	20768.36
377.354	25088.26
377.801	23389.87
378.249	26839.45
378.696	34301.35
379.143	41425.5
379.591	44153.87
380.038	74574.06
380.485	53861.85
380.932	58076.97
381.379	53021.14
381.826	39079.25
382.273	27739.04
382.72	24215.05
383.166	23585.09
383.613	15270.07
384.06	13757.9
384.506	15897.58
384.953	11659.37
385.4	11741.84
385.846	10272.89
386.292	10012.28
386.739	9772.64
387.185	9661.56
387.631	9665.51
388.078	9374.57
388.524	10021.06
388.97	9252.26
389.416	7710.6
389.862	8203.02
390.308	7766.12
390.754	7886.23
391.2	8551.91
391.645	8754.08
392.091	8387.59
392.537	8102.96
392.983	8129.53
393.428	8005.55
393.874	8596.81
394.319	8643.33
394.765	8205.29
395.21	8428.88
395.655	7913.15
396.101	7422.61
396.546	6702.12
396.991	6755.07
397.436	6280.67
397.881	6069.05
398.326	5751.03
398.771	5440.57
399.216	4753.23
399.661	4280.74
400.106	4278.81
400.551	4382.63
400.995	3926.43
401.44	3889.58
401.885	3656.44
402.329	3694.97
402.774	3544.73
403.218	3429.64
403.663	3307.63
404.107	3401.24
404.551	3426.89
404.995	3136.56
405.44	3021.11
405.884	3068.22
406.328	2966.27
406.772	2956.1
407.216	2693.21
407.66	2601.75
408.104	2467.9
408.547	2305.65
408.991	2229.06
409.435	2142.8
409.879	2113.52
410.322	2082.87
410.766	2010.05
411.209	1906.88
411.653	1828.63
412.096	1792.52
412.54	1792.07
412.983	1783.43
413.426	1787.5
413.869	1785.9
414.312	1751.6
414.756	1685.34
415.199	1604.32
415.642	1556.16
416.085	1559.23
416.527	1546.6
416.97	1566.56
417.413	1485.64
417.856	1466.72
418.298	1450.9
418.741	1438
419.184	1434.84
419.626	1494.68
420.069	1495.02
420.511	1505.68
420.953	1473.48
421.396	1461.35
421.838	1423.79
422.28	1455.03
422.722	1461.73
423.164	1480.68
423.606	1457.24
424.048	1451.99
424.49	1376.18
424.932	1370.84
425.374	1349.09
425.816	1369.18
426.258	1390.01
426.699	1402.42
427.141	1382.23
427.582	1402.72
428.024	1396.47
428.465	1385.97
428.907	1349.49
429.348	1334.87
429.789	1331.94
430.231	1302.7
430.672	1319.73
431.113	1290.66
431.554	1271.75
431.995	1236
432.436	1192.04
432.877	1162.36
433.318	1143.59
433.759	1139.34
434.2	1137.7
434.64	1124.85
435.081	1127.56
435.522	1068.44
435.962	1029.58
436.403	1007.53
436.843	1022.59
437.284	1001.34
437.724	974.7
438.164	975.16
438.604	953.58
439.045	918.12
439.485	883.27
439.925	864.75
440.365	843.36
440.805	831.01
441.245	821.64
441.685	793.39
442.125	786.08
442.564	791.34
443.004	774.8
443.444	773.67
443.883	776.67
444.323	771.51
444.762	774.18
445.202	786.97
445.641	804.32
446.081	801.94
446.52	808.32
446.959	803.95
447.398	788.79
447.837	781.7
448.276	771.11
448.716	780.55
449.154	789.77
449.593	775.74
450.032	775.7
450.471	762.8
450.91	764.75
451.349	764.92
451.787	763.56
452.226	776.97
452.664	780.35
453.103	784.08
453.541	781.87
453.98	783.5
454.418	787.86
454.856	776.78
455.295	777.15
455.733	784.71
456.171	790.47
456.609	789.87
457.047	790.13
457.485	801.96
457.923	804.14
458.361	795.77
458.798	797.09
459.236	795.93
459.674	801.07
460.111	804.6
460.549	796.52
460.987	793.98
461.424	792.21
461.862	787.83
462.299	774.21
462.736	772.17
463.173	774.15
463.611	766.3
464.048	764.28
464.485	770.23
464.922	762.43
465.359	757.46
465.796	748.61
466.233	742.93
466.67	737.25
467.106	735.21
467.543	727.3
467.98	718.56
468.416	698.09
468.853	692.24
469.29	671.06
469.726	664.02
470.162	647.38
470.599	637.42
471.035	633.51
471.471	616.88
471.907	615.08
472.344	612.25
472.78	614.64
473.216	623.84
473.652	618.31
474.088	618.65
474.523	619.55
474.959	626.18
475.395	621.23
475.831	618.42
476.266	623.31
476.702	622.52
477.138	617.61
477.573	617.25
478.008	616.44
478.444	620.43
478.879	628.17
479.314	630.37
479.75	631.75
480.185	636.95
480.62	643.71
481.055	648.96
481.49	654.89
481.925	664.8
482.36	678.16
482.795	698.59
483.229	718.35
483.664	734.3
484.099	738.76
484.534	751.04
484.968	759.54
485.403	763.53
485.837	763.77
486.271	764.15
486.706	767.4
487.14	758.6
487.574	747.62
488.009	742.06
488.443	736.98
488.877	746.98
489.311	751.37
489.745	762.15
490.179	770.94
490.613	787.03
491.046	795.02
491.48	802.96
491.914	806.71
492.348	815.55
492.781	824.08
493.215	828.03
493.648	831.98
494.082	841.81
494.515	845.16
494.948	857.22
495.382	866.31
495.815	876.25
496.248	886.73
496.681	907.35
497.114	924.97
497.547	941.23
497.98	963.08
498.413	975.5
498.846	991.43
499.279	1008.11
499.711	1019
500.144	1027.56
500.577	1045.18
501.009	1064.17
501.442	1080.98
501.874	1087.78
502.306	1094.32
502.739	1107.91
503.171	1132.07
503.603	1140.98
504.036	1156.49
504.468	1167.97
504.9	1186.38
505.332	1198.81
505.764	1207.91
506.196	1220.58
506.627	1242.59
507.059	1264.43
507.491	1279.64
507.923	1279.29
508.354	1301.83
508.786	1318.14
509.217	1343.62
509.649	1365.73
510.08	1393.19
510.512	1417.91
510.943	1439.67
511.374	1456.55
511.805	1484.23
512.237	1510.67
512.668	1554.69
513.099	1591.53
513.53	1628.35
513.961	1656.25
514.391	1697.64
514.822	1741.41
515.253	1787.21
515.684	1819.01
516.114	1857.26
516.545	1883.4
516.975	1916.77
517.406	1937.77
517.836	1937.28
518.267	1942.46
518.697	1963.21
519.127	1965.52
519.558	1970.22
519.988	1971.1
520.418	1981.63
520.848	2001.62
521.278	2008.44
521.708	2027.59
522.138	2040.54
522.567	2078.93
522.997	2108.15
523.427	2124.96
523.857	2143.33
524.286	2153.74
524.716	2170.25
525.145	2191.8
525.575	2201.5
526.004	2217.79
526.433	2204.28
526.863	2201.53
527.292	2184.52
527.721	2189.75
528.15	2193.67
528.579	2192.6
529.008	2204.98
529.437	2232.26
529.866	2247.25
530.295	2267.29
530.724	2281.87
531.152	2314.61
531.581	2330.46
532.01	2352.01
532.438	2360.97
532.867	2378.42
533.295	2401.13
533.723	2407.73
534.152	2404.18
534.58	2401.21
535.008	2378.77
535.436	2378.93
535.865	2387.14
536.293	2403.92
536.721	2421.91
537.149	2452.76
537.576	2454.85
538.004	2468.37
538.432	2475.84
538.86	2470.52
539.287	2479.68
539.715	2496.74
540.143	2498.88
540.57	2492.84
540.998	2486.88
541.425	2457.47
541.852	2429.14
542.28	2425.92
542.707	2402.7
543.134	2384.97
543.561	2378.9
543.988	2367.67
544.415	2366.1
544.842	2358.6
545.269	2349.55
545.696	2351.89
546.123	2367.96
546.549	2355.3
546.976	2338.27
547.403	2339.83
547.829	2341.4
548.256	2344.81
548.682	2340.47
549.108	2330.8
549.535	2330.21
549.961	2333.2
550.387	2317.36
550.813	2310.28
551.24	2319.17
551.666	2321.38
552.092	2309.6
552.518	2302.06
552.943	2295.07
553.369	2306.47
553.795	2315.55
554.221	2318.71
554.646	2315.15
555.072	2331.61
555.498	2340.12
555.923	2353.15
556.349	2375.53
556.774	2388.93
557.199	2393.4
557.625	2403.89
558.05	2399.12
558.475	2415.38
558.9	2416.92
559.325	2409.68
559.75	2403.68
560.175	2398.31
560.6	2392.79
561.025	2393.17
561.449	2396.64
561.874	2407.16
562.299	2415.92
562.723	2428.8
563.148	2419.21
563.572	2428.49
563.997	2445.34
564.421	2455.34
564.846	2458.84
565.27	2467.62
565.694	2466.97
566.118	2487.26
566.542	2499.38
566.966	2493.01
567.39	2487.92
567.814	2476.5
568.238	2478.09
568.662	2488.88
569.086	2495.76
569.509	2509.44
569.933	2491.03
570.357	2484.45
570.78	2458.53
571.204	2445.37
571.627	2435.66
572.05	2438.09
572.474	2439.98
572.897	2426.72
573.32	2418.75
573.743	2408.7
574.166	2386.76
574.589	2391.14
575.012	2383.76
575.435	2386.63
575.858	2377.83
576.281	2366.6
576.704	2347.86
577.126	2335.6
577.549	2324.8
577.972	2315.63
578.394	2304.11
578.817	2297.33
579.239	2274.07
579.661	2258.83
580.084	2238.91
580.506	2223.04
580.928	2218.85
581.35	2206.27
581.772	2202.91
582.194	2185.53
582.616	2169.91
583.038	2152.67
583.46	2140.5
583.882	2138.98
584.303	2146.89
584.725	2142.38
585.147	2146.27
585.568	2165.17
585.99	2184.45
586.411	2195.21
586.833	2218.84
587.254	2221.83
587.675	2244.71
588.096	2264.67
588.518	2258.2
588.939	2236.3
589.36	2236.26
589.781	2223.72
590.202	2183.51
590.623	2172.61
591.043	2170.17
591.464	2152.15
591.885	2147.42
592.305	2139.27
592.726	2118.88
593.147	2122.48
593.567	2115.8
593.987	2104.45
594.408	2096.77
594.828	2093.46
595.248	2085.58
595.669	2059.88
596.089	2050.73
596.509	2042.09
596.929	2021.63
597.349	2024.04
597.769	2008.93
598.189	2000.18
598.608	2002.76
599.028	2006.53
599.448	2008.21
599.867	1989.94
600.287	1984.67
600.706	1978.53
601.126	1966.5
601.545	1967.12
601.965	1965.77
602.384	1959.71
602.803	1965.39
603.222	1959.64
603.641	1951.77
604.061	1946.67
604.48	1942.94
604.898	1956.32
605.317	1966.2
605.736	1970.28
606.155	1967.33
606.574	1956.6
606.992	1967.23
607.411	1961.49
607.829	1951.94
608.248	1949.54
608.666	1949.05
609.085	1950.18
609.503	1939.57
609.921	1931.71
610.339	1935.37
610.758	1936.06
611.176	1931.11
611.594	1919.13
612.012	1916.55
612.43	1923.24
612.847	1933.89
613.265	1936.94
613.683	1945.06
614.101	1948.28
614.518	1944.26
614.936	1932.05
615.353	1913.47
615.771	1910.35
616.188	1911.87
616.606	1907.42
617.023	1898.12
617.44	1878.07
617.857	1869.12
618.274	1857.55
618.691	1849.3
619.108	1837.07
619.525	1829.43
619.942	1840.17
620.359	1845.44
620.776	1838.23
621.192	1833.36
621.609	1830.16
622.026	1840.86
622.442	1850.11
622.859	1855.59
623.275	1846.01
623.691	1854.18
624.108	1871.45
624.524	1892.53
624.94	1892.86
625.356	1907.77
625.772	1927.06
626.188	1946.51
626.604	1949.86
627.02	1944.01
627.436	1940.51
627.852	1950.37
628.268	1969.35
628.683	1957.11
629.099	1944.61
629.514	1936.48
629.93	1940.69
630.345	1946.74
630.761	1939.52
631.176	1943.14
631.591	1933.58
632.007	1924.72
632.422	1921.69
632.837	1903.89
633.252	1898.1
633.667	1881.09
634.082	1866.33
634.497	1847.53
634.911	1818.45
635.326	1812.18
635.741	1785.82
636.155	1770.37
636.57	1769.82
636.984	1766.73
637.399	1766.68
637.813	1765.04
638.228	1762
638.642	1767.81
639.056	1751.41
639.47	1748.77
639.884	1734.72
640.298	1723.81
640.712	1719.87
641.126	1700.39
641.54	1685.85
641.954	1676.82
642.368	1657.06
642.781	1642.59
643.195	1614.16
643.609	1612.14
644.022	1602.28
644.436	1592.29
644.849	1572.39
645.262	1551.67
645.676	1551.32
646.089	1541.88
646.502	1518.07
646.915	1507.89
647.328	1482.62
647.741	1476.9
648.154	1455.95
648.567	1449.18
648.98	1429.91
649.393	1427.77
649.805	1420.78
650.218	1408.72
650.631	1386.09
651.043	1375.6
651.456	1365.92
651.868	1365.89
652.28	1390.1
652.693	1408.47
653.105	1417.48
653.517	1429.85
653.929	1430.87
654.341	1439.41
654.753	1422.19
655.165	1430.93
655.577	1427.01
655.989	1420.04
656.401	1408.37
656.813	1355.37
657.224	1325.74
657.636	1284.42
658.047	1258.05
658.459	1229.19
658.87	1214.59
659.282	1194.75
659.693	1163.29
660.104	1140.47
660.515	1118.71
660.926	1110.72
661.338	1102.8
661.749	1090.75
662.159	1074.24
662.57	1063.86
662.981	1053.08
663.392	1038.29
663.803	1039.38
664.213	1031.13
664.624	1020.55
665.035	1018.88
665.445	996.92
665.855	984.04
666.266	968.36
666.676	960.23
667.086	943.85
667.497	938.26
667.907	927.32
668.317	911.61
668.727	903.86
669.137	899.78
669.547	893.14
669.956	893.12
670.366	890.56
670.776	889.96
671.186	891.15
671.595	893.53
672.005	894.14
672.414	890.13
672.824	885.25
673.233	887.23
673.642	888.01
674.052	889.79
674.461	891.41
674.87	895.36
675.279	891.85
675.688	892.15
676.097	892.53
676.506	889.51
676.915	905.08
677.323	909.17
677.732	907.54
678.141	908.81
678.549	897.08
678.958	897.68
679.366	900.52
679.775	908.25
680.183	924.72
680.592	935.14
681	946.79
681.408	945.69
681.816	961.02
682.224	979.15
682.632	999.38
683.04	1044.66
683.448	1084.26
683.856	1132.19
684.264	1188.92
684.671	1243.09
685.079	1306.93
685.487	1376.29
685.894	1471.08
686.302	1552.85
686.709	1621.61
687.116	1702.36
687.524	1771.68
687.931	1829.23
688.338	1880.51
688.745	1924.34
689.152	1971.35
689.559	2034.74
689.966	2095.41
690.373	2123.05
690.78	2175.49
691.187	2258.25
691.593	2318.18
692	2367.05
692.407	2441.92
692.813	2535.3
693.22	2604.87
693.626	2676.35
694.032	2728.07
694.439	2813.94
694.845	2875.43
