Data from N_3_DEC_OH_4N_Splice17_13-26-47-727.txt Node
Date: Sat Mar 14 13:26:47 EDT 2020
User: sa697716
Spectrometer: FLMS03696
Trigger mode: 0
Integration Time (sec): 3.180400E-1
Scans to average: 20
Electric dark correction enabled: true
Nonlinearity correction enabled: true
Boxcar width: 5
XAxis mode: Wavelengths
Number of Pixels in Spectrum: 2048
>>>>>Begin Spectral Data<<<<<
187.83	-382168.66
188.298	2678.51
188.766	1438.12
189.233	1315.56
189.701	1828.97
190.169	2555.07
190.636	960.96
191.104	744.93
191.571	94.6
192.039	-124.85
192.506	-186.86
192.974	420.95
193.441	-981.29
193.908	-252
194.375	-57.94
194.842	21.13
195.31	158.25
195.777	202.99
196.244	464.71
196.711	508.48
197.177	625.48
197.644	867.15
198.111	1536.67
198.578	2168.8
199.045	1704.2
199.511	2767.45
199.978	3168.59
200.445	2670.14
200.911	2940.63
201.378	3268.97
201.844	2962.79
202.31	4978.75
202.777	5171.38
203.243	2849.98
203.709	2707.57
204.176	3257.68
204.642	2681.18
205.108	2514.57
205.574	2058.83
206.04	1863.67
206.506	1746.33
206.972	1655.34
207.438	1607.4
207.903	1831.58
208.369	1622.55
208.835	1611.34
209.301	1667.28
209.766	1701.89
210.232	1689.02
210.697	2079.86
211.163	2577.82
211.628	3870.29
212.094	3230.33
212.559	3987.65
213.024	2488.07
213.49	3030.03
213.955	2948.75
214.42	2886.31
214.885	2690.79
215.35	2583.94
215.815	2509.02
216.28	2684.28
216.745	2185.1
217.21	2357.19
217.675	2163.06
218.14	2410.64
218.604	2683.76
219.069	3067.01
219.534	3226.19
219.998	3732.54
220.463	4524.27
220.927	5506.9
221.392	5162.45
221.856	5222.3
222.32	6595.45
222.785	8126.01
223.249	10244.89
223.713	11412.35
224.177	11424.6
224.642	14610.55
225.106	17984.89
225.57	19628.81
226.034	14674.37
226.497	22342.41
226.961	20151.63
227.425	23436.02
227.889	26002.91
228.353	26004.44
228.816	53717.1
229.28	51413.1
229.744	43345.42
230.207	26387.57
230.671	25956.16
231.134	42868.32
231.597	49426.24
232.061	49498.92
232.524	48292.8
232.987	33265.74
233.45	29933.62
233.914	26869.21
234.377	27499.38
234.84	25157.25
235.303	29638.54
235.766	33059.08
236.229	34145.39
236.691	21500.03
237.154	24111.74
237.617	18162.63
238.08	18603.44
238.542	21761.93
239.005	15555.01
239.468	15457.64
239.93	14582.52
240.393	13258.91
240.855	11652.04
241.317	11941.2
241.78	14525.4
242.242	15035.45
242.704	16227.33
243.166	14128.43
243.629	12831.77
244.091	14772.27
244.553	16169.16
245.015	17391.13
245.477	22479.86
245.939	32908.02
246.4	34955.3
246.862	33994.48
247.324	32039.96
247.786	35840.06
248.247	46961.88
248.709	48486.92
249.17	36300.07
249.632	34281.61
250.093	39722.1
250.555	34307.91
251.016	20932.57
251.477	19798.03
251.939	21361
252.4	22411.47
252.861	26601
253.322	24750.07
253.783	29409.63
254.244	38111.14
254.705	29980.39
255.166	26656.23
255.627	26241.2
256.088	36993.67
256.549	39361.7
257.009	33872.8
257.47	41000.92
257.931	33401.28
258.391	24980.44
258.852	25761.36
259.312	26945.2
259.773	33219.89
260.233	28051.88
260.694	23622.05
261.154	26753.29
261.614	21447.12
262.074	19143.76
262.534	19891.87
262.994	18702.32
263.455	24885.99
263.915	20926.26
264.374	19695.41
264.834	21462.81
265.294	23745.83
265.754	24579.58
266.214	23239.95
266.673	21723.99
267.133	27376.65
267.593	27115.39
268.052	33159.94
268.512	28836.94
268.971	34793.68
269.431	38148.72
269.89	34163.43
270.349	51184.53
270.809	57018.32
271.268	51224.7
271.727	114759.81
272.186	74299
272.645	55689.32
273.104	40149.02
273.563	58091.59
274.022	45550.1
274.481	38706.2
274.94	29811.61
275.399	22139.39
275.857	25749.02
276.316	34815.64
276.775	30989.66
277.233	30519.08
277.692	28589.44
278.15	32363.81
278.609	33279.26
279.067	30813.33
279.525	28614.48
279.984	36974.67
280.442	44396.4
280.9	43799.22
281.358	28823.41
281.816	26868.61
282.274	26289.14
282.732	27136.82
283.19	27263.9
283.648	23537.31
284.106	25086.03
284.564	25516.9
285.021	23649.15
285.479	17656.31
285.937	16060.8
286.394	14098.96
286.852	14516.84
287.309	15275.19
287.767	14780.89
288.224	14045.22
288.682	15394.99
289.139	16911.66
289.596	15484.13
290.053	16069.93
290.511	20249.38
290.968	24571.99
291.425	33348.68
291.882	27774.6
292.339	24149.11
292.796	23942.64
293.252	22567.29
293.709	17955.03
294.166	16075.91
294.623	17780.42
295.079	17078.05
295.536	17192.29
295.992	15614.64
296.449	15433.88
296.905	16022.96
297.362	15390.73
297.818	16194.98
298.274	16826.07
298.731	17140.48
299.187	16977.84
299.643	18220.92
300.099	22059.97
300.555	24149.77
301.011	20158.6
301.467	19447.78
301.923	22768.03
302.379	22244.32
302.835	21843.42
303.291	21860.42
303.746	24877.13
304.202	31458.91
304.658	31612.67
305.113	21240.84
305.569	20837.45
306.024	22246.01
306.479	21157.71
306.935	17851.46
307.39	19465.62
307.845	17977.64
308.301	18121.63
308.756	17663.91
309.211	17005.44
309.666	17409.97
310.121	21648.34
310.576	21949.25
311.031	21719.5
311.486	24875.9
311.94	24879.75
312.395	33326.2
312.85	62656.53
313.305	307141.07
313.759	1592193.64
314.214	115402.43
314.668	91498.63
315.123	77042.88
315.577	27688.48
316.032	24712.62
316.486	31016.73
316.94	24490.79
317.394	17044.02
317.849	13243.4
318.303	12529.14
318.757	11826.5
319.211	13077.25
319.665	11456.69
320.119	11570.43
320.572	16570.93
321.026	15466.67
321.48	12879.14
321.934	14011.06
322.387	14032.96
322.841	15173.39
323.295	13673.62
323.748	15714.07
324.202	15957.35
324.655	19154.22
325.108	26816.38
325.562	18953.95
326.015	22556.75
326.468	17005.29
326.921	19006.47
327.374	17723.47
327.827	18453.47
328.28	20867.71
328.733	14006.04
329.186	12296.48
329.639	11705.33
330.092	9858.06
330.545	9388.41
330.997	9461.13
331.45	10355.99
331.903	12176.18
332.355	20947.84
332.808	20305.1
333.26	16715.54
333.713	18134.22
334.165	18273.08
334.617	24442.97
335.069	19726.19
335.522	35688.1
335.974	39557.87
336.426	36131.33
336.878	24967.65
337.33	12671.53
337.782	12380.05
338.234	15544.95
338.686	18564.19
339.137	22010.05
339.589	20695.55
340.041	16213.35
340.493	13917.59
340.944	14238.56
341.396	15341.63
341.847	12933.16
342.299	15283.07
342.75	18678.84
343.201	16301.78
343.653	18745.2
344.104	23023.12
344.555	18108.52
345.006	28129.44
345.457	21591.95
345.908	17123.89
346.359	16121.61
346.81	13103.23
347.261	13759.52
347.712	13519.54
348.163	14503.12
348.613	14737.26
349.064	13764.3
349.515	12064.14
349.965	12399.69
350.416	14912.51
350.866	16357.11
351.317	18455.18
351.767	30546.81
352.217	38606.95
352.668	32107.84
353.118	29428.46
353.568	28276.61
354.018	22374.5
354.468	23578.91
354.918	16902.43
355.368	14752.26
355.818	20858.08
356.268	60020.15
356.718	251235.89
357.168	62669.95
357.617	31468.46
358.067	34967.37
358.517	32717.46
358.966	38359.19
359.416	43088.12
359.865	46475.6
360.315	55347.83
360.764	25826.4
361.213	14482.51
361.663	13682.62
362.112	16844.14
362.561	27187.72
363.01	20501.36
363.459	17269.5
363.908	18637.22
364.357	15794.57
364.806	26672.71
365.255	18362.76
365.703	16856.12
366.152	16850.99
366.601	13691.89
367.05	11145.29
367.498	10124.44
367.947	10573.12
368.395	10972.69
368.844	9721.58
369.292	11685.11
369.74	8058.86
370.189	12333.28
370.637	14394.54
371.085	12435.1
371.533	15111.67
371.981	14493.4
372.429	13803.2
372.877	14374.86
373.325	12056.35
373.773	12256.19
374.221	10914.79
374.669	13555.07
375.116	11666.38
375.564	11772.23
376.012	13144.05
376.459	10815.72
376.907	12932.73
377.354	15598.73
377.801	14507.69
378.249	16647.32
378.696	21263.23
379.143	25725.1
379.591	27372.81
380.038	46431.94
380.485	33534.5
380.932	36065.87
381.379	33070.28
381.826	24338.02
382.273	17260.58
382.72	15056.14
383.166	14650.71
383.613	9507.14
384.06	8559.19
384.506	9900.89
384.953	7242.38
385.4	7258.63
385.846	6355.8
386.292	6165.19
386.739	6006.88
387.185	5920.08
387.631	5914.58
388.078	5741.44
388.524	6117.27
388.97	5639.73
389.416	4700.72
389.862	4990.71
390.308	4731.88
390.754	4791.62
391.2	5192.36
391.645	5303.35
392.091	5102.4
392.537	4936.42
392.983	4936.16
393.428	4887.76
393.874	5228.1
394.319	5263.88
394.765	5011.34
395.21	5145.76
395.655	4841.11
396.101	4545.46
396.546	4117.07
396.991	4142.9
397.436	3856.85
397.881	3731.55
398.326	3525.13
398.771	3357.74
399.216	2931.73
399.661	2644.25
400.106	2653.68
400.551	2735.61
400.995	2468.39
401.44	2454.27
401.885	2319.13
402.329	2354.12
402.774	2270.76
403.218	2218.42
403.663	2148.08
404.107	2224.31
404.551	2255.8
404.995	2077.01
405.44	2008.11
405.884	2047.8
406.328	1995.68
406.772	2002.76
407.216	1834.72
407.66	1784.07
408.104	1698.42
408.547	1598.29
408.991	1556.78
409.435	1503.74
409.879	1490.08
410.322	1474.83
410.766	1431.45
411.209	1365.86
411.653	1318.08
412.096	1297.72
412.54	1301.27
412.983	1299.78
413.426	1312.37
413.869	1315.43
414.312	1297.03
414.756	1253.22
415.199	1201.18
415.642	1170.74
416.085	1177.48
416.527	1171.09
416.97	1193.51
417.413	1136.55
417.856	1129.44
418.298	1119.34
418.741	1113.22
419.184	1111.67
419.626	1160.02
420.069	1161.6
420.511	1172.15
420.953	1149.47
421.396	1142.1
421.838	1114.3
422.28	1142.15
422.722	1147.74
423.164	1161.81
423.606	1145.4
424.048	1144.97
424.49	1090.69
424.932	1089.04
425.374	1073.76
425.816	1092.63
426.258	1112.51
426.699	1124.73
427.141	1110.32
427.582	1123.76
428.024	1117.03
428.465	1108.06
428.907	1081.59
429.348	1067.7
429.789	1068.03
430.231	1046.79
430.672	1061.21
431.113	1035.58
431.554	1020.94
431.995	994.33
432.436	961.04
432.877	941.75
433.318	926.31
433.759	921.98
434.2	923.33
434.64	912.64
435.081	915.76
435.522	866.09
435.962	836.23
436.403	819.98
436.843	832.8
437.284	818.05
437.724	798.93
438.164	801.59
438.604	786.16
439.045	759.25
439.485	732.47
439.925	717.33
440.365	703.47
440.805	697.1
441.245	693.02
441.685	670.31
442.125	667.06
442.564	675.31
443.004	666.99
443.444	669.83
443.883	674.1
444.323	671.46
444.762	676.77
445.202	689.08
445.641	706.3
446.081	705.01
446.52	715.83
446.959	715.5
447.398	702.39
447.837	695.74
448.276	688.42
448.716	699.67
449.154	710.9
449.593	700.84
450.032	704.48
450.471	694.75
450.91	699.58
451.349	700.86
451.787	700.95
452.226	714.23
452.664	719.1
453.103	723.07
453.541	724.39
453.98	724.65
454.418	731.59
454.856	722.19
455.295	723.89
455.733	730.33
456.171	736.01
456.609	735.51
457.047	735.31
457.485	745.53
457.923	746.23
458.361	736.68
458.798	739.15
459.236	736.8
459.674	741.73
460.111	744.07
460.549	735.13
460.987	731.73
461.424	729.39
461.862	725.19
462.299	713.19
462.736	711.93
463.173	713.3
463.611	706
464.048	702.71
464.485	705.72
464.922	698.61
465.359	694.68
465.796	685.57
466.233	681.18
466.67	675.46
467.106	674.55
467.543	668.66
467.98	660.62
468.416	643.61
468.853	638.43
469.29	621.41
469.726	615.59
470.162	600.64
470.599	593.36
471.035	588.58
471.471	574.88
471.907	571.66
472.344	568.95
472.78	572.11
473.216	579.67
473.652	574.41
474.088	574.48
474.523	574.92
474.959	582.07
475.395	578.27
475.831	576.4
476.266	581.54
476.702	581.54
477.138	575.97
477.573	574.78
478.008	573.89
478.444	578.44
478.879	585.05
479.314	588.37
479.75	589.57
480.185	593.12
480.62	598.29
481.055	602.51
481.49	607.89
481.925	618.09
482.36	631.25
482.795	650.48
483.229	668.09
483.664	682.04
484.099	684.5
484.534	696.09
484.968	705.13
485.403	709.72
485.837	710.38
486.271	710.2
486.706	713.17
487.14	706.34
487.574	696.33
488.009	691.46
488.443	687.45
488.877	696.77
489.311	700.73
489.745	710.28
490.179	719.6
490.613	735.16
491.046	744.61
491.48	752.29
491.914	755.13
492.348	763.58
492.781	772.68
493.215	777.67
493.648	782.86
494.082	792.01
494.515	797.08
494.948	810.28
495.382	819.59
495.815	829.18
496.248	840.13
496.681	860.56
497.114	879.63
497.547	895.42
497.98	917.66
498.413	930.65
498.846	948.37
499.279	964.47
499.711	975.33
500.144	984.68
500.577	1004.33
501.009	1023.59
501.442	1041.15
501.874	1048.59
502.306	1058.03
502.739	1071.71
503.171	1096.62
503.603	1106.18
504.036	1122.51
504.468	1133.36
504.9	1152.18
505.332	1165.37
505.764	1175.17
506.196	1188.52
506.627	1211.15
507.059	1232.47
507.491	1247.85
507.923	1247.81
508.354	1270.29
508.786	1287.71
509.217	1314.22
509.649	1336.03
510.08	1361.92
510.512	1386.41
510.943	1408.53
511.374	1425.27
511.805	1452.22
512.237	1478.54
512.668	1521.05
513.099	1557.08
513.53	1592.59
513.961	1619.59
514.391	1661.52
514.822	1704.45
515.253	1749.54
515.684	1780.32
516.114	1815.43
516.545	1840.23
516.975	1870.4
517.406	1891.75
517.836	1890.83
518.267	1895.87
518.697	1914.62
519.127	1915.21
519.558	1919.64
519.988	1918.63
520.418	1926.71
520.848	1944.3
521.278	1950.76
521.708	1967.76
522.138	1978.87
522.567	2015.31
522.997	2042.06
523.427	2057.15
523.857	2075.26
524.286	2083.96
524.716	2098.94
525.145	2118.94
525.575	2129.15
526.004	2143.56
526.433	2130.84
526.863	2128.22
527.292	2110.15
527.721	2114.24
528.15	2118.32
528.579	2114.32
529.008	2125.37
529.437	2151.44
529.866	2165.75
530.295	2185.58
530.724	2198.09
531.152	2230.92
531.581	2244.94
532.01	2266
532.438	2273.37
532.867	2289.88
533.295	2310.71
533.723	2315.66
534.152	2311.28
534.58	2309.15
535.008	2286.73
535.436	2288.37
535.865	2295.66
536.293	2312.62
536.721	2330.53
537.149	2361.15
537.576	2363.52
538.004	2378.12
538.432	2387.18
538.86	2384.9
539.287	2392.14
539.715	2408.61
540.143	2409.22
540.57	2403.71
540.998	2397.71
541.425	2366.27
541.852	2339.39
542.28	2335.06
542.707	2314.51
543.134	2295.48
543.561	2288.5
543.988	2277.84
544.415	2274.52
544.842	2267.51
545.269	2258.08
545.696	2259.55
546.123	2274.89
546.549	2261.71
546.976	2245.93
547.403	2245.93
547.829	2249.23
548.256	2251.86
548.682	2248.67
549.108	2239.88
549.535	2239.96
549.961	2243.24
550.387	2227.86
550.813	2222.99
551.24	2231.31
551.666	2233.75
552.092	2222.07
552.518	2213.96
552.943	2208.01
553.369	2218.99
553.795	2228.26
554.221	2231.9
554.646	2228.71
555.072	2244.69
555.498	2253.93
555.923	2268.11
556.349	2288.94
556.774	2301.5
557.199	2306.84
557.625	2317.28
558.05	2311.78
558.475	2327.77
558.9	2329.29
559.325	2323.03
559.75	2316.84
560.175	2311.36
560.6	2306.59
561.025	2306.73
561.449	2311.95
561.874	2322.06
562.299	2329.97
562.723	2343.53
563.148	2334.84
563.572	2344.26
563.997	2361.14
564.421	2372.44
564.846	2376.26
565.27	2384.15
565.694	2385.46
566.118	2405.21
566.542	2419.13
566.966	2415.7
567.39	2415.04
567.814	2405.56
568.238	2407.64
568.662	2418.4
569.086	2426.71
569.509	2441.72
569.933	2426.16
570.357	2421.4
570.78	2397.05
571.204	2382.98
571.627	2373.29
572.05	2373.22
572.474	2376.85
572.897	2365.39
573.32	2359.22
573.743	2350.72
574.166	2330.97
574.589	2336.21
575.012	2329.83
575.435	2333.11
575.858	2325.95
576.281	2316.06
576.704	2300.03
577.126	2288.56
577.549	2278.16
577.972	2268.98
578.394	2258.95
578.817	2252.2
579.239	2230.92
579.661	2216.24
580.084	2198.77
580.506	2185.62
580.928	2183.69
581.35	2171.43
581.772	2168.23
582.194	2152.83
582.616	2138.55
583.038	2122.3
583.46	2110.83
583.882	2109.25
584.303	2118.54
584.725	2115.54
585.147	2118.91
585.568	2135
585.99	2154.86
586.411	2166.75
586.833	2190.14
587.254	2195.09
587.675	2217.05
588.096	2238.09
588.518	2232.53
588.939	2210.87
589.36	2209.07
589.781	2198.46
590.202	2160.3
590.623	2149.91
591.043	2147.67
591.464	2130.63
591.885	2125.5
592.305	2118.21
592.726	2100.33
593.147	2103.13
593.567	2096.65
593.987	2087.1
594.408	2080.07
594.828	2078.66
595.248	2070.93
595.669	2045.6
596.089	2036.08
596.509	2028.34
596.929	2008.94
597.349	2009.65
597.769	1996.01
598.189	1988.08
598.608	1990.87
599.028	1994
599.448	1994.95
599.867	1978.07
600.287	1973.09
600.706	1967.51
601.126	1954.24
601.545	1953.57
601.965	1953.21
602.384	1946.09
602.803	1951.04
603.222	1946.33
603.641	1938.37
604.061	1933.36
604.48	1929.13
604.898	1942.37
605.317	1952.7
605.736	1958.19
606.155	1956.69
606.574	1945.23
606.992	1956.37
607.411	1952.57
607.829	1942.58
608.248	1941.19
608.666	1941.62
609.085	1942.44
609.503	1932.24
609.921	1924.82
610.339	1930.71
610.758	1934.41
611.176	1931.58
611.594	1920.51
612.012	1918.51
612.43	1926.1
612.847	1937.94
613.265	1942.35
613.683	1952.58
614.101	1958.98
614.518	1958.03
614.936	1945.71
615.353	1924.65
615.771	1922.24
616.188	1925.67
616.606	1921.76
617.023	1914.48
617.44	1895.77
617.857	1888.37
618.274	1877.51
618.691	1869.2
619.108	1855.99
619.525	1849.39
619.942	1861.55
620.359	1865.84
620.776	1858.97
621.192	1854.5
621.609	1850.79
622.026	1861.13
622.442	1869.39
622.859	1876.06
623.275	1866.73
623.691	1876.53
624.108	1893.66
624.524	1916.26
624.94	1918.58
625.356	1934.2
625.772	1954.35
626.188	1973.78
626.604	1976.94
627.02	1970.62
627.436	1966.16
627.852	1975.19
628.268	1992.44
628.683	1978.46
629.099	1963.9
629.514	1955.67
629.93	1960.99
630.345	1967.39
630.761	1961.34
631.176	1966.38
631.591	1958.33
632.007	1949.09
632.422	1946.5
632.837	1928.33
633.252	1924
633.667	1909.15
634.082	1895.29
634.497	1874.72
634.911	1843.74
635.326	1836.78
635.741	1810.2
636.155	1794.16
636.57	1795.23
636.984	1793.26
637.399	1794.71
637.813	1792.51
638.228	1788.1
638.642	1792.16
639.056	1776.32
639.47	1775.07
639.884	1759.07
640.298	1745.95
640.712	1740.78
641.126	1719.57
641.54	1704.01
641.954	1693.91
642.368	1672.52
642.781	1656.37
643.195	1628.5
643.609	1625.38
644.022	1613.82
644.436	1605.32
644.849	1585.89
645.262	1566.38
645.676	1566.5
646.089	1557.95
646.502	1533.34
646.915	1524.35
647.328	1500.75
647.741	1494.75
648.154	1473.58
648.567	1468.48
648.98	1450.11
649.393	1449.67
649.805	1443.79
650.218	1431.67
650.631	1406.97
651.043	1397.42
651.456	1388.13
651.868	1389.26
652.28	1414.44
652.693	1433.62
653.105	1442.65
653.517	1455.39
653.929	1455.45
654.341	1463.32
654.753	1446.09
655.165	1454.2
655.577	1450.96
655.989	1444.27
656.401	1429.69
656.813	1376.87
657.224	1348.31
657.636	1305.5
658.047	1276.82
658.459	1247.7
658.87	1231.59
659.282	1212.5
659.693	1181.62
660.104	1156.21
660.515	1133.9
660.926	1126.88
661.338	1117.82
661.749	1102.87
662.159	1085.12
662.57	1074.65
662.981	1062.56
663.392	1047.2
663.803	1045.07
664.213	1034.05
664.624	1022.01
665.035	1017.59
665.445	993.58
665.855	976.56
666.266	959.18
666.676	949.38
667.086	930.43
667.497	921.09
667.907	906.77
668.317	889.08
668.727	879.03
669.137	874.1
669.547	865.18
669.956	862.4
670.366	859.72
670.776	856.68
671.186	856.35
671.595	856.47
672.005	855.47
672.414	850.39
672.824	844.42
673.233	845.31
673.642	844.91
674.052	844.82
674.461	844.52
674.87	845.34
675.279	840.27
675.688	838.85
676.097	838.26
676.506	833.88
676.915	848.4
677.323	851.33
677.732	849.54
678.141	848.79
678.549	838.65
678.958	839.76
679.366	843.27
679.775	852.24
680.183	869.21
680.592	882.17
681	896.68
681.408	897.73
681.816	916.36
682.224	937.69
682.632	962.58
683.04	1012.81
683.448	1057.35
683.856	1111.93
684.264	1175.55
684.671	1235.77
685.079	1305.79
685.487	1384.8
685.894	1488.86
686.302	1580.17
686.709	1659.44
687.116	1749.52
687.524	1826.13
687.931	1894.24
688.338	1951.15
688.745	2000.11
689.152	2054.25
689.559	2124.2
689.966	2185.35
690.373	2214.38
690.78	2267.71
691.187	2352.52
691.593	2410.09
692	2458.84
692.407	2533.49
692.813	2624.75
693.22	2691.31
693.626	2759.8
694.032	2806.96
694.439	2892.28
694.845	2947.97
695.251	3026.21
695.657	3087.79
