Data from N_3_DEC_ON_6N_Splice17_13-37-39-023.txt Node
Date: Sat Mar 14 13:37:39 EDT 2020
User: sa697716
Spectrometer: FLMS03696
Trigger mode: 0
Integration Time (sec): 3.180400E-1
Scans to average: 20
Electric dark correction enabled: true
Nonlinearity correction enabled: true
Boxcar width: 5
XAxis mode: Wavelengths
Number of Pixels in Spectrum: 2048
>>>>>Begin Spectral Data<<<<<
187.83	-429246.85
188.298	2932.98
188.766	1508.9
189.233	1384.92
189.701	1951.76
190.169	2791.22
190.636	1060.51
191.104	875.77
191.571	161.07
192.039	-85.95
192.506	-109.03
192.974	560.44
193.441	-986.76
193.908	-440.31
194.375	-148.25
194.842	-84.11
195.31	37.2
195.777	165.35
196.244	431.25
196.711	517.43
197.177	621.7
197.644	879.2
198.111	1555.81
198.578	2134.65
199.045	1703.22
199.511	2774.2
199.978	3216.86
200.445	2758.9
200.911	3053.92
201.378	3385.65
201.844	3055.06
202.31	5258.52
202.777	5470.65
203.243	3003.2
203.709	2881.9
204.176	3424.34
204.642	2847.72
205.108	2651.57
205.574	2138.04
206.04	1928.76
206.506	1796.85
206.972	1695.92
207.438	1642.08
207.903	1866.05
208.369	1639.23
208.835	1623.75
209.301	1697.29
209.766	1714.47
210.232	1700.08
210.697	2098.73
211.163	2572.28
211.628	3865.64
212.094	3230.25
212.559	3963.61
213.024	2450.45
213.49	2982.96
213.955	2900.68
214.42	2823.12
214.885	2627.15
215.35	2511.73
215.815	2460.42
216.28	2602.29
216.745	2115.28
217.21	2281.14
217.675	2057.12
218.14	2306.39
218.604	2539.8
219.069	2868.12
219.534	2997.52
219.998	3452.92
220.463	4138.17
220.927	4988.03
221.392	4672.66
221.856	4715.69
222.32	5895.63
222.785	7254.57
223.249	9038.32
223.713	10071.21
224.177	10049.08
224.642	12823.05
225.106	15719.3
225.57	17183.7
226.034	12818.81
226.497	19515.4
226.961	17593.33
227.425	20469.87
227.889	22651.35
228.353	22708.81
228.816	46723.31
229.28	44670.37
229.744	37685.82
230.207	22928.49
230.671	22502.16
231.134	37053
231.597	42716.15
232.061	42697.93
232.524	41604.79
232.987	28685.39
233.45	25782.37
233.914	23145.89
234.377	23692.48
234.84	21691.58
235.303	25615.1
235.766	28612.31
236.229	29567.3
236.691	18616.35
237.154	20917.45
237.617	15748.5
238.08	16116.97
238.542	18877.74
239.005	13501.43
239.468	13413.91
239.93	12633.89
240.393	11466.77
240.855	10061.58
241.317	10305.03
241.78	12523.53
242.242	12953.68
242.704	13998.66
243.166	12200.57
243.629	11105.03
244.091	12806.28
244.553	14045.67
245.015	15117.62
245.477	19566.26
245.939	28721.76
246.4	30515.36
246.862	29684.74
247.324	27997.45
247.786	31332.38
248.247	41103.59
248.709	42379.39
249.17	31704.62
249.632	29930.88
250.093	34766.18
250.555	30064.37
251.016	18363.83
251.477	17446.15
251.939	18867.01
252.4	19819.28
252.861	23574.84
253.322	21949.46
253.783	26155.85
254.244	34002.21
254.705	26789.92
255.166	23807.05
255.627	23428.59
256.088	33127.07
256.549	35244.22
257.009	30340.7
257.47	36799.22
257.931	29990.34
258.391	22500.41
258.852	23191.3
259.312	24284.87
259.773	30036.41
260.233	25454.44
260.694	21525.52
261.154	24394.42
261.614	19636.49
262.074	17589.6
262.534	18306.17
262.994	17283.32
263.455	23053.84
263.915	19465.58
264.374	18364.81
264.834	20069.5
265.294	22225.37
265.754	23035.04
266.214	21812.5
266.673	20426.81
267.133	25789.11
267.593	25584.13
268.052	31337.45
268.512	27262.63
268.971	32904.43
269.431	36097.34
269.89	32344.41
270.349	48555.22
270.809	54159.29
271.268	48734.61
271.727	109306.44
272.186	70894.92
272.645	53212.27
273.104	38387.25
273.563	55649.91
274.022	43762.34
274.481	37319.13
274.94	28781.71
275.399	21407.28
275.857	24961.99
276.316	33803.53
276.775	30120.35
277.233	29669.6
277.692	27847.24
278.15	31565.01
278.609	32515.78
279.067	30129.6
279.525	28021.18
279.984	36227.82
280.442	43565.31
280.9	43003.41
281.358	28325.48
281.816	26410.12
282.274	25861.7
282.732	26708.49
283.19	26835.18
283.648	23148.68
284.106	24691.49
284.564	25115.74
285.021	23293.59
285.479	17382.29
285.937	15800.59
286.394	13869.03
286.852	14267.98
287.309	15002.19
287.767	14531.85
288.224	13840.32
288.682	15211.07
289.139	16698.52
289.596	15289.86
290.053	15923.23
290.511	20089.32
290.968	24421.91
291.425	33193.3
291.882	27720.98
292.339	24183.62
292.796	23989.85
293.252	22610.14
293.709	17974.71
294.166	16134
294.623	17837.7
295.079	17100.42
295.536	17212.05
295.992	15627
296.449	15437.92
296.905	16020.27
297.362	15396.03
297.818	16198.03
298.274	16828.97
298.731	17166.05
299.187	16990.55
299.643	18256.21
300.099	22113.15
300.555	24252.12
301.011	20265.88
301.467	19600.85
301.923	22973.7
302.379	22437.83
302.835	22059.32
303.291	22114.54
303.746	25197.27
304.202	31838.21
304.658	31974.02
305.113	21529
305.569	21129.65
306.024	22546.41
306.479	21423.93
306.935	18093.22
307.39	19756.41
307.845	18263.23
308.301	18391.44
308.756	17908.16
309.211	17247.49
309.666	17682.07
310.121	21973.26
310.576	22299.34
311.031	22153.16
311.486	25382.15
311.94	25322.54
312.395	33891.89
312.85	63663.58
313.305	312294.1
313.759	1620232.43
314.214	117766.18
314.668	93438.87
315.123	78759.34
315.577	28273.05
316.032	25166.56
316.486	31611.75
316.94	24974.78
317.394	17398.29
317.849	13539.85
318.303	12827.03
318.757	12111.12
319.211	13402.03
319.665	11739.61
320.119	11862.09
320.572	16995.9
321.026	15885.77
321.48	13237.45
321.934	14445.07
322.387	14490.89
322.841	15663.48
323.295	14129.26
323.748	16275.37
324.202	16518.92
324.655	19897.66
325.108	27880.15
325.562	19724.87
326.015	23467.61
326.468	17725.88
326.921	19860.74
327.374	18533.46
327.827	19389.91
328.28	21933.88
328.733	14712.51
329.186	12944.09
329.639	12319.83
330.092	10391.9
330.545	9904.6
330.997	9987.1
331.45	10952.65
331.903	12861.3
332.355	22091.45
332.808	21386.07
333.26	17669.93
333.713	19184.58
334.165	19310.16
334.617	25751.31
335.069	20761.84
335.522	37609.19
335.974	41735.89
336.426	38070.15
336.878	26301.32
337.33	13376.69
337.782	13070.83
338.234	16375.04
338.686	19605.42
339.137	23226.97
339.589	21899.16
340.041	17161.2
340.493	14738.7
340.944	15084.45
341.396	16247.97
341.847	13688.78
342.299	16165.83
342.75	19769.54
343.201	17272.94
343.653	19876.77
344.104	24493.62
344.555	19297.08
345.006	30066.76
345.457	23070.55
345.908	18333.1
346.359	17269.74
346.81	14075.06
347.261	14823.62
347.712	14580.84
348.163	15624.73
348.613	15837.39
349.064	14788.24
349.515	12939.41
349.965	13293.8
350.416	15996.58
350.866	17553.47
351.317	19826.35
351.767	32844.6
352.217	41572.12
352.668	34536.26
353.118	31673.35
353.568	30531.64
354.018	24133.66
354.468	25480.77
354.918	18298.9
355.368	16042.46
355.818	22671.21
356.268	65244.25
356.718	273682.48
357.168	68101.73
357.617	34227.73
358.067	38067.97
358.517	35677.28
358.966	41952.87
359.416	47143.79
359.865	50874.14
360.315	60569.6
360.764	28360.71
361.213	15944.33
361.663	15096.61
362.112	18628.47
362.561	30150.17
363.01	22783.78
363.459	19186.07
363.908	20764.79
364.357	17706.43
364.806	30022.13
365.255	20685.11
365.703	19018.72
366.152	19113.54
366.601	15539.62
367.05	12710.28
367.498	11589.95
367.947	12174.33
368.395	12739.6
368.844	11359.11
369.292	13743.35
369.74	9541.93
370.189	14693.16
370.637	17324.88
371.085	15049.2
371.533	18453.67
371.981	17905.96
372.429	17206.65
372.877	18111.22
373.325	15294.23
373.773	15752.29
374.221	14167.93
374.669	17758.59
375.116	15504.51
375.564	15811.41
376.012	17865.5
376.459	14918.13
376.907	18047.94
377.354	22105.58
377.801	20847.85
378.249	24308.36
378.696	31462.88
379.143	38673.8
379.591	41935.55
380.038	72094.04
380.485	53035.86
380.932	58257.76
381.379	54197.95
381.826	40535.16
382.273	29312.06
382.72	26093.33
383.166	25874.27
383.613	17077.29
384.06	15655.27
384.506	18399.59
384.953	13757.65
385.4	14083.16
385.846	12534.94
386.292	12422.59
386.739	12355.65
387.185	12402.96
387.631	12587.78
388.078	12384.65
388.524	13438.36
388.97	12587.11
389.416	10657.57
389.862	11477.6
390.308	11021.93
390.754	11329.05
391.2	12456.13
391.645	12889.29
392.091	12442.29
392.537	12161
392.983	12323.16
393.428	12226.19
393.874	13246.47
394.319	13406.92
394.765	12828.5
395.21	13301.82
395.655	12589.18
396.101	11881.8
396.546	10816.41
396.991	11027.31
397.436	10305.93
397.881	10022.19
398.326	9578.38
398.771	9104.53
399.216	8016.25
399.661	7274.15
400.106	7282.2
400.551	7492.46
400.995	6759.82
401.44	6723.48
401.885	6342.47
402.329	6441.45
402.774	6204.18
403.218	6008.27
403.663	5812.67
404.107	5986.76
404.551	6035.64
404.995	5549.65
405.44	5364.66
405.884	5460.53
406.328	5299.26
406.772	5299.03
407.216	4834.69
407.66	4684.12
408.104	4464.85
408.547	4186.59
408.991	4058.4
409.435	3921.16
409.879	3868.04
410.322	3820.9
410.766	3688.89
411.209	3504.33
411.653	3360.37
412.096	3288.59
412.54	3291.52
412.983	3273.99
413.426	3277.31
413.869	3275.16
414.312	3203.94
414.756	3088.35
415.199	2943.29
415.642	2856.24
416.085	2858.75
416.527	2840.18
416.97	2886.22
417.413	2737.89
417.856	2711.85
418.298	2692.92
418.741	2680.47
419.184	2679.67
419.626	2798.81
420.069	2801.68
420.511	2816.47
420.953	2757.17
421.396	2733.27
421.838	2666.57
422.28	2727.55
422.722	2734.4
423.164	2766.57
423.606	2717.59
424.048	2714.67
424.49	2573.28
424.932	2561.45
425.374	2525.46
425.816	2566.47
426.258	2615.05
426.699	2642.08
427.141	2597.37
427.582	2637.83
428.024	2624.6
428.465	2606.06
428.907	2535.63
429.348	2500.74
429.789	2491.57
430.231	2430.48
430.672	2457.82
431.113	2392.75
431.554	2350.52
431.995	2284.86
432.436	2193.32
432.877	2135.74
433.318	2090.65
433.759	2076.4
434.2	2072.28
434.64	2046.83
435.081	2049.03
435.522	1937.2
435.962	1862.76
436.403	1815.38
436.843	1840.53
437.284	1801.01
437.724	1755.86
438.164	1763.62
438.604	1724.51
439.045	1657.6
439.485	1587.32
439.925	1555.92
440.365	1521.8
440.805	1504.54
441.245	1488.55
441.685	1437.66
442.125	1430.52
442.564	1441.2
443.004	1410.76
443.444	1411.3
443.883	1417.07
444.323	1414.08
444.762	1424.83
445.202	1449.6
445.641	1477.94
446.081	1476.71
446.52	1491.74
446.959	1481.32
447.398	1448.09
447.837	1435.64
448.276	1415.97
448.716	1434.02
449.154	1451.95
449.593	1418.44
450.032	1415.35
450.471	1395.03
450.91	1399.82
451.349	1398.96
451.787	1397.58
452.226	1422.99
452.664	1425.64
453.103	1431.94
453.541	1434.64
453.98	1431.91
454.418	1447.21
454.856	1425.15
455.295	1425.25
455.733	1438.98
456.171	1448.97
456.609	1449.25
457.047	1450.23
457.485	1471.21
457.923	1471.91
458.361	1451.97
458.798	1457.85
459.236	1452.75
459.674	1465.23
460.111	1470.52
460.549	1453.64
460.987	1447.26
461.424	1444.38
461.862	1436.59
462.299	1413.26
462.736	1408.78
463.173	1412.18
463.611	1392.93
464.048	1386.17
464.485	1394.23
464.922	1379.52
465.359	1371.38
465.796	1345.84
466.233	1331.89
466.67	1314.69
467.106	1308.56
467.543	1296.6
467.98	1280.72
468.416	1250.32
468.853	1241.86
469.29	1205.84
469.726	1193.7
470.162	1163.76
470.599	1154.85
471.035	1147.27
471.471	1122.8
471.907	1120.75
472.344	1115.26
472.78	1119.47
473.216	1135.17
473.652	1124.51
474.088	1123.21
474.523	1122.43
474.959	1135.49
475.395	1129.11
475.831	1125.16
476.266	1133.27
476.702	1132.08
477.138	1123.16
477.573	1122.72
478.008	1119.84
478.444	1126.51
478.879	1138.28
479.314	1144.7
479.75	1145.44
480.185	1153.93
480.62	1165.47
481.055	1174.23
481.49	1184.93
481.925	1203.57
482.36	1224.65
482.795	1263.02
483.229	1300.93
483.664	1330.81
484.099	1338.39
484.534	1361
484.968	1374.35
485.403	1381.48
485.837	1382.41
486.271	1382.12
486.706	1385.99
487.14	1372.3
487.574	1351.56
488.009	1339.52
488.443	1329.72
488.877	1343.78
489.311	1349.8
489.745	1366.53
490.179	1379.79
490.613	1403.9
491.046	1416.15
491.48	1426.99
491.914	1429.96
492.348	1440.97
492.781	1450.38
493.215	1454.79
493.648	1458.99
494.082	1471.26
494.515	1472.23
494.948	1487.48
495.382	1500.33
495.815	1510.31
496.248	1521.9
496.681	1549.5
497.114	1573.43
497.547	1593.21
497.98	1618.59
498.413	1629.32
498.846	1646.58
499.279	1663.5
499.711	1670.86
500.144	1672.52
500.577	1689.82
501.009	1709.23
501.442	1723.99
501.874	1720.65
502.306	1719.89
502.739	1728.48
503.171	1753.67
503.603	1753.76
504.036	1766.87
504.468	1771.88
504.9	1786.72
505.332	1792.18
505.764	1791.52
506.196	1796.75
506.627	1816.8
507.059	1833.19
507.491	1840.98
507.923	1825.04
508.354	1842.15
508.786	1848.86
509.217	1869.38
509.649	1884.56
510.08	1906.11
510.512	1921.84
510.943	1934.23
511.374	1938.32
511.805	1958.57
512.237	1976.71
512.668	2017.25
513.099	2048.23
513.53	2079.13
513.961	2095.45
514.391	2130.3
514.822	2167.29
515.253	2208.45
515.684	2230.58
516.114	2259.76
516.545	2275.93
516.975	2298.32
517.406	2309
517.836	2293.73
518.267	2283.54
518.697	2293.8
519.127	2282.37
519.558	2274.6
519.988	2261.53
520.418	2260.9
520.848	2270.48
521.278	2265.69
521.708	2268.95
522.138	2271.58
522.567	2301.95
522.997	2323.61
523.427	2329.85
523.857	2339.24
524.286	2339.61
524.716	2348.84
525.145	2361.84
525.575	2364.67
526.004	2374.36
526.433	2354.23
526.863	2342.67
527.292	2317.83
527.721	2315.56
528.15	2313.95
528.579	2306.15
529.008	2312.33
529.437	2335.04
529.866	2345.88
530.295	2361.45
530.724	2369.61
531.152	2400.69
531.581	2413.01
532.01	2429.89
532.438	2435.61
532.867	2450.81
533.295	2469.58
533.723	2472.34
534.152	2463.44
534.58	2459.13
535.008	2434
535.436	2431.88
535.865	2438.01
536.293	2453.48
536.721	2471.08
537.149	2501.62
537.576	2502.04
538.004	2516.53
538.432	2524.66
538.86	2519.57
539.287	2525.76
539.715	2542.07
540.143	2545.17
540.57	2537.81
540.998	2531.13
541.425	2498.94
541.852	2467.98
542.28	2463.12
542.707	2439.87
543.134	2419.98
543.561	2413.51
543.988	2402.03
544.415	2399.68
544.842	2390.19
545.269	2380.76
545.696	2382.19
546.123	2398.44
546.549	2384.48
546.976	2367.42
547.403	2366.98
547.829	2369.89
548.256	2373.46
548.682	2369.61
549.108	2360
549.535	2360.76
549.961	2364.1
550.387	2347.54
550.813	2341.24
551.24	2351.32
551.666	2354.63
552.092	2342.27
552.518	2335.81
552.943	2329.73
553.369	2340.82
553.795	2349.15
554.221	2351.88
554.646	2349.14
555.072	2366.01
555.498	2376.58
555.923	2391.94
556.349	2415.37
556.774	2430.76
557.199	2435.22
557.625	2446.91
558.05	2444.41
558.475	2464.36
558.9	2468.61
559.325	2462.13
559.75	2459.83
560.175	2455.75
560.6	2452.53
561.025	2456.04
561.449	2464.23
561.874	2479.01
562.299	2491.23
562.723	2507.37
563.148	2500.92
563.572	2513.86
563.997	2537.06
564.421	2550.95
564.846	2560.27
565.27	2574.17
565.694	2578.56
566.118	2604.32
566.542	2623.86
566.966	2625.66
567.39	2629.02
567.814	2622.75
568.238	2631.03
568.662	2648.18
569.086	2661.79
569.509	2681.88
569.933	2668.3
570.357	2668.28
570.78	2647.57
571.204	2638.64
571.627	2632.11
572.05	2640.01
572.474	2649.7
572.897	2639.73
573.32	2638.96
573.743	2635.25
574.166	2617.83
574.589	2629.32
575.012	2626.83
575.435	2635.04
575.858	2630.8
576.281	2623.25
576.704	2608.05
577.126	2598.22
577.549	2593.12
577.972	2585.96
578.394	2579.04
578.817	2576.93
579.239	2556.02
579.661	2543.84
580.084	2526.31
580.506	2513
580.928	2515.68
581.35	2505.2
581.772	2506.82
582.194	2491.95
582.616	2479.01
583.038	2462.17
583.46	2451.46
583.882	2452.45
584.303	2466.49
584.725	2466.93
585.147	2475.63
585.568	2498.34
585.99	2524.38
586.411	2540.26
586.833	2570
587.254	2577.19
587.675	2606.04
588.096	2632.69
588.518	2630.58
588.939	2607.63
589.36	2608.03
589.781	2597.29
590.202	2552.38
590.623	2543.47
591.043	2545.36
591.464	2529.04
591.885	2526.51
592.305	2522.33
592.726	2502.32
593.147	2508.88
593.567	2503.51
593.987	2494.42
594.408	2489.51
594.828	2490.99
595.248	2481.85
595.669	2451.79
596.089	2441.24
596.509	2432.85
596.929	2410.35
597.349	2413.78
597.769	2398.41
598.189	2389.94
598.608	2394.99
599.028	2400.42
599.448	2404.89
599.867	2387.82
600.287	2384.29
600.706	2380.83
601.126	2368.09
601.545	2370.25
601.965	2373.5
602.384	2368.02
602.803	2376.01
603.222	2372.11
603.641	2364.68
604.061	2362.37
604.48	2358.99
604.898	2377.38
605.317	2391.18
605.736	2399.89
606.155	2400.48
606.574	2389.5
606.992	2404.45
607.411	2402.57
607.829	2393.98
608.248	2394.76
608.666	2396.64
609.085	2402.76
609.503	2394.22
609.921	2388.69
610.339	2398.99
610.758	2405.34
611.176	2402.76
611.594	2393.49
612.012	2393.9
612.43	2406.75
612.847	2425.62
613.265	2434.56
613.683	2450.13
614.101	2459.78
614.518	2460.35
614.936	2448.86
615.353	2428.33
615.771	2429.15
616.188	2436.6
616.606	2437.23
617.023	2429.98
617.44	2409.36
617.857	2402.75
618.274	2391.1
618.691	2384.18
619.108	2372.45
619.525	2366.75
619.942	2383.38
620.359	2392.74
620.776	2387.68
621.192	2383.32
621.609	2382.83
622.026	2398.7
622.442	2410.79
622.859	2422.51
623.275	2412.31
623.691	2424.97
624.108	2448.44
624.524	2478.52
624.94	2480.49
625.356	2501.58
625.772	2528.87
626.188	2554.29
626.604	2559.3
627.02	2553.78
627.436	2549.28
627.852	2562.63
628.268	2587.9
628.683	2572
629.099	2556.66
629.514	2551.55
629.93	2559.89
630.345	2570.03
630.761	2562.68
631.176	2569.91
631.591	2559.27
632.007	2549.45
632.422	2549.95
632.837	2530.83
633.252	2528.96
633.667	2511.54
634.082	2496.11
634.497	2474.23
634.911	2439.55
635.326	2437.47
635.741	2409.02
636.155	2396.4
636.57	2404.35
636.984	2409.93
637.399	2418.6
637.813	2426.35
638.228	2433.67
638.642	2449.49
639.056	2435.6
639.47	2445.03
639.884	2436.32
640.298	2432.3
640.712	2436.42
641.126	2419.54
641.54	2409.32
641.954	2409.75
642.368	2391.89
642.781	2379.94
643.195	2351.57
643.609	2361.59
644.022	2358.4
644.436	2359.61
644.849	2343.61
645.262	2328.54
645.676	2340.99
646.089	2337.94
646.502	2309.69
646.915	2305.71
647.328	2277.92
647.741	2279.32
648.154	2256.94
648.567	2252.76
648.98	2227.53
649.393	2231.25
649.805	2226.25
650.218	2212.03
650.631	2181.93
651.043	2173.04
651.456	2162.28
651.868	2168.23
652.28	2210.35
652.693	2244.37
653.105	2264.6
653.517	2290.43
653.929	2295.52
654.341	2312.81
654.753	2288.74
655.165	2306.93
655.577	2305.26
655.989	2300.54
656.401	2288.84
656.813	2210.55
657.224	2169.47
657.636	2109.76
658.047	2071.08
658.459	2033.27
658.87	2018.31
659.282	1999.43
659.693	1956.97
660.104	1929.71
660.515	1902.76
660.926	1899.66
661.338	1896.42
661.749	1886.14
662.159	1866.76
662.57	1862.08
662.981	1852.27
663.392	1836.8
663.803	1843.74
664.213	1838.01
664.624	1826.89
665.035	1833.47
665.445	1803.04
665.855	1783.8
666.266	1762.57
666.676	1754.7
667.086	1730.71
667.497	1724.75
667.907	1705.03
668.317	1681.14
668.727	1665.91
669.137	1664.55
669.547	1653.36
669.956	1654.83
670.366	1655.9
670.776	1654.16
671.186	1659.14
671.595	1660.33
672.005	1663.41
672.414	1658.56
672.824	1650.53
673.233	1659.64
673.642	1657.67
674.052	1660.4
674.461	1657.58
674.87	1662.68
675.279	1651.6
675.688	1651.27
676.097	1649.63
676.506	1638.86
676.915	1665.47
677.323	1669.16
677.732	1661.19
678.141	1658.85
678.549	1635.55
678.958	1635.13
679.366	1634.31
679.775	1647.81
680.183	1669.51
680.592	1685.87
681	1702.36
681.408	1691.83
681.816	1713.09
682.224	1739.15
682.632	1765.78
683.04	1835.55
683.448	1894.98
683.856	1967.9
684.264	2050.03
684.671	2125.97
685.079	2218.06
685.487	2317.01
685.894	2454.43
686.302	2563.69
686.709	2647.12
687.116	2745.04
687.524	2816.09
687.931	2869.85
688.338	2908.75
688.745	2932.71
689.152	2962.12
689.559	3008.08
689.966	3046.31
